SpectraSuite Data File
++++++++++++++++++++++++++++++++++++
Date: Fri May 15 20:36:36 PDT 2015
User: schluterlab
Dark Spectrum Present: Yes
Reference Spectrum Present: Yes
Number of Sampled Component Spectra: 1
Spectrometers: USB2E3373
Integration Time (usec): 3000 (USB2E3373)
Spectra Averaged: 3 (USB2E3373)
Boxcar Smoothing: 0 (USB2E3373)
Correct for Electrical Dark: No (USB2E3373)
Strobe/Lamp Enabled: No (USB2E3373)
Correct for Detector Non-linearity: No (USB2E3373)
Correct for Stray Light: No (USB2E3373)
Number of Pixels in Processed Spectrum: 2048
>>>>>Begin Processed Spectral Data<<<<<
178.53	0.000
178.91	0.000
179.29	-12.500
179.67	-700.000
180.04	-42.857
180.42	125.000
180.80	300.000
181.18	-33.333
181.56	650.000
181.94	0.000
182.31	200.000
182.69	-160.000
183.07	-333.333
183.45	-220.000
183.83	100.000
184.20	-27.273
184.58	-0.000
184.96	-50.000
185.34	166.667
185.72	0.000
186.09	100.000
186.47	-700.000
186.85	133.333
187.23	44.444
187.61	-400.000
187.98	-200.000
188.36	11.111
188.74	-600.000
189.12	-11.765
189.49	-22.222
189.87	0.000
190.25	28.571
190.63	-350.000
191.00	-200.000
191.38	-5.263
191.76	0.000
192.14	50.000
192.51	-150.000
192.89	-44.444
193.27	-128.571
193.65	350.000
194.02	163.636
194.40	80.000
194.78	-162.500
195.15	-8.333
195.53	-87.500
195.91	425.000
196.29	-225.000
196.66	69.231
197.04	28.571
197.42	-11.111
197.79	-733.333
198.17	-84.615
198.55	1500.000
198.92	66.667
199.30	-700.000
199.68	-140.000
200.05	-266.667
200.43	0.000
200.81	-200.000
201.18	-100.000
201.56	1800.000
201.94	-200.000
202.31	100.000
202.69	-140.000
203.07	300.000
203.44	200.000
203.82	0.000
204.19	-57.143
204.57	-600.000
204.95	162.500
205.32	-80.000
205.70	-57.143
206.08	175.000
206.45	111.111
206.83	7.143
207.20	-185.714
207.58	700.000
207.96	-300.000
208.33	-100.000
208.71	-250.000
209.08	-183.333
209.46	-800.000
209.84	80.000
210.21	-400.000
210.59	-100.000
210.96	-100.000
211.34	-150.000
211.71	20.000
212.09	-85.714
212.46	-1200.000
212.84	0.000
213.22	0.000
213.59	550.000
213.97	23.077
214.34	-27.273
214.72	-150.000
215.09	525.000
215.47	-46.154
215.84	-9.091
216.22	-133.333
216.59	-112.500
216.97	0.000
217.34	0.000
217.72	-380.000
218.09	25.000
218.47	237.500
218.84	-800.000
219.22	-122.222
219.59	-80.000
219.97	633.333
220.34	100.000
220.72	57.143
221.09	-175.000
221.47	100.000
221.84	-450.000
222.22	-950.000
222.59	36.364
222.97	75.000
223.34	-233.333
223.72	-57.143
224.09	9.524
224.46	3.571
224.84	566.667
225.21	-40.000
225.59	33.333
225.96	-300.000
226.34	675.000
226.71	-214.286
227.08	-216.667
227.46	-75.000
227.83	-300.000
228.21	-55.556
228.58	18.182
228.95	-50.000
229.33	150.000
229.70	18.750
230.08	-125.000
230.45	-185.714
230.82	57.143
231.20	0.000
231.57	14.286
231.95	28.571
232.32	-100.000
232.69	71.429
233.07	-200.000
233.44	-280.000
233.81	-90.000
234.19	100.000
234.56	41.176
234.93	50.000
235.31	50.000
235.68	-280.000
236.05	0.000
236.43	20.000
236.80	5.882
237.17	25.000
237.55	40.000
237.92	51.852
238.29	27.778
238.67	40.000
239.04	17.647
239.41	4.878
239.79	-16.667
240.16	51.220
240.53	23.684
240.91	28.261
241.28	25.397
241.65	33.929
242.02	34.247
242.40	33.333
242.77	32.203
243.14	18.182
243.51	17.500
243.89	32.184
244.26	33.333
244.63	26.190
245.00	13.402
245.38	36.082
245.75	33.708
246.12	32.759
246.49	31.405
246.87	38.462
247.24	36.134
247.61	22.807
247.98	33.333
248.36	34.375
248.73	34.211
249.10	36.364
249.47	32.911
249.84	31.373
250.22	35.294
250.59	38.562
250.96	35.211
251.33	29.070
251.70	35.294
252.08	36.041
252.45	36.634
252.82	30.151
253.19	35.023
253.56	36.916
253.94	42.342
254.31	33.043
254.68	38.596
255.05	35.039
255.42	39.301
255.79	33.977
256.16	34.241
256.54	36.194
256.91	39.924
257.28	36.059
257.65	34.457
258.02	38.652
258.39	38.721
258.76	35.165
259.14	36.877
259.51	38.835
259.88	31.959
260.25	37.582
260.62	42.014
260.99	35.932
261.36	35.959
261.73	38.608
262.10	35.866
262.47	39.571
262.85	36.991
263.22	36.308
263.59	37.383
263.96	39.441
264.33	35.455
264.70	34.226
265.07	36.310
265.44	37.677
265.81	39.548
266.18	34.973
266.55	38.046
266.92	36.269
267.29	38.381
267.66	37.340
268.03	39.267
268.40	36.815
268.77	39.037
269.14	38.129
269.51	37.789
269.88	35.661
270.25	36.735
270.62	33.902
270.99	35.038
271.36	32.274
271.73	35.446
272.10	34.307
272.47	38.061
272.84	37.129
273.21	34.339
273.58	37.590
273.95	35.927
274.32	35.566
274.69	33.484
275.06	34.598
275.43	36.054
275.80	37.528
276.17	36.552
276.54	34.261
276.91	37.061
277.28	35.371
277.65	33.884
278.02	31.915
278.39	35.230
278.76	33.753
279.13	34.855
279.50	37.395
279.87	34.989
280.23	34.194
280.60	34.503
280.97	35.556
281.34	31.923
281.71	36.550
282.08	33.947
282.45	30.920
282.82	34.363
283.19	35.203
283.56	33.719
283.92	34.915
284.29	35.769
284.66	33.527
285.03	30.452
285.40	33.459
285.77	32.689
286.14	35.560
286.51	36.347
286.87	32.358
287.24	33.702
287.61	31.393
287.98	34.737
288.35	32.062
288.72	31.699
289.08	30.729
289.45	32.513
289.82	31.993
290.19	31.570
290.56	30.875
290.93	32.997
291.29	28.814
291.66	30.394
292.03	28.868
292.40	28.710
292.77	28.708
293.13	22.565
293.50	27.618
293.87	29.466
294.24	28.594
294.60	26.826
294.97	28.423
295.34	27.914
295.71	27.124
296.08	26.457
296.44	24.751
296.81	25.972
297.18	26.667
297.55	26.965
297.91	27.397
298.28	27.573
298.65	24.966
299.02	24.663
299.38	23.393
299.75	24.690
300.12	24.346
300.48	24.374
300.85	24.081
301.22	23.506
301.59	23.289
301.95	24.557
302.32	24.384
302.69	24.005
303.05	24.134
303.42	24.035
303.79	22.780
304.15	24.970
304.52	23.543
304.89	22.339
305.25	23.123
305.62	21.704
305.99	22.105
306.35	23.237
306.72	21.710
307.09	24.743
307.45	22.732
307.82	22.569
308.19	23.577
308.55	22.683
308.92	23.529
309.29	20.670
309.65	21.636
310.02	22.992
310.38	22.393
310.75	23.497
311.12	23.036
311.48	21.739
311.85	21.885
312.22	21.519
312.58	22.293
312.95	19.744
313.31	20.911
313.68	21.675
314.05	22.449
314.41	21.959
314.78	21.649
315.14	21.686
315.51	21.222
315.87	21.516
316.24	22.649
316.61	22.539
316.97	21.627
317.34	21.777
317.70	21.319
318.07	20.865
318.43	21.765
318.80	21.591
319.16	23.340
319.53	21.652
319.89	21.358
320.26	22.470
320.62	22.267
320.99	21.190
321.35	20.349
321.72	22.638
322.08	22.155
322.45	21.726
322.81	21.218
323.18	21.688
323.54	21.815
323.91	21.714
324.27	21.387
324.64	22.004
325.00	22.354
325.37	22.039
325.73	20.671
326.10	22.343
326.46	21.794
326.83	21.785
327.19	21.534
327.56	22.328
327.92	21.743
328.29	21.429
328.65	21.981
329.01	20.864
329.38	23.226
329.74	21.435
330.11	22.614
330.47	21.336
330.84	21.250
331.20	22.529
331.56	21.574
331.93	22.740
332.29	22.273
332.66	20.271
333.02	21.468
333.38	20.440
333.75	21.703
334.11	21.665
334.48	22.393
334.84	21.795
335.20	21.317
335.57	21.578
335.93	21.590
336.29	20.810
336.66	21.253
337.02	20.911
337.38	20.000
337.75	20.636
338.11	21.190
338.47	22.172
338.84	22.274
339.20	20.567
339.56	20.000
339.93	21.038
340.29	20.826
340.65	21.595
341.02	21.277
341.38	21.504
341.74	21.113
342.11	19.671
342.47	20.107
342.83	22.145
343.20	19.861
343.56	20.087
343.92	21.523
344.28	21.435
344.65	21.244
345.01	20.830
345.37	19.933
345.73	22.259
346.10	20.535
346.46	20.942
346.82	19.476
347.19	19.784
347.55	19.799
347.91	20.793
348.27	19.968
348.63	20.869
349.00	20.098
349.36	19.950
349.72	20.232
350.08	20.410
350.45	20.431
350.81	19.767
351.17	19.544
351.53	21.388
351.89	19.488
352.26	20.400
352.62	20.645
352.98	18.876
353.34	18.921
353.70	19.660
354.07	19.597
354.43	18.975
354.79	18.745
355.15	20.397
355.51	20.016
355.87	19.741
356.24	18.597
356.60	18.593
356.96	20.159
357.32	19.010
357.68	18.921
358.04	20.113
358.40	19.293
358.77	19.936
359.13	18.975
359.49	19.260
359.85	18.331
360.21	18.740
360.57	20.046
360.93	19.818
361.29	17.598
361.66	19.122
362.02	19.318
362.38	18.812
362.74	18.849
363.10	18.811
363.46	19.125
363.82	20.135
364.18	19.779
364.54	19.044
364.90	18.566
365.26	17.758
365.62	18.978
365.98	19.575
366.35	19.082
366.71	18.404
367.07	19.086
367.43	18.188
367.79	18.940
368.15	19.742
368.51	18.063
368.87	18.019
369.23	18.267
369.59	17.784
369.95	19.135
370.31	19.436
370.67	18.284
371.03	17.326
371.39	18.527
371.75	18.168
372.11	18.188
372.47	18.047
372.83	18.240
373.19	18.331
373.55	17.545
373.91	18.215
374.27	18.710
374.63	18.665
374.99	17.660
375.35	18.315
375.71	18.042
376.07	18.329
376.42	18.912
376.78	18.993
377.14	18.483
377.50	18.260
377.86	18.340
378.22	17.805
378.58	18.013
378.94	17.643
379.30	18.590
379.66	18.119
380.02	17.781
380.38	16.920
380.74	18.253
381.09	18.344
381.45	17.737
381.81	17.890
382.17	18.147
382.53	16.927
382.89	18.393
383.25	17.548
383.61	18.780
383.97	17.016
384.32	17.699
384.68	17.957
385.04	16.912
385.40	17.486
385.76	17.610
386.12	17.206
386.48	18.966
386.83	17.375
387.19	17.216
387.55	17.754
387.91	17.971
388.27	17.338
388.62	17.621
388.98	17.188
389.34	18.364
389.70	18.272
390.06	17.873
390.42	17.487
390.77	17.528
391.13	16.646
391.49	17.076
391.85	17.219
392.20	17.891
392.56	17.737
392.92	17.322
393.28	16.981
393.64	16.997
393.99	18.746
394.35	16.319
394.71	18.263
395.07	16.845
395.42	16.758
395.78	17.329
396.14	17.907
396.50	17.565
396.85	17.064
397.21	17.669
397.57	17.053
397.92	17.376
398.28	17.471
398.64	16.687
399.00	17.720
399.35	16.930
399.71	17.002
400.07	16.929
400.42	17.503
400.78	17.942
401.14	17.483
401.49	17.094
401.85	16.941
402.21	18.072
402.57	17.813
402.92	16.248
403.28	17.043
403.63	17.339
403.99	17.156
404.35	17.364
404.70	17.262
405.06	17.156
405.42	17.899
405.77	16.676
406.13	17.346
406.49	16.578
406.84	16.870
407.20	17.580
407.55	16.098
407.91	16.310
408.27	17.145
408.62	17.415
408.98	16.636
409.34	17.720
409.69	17.119
410.05	16.502
410.40	16.728
410.76	16.948
411.11	16.813
411.47	18.212
411.83	16.321
412.18	17.246
412.54	16.854
412.89	16.379
413.25	17.088
413.60	17.453
413.96	16.135
414.31	17.439
414.67	16.421
415.03	17.111
415.38	16.580
415.74	18.176
416.09	17.505
416.45	18.096
416.80	17.449
417.16	16.989
417.51	16.922
417.87	16.558
418.22	17.163
418.58	17.057
418.93	16.928
419.29	15.877
419.64	16.397
420.00	17.380
420.35	17.254
420.71	16.829
421.06	17.311
421.42	16.887
421.77	16.590
422.12	16.856
422.48	16.892
422.83	17.111
423.19	16.986
423.54	17.225
423.90	16.667
424.25	16.820
424.61	17.319
424.96	16.318
425.31	16.984
425.67	17.195
426.02	17.138
426.38	17.220
426.73	17.494
427.09	17.911
427.44	17.706
427.79	17.560
428.15	17.840
428.50	16.596
428.85	16.523
429.21	17.487
429.56	17.736
429.92	18.233
430.27	17.644
430.62	16.675
430.98	16.614
431.33	17.192
431.68	16.954
432.04	17.049
432.39	17.056
432.74	17.078
433.10	17.989
433.45	17.622
433.80	17.121
434.16	16.454
434.51	17.258
434.86	17.247
435.22	16.994
435.57	17.155
435.92	16.467
436.28	16.041
436.63	17.855
436.98	16.570
437.34	17.423
437.69	17.829
438.04	16.923
438.39	16.616
438.75	17.061
439.10	17.714
439.45	17.529
439.81	16.881
440.16	16.983
440.51	17.015
440.86	17.644
441.22	17.364
441.57	16.611
441.92	17.419
442.27	17.794
442.63	17.934
442.98	17.346
443.33	17.474
443.68	17.294
444.03	17.983
444.39	17.659
444.74	17.336
445.09	17.261
445.44	17.550
445.79	18.773
446.15	17.291
446.50	17.748
446.85	17.535
447.20	17.049
447.55	17.801
447.91	17.428
448.26	17.928
448.61	18.192
448.96	17.441
449.31	18.266
449.66	17.538
450.02	18.083
450.37	17.131
450.72	17.755
451.07	17.342
451.42	17.541
451.77	17.300
452.12	17.524
452.47	18.158
452.83	18.728
453.18	16.382
453.53	18.205
453.88	17.790
454.23	17.763
454.58	17.569
454.93	18.041
455.28	16.444
455.63	18.103
455.98	18.340
456.34	18.263
456.69	17.408
457.04	18.841
457.39	17.740
457.74	17.956
458.09	17.599
458.44	18.139
458.79	17.871
459.14	17.849
459.49	18.149
459.84	18.556
460.19	17.961
460.54	18.032
460.89	17.841
461.24	17.578
461.59	17.637
461.94	17.421
462.29	19.240
462.64	18.140
462.99	17.874
463.34	17.107
463.69	17.696
464.04	17.736
464.39	17.829
464.74	17.791
465.09	18.216
465.44	18.061
465.79	17.120
466.14	17.503
466.49	17.884
466.84	18.144
467.19	18.398
467.54	17.625
467.89	17.246
468.24	17.214
468.59	18.222
468.94	17.968
469.29	17.508
469.64	18.797
469.99	19.271
470.34	17.133
470.68	18.717
471.03	17.834
471.38	17.689
471.73	17.647
472.08	17.707
472.43	16.644
472.78	17.409
473.13	17.415
473.48	17.980
473.83	17.497
474.17	18.459
474.52	17.167
474.87	17.697
475.22	17.633
475.57	18.295
475.92	18.157
476.27	18.219
476.61	18.576
476.96	17.847
477.31	17.956
477.66	17.978
478.01	17.687
478.36	17.974
478.70	18.325
479.05	18.187
479.40	18.707
479.75	17.779
480.10	17.768
480.45	17.900
480.79	18.681
481.14	18.648
481.49	17.488
481.84	17.954
482.19	18.148
482.53	17.698
482.88	18.186
483.23	18.282
483.58	17.783
483.92	17.667
484.27	17.639
484.62	17.974
484.97	17.910
485.31	17.630
485.66	17.786
486.01	18.110
486.36	17.827
486.70	18.144
487.05	18.785
487.40	18.226
487.75	18.310
488.09	18.541
488.44	18.329
488.79	18.155
489.13	18.830
489.48	18.170
489.83	17.668
490.17	17.798
490.52	17.875
490.87	17.538
491.22	17.717
491.56	17.600
491.91	18.117
492.26	18.182
492.60	17.706
492.95	18.396
493.30	17.636
493.64	17.878
493.99	18.357
494.34	17.913
494.68	17.524
495.03	17.226
495.37	17.861
495.72	17.819
496.07	17.073
496.41	17.972
496.76	17.918
497.11	17.559
497.45	18.329
497.80	18.315
498.14	18.132
498.49	17.979
498.84	17.515
499.18	18.223
499.53	18.800
499.87	17.315
500.22	17.557
500.56	17.448
500.91	18.022
501.26	17.301
501.60	17.413
501.95	17.952
502.29	17.579
502.64	18.678
502.98	18.599
503.33	17.483
503.67	17.349
504.02	17.791
504.36	18.456
504.71	18.030
505.06	17.614
505.40	17.817
505.75	17.577
506.09	18.348
506.44	18.018
506.78	18.367
507.13	17.890
507.47	17.076
507.82	17.415
508.16	18.119
508.51	18.101
508.85	18.367
509.19	17.669
509.54	17.480
509.88	18.015
510.23	17.321
510.57	17.958
510.92	17.804
511.26	17.458
511.61	18.152
511.95	18.740
512.30	18.071
512.64	17.974
512.98	17.855
513.33	18.243
513.67	17.681
514.02	19.451
514.36	18.286
514.70	18.473
515.05	17.450
515.39	17.178
515.74	18.024
516.08	17.693
516.42	18.080
516.77	19.075
517.11	18.160
517.46	17.834
517.80	18.296
518.14	17.636
518.49	18.209
518.83	18.104
519.17	17.404
519.52	17.525
519.86	17.047
520.20	18.894
520.55	17.824
520.89	17.817
521.23	17.226
521.58	18.360
521.92	17.500
522.26	17.697
522.61	17.273
522.95	18.212
523.29	17.344
523.64	18.361
523.98	17.693
524.32	16.753
524.66	17.734
525.01	18.377
525.35	18.859
525.69	18.249
526.04	17.923
526.38	19.001
526.72	16.808
527.06	17.575
527.41	18.074
527.75	17.292
528.09	17.741
528.43	19.446
528.78	17.756
529.12	17.806
529.46	17.349
529.80	18.303
530.15	17.888
530.49	17.374
530.83	18.399
531.17	18.334
531.51	18.331
531.86	17.811
532.20	17.119
532.54	18.856
532.88	19.028
533.22	17.944
533.57	18.611
533.91	18.407
534.25	19.141
534.59	18.024
534.93	17.118
535.27	17.830
535.62	18.665
535.96	18.982
536.30	18.668
536.64	18.884
536.98	18.328
537.32	19.417
537.66	18.724
538.01	17.413
538.35	17.545
538.69	17.976
539.03	17.703
539.37	18.977
539.71	18.678
540.05	19.009
540.39	18.767
540.73	18.410
541.07	18.301
541.42	19.019
541.76	18.858
542.10	17.688
542.44	19.249
542.78	17.068
543.12	18.269
543.46	18.498
543.80	18.737
544.14	17.557
544.48	19.054
544.82	18.113
545.16	19.057
545.50	18.425
545.84	18.130
546.18	20.213
546.52	18.962
546.86	18.116
547.20	18.026
547.54	17.880
547.88	18.750
548.22	18.014
548.56	18.272
548.90	18.935
549.24	17.906
549.58	19.252
549.92	18.656
550.26	19.194
550.60	18.662
550.94	17.849
551.28	19.088
551.62	18.077
551.96	17.444
552.30	18.348
552.64	18.054
552.98	17.862
553.32	18.117
553.66	18.360
554.00	18.978
554.34	18.981
554.68	18.879
555.02	18.452
555.36	18.624
555.69	17.363
556.03	17.773
556.37	18.078
556.71	18.556
557.05	18.121
557.39	17.918
557.73	18.066
558.07	18.627
558.41	18.760
558.75	19.564
559.08	19.070
559.42	17.937
559.76	17.534
560.10	19.113
560.44	18.168
560.78	18.741
561.12	19.111
561.45	18.552
561.79	19.818
562.13	18.382
562.47	18.201
562.81	19.308
563.15	19.182
563.48	19.307
563.82	18.119
564.16	18.175
564.50	18.514
564.84	19.277
565.17	18.511
565.51	19.672
565.85	18.724
566.19	19.098
566.52	19.169
566.86	18.830
567.20	17.808
567.54	19.404
567.88	19.859
568.21	19.683
568.55	18.315
568.89	19.713
569.23	20.125
569.56	19.396
569.90	19.407
570.24	19.501
570.57	19.382
570.91	19.658
571.25	19.402
571.59	18.748
571.92	19.378
572.26	19.263
572.60	19.411
572.93	19.109
573.27	19.216
573.61	19.242
573.95	19.634
574.28	19.280
574.62	19.730
574.96	19.746
575.29	19.435
575.63	18.761
575.97	18.894
576.30	19.455
576.64	19.099
576.98	20.283
577.31	19.341
577.65	19.404
577.98	19.696
578.32	19.625
578.66	19.321
578.99	19.677
579.33	19.410
579.67	19.253
580.00	19.797
580.34	19.602
580.67	19.139
581.01	19.549
581.35	19.229
581.68	19.622
582.02	19.527
582.35	19.183
582.69	19.965
583.02	19.590
583.36	19.778
583.70	19.808
584.03	19.794
584.37	20.017
584.70	20.192
585.04	19.171
585.37	19.730
585.71	19.995
586.04	19.339
586.38	19.499
586.72	20.230
587.05	20.248
587.39	19.961
587.72	19.738
588.06	19.983
588.39	20.222
588.73	20.421
589.06	20.189
589.40	19.461
589.73	20.409
590.07	19.902
590.40	19.737
590.73	19.852
591.07	19.720
591.40	20.036
591.74	20.271
592.07	20.779
592.41	20.186
592.74	19.554
593.08	19.246
593.41	19.473
593.75	19.889
594.08	18.881
594.41	19.396
594.75	19.466
595.08	19.675
595.42	19.544
595.75	20.015
596.09	20.602
596.42	20.794
596.75	20.160
597.09	19.180
597.42	19.828
597.75	20.064
598.09	18.923
598.42	19.449
598.76	19.305
599.09	19.191
599.42	19.515
599.76	19.488
600.09	19.532
600.42	20.167
600.76	18.908
601.09	19.160
601.42	19.115
601.76	19.968
602.09	19.183
602.42	20.388
602.76	19.482
603.09	19.726
603.42	19.565
603.76	19.234
604.09	19.279
604.42	19.924
604.76	19.982
605.09	20.247
605.42	19.639
605.75	19.308
606.09	19.575
606.42	19.850
606.75	20.087
607.09	19.341
607.42	19.229
607.75	19.227
608.08	18.823
608.42	19.370
608.75	19.181
609.08	19.831
609.41	19.492
609.75	19.808
610.08	18.972
610.41	19.275
610.74	19.600
611.07	19.380
611.41	18.786
611.74	19.936
612.07	19.593
612.40	18.928
612.73	19.831
613.07	19.123
613.40	20.405
613.73	19.082
614.06	19.866
614.39	19.571
614.72	18.599
615.06	19.888
615.39	18.504
615.72	18.407
616.05	19.274
616.38	19.145
616.71	18.471
617.05	19.209
617.38	19.233
617.71	19.497
618.04	19.810
618.37	20.429
618.70	19.340
619.03	19.931
619.36	18.307
619.69	19.333
620.03	20.380
620.36	20.887
620.69	18.915
621.02	19.419
621.35	19.004
621.68	20.238
622.01	20.000
622.34	19.633
622.67	19.401
623.00	19.832
623.33	19.665
623.66	18.848
623.99	19.743
624.32	18.935
624.65	18.722
624.99	19.187
625.32	19.788
625.65	19.482
625.98	19.984
626.31	18.537
626.64	20.624
626.97	19.983
627.30	19.615
627.63	19.151
627.96	19.497
628.29	18.594
628.62	19.272
628.95	17.735
629.28	18.347
629.61	18.744
629.94	18.671
630.26	18.083
630.59	18.730
630.92	20.103
631.25	17.949
631.58	17.070
631.91	18.531
632.24	17.546
632.57	19.205
632.90	16.370
633.23	18.706
