SpectraSuite Data File
++++++++++++++++++++++++++++++++++++
Date: Fri May 15 21:09:39 PDT 2015
User: schluterlab
Dark Spectrum Present: Yes
Reference Spectrum Present: Yes
Number of Sampled Component Spectra: 1
Spectrometers: USB2E3373
Integration Time (usec): 3000 (USB2E3373)
Spectra Averaged: 3 (USB2E3373)
Boxcar Smoothing: 0 (USB2E3373)
Correct for Electrical Dark: No (USB2E3373)
Strobe/Lamp Enabled: No (USB2E3373)
Correct for Detector Non-linearity: No (USB2E3373)
Correct for Stray Light: No (USB2E3373)
Number of Pixels in Processed Spectrum: 2048
>>>>>Begin Processed Spectral Data<<<<<
178.53	0.000
178.91	0.000
179.29	62.500
179.67	-550.000
180.04	-71.429
180.42	0.000
180.80	-500.000
181.18	66.667
181.56	100.000
181.94	-100.000
182.31	-100.000
182.69	-40.000
183.07	-333.333
183.45	0.000
183.83	183.333
184.20	-54.545
184.58	77.778
184.96	75.000
185.34	166.667
185.72	-200.000
186.09	69.231
186.47	200.000
186.85	116.667
187.23	133.333
187.61	-200.000
187.98	66.667
188.36	88.889
188.74	-133.333
189.12	35.294
189.49	27.778
189.87	0.000
190.25	21.429
190.63	-250.000
191.00	33.333
191.38	10.526
191.76	150.000
192.14	75.000
192.51	150.000
192.89	-111.111
193.27	-171.429
193.65	200.000
194.02	109.091
194.40	-30.000
194.78	-112.500
195.15	25.000
195.53	0.000
195.91	300.000
196.29	-175.000
196.66	100.000
197.04	28.571
197.42	33.333
197.79	-266.667
198.17	-69.231
198.55	800.000
198.92	-100.000
199.30	200.000
199.68	80.000
200.05	-300.000
200.43	0.000
200.81	-33.333
201.18	-233.333
201.56	1300.000
201.94	-450.000
202.31	-66.667
202.69	-240.000
203.07	425.000
203.44	800.000
203.82	0.000
204.19	28.571
204.57	-400.000
204.95	87.500
205.32	0.000
205.70	-14.286
206.08	-150.000
206.45	55.556
206.83	0.000
207.20	-71.429
207.58	300.000
207.96	-400.000
208.33	-10.000
208.71	-225.000
209.08	-150.000
209.46	400.000
209.84	-140.000
210.21	-800.000
210.59	171.429
210.96	-50.000
211.34	-25.000
211.71	6.667
212.09	-185.714
212.46	-2100.000
212.84	0.000
213.22	80.000
213.59	50.000
213.97	15.385
214.34	0.000
214.72	-133.333
215.09	275.000
215.47	-69.231
215.84	-9.091
216.22	-300.000
216.59	-125.000
216.97	-150.000
217.34	-175.000
217.72	-260.000
218.09	-50.000
218.47	37.500
218.84	-600.000
219.22	-22.222
219.59	-80.000
219.97	266.667
220.34	-50.000
220.72	-14.286
221.09	-225.000
221.47	50.000
221.84	-850.000
222.22	-550.000
222.59	-45.455
222.97	16.667
223.34	-200.000
223.72	-14.286
224.09	4.762
224.46	14.286
224.84	-0.000
225.21	-50.000
225.59	6.667
225.96	-600.000
226.34	425.000
226.71	0.000
227.08	-150.000
227.46	-62.500
227.83	-750.000
228.21	44.444
228.58	18.182
228.95	-50.000
229.33	180.000
229.70	6.250
230.08	-100.000
230.45	-100.000
230.82	114.286
231.20	-26.667
231.57	14.286
231.95	-71.429
232.32	-100.000
232.69	-28.571
233.07	166.667
233.44	-60.000
233.81	-50.000
234.19	22.222
234.56	-5.882
234.93	700.000
235.31	175.000
235.68	-260.000
236.05	-15.385
236.43	-50.000
236.80	-11.765
237.17	0.000
237.55	30.000
237.92	-37.037
238.29	19.444
238.67	-16.667
239.04	-20.588
239.41	-26.829
239.79	3.333
240.16	14.634
240.53	-15.789
240.91	8.696
241.28	19.048
241.65	0.000
242.02	6.849
242.40	16.667
242.77	-11.864
243.14	-6.061
243.51	3.750
243.89	25.287
244.26	2.299
244.63	13.095
245.00	10.309
245.38	6.186
245.75	-1.124
246.12	-6.034
246.49	3.306
246.87	1.923
247.24	-1.681
247.61	-5.263
247.98	0.000
248.36	5.000
248.73	7.895
249.10	8.442
249.47	6.962
249.84	4.575
250.22	2.941
250.59	9.150
250.96	13.615
251.33	0.581
251.70	3.529
252.08	0.508
252.45	1.485
252.82	3.518
253.19	10.138
253.56	3.271
253.94	10.360
254.31	8.261
254.68	10.965
255.05	3.543
255.42	3.493
255.79	1.158
256.16	2.724
256.54	8.582
256.91	4.183
257.28	4.833
257.65	7.116
258.02	1.418
258.39	7.407
258.76	8.425
259.14	6.977
259.51	7.120
259.88	1.031
260.25	6.536
260.62	4.861
260.99	5.085
261.36	2.740
261.73	4.747
262.10	7.599
262.47	8.896
262.85	-0.940
263.22	4.308
263.59	8.100
263.96	6.522
264.33	6.667
264.70	5.655
265.07	3.274
265.44	10.198
265.81	5.085
266.18	7.923
266.55	6.684
266.92	7.513
267.29	7.572
267.66	7.417
268.03	5.497
268.40	6.266
268.77	9.626
269.14	8.633
269.51	7.969
269.88	8.978
270.25	4.082
270.62	7.317
270.99	6.394
271.36	5.623
271.73	7.746
272.10	7.786
272.47	7.801
272.84	8.168
273.21	9.281
273.58	8.193
273.95	8.238
274.32	8.083
274.69	2.941
275.06	8.036
275.43	6.122
275.80	4.415
276.17	5.747
276.54	8.137
276.91	5.482
277.28	5.895
277.65	9.504
278.02	4.894
278.39	3.282
278.76	8.805
279.13	2.697
279.50	9.244
279.87	8.423
280.23	5.806
280.60	8.577
280.97	7.677
281.34	7.500
281.71	8.419
282.08	5.317
282.45	5.088
282.82	4.440
283.19	7.930
283.56	6.551
283.92	5.123
284.29	6.346
284.66	5.039
285.03	7.662
285.40	8.129
285.77	3.339
286.14	5.957
286.51	7.934
286.87	4.570
287.24	4.236
287.61	4.938
287.98	6.667
288.35	5.546
288.72	5.954
289.08	4.861
289.45	5.448
289.82	7.517
290.19	3.925
290.56	6.003
290.93	4.882
291.29	5.393
291.66	6.614
292.03	5.104
292.40	6.290
292.77	5.104
293.13	4.545
293.50	6.070
293.87	5.038
294.24	5.255
294.60	4.620
294.97	5.655
295.34	4.294
295.71	5.961
296.08	5.232
296.44	2.703
296.81	5.278
297.18	4.928
297.55	6.775
297.91	6.027
298.28	7.784
298.65	4.342
299.02	4.178
299.38	3.830
299.75	3.172
300.12	4.058
300.48	5.270
300.85	5.830
301.22	5.325
301.59	4.605
301.95	6.329
302.32	5.837
302.69	3.980
303.05	4.950
303.42	4.483
303.79	6.075
304.15	6.571
304.52	5.232
304.89	4.912
305.25	5.206
305.62	4.434
305.99	3.860
306.35	3.584
306.72	4.724
307.09	5.359
307.45	6.200
307.82	5.208
308.19	6.504
308.55	5.344
308.92	7.625
309.29	4.022
309.65	6.351
310.02	6.271
310.38	5.818
310.75	6.995
311.12	6.889
311.48	5.302
311.85	7.330
312.22	5.169
312.58	7.113
312.95	7.364
313.31	8.178
313.68	7.958
314.05	7.755
314.41	9.381
314.78	7.835
315.14	10.277
315.51	10.248
315.87	9.939
316.24	10.819
316.61	12.303
316.97	12.103
317.34	13.281
317.70	11.950
318.07	13.269
318.43	14.510
318.80	14.773
319.16	14.746
319.53	17.569
319.89	17.126
320.26	17.409
320.62	18.355
320.99	19.207
321.35	20.761
321.72	21.911
322.08	22.558
322.45	23.046
322.81	23.870
323.18	26.006
323.54	27.413
323.91	26.972
324.27	28.613
324.64	31.180
325.00	31.113
325.37	33.058
325.73	32.366
326.10	32.879
326.46	34.978
326.83	36.745
327.19	37.663
327.56	38.836
327.92	39.525
328.29	39.732
328.65	41.509
329.01	43.107
329.38	42.028
329.74	43.909
330.11	45.320
330.47	43.506
330.84	43.462
331.20	47.529
331.56	44.815
331.93	47.671
332.29	48.304
332.66	47.511
333.02	47.398
333.38	48.579
333.75	48.810
334.11	48.344
334.48	48.957
334.84	48.718
335.20	50.595
335.57	49.320
335.93	50.045
336.29	51.565
336.66	51.499
337.02	51.208
337.38	51.111
337.75	52.455
338.11	51.488
338.47	50.730
338.84	53.235
339.20	52.102
339.56	52.294
339.93	52.372
340.29	52.294
340.65	51.882
341.02	54.167
341.38	52.035
341.74	52.562
342.11	53.120
342.47	54.715
342.83	53.287
343.20	53.136
343.56	54.609
343.92	54.384
344.28	54.398
344.65	54.922
345.01	54.451
345.37	54.584
345.73	54.728
346.10	55.306
346.46	54.500
346.82	53.928
347.19	55.029
347.55	56.307
347.91	54.369
348.27	54.568
348.63	55.366
349.00	55.947
349.36	53.948
349.72	56.302
350.08	55.902
350.45	54.749
350.81	55.897
351.17	54.316
351.53	55.755
351.89	54.666
352.26	54.880
352.62	55.806
352.98	53.574
353.34	56.039
353.70	57.686
354.07	55.403
354.43	57.006
354.79	56.400
355.15	56.111
355.51	56.487
355.87	56.392
356.24	54.078
356.60	56.831
356.96	57.540
357.32	56.230
357.68	55.356
358.04	57.108
358.40	56.109
358.77	57.177
359.13	57.326
359.49	55.008
359.85	55.772
360.21	57.257
360.57	56.695
360.93	56.430
361.29	55.211
361.66	56.818
362.02	56.818
362.38	58.111
362.74	57.911
363.10	57.186
363.46	57.598
363.82	57.926
364.18	55.793
364.54	55.735
364.90	58.996
365.26	56.696
365.62	58.613
365.98	58.138
366.35	57.247
366.71	59.497
367.07	58.055
367.43	56.722
367.79	57.809
368.15	56.784
368.51	58.048
368.87	58.004
369.23	55.812
369.59	57.726
369.95	57.991
370.31	58.382
370.67	58.284
371.03	56.460
371.39	56.455
371.75	58.755
372.11	56.705
372.47	58.802
372.83	57.204
373.19	56.919
373.55	57.040
373.91	58.171
374.27	59.036
374.63	59.153
374.99	56.879
375.35	58.287
375.71	58.462
376.07	58.567
376.42	58.231
376.78	58.725
377.14	58.903
377.50	56.839
377.86	58.166
378.22	57.562
378.58	57.756
378.94	58.223
379.30	57.268
379.66	57.429
380.02	57.265
380.38	57.395
380.74	58.229
381.09	57.730
381.45	58.471
381.81	57.680
382.17	57.487
382.53	57.964
382.89	57.815
383.25	58.494
383.61	56.890
383.97	57.714
384.32	58.161
384.68	58.885
385.04	56.740
385.40	57.187
385.76	59.623
386.12	58.409
386.48	58.876
386.83	57.768
387.19	58.852
387.55	59.661
387.91	58.313
388.27	57.326
388.62	58.968
388.98	58.625
389.34	58.463
389.70	58.608
390.06	58.339
390.42	59.650
390.77	57.685
391.13	56.557
391.49	56.404
391.85	59.064
392.20	57.753
392.56	58.551
392.92	58.015
393.28	57.724
393.64	57.598
393.99	58.809
394.35	58.381
394.71	57.088
395.07	56.568
395.42	57.559
395.78	58.111
396.14	56.999
396.50	58.465
396.85	58.017
397.21	56.704
397.57	57.179
397.92	58.538
398.28	58.276
398.64	56.084
399.00	58.014
399.35	56.659
399.71	56.577
400.07	57.557
400.42	55.630
400.78	57.746
401.14	56.927
401.49	57.058
401.85	57.343
402.21	56.627
402.57	56.875
402.92	56.650
403.28	56.892
403.63	58.512
403.99	56.441
404.35	57.589
404.70	55.714
405.06	56.345
405.42	57.178
405.77	55.317
406.13	56.170
406.49	55.891
406.84	56.235
407.20	58.278
407.55	56.021
407.91	57.219
408.27	56.087
408.62	56.123
408.98	55.884
409.34	56.320
409.69	55.879
410.05	55.296
410.40	56.481
410.76	56.152
411.11	54.812
411.47	56.542
411.83	54.426
412.18	55.856
412.54	55.930
412.89	55.111
413.25	56.438
413.60	56.398
413.96	53.681
414.31	55.854
414.67	54.330
415.03	54.660
415.38	54.700
415.74	54.723
416.09	55.519
416.45	55.503
416.80	54.461
417.16	55.318
417.51	53.897
417.87	54.237
418.22	56.606
418.58	55.184
418.93	55.486
419.29	53.265
419.64	55.282
420.00	54.534
420.35	52.478
420.71	54.253
421.06	53.714
421.42	54.868
421.77	53.873
422.12	53.632
422.48	54.142
422.83	53.828
423.19	53.160
423.54	53.204
423.90	53.416
424.25	53.387
424.61	54.345
424.96	52.381
425.31	54.362
425.67	54.930
426.02	54.358
426.38	54.289
426.73	53.632
427.09	54.810
427.44	53.647
427.79	53.919
428.15	52.609
428.50	53.180
428.85	52.887
429.21	53.028
429.56	54.340
429.92	51.669
430.27	50.827
430.62	51.542
430.98	51.380
431.33	51.157
431.68	51.230
432.04	52.767
432.39	50.656
432.74	51.954
433.10	52.759
433.45	52.091
433.80	52.989
434.16	50.914
434.51	51.129
434.86	52.613
435.22	52.047
435.57	53.026
435.92	51.198
436.28	51.580
436.63	51.226
436.98	51.796
437.34	51.664
437.69	52.475
438.04	52.023
438.39	50.458
438.75	51.730
439.10	50.311
439.45	51.309
439.81	51.009
440.16	51.485
440.51	51.642
440.86	52.508
441.22	51.640
441.57	50.607
441.92	50.787
442.27	51.330
442.63	51.124
442.98	50.718
443.33	49.805
443.68	50.504
444.03	50.025
444.39	49.533
444.74	51.226
445.09	49.499
445.44	50.883
445.79	51.109
446.15	49.284
446.50	49.861
446.85	49.362
447.20	49.479
447.55	48.772
447.91	50.536
448.26	50.882
448.61	49.741
448.96	51.291
449.31	50.058
449.66	49.768
450.02	49.515
450.37	50.030
450.72	49.599
451.07	49.494
451.42	48.439
451.77	48.885
452.12	48.624
452.47	49.002
452.83	49.293
453.18	48.703
453.53	49.810
453.88	51.002
454.23	48.433
454.58	50.819
454.93	49.034
455.28	47.810
455.63	49.535
455.98	49.128
456.34	48.595
456.69	49.428
457.04	49.338
457.39	48.542
457.74	48.307
458.09	47.969
458.44	48.449
458.79	48.347
459.14	48.684
459.49	48.776
459.84	47.321
460.19	47.330
460.54	48.778
460.89	48.636
461.24	46.894
461.59	48.337
461.94	47.044
462.29	49.457
462.64	49.037
462.99	47.867
463.34	47.218
463.69	47.683
464.04	47.942
464.39	46.816
464.74	47.239
465.09	47.224
465.44	48.182
465.79	46.315
466.14	46.693
466.49	46.463
466.84	46.817
467.19	47.372
467.54	46.169
467.89	47.252
468.24	46.107
468.59	47.492
468.94	45.905
469.29	46.361
469.64	46.548
469.99	46.181
470.34	45.734
470.68	48.471
471.03	45.931
471.38	46.505
471.73	47.269
472.08	46.811
472.43	47.114
472.78	46.059
473.13	47.007
473.48	46.515
473.83	45.828
474.17	46.308
474.52	45.820
474.87	45.273
475.22	45.088
475.57	45.624
475.92	45.255
476.27	45.809
476.61	45.891
476.96	45.510
477.31	46.133
477.66	45.169
478.01	45.312
478.36	45.806
478.70	45.786
479.05	45.385
479.40	45.257
479.75	43.483
480.10	44.598
480.45	44.100
480.79	44.814
481.14	44.928
481.49	43.300
481.84	44.691
482.19	44.153
482.53	44.077
482.88	43.819
483.23	43.186
483.58	43.113
483.92	43.078
484.27	42.753
484.62	43.478
484.97	43.574
485.31	42.594
485.66	39.925
486.01	39.973
486.36	39.743
486.70	40.378
487.05	40.518
487.40	40.796
487.75	41.493
488.09	41.471
488.44	41.025
488.79	41.913
489.13	42.628
489.48	41.471
489.83	42.646
490.17	42.022
490.52	42.679
490.87	42.156
491.22	42.932
491.56	42.457
491.91	41.922
492.26	41.906
492.60	41.219
492.95	43.138
493.30	41.915
493.64	43.026
493.99	42.174
494.34	40.971
494.68	42.286
495.03	41.314
495.37	42.296
495.72	43.261
496.07	42.000
496.41	41.604
496.76	41.640
497.11	40.289
497.45	41.909
497.80	42.936
498.14	41.679
498.49	42.712
498.84	41.267
499.18	42.068
499.53	41.171
499.87	41.537
500.22	40.307
500.56	41.049
500.91	40.813
501.26	39.348
501.60	40.728
501.95	40.902
502.29	41.211
502.64	40.106
502.98	40.849
503.33	39.962
503.67	40.337
504.02	40.469
504.36	40.574
504.71	40.354
505.06	39.205
505.40	39.289
505.75	40.258
506.09	39.939
506.44	40.657
506.78	40.204
507.13	39.814
507.47	39.060
507.82	39.156
508.16	39.303
508.51	39.192
508.85	40.188
509.19	39.170
509.54	40.322
509.88	39.914
510.23	39.753
510.57	39.391
510.92	38.913
511.26	39.825
511.61	39.879
511.95	39.014
512.30	39.468
512.64	39.677
512.98	39.416
513.33	39.284
513.67	39.113
514.02	39.302
514.36	40.514
514.70	40.035
515.05	39.718
515.39	39.728
515.74	40.838
516.08	40.227
516.42	40.283
516.77	40.374
517.11	39.881
517.46	40.215
517.80	39.511
518.14	39.682
518.49	39.123
518.83	39.550
519.17	39.478
519.52	37.774
519.86	38.055
520.20	40.097
520.55	38.649
520.89	40.025
521.23	38.759
521.58	40.505
521.92	39.615
522.26	39.362
522.61	38.961
522.95	40.066
523.29	38.437
523.64	39.009
523.98	39.339
524.32	38.982
524.66	39.437
525.01	39.351
525.35	38.950
525.69	38.182
526.04	38.029
526.38	39.429
526.72	36.887
527.06	37.873
527.41	39.710
527.75	38.405
528.09	37.010
528.43	38.758
528.78	37.558
529.12	37.355
529.46	38.207
529.80	36.795
530.15	38.020
530.49	37.306
530.83	38.030
531.17	37.273
531.51	37.962
531.86	37.254
532.20	37.091
532.54	37.645
532.88	37.714
533.22	37.970
533.57	36.828
533.91	36.423
534.25	37.044
534.59	35.920
534.93	35.872
535.27	35.089
535.62	36.617
535.96	36.399
536.30	36.675
536.64	36.251
536.98	35.889
537.32	37.482
537.66	38.149
538.01	35.524
538.35	34.951
538.69	35.486
539.03	35.065
539.37	36.070
539.71	35.515
540.05	35.642
540.39	37.050
540.73	36.123
541.07	36.395
541.42	35.753
541.76	36.339
542.10	35.582
542.44	35.997
542.78	34.962
543.12	34.890
543.46	35.605
543.80	35.808
544.14	34.379
544.48	34.111
544.82	34.928
545.16	35.314
545.50	34.112
545.84	35.694
546.18	34.965
546.52	35.328
546.86	34.867
547.20	35.265
547.54	33.640
547.88	33.967
548.22	32.610
548.56	33.641
548.90	33.423
549.24	33.471
549.58	33.780
549.92	33.238
550.26	34.359
550.60	35.613
550.94	33.757
551.28	33.308
551.62	33.846
551.96	33.383
552.30	33.772
552.64	32.793
552.98	32.911
553.32	33.880
553.66	31.713
554.00	33.796
554.34	33.530
554.68	33.260
555.02	34.301
555.36	33.882
555.69	33.114
556.03	32.477
556.37	32.171
556.71	33.863
557.05	33.333
557.39	31.450
557.73	32.759
558.07	34.012
558.41	33.384
558.75	33.359
559.08	32.703
559.42	33.413
559.76	33.707
560.10	32.339
560.44	31.720
560.78	32.378
561.12	32.511
561.45	31.413
561.79	31.092
562.13	31.938
562.47	32.014
562.81	32.709
563.15	31.735
563.48	31.895
563.82	32.601
564.16	32.173
564.50	30.878
564.84	31.593
565.17	31.858
565.51	32.104
565.85	30.864
566.19	31.565
566.52	31.836
566.86	32.519
567.20	29.950
567.54	29.866
567.88	30.521
568.21	30.430
568.55	29.783
568.89	28.953
569.23	28.358
569.56	28.590
569.90	28.745
570.24	27.540
570.57	27.855
570.91	27.815
571.25	26.472
571.59	27.126
571.92	26.726
572.26	26.449
572.60	26.171
572.93	26.953
573.27	26.270
573.61	26.521
573.95	26.297
574.28	25.212
574.62	25.477
574.96	25.455
575.29	25.215
575.63	24.618
575.97	24.858
576.30	25.302
576.64	25.219
576.98	25.611
577.31	24.601
577.65	25.046
577.98	25.423
578.32	24.171
578.66	24.350
578.99	24.988
579.33	24.881
579.67	24.779
580.00	25.013
580.34	24.801
580.67	24.975
581.01	24.424
581.35	24.634
581.68	24.267
582.02	24.059
582.35	23.825
582.69	24.309
583.02	24.012
583.36	24.722
583.70	24.766
584.03	24.937
584.37	25.155
584.70	24.148
585.04	23.964
585.37	24.201
585.71	23.871
586.04	23.727
586.38	23.926
586.72	24.304
587.05	24.899
587.39	24.350
587.72	24.904
588.06	24.356
588.39	24.409
588.73	25.092
589.06	25.473
589.40	24.819
589.73	25.009
590.07	25.831
590.40	25.967
590.73	25.535
591.07	25.360
591.40	25.557
591.74	25.520
592.07	26.206
592.41	26.148
592.74	24.851
593.08	23.961
593.41	24.415
593.75	23.716
594.08	23.996
594.41	24.272
594.75	24.504
595.08	23.988
595.42	24.770
595.75	24.747
596.09	24.980
596.42	25.093
596.75	25.355
597.09	24.966
597.42	24.661
597.75	25.011
598.09	25.396
598.42	24.007
598.76	24.410
599.09	24.159
599.42	24.327
599.76	23.589
600.09	23.793
600.42	24.299
600.76	23.291
601.09	23.817
601.42	23.737
601.76	24.097
602.09	24.257
602.42	24.094
602.76	24.024
603.09	24.045
603.42	24.540
603.76	23.629
604.09	23.734
604.42	23.773
604.76	24.433
605.09	23.812
605.42	24.786
605.75	23.818
606.09	23.185
606.42	23.686
606.75	22.641
607.09	24.352
607.42	23.172
607.75	22.513
608.08	22.642
608.42	23.481
608.75	24.578
609.08	23.717
609.41	24.619
609.75	23.992
610.08	24.363
610.41	23.768
610.74	23.403
611.07	24.444
611.41	24.338
611.74	24.840
612.07	23.287
612.40	24.508
612.73	24.237
613.07	24.297
613.40	24.891
613.73	24.063
614.06	24.374
614.39	23.971
614.72	23.641
615.06	24.246
615.39	24.290
615.72	23.143
616.05	23.855
616.38	22.906
616.71	24.709
617.05	23.842
617.38	24.324
617.71	24.906
618.04	24.889
618.37	24.968
618.70	25.479
619.03	26.111
619.36	24.891
619.69	25.474
620.03	26.297
620.36	24.392
620.69	24.411
621.02	24.618
621.35	26.556
621.68	26.190
622.01	25.917
622.34	25.140
622.67	25.237
623.00	25.191
623.33	25.838
623.66	24.533
623.99	25.719
624.32	24.259
624.65	23.459
624.99	24.981
625.32	23.882
625.65	25.766
625.98	25.302
626.31	25.021
626.64	26.430
626.97	25.654
627.30	26.357
627.63	25.390
627.96	26.685
628.29	25.994
628.62	28.122
628.95	26.152
629.28	27.117
629.61	25.723
629.94	26.002
630.26	27.273
630.59	27.263
630.92	28.308
631.25	26.667
631.58	26.322
631.91	26.425
632.24	26.950
632.57	28.864
632.90	26.928
633.23	28.824
633.56	28.589
633.89	28.607
634.22	27.037
634.55	27.827
634.88	29.119
635.20	28.205
635.53	27.600
635.86	28.349
636.19	29.366
636.52	27.551
636.85	26.303
637.18	26.038
637.51	27.044
