SpectraSuite Data File
++++++++++++++++++++++++++++++++++++
Date: Fri May 15 20:52:52 PDT 2015
User: schluterlab
Dark Spectrum Present: Yes
Reference Spectrum Present: Yes
Number of Sampled Component Spectra: 1
Spectrometers: USB2E3373
Integration Time (usec): 3000 (USB2E3373)
Spectra Averaged: 3 (USB2E3373)
Boxcar Smoothing: 0 (USB2E3373)
Correct for Electrical Dark: No (USB2E3373)
Strobe/Lamp Enabled: No (USB2E3373)
Correct for Detector Non-linearity: No (USB2E3373)
Correct for Stray Light: No (USB2E3373)
Number of Pixels in Processed Spectrum: 2048
>>>>>Begin Processed Spectral Data<<<<<
178.53	0.000
178.91	0.000
179.29	75.000
179.67	-200.000
180.04	28.571
180.42	75.000
180.80	200.000
181.18	233.333
181.56	250.000
181.94	-200.000
182.31	-400.000
182.69	-80.000
183.07	-100.000
183.45	-40.000
183.83	233.333
184.20	-18.182
184.58	66.667
184.96	-0.000
185.34	33.333
185.72	-550.000
186.09	38.462
186.47	-600.000
186.85	183.333
187.23	133.333
187.61	400.000
187.98	-66.667
188.36	11.111
188.74	-133.333
189.12	17.647
189.49	16.667
189.87	0.000
190.25	14.286
190.63	-50.000
191.00	-133.333
191.38	26.316
191.76	300.000
192.14	25.000
192.51	350.000
192.89	-100.000
193.27	-128.571
193.65	116.667
194.02	163.636
194.40	20.000
194.78	-125.000
195.15	-83.333
195.53	25.000
195.91	525.000
196.29	-250.000
196.66	123.077
197.04	114.286
197.42	0.000
197.79	-833.333
198.17	46.154
198.55	700.000
198.92	-300.000
199.30	-500.000
199.68	-260.000
200.05	-500.000
200.43	0.000
200.81	0.000
201.18	266.667
201.56	1100.000
201.94	-200.000
202.31	33.333
202.69	-180.000
203.07	500.000
203.44	-300.000
203.82	0.000
204.19	-14.286
204.57	-366.667
204.95	175.000
205.32	-30.000
205.70	0.000
206.08	-175.000
206.45	144.444
206.83	64.286
207.20	-200.000
207.58	500.000
207.96	100.000
208.33	-70.000
208.71	25.000
209.08	-216.667
209.46	-800.000
209.84	-180.000
210.21	-1300.000
210.59	-14.286
210.96	-150.000
211.34	-25.000
211.71	-53.333
212.09	-28.571
212.46	-1300.000
212.84	0.000
213.22	80.000
213.59	800.000
213.97	53.846
214.34	18.182
214.72	-133.333
215.09	175.000
215.47	-46.154
215.84	9.091
216.22	-400.000
216.59	-37.500
216.97	300.000
217.34	-125.000
217.72	-160.000
218.09	75.000
218.47	187.500
218.84	-700.000
219.22	33.333
219.59	40.000
219.97	366.667
220.34	225.000
220.72	71.429
221.09	-100.000
221.47	100.000
221.84	-1000.000
222.22	-450.000
222.59	18.182
222.97	50.000
223.34	-100.000
223.72	-71.429
224.09	28.571
224.46	14.286
224.84	500.000
225.21	-50.000
225.59	46.667
225.96	-400.000
226.34	425.000
226.71	-42.857
227.08	-66.667
227.46	-75.000
227.83	-400.000
228.21	22.222
228.58	27.273
228.95	-100.000
229.33	70.000
229.70	-25.000
230.08	-137.500
230.45	-100.000
230.82	157.143
231.20	-13.333
231.57	14.286
231.95	-114.286
232.32	-90.000
232.69	-14.286
233.07	66.667
233.44	-100.000
233.81	-10.000
234.19	-33.333
234.56	-35.294
234.93	350.000
235.31	25.000
235.68	-380.000
236.05	-23.077
236.43	-45.000
236.80	-5.882
237.17	9.375
237.55	30.000
237.92	3.704
238.29	5.556
238.67	46.667
239.04	2.941
239.41	-4.878
239.79	0.000
240.16	21.951
240.53	2.632
240.91	8.696
241.28	31.746
241.65	41.071
242.02	20.548
242.40	18.333
242.77	16.949
243.14	22.727
243.51	36.250
243.89	40.230
244.26	19.540
244.63	25.000
245.00	28.866
245.38	23.711
245.75	11.236
246.12	20.690
246.49	18.182
246.87	29.808
247.24	18.487
247.61	18.421
247.98	17.073
248.36	22.500
248.73	26.974
249.10	18.831
249.47	25.316
249.84	28.758
250.22	20.000
250.59	22.222
250.96	20.657
251.33	20.930
251.70	21.765
252.08	17.766
252.45	20.297
252.82	23.116
253.19	31.336
253.56	18.224
253.94	24.324
254.31	21.304
254.68	19.737
255.05	22.441
255.42	21.834
255.79	25.097
256.16	22.179
256.54	24.627
256.91	22.053
257.28	22.677
257.65	20.225
258.02	19.149
258.39	21.549
258.76	27.473
259.14	26.910
259.51	23.948
259.88	24.399
260.25	21.569
260.62	20.833
260.99	23.051
261.36	18.493
261.73	22.468
262.10	21.884
262.47	24.233
262.85	19.436
263.22	21.231
263.59	24.299
263.96	24.534
264.33	23.636
264.70	22.619
265.07	23.512
265.44	22.663
265.81	24.576
266.18	22.404
266.55	23.136
266.92	25.130
267.29	25.065
267.66	24.041
268.03	24.084
268.40	21.410
268.77	26.203
269.14	20.384
269.51	25.193
269.88	20.948
270.25	21.429
270.62	19.024
270.99	20.972
271.36	20.293
271.73	23.709
272.10	22.871
272.47	25.059
272.84	19.554
273.21	25.754
273.58	19.759
273.95	24.256
274.32	21.940
274.69	19.457
275.06	25.000
275.43	21.088
275.80	23.179
276.17	22.989
276.54	20.985
276.91	22.368
277.28	19.214
277.65	23.967
278.02	22.766
278.39	22.538
278.76	20.964
279.13	17.842
279.50	20.588
279.87	22.462
280.23	20.000
280.60	22.612
280.97	23.030
281.34	21.154
281.71	22.587
282.08	20.245
282.45	22.309
282.82	22.973
283.19	21.277
283.56	21.965
283.92	21.632
284.29	19.808
284.66	19.961
285.03	19.843
285.40	21.739
285.77	17.926
286.14	21.480
286.51	19.926
286.87	18.830
287.24	18.969
287.61	19.753
287.98	22.281
288.35	19.931
288.72	21.891
289.08	21.528
289.45	20.035
289.82	19.406
290.19	20.990
290.56	19.554
290.93	20.370
291.29	17.257
291.66	20.315
292.03	19.458
292.40	17.742
292.77	18.341
293.13	15.422
293.50	16.844
293.87	18.015
294.24	18.547
294.60	18.629
294.97	18.006
295.34	18.252
295.71	18.331
296.08	17.638
296.44	16.216
296.81	16.111
297.18	17.101
297.55	18.293
297.91	17.534
298.28	19.261
298.65	16.825
299.02	16.577
299.38	15.869
299.75	16.552
300.12	16.230
300.48	16.996
300.85	16.223
301.22	15.974
301.59	15.789
301.95	15.949
302.32	19.196
302.69	16.169
303.05	17.079
303.42	17.559
303.79	16.822
304.15	17.563
304.52	16.171
304.89	15.673
305.25	15.738
305.62	16.453
305.99	16.023
306.35	16.069
306.72	15.523
307.09	17.560
307.45	16.648
307.82	17.593
308.19	18.583
308.55	15.594
308.92	18.301
309.29	16.983
309.65	15.931
310.02	17.162
310.38	17.892
310.75	16.940
311.12	16.685
311.48	17.603
311.85	16.649
312.22	17.511
312.58	15.287
312.95	16.435
313.31	15.114
313.68	17.382
314.05	18.571
314.41	18.454
314.78	18.041
315.14	18.808
315.51	18.116
315.87	17.111
316.24	19.009
316.61	18.307
316.97	20.040
317.34	18.555
317.70	19.503
318.07	19.423
318.43	19.510
318.80	17.519
319.16	20.410
319.53	20.418
319.89	19.193
320.26	20.243
320.62	20.261
320.99	20.251
321.35	20.966
321.72	20.976
322.08	21.551
322.45	21.218
322.81	21.120
323.18	20.412
323.54	21.042
323.91	22.103
324.27	21.582
324.64	22.285
325.00	22.993
325.37	23.600
325.73	21.578
326.10	24.432
326.46	24.036
326.83	23.710
327.19	23.017
327.56	24.153
327.92	24.472
328.29	24.375
328.65	24.151
329.01	24.908
329.38	24.516
329.74	22.285
330.11	25.857
330.47	24.119
330.84	24.904
331.20	26.806
331.56	24.259
331.93	26.575
332.29	25.298
332.66	26.154
333.02	25.186
333.38	25.665
333.75	27.198
334.11	25.067
334.48	26.020
334.84	26.190
335.20	24.977
335.57	24.660
335.93	25.565
336.29	25.691
336.66	25.522
337.02	25.558
337.38	24.537
337.75	25.636
338.11	26.150
338.47	26.551
338.84	25.046
339.20	25.868
339.56	25.046
339.93	27.305
340.29	26.330
340.65	26.523
341.02	26.950
341.38	25.487
341.74	25.442
342.11	25.217
342.47	25.267
342.83	26.038
343.20	25.784
343.56	26.000
343.92	25.952
344.28	25.448
344.65	25.389
345.01	26.102
345.37	25.147
345.73	25.690
346.10	27.524
346.46	27.334
346.82	25.123
347.19	24.855
347.55	25.731
347.91	26.861
348.27	25.546
348.63	26.746
349.00	24.610
349.36	25.436
349.72	26.534
350.08	25.984
350.45	26.097
350.81	26.080
351.17	25.244
351.53	26.449
351.89	24.773
352.26	25.840
352.62	26.290
352.98	24.578
353.34	25.604
353.70	26.052
354.07	26.532
354.43	25.140
354.79	25.186
355.15	26.508
355.51	26.028
355.87	26.375
356.24	25.612
356.60	24.252
356.96	27.143
357.32	25.639
357.68	25.489
358.04	26.252
358.40	26.447
358.77	26.794
359.13	26.101
359.49	26.348
359.85	25.897
360.21	26.316
360.57	25.708
360.93	27.005
361.29	25.453
361.66	25.549
362.02	27.121
362.38	26.885
362.74	25.889
363.10	27.464
363.46	26.464
363.82	27.348
364.18	27.011
364.54	26.691
364.90	27.742
365.26	26.274
365.62	27.445
365.98	27.346
366.35	26.948
366.71	27.421
367.07	28.012
367.43	27.247
367.79	26.996
368.15	27.782
368.51	25.710
368.87	27.064
369.23	26.787
369.59	27.405
369.95	27.053
370.31	28.324
370.67	27.761
371.03	26.587
371.39	27.279
371.75	27.839
372.11	27.532
372.47	28.402
372.83	28.815
373.19	28.745
373.55	28.087
373.91	28.366
374.27	28.987
374.63	29.289
374.99	27.234
375.35	29.248
375.71	29.790
376.07	29.143
376.42	28.844
376.78	29.128
377.14	27.962
377.50	29.283
377.86	30.120
378.22	28.590
378.58	29.551
378.94	28.922
379.30	29.694
379.66	30.533
380.02	29.859
380.38	28.850
380.74	28.845
381.09	30.859
381.45	30.581
381.81	30.167
382.17	29.695
382.53	30.543
382.89	31.513
383.25	29.932
383.61	30.427
383.97	29.651
384.32	29.706
384.68	30.279
385.04	29.657
385.40	30.492
385.76	32.201
386.12	31.113
386.48	31.737
386.83	30.755
387.19	31.380
387.55	32.434
387.91	30.623
388.27	31.136
388.62	31.970
388.98	31.185
389.34	31.355
389.70	31.697
390.06	30.334
390.42	31.218
390.77	32.178
391.13	31.778
391.49	32.406
391.85	32.619
392.20	31.011
392.56	31.405
392.92	31.180
393.28	31.663
393.64	31.051
393.99	32.727
394.35	31.879
394.71	32.248
395.07	31.113
395.42	32.423
395.78	31.987
396.14	31.526
396.50	32.594
396.85	32.196
397.21	32.581
397.57	31.975
397.92	31.576
398.28	31.034
398.64	32.048
399.00	31.659
399.35	31.038
399.71	33.199
400.07	32.044
400.42	31.946
400.78	32.394
401.14	31.700
401.49	32.341
401.85	31.261
402.21	32.048
402.57	31.938
402.92	31.368
403.28	31.955
403.63	31.652
403.99	31.441
404.35	33.542
404.70	30.774
405.06	31.199
405.42	31.324
405.77	31.145
406.13	31.665
406.49	31.676
406.84	32.029
407.20	30.765
407.55	31.423
407.91	30.816
408.27	30.848
408.62	31.200
408.98	32.286
409.34	32.280
409.69	31.654
410.05	31.158
410.40	31.790
410.76	31.785
411.11	31.063
411.47	32.479
411.83	31.199
412.18	31.403
412.54	31.211
412.89	30.665
413.25	31.528
413.60	31.304
413.96	30.920
414.31	31.098
414.67	31.046
415.03	31.358
415.38	31.658
415.74	31.792
416.09	31.287
416.45	31.600
416.80	30.800
417.16	31.492
417.51	31.113
417.87	31.421
418.22	32.966
418.58	31.505
418.93	32.476
419.29	30.218
419.64	32.016
420.00	32.620
420.35	31.582
420.71	31.774
421.06	31.799
421.42	31.971
421.77	31.965
422.12	30.931
422.48	31.456
422.83	31.323
423.19	31.998
423.54	31.158
423.90	31.213
424.25	32.549
424.61	32.069
424.96	32.114
425.31	33.507
425.67	31.749
426.02	33.098
426.38	31.309
426.73	32.627
427.09	33.228
427.44	32.471
427.79	31.939
428.15	32.524
428.50	32.162
428.85	32.248
429.21	32.654
429.56	33.154
429.92	32.871
430.27	32.682
430.62	32.201
430.98	32.803
431.33	33.438
431.68	32.862
432.04	32.979
432.39	31.489
432.74	31.569
433.10	33.966
433.45	32.796
433.80	32.966
434.16	32.355
434.51	32.634
434.86	33.914
435.22	32.866
435.57	33.624
435.92	34.012
436.28	32.856
436.63	33.143
436.98	31.981
437.34	33.273
437.69	33.333
438.04	32.251
438.39	32.376
438.75	33.455
439.10	32.881
439.45	34.145
439.81	32.538
440.16	33.967
440.51	34.030
440.86	34.562
441.22	33.428
441.57	33.168
441.92	35.152
442.27	33.647
442.63	34.529
442.98	34.406
443.33	34.057
443.68	33.846
444.03	33.830
444.39	34.137
444.74	34.894
445.09	33.853
445.44	34.758
445.79	35.482
446.15	33.811
446.50	34.387
446.85	33.688
447.20	34.567
447.55	34.877
447.91	34.405
448.26	35.572
448.61	35.406
448.96	34.710
449.31	33.526
449.66	35.192
450.02	33.999
450.37	35.270
450.72	33.906
451.07	35.380
451.42	33.895
451.77	34.780
452.12	34.330
452.47	34.449
452.83	35.630
453.18	34.788
453.53	35.082
453.88	34.669
454.23	35.464
454.58	35.390
454.93	35.696
455.28	34.349
455.63	36.206
455.98	34.155
456.34	35.121
456.69	34.752
457.04	35.035
457.39	33.961
457.74	34.220
458.09	33.490
458.44	35.167
458.79	34.342
459.14	35.240
459.49	34.567
459.84	34.574
460.19	36.286
460.54	35.086
460.89	34.148
461.24	35.652
461.59	34.204
461.94	34.151
462.29	34.560
462.64	35.415
462.99	34.259
463.34	33.727
463.69	34.299
464.04	34.443
464.39	33.778
464.74	34.663
465.09	34.997
465.44	34.853
465.79	32.710
466.14	34.436
466.49	33.985
466.84	33.908
467.19	34.543
467.54	33.461
467.89	34.365
468.24	33.698
468.59	35.429
468.94	33.714
469.29	35.016
469.64	34.381
469.99	34.548
470.34	33.106
470.68	36.167
471.03	35.740
471.38	34.094
471.73	34.384
472.08	33.175
472.43	34.362
472.78	34.270
473.13	33.878
473.48	32.834
473.83	33.998
474.17	34.521
474.52	34.014
474.87	33.636
475.22	33.435
475.57	33.879
475.92	34.723
476.27	33.586
476.61	34.549
476.96	32.850
477.31	33.640
477.66	33.708
478.01	33.745
478.36	32.407
478.70	34.584
479.05	33.681
479.40	33.916
479.75	32.847
480.10	33.641
480.45	32.750
480.79	33.887
481.14	33.760
481.49	33.596
481.84	33.784
482.19	32.741
482.53	33.285
482.88	33.222
483.23	32.486
483.58	33.066
483.92	31.994
484.27	32.726
484.62	33.303
484.97	31.633
485.31	32.478
485.66	31.435
486.01	32.135
486.36	32.232
486.70	32.505
487.05	32.388
487.40	32.213
487.75	31.465
488.09	30.995
488.44	31.190
488.79	31.715
489.13	32.212
489.48	31.680
489.83	31.883
490.17	31.416
490.52	31.963
490.87	31.513
491.22	31.996
491.56	31.784
491.91	31.501
492.26	31.648
492.60	30.902
492.95	32.514
493.30	31.461
493.64	32.024
493.99	32.802
494.34	31.408
494.68	31.048
495.03	31.046
495.37	31.207
495.72	31.752
496.07	31.268
496.41	31.274
496.76	31.506
497.11	30.415
497.45	31.790
497.80	30.979
498.14	31.048
498.49	31.386
498.84	30.838
499.18	30.974
499.53	32.192
499.87	30.496
500.22	30.613
500.56	31.669
500.91	30.522
501.26	30.845
501.60	30.152
501.95	30.665
502.29	31.283
502.64	30.936
502.98	30.932
503.33	30.548
503.67	29.976
504.02	30.499
504.36	30.381
504.71	29.697
505.06	30.096
505.40	29.746
505.75	30.000
506.09	29.954
506.44	31.314
506.78	31.173
507.13	30.869
507.47	30.026
507.82	29.541
508.16	30.111
508.51	30.010
508.85	30.194
509.19	28.898
509.54	30.402
509.88	29.396
510.23	29.693
510.57	30.251
510.92	29.051
511.26	29.678
511.61	29.978
511.95	30.192
512.30	29.712
512.64	29.716
512.98	30.095
513.33	29.771
513.67	29.505
514.02	30.492
514.36	29.657
514.70	29.545
515.05	30.611
515.39	29.870
515.74	29.940
516.08	29.707
516.42	30.271
516.77	30.076
517.11	29.436
517.46	29.623
517.80	28.784
518.14	28.904
518.49	29.026
518.83	29.648
519.17	28.441
519.52	28.774
519.86	29.172
520.20	30.073
520.55	29.081
520.89	29.674
521.23	28.752
521.58	29.527
521.92	29.103
522.26	28.627
522.61	28.831
522.95	29.470
523.29	29.416
523.64	29.543
523.98	29.164
524.32	28.222
524.66	27.849
525.01	29.221
525.35	28.581
525.69	27.744
526.04	27.579
526.38	29.053
526.72	27.273
527.06	26.524
527.41	28.496
527.75	28.016
528.09	28.771
528.43	28.562
528.78	27.393
529.12	27.871
529.46	28.135
529.80	27.296
530.15	28.515
530.49	27.744
530.83	28.454
531.17	27.267
531.51	29.001
531.86	27.192
532.20	26.792
532.54	28.251
532.88	28.063
533.22	27.688
533.57	27.785
533.91	26.436
534.25	28.060
534.59	26.748
534.93	26.369
535.27	25.635
535.62	25.924
535.96	26.941
536.30	27.704
536.64	26.809
536.98	26.551
537.32	28.450
537.66	28.261
538.01	27.203
538.35	26.352
538.69	26.565
539.03	26.931
539.37	26.312
539.71	26.312
540.05	25.662
540.39	26.870
540.73	27.127
541.07	26.588
541.42	27.218
541.76	26.290
542.10	26.566
542.44	26.407
542.78	24.570
543.12	25.618
543.46	26.912
543.80	26.232
544.14	24.633
544.48	25.916
544.82	25.427
545.16	26.844
545.50	26.302
545.84	26.558
546.18	25.390
546.52	25.955
546.86	25.162
547.20	26.681
547.54	25.088
547.88	25.272
548.22	24.589
548.56	25.660
548.90	25.606
549.24	25.000
549.58	25.529
549.92	24.375
550.26	25.421
550.60	25.279
550.94	25.915
551.28	25.039
551.62	24.538
551.96	24.812
552.30	25.219
552.64	23.836
552.98	24.191
553.32	25.036
553.66	24.964
554.00	24.818
554.34	24.889
554.68	23.525
555.02	25.446
555.36	24.907
555.69	23.810
556.03	23.697
556.37	24.484
556.71	24.765
557.05	24.236
557.39	23.494
557.73	24.663
558.07	25.566
558.41	24.349
558.75	25.487
559.08	23.719
559.42	24.921
559.76	24.980
560.10	25.306
560.44	23.157
560.78	23.986
561.12	23.977
561.45	24.596
561.79	24.160
562.13	23.989
562.47	24.532
562.81	22.839
563.15	24.471
563.48	23.479
563.82	24.846
564.16	24.443
564.50	23.649
564.84	23.360
565.17	23.139
565.51	24.727
565.85	24.623
566.19	24.337
566.52	23.794
566.86	24.486
567.20	23.225
567.54	23.844
567.88	24.194
568.21	23.473
568.55	23.533
568.89	24.076
569.23	23.255
569.56	23.205
569.90	23.346
570.24	22.776
570.57	23.273
570.91	23.318
571.25	22.854
571.59	22.080
571.92	22.104
572.26	22.434
572.60	22.233
572.93	22.309
573.27	22.257
573.61	22.375
573.95	22.447
574.28	21.345
574.62	21.714
574.96	21.915
575.29	21.807
575.63	21.508
575.97	21.930
576.30	21.788
576.64	21.325
576.98	22.111
577.31	22.290
577.65	22.271
577.98	22.126
578.32	21.814
578.66	21.191
578.99	21.502
579.33	21.234
579.67	21.146
580.00	21.443
580.34	21.642
580.67	21.068
581.01	21.566
581.35	21.490
581.68	21.649
582.02	21.435
582.35	21.003
582.69	21.621
583.02	21.213
583.36	21.410
583.70	21.443
584.03	21.935
584.37	21.767
584.70	21.429
585.04	20.777
585.37	20.958
585.71	20.908
586.04	21.230
586.38	20.832
586.72	21.722
587.05	21.577
587.39	20.772
587.72	21.514
588.06	21.146
588.39	21.532
588.73	21.825
589.06	21.559
589.40	20.947
589.73	21.431
590.07	21.299
590.40	21.014
590.73	21.540
591.07	20.823
591.40	21.416
591.74	21.086
592.07	21.475
592.41	20.936
592.74	20.868
593.08	21.132
593.41	20.758
593.75	21.394
594.08	20.735
594.41	20.706
594.75	20.802
595.08	21.075
595.42	20.758
595.75	20.991
596.09	21.110
596.42	20.670
596.75	20.604
597.09	20.364
597.42	20.370
597.75	20.751
598.09	20.733
598.42	20.623
598.76	20.892
599.09	20.393
599.42	19.932
599.76	20.429
600.09	20.098
600.42	20.773
600.76	20.319
601.09	20.076
601.42	20.290
601.76	20.603
602.09	20.586
602.42	20.303
602.76	20.756
603.09	20.764
603.42	20.610
603.76	20.121
604.09	19.522
604.42	20.474
604.76	20.472
605.09	21.024
605.42	20.497
605.75	20.622
606.09	20.255
606.42	19.933
606.75	20.000
607.09	20.527
607.42	19.982
607.75	19.272
608.08	20.036
608.42	19.278
608.75	19.904
609.08	19.681
609.41	19.949
609.75	19.708
610.08	20.369
610.41	19.662
610.74	19.844
611.07	19.948
611.41	20.187
611.74	19.776
612.07	19.807
612.40	20.241
612.73	19.831
613.07	19.404
613.40	19.967
613.73	18.914
614.06	20.145
614.39	20.079
614.72	19.776
615.06	20.056
615.39	19.760
615.72	19.214
616.05	19.888
616.38	19.145
616.71	18.899
617.05	19.889
617.38	19.987
617.71	19.308
618.04	20.508
618.37	20.555
618.70	19.934
619.03	20.347
619.36	19.392
619.69	20.394
620.03	21.037
620.36	20.601
620.69	19.343
621.02	19.343
621.35	19.751
621.68	19.813
622.01	19.250
622.34	20.271
622.67	20.426
623.00	19.755
623.33	19.588
623.66	19.521
623.99	19.970
624.32	19.924
624.65	18.797
624.99	20.993
625.32	19.257
625.65	20.974
625.98	19.984
626.31	19.867
626.64	19.931
626.97	20.506
627.30	19.877
627.63	20.451
627.96	19.766
628.29	19.334
628.62	20.354
628.95	19.038
629.28	20.565
629.61	19.641
629.94	20.332
630.26	19.960
630.59	20.291
630.92	20.615
631.25	20.103
631.58	19.604
631.91	18.969
632.24	20.528
632.57	19.205
632.90	20.285
633.23	20.000
