SpectraSuite Data File
++++++++++++++++++++++++++++++++++++
Date: Fri May 15 21:04:57 PDT 2015
User: schluterlab
Dark Spectrum Present: Yes
Reference Spectrum Present: Yes
Number of Sampled Component Spectra: 1
Spectrometers: USB2E3373
Integration Time (usec): 3000 (USB2E3373)
Spectra Averaged: 3 (USB2E3373)
Boxcar Smoothing: 0 (USB2E3373)
Correct for Electrical Dark: No (USB2E3373)
Strobe/Lamp Enabled: No (USB2E3373)
Correct for Detector Non-linearity: No (USB2E3373)
Correct for Stray Light: No (USB2E3373)
Number of Pixels in Processed Spectrum: 2048
>>>>>Begin Processed Spectral Data<<<<<
178.53	0.000
178.91	0.000
179.29	12.500
179.67	-950.000
180.04	42.857
180.42	-225.000
180.80	-800.000
181.18	-66.667
181.56	800.000
181.94	-350.000
182.31	900.000
182.69	-100.000
183.07	-433.333
183.45	-160.000
183.83	316.667
184.20	-27.273
184.58	66.667
184.96	-175.000
185.34	66.667
185.72	-300.000
186.09	146.154
186.47	-1200.000
186.85	183.333
187.23	188.889
187.61	500.000
187.98	-166.667
188.36	-11.111
188.74	-500.000
189.12	17.647
189.49	-5.556
189.87	0.000
190.25	21.429
190.63	-100.000
191.00	-233.333
191.38	-31.579
191.76	0.000
192.14	350.000
192.51	100.000
192.89	-66.667
193.27	-128.571
193.65	216.667
194.02	181.818
194.40	-30.000
194.78	-137.500
195.15	8.333
195.53	-187.500
195.91	425.000
196.29	-100.000
196.66	92.308
197.04	57.143
197.42	-66.667
197.79	-166.667
198.17	-100.000
198.55	400.000
198.92	-266.667
199.30	1200.000
199.68	-220.000
200.05	-233.333
200.43	0.000
200.81	-366.667
201.18	-33.333
201.56	1200.000
201.94	-200.000
202.31	400.000
202.69	-360.000
203.07	500.000
203.44	200.000
203.82	0.000
204.19	28.571
204.57	-533.333
204.95	75.000
205.32	-70.000
205.70	-157.143
206.08	-400.000
206.45	55.556
206.83	-14.286
207.20	-142.857
207.58	900.000
207.96	-300.000
208.33	-150.000
208.71	-150.000
209.08	-283.333
209.46	-900.000
209.84	-20.000
210.21	-100.000
210.59	-128.571
210.96	-66.667
211.34	-100.000
211.71	46.667
212.09	-242.857
212.46	-1200.000
212.84	0.000
213.22	10.000
213.59	750.000
213.97	7.692
214.34	18.182
214.72	-100.000
215.09	500.000
215.47	-38.462
215.84	-72.727
216.22	-133.333
216.59	-137.500
216.97	-100.000
217.34	-225.000
217.72	-280.000
218.09	0.000
218.47	137.500
218.84	-1500.000
219.22	-66.667
219.59	-240.000
219.97	266.667
220.34	475.000
220.72	-128.571
221.09	-100.000
221.47	-250.000
221.84	-500.000
222.22	-800.000
222.59	27.273
222.97	0.000
223.34	-533.333
223.72	-85.714
224.09	-23.810
224.46	17.857
224.84	300.000
225.21	-50.000
225.59	-73.333
225.96	-1300.000
226.34	250.000
226.71	-200.000
227.08	-200.000
227.46	-50.000
227.83	-550.000
228.21	-122.222
228.58	-72.727
228.95	-250.000
229.33	80.000
229.70	12.500
230.08	-175.000
230.45	-114.286
230.82	-100.000
231.20	-53.333
231.57	-28.571
231.95	-128.571
232.32	-100.000
232.69	-42.857
233.07	-33.333
233.44	-160.000
233.81	-20.000
234.19	0.000
234.56	-23.529
234.93	600.000
235.31	25.000
235.68	-100.000
236.05	-100.000
236.43	-50.000
236.80	-35.294
237.17	56.250
237.55	-30.000
237.92	-18.519
238.29	22.222
238.67	3.333
239.04	-26.471
239.41	-17.073
239.79	20.000
240.16	0.000
240.53	2.632
240.91	-15.217
241.28	7.937
241.65	5.357
242.02	17.808
242.40	5.000
242.77	10.169
243.14	-3.030
243.51	1.250
243.89	22.989
244.26	-1.149
244.63	15.476
245.00	12.371
245.38	14.433
245.75	10.112
246.12	10.345
246.49	23.967
246.87	17.308
247.24	12.605
247.61	13.158
247.98	10.569
248.36	11.875
248.73	13.158
249.10	5.195
249.47	13.924
249.84	8.497
250.22	17.059
250.59	20.915
250.96	14.085
251.33	4.651
251.70	12.353
252.08	10.152
252.45	16.337
252.82	10.050
253.19	16.129
253.56	10.280
253.94	11.261
254.31	8.696
254.68	11.842
255.05	13.780
255.42	15.284
255.79	10.425
256.16	15.175
256.54	13.433
256.91	13.688
257.28	16.729
257.65	10.487
258.02	13.475
258.39	12.458
258.76	15.751
259.14	14.618
259.51	13.916
259.88	10.997
260.25	12.092
260.62	14.931
260.99	9.153
261.36	8.562
261.73	13.291
262.10	13.678
262.47	13.804
262.85	13.793
263.22	14.154
263.59	15.888
263.96	11.801
264.33	12.727
264.70	14.286
265.07	13.095
265.44	17.847
265.81	11.017
266.18	14.481
266.55	15.681
266.92	15.285
267.29	16.188
267.66	15.345
268.03	13.613
268.40	13.577
268.77	18.449
269.14	15.348
269.51	14.653
269.88	13.466
270.25	15.306
270.62	15.366
270.99	11.765
271.36	10.758
271.73	14.085
272.10	15.085
272.47	13.239
272.84	15.842
273.21	11.833
273.58	15.181
273.95	13.959
274.32	12.702
274.69	14.706
275.06	13.839
275.43	10.204
275.80	16.336
276.17	13.793
276.54	13.490
276.91	14.474
277.28	13.100
277.65	11.364
278.02	14.681
278.39	12.035
278.76	13.627
279.13	10.996
279.50	12.185
279.87	15.551
280.23	13.548
280.60	13.255
280.97	13.333
281.34	13.462
281.71	14.374
282.08	12.679
282.45	9.980
282.82	11.390
283.19	13.926
283.56	13.295
283.92	11.765
284.29	11.923
284.66	10.078
285.03	13.163
285.40	13.233
285.77	10.896
286.14	12.996
286.51	12.915
286.87	13.163
287.24	13.260
287.61	12.875
287.98	14.035
288.35	13.518
288.72	13.310
289.08	11.632
289.45	13.181
289.82	12.063
290.19	10.239
290.56	10.635
290.93	10.438
291.29	11.402
291.66	11.339
292.03	13.238
292.40	10.645
292.77	11.643
293.13	8.117
293.50	9.256
293.87	12.672
294.24	11.283
294.60	12.668
294.97	12.649
295.34	11.810
295.71	9.836
296.08	10.314
296.44	8.535
296.81	9.861
297.18	11.304
297.55	10.705
297.91	10.274
298.28	11.478
298.65	11.262
299.02	9.704
299.38	8.892
299.75	10.621
300.12	10.079
300.48	8.827
300.85	9.125
301.22	9.870
301.59	10.000
301.95	11.392
302.32	10.636
302.69	9.328
303.05	9.406
303.42	9.340
303.79	10.864
304.15	9.558
304.52	7.372
304.89	9.357
305.25	8.111
305.62	8.518
305.99	9.006
306.35	9.364
306.72	8.549
307.09	9.920
307.45	9.644
307.82	8.912
308.19	9.756
308.55	8.833
308.92	10.022
309.29	7.598
309.65	9.150
310.02	9.021
310.38	9.330
310.75	10.383
311.12	8.934
311.48	10.074
311.85	8.272
312.22	8.544
312.58	8.599
312.95	8.645
313.31	9.006
313.68	9.738
314.05	8.980
314.41	10.722
314.78	9.691
315.14	10.380
315.51	11.905
315.87	10.246
316.24	11.729
316.61	11.024
316.97	11.210
317.34	11.230
317.70	9.560
318.07	11.250
318.43	11.667
318.80	12.027
319.16	12.500
319.53	13.580
319.89	12.992
320.26	13.664
320.62	14.443
320.99	12.213
321.35	13.875
321.72	13.915
322.08	15.609
322.45	15.736
322.81	16.503
323.18	16.192
323.54	16.409
323.91	16.164
324.27	18.262
324.64	17.978
325.00	19.252
325.37	19.651
325.73	18.404
326.10	21.344
326.46	21.525
326.83	21.347
327.19	22.755
327.56	22.937
327.92	22.359
328.29	21.518
328.65	25.377
329.01	22.886
329.38	23.134
329.74	25.212
330.11	24.930
330.47	23.840
330.84	25.481
331.20	26.141
331.56	24.815
331.93	26.667
332.29	26.214
332.66	27.059
333.02	25.836
333.38	26.489
333.75	28.480
334.11	25.515
334.48	27.924
334.84	26.648
335.20	28.545
335.57	26.655
335.93	28.455
336.29	28.269
336.66	29.246
337.02	27.509
337.38	27.778
337.75	28.818
338.11	28.043
338.47	29.653
338.84	29.205
339.20	28.245
339.56	28.073
339.93	28.827
340.29	29.358
340.65	30.556
341.02	28.723
341.38	29.469
341.74	28.445
342.11	27.123
342.47	29.004
342.83	30.277
343.20	28.833
343.56	31.217
343.92	30.292
344.28	31.255
344.65	30.138
345.01	29.818
345.37	30.278
345.73	30.126
346.10	30.112
346.46	30.446
346.82	29.624
347.19	29.343
347.55	30.493
347.91	31.392
348.27	30.719
348.63	30.664
349.00	30.107
349.36	29.510
349.72	31.924
350.08	31.230
350.45	30.806
350.81	30.482
351.17	29.886
351.53	31.347
351.89	30.718
352.26	31.440
352.62	31.532
352.98	31.406
353.34	32.448
353.70	32.524
354.07	31.210
354.43	31.145
354.79	31.709
355.15	32.222
355.51	32.991
355.87	33.010
356.24	31.240
356.60	31.770
356.96	33.730
357.32	32.029
357.68	31.900
358.04	32.068
358.40	32.717
358.77	33.573
359.13	32.986
359.49	31.433
359.85	32.917
360.21	33.014
360.57	33.359
360.93	33.737
361.29	32.100
361.66	33.699
362.02	32.576
362.38	33.816
362.74	33.081
363.10	33.484
363.46	33.432
363.82	34.485
364.18	33.358
364.54	33.456
364.90	33.190
365.26	34.571
365.62	35.255
365.98	34.384
366.35	34.450
366.71	35.625
367.07	35.269
367.43	34.004
367.79	35.901
368.15	35.176
368.51	34.086
368.87	34.530
369.23	34.729
369.59	35.569
369.95	35.924
370.31	35.621
370.67	35.522
371.03	36.445
371.39	35.667
371.75	35.604
372.11	36.377
372.47	35.725
372.83	36.622
373.19	35.449
373.55	34.874
373.91	36.285
374.27	36.712
374.63	35.319
374.99	36.667
375.35	36.072
375.71	37.832
376.07	37.640
376.42	36.463
376.78	36.174
377.14	36.019
377.50	35.923
377.86	37.282
378.22	37.524
378.58	37.564
378.94	35.791
379.30	37.180
379.66	37.179
380.02	36.726
380.38	36.153
380.74	36.505
381.09	38.466
381.45	37.064
381.81	37.940
382.17	37.881
382.53	37.726
382.89	37.853
383.25	39.017
383.61	38.780
383.97	38.921
384.32	38.274
384.68	38.576
385.04	37.868
385.40	37.586
385.76	38.931
386.12	38.228
386.48	38.442
386.83	39.505
387.19	38.584
387.55	40.025
387.91	38.631
388.27	39.072
388.62	38.704
388.98	38.735
389.34	39.288
389.70	39.030
390.06	38.200
390.42	38.666
390.77	37.999
391.13	39.029
391.49	38.357
391.85	38.661
392.20	39.234
392.56	38.907
392.92	39.460
393.28	40.389
393.64	39.399
393.99	40.627
394.35	39.911
394.71	39.974
395.07	38.026
395.42	38.130
395.78	39.609
396.14	39.092
396.50	39.569
396.85	38.571
397.21	38.784
397.57	39.687
397.92	40.443
398.28	40.057
398.64	38.494
399.00	39.616
399.35	37.585
399.71	39.001
400.07	39.480
400.42	37.882
400.78	40.171
401.14	39.141
401.49	38.892
401.85	39.062
402.21	39.157
402.57	39.500
402.92	38.206
403.28	38.910
403.63	38.588
403.99	37.946
404.35	39.288
404.70	38.750
405.06	38.778
405.42	38.720
405.77	37.769
406.13	38.300
406.49	38.780
406.84	38.386
407.20	39.554
407.55	38.377
407.91	37.901
408.27	39.069
408.62	38.523
408.98	39.187
409.34	38.538
409.69	38.760
410.05	37.315
410.40	38.333
410.76	39.264
411.11	37.687
411.47	38.593
411.83	38.167
412.18	38.674
412.54	38.390
412.89	37.131
413.25	38.387
413.60	39.006
413.96	37.853
414.31	37.988
414.67	37.652
415.03	38.482
415.38	37.533
415.74	38.111
416.09	37.622
416.45	38.217
416.80	37.409
417.16	37.914
417.51	38.175
417.87	37.158
418.22	37.370
418.58	37.258
418.93	39.060
419.29	36.300
419.64	38.885
420.00	39.358
420.35	36.657
420.71	38.396
421.06	38.183
421.42	37.861
421.77	38.844
422.12	37.344
422.48	37.899
422.83	36.311
423.19	36.964
423.54	36.919
423.90	36.749
424.25	37.887
424.61	36.720
424.96	37.515
425.31	37.955
425.67	35.974
426.02	37.691
426.38	37.508
426.73	36.501
427.09	37.468
427.44	37.235
427.79	36.123
428.15	36.529
428.50	38.340
428.85	36.794
429.21	36.955
429.56	37.898
429.92	36.158
430.27	36.591
430.62	36.330
430.98	36.783
431.33	37.329
431.68	35.636
432.04	36.948
432.39	36.110
432.74	35.298
433.10	36.782
433.45	35.544
433.80	36.100
434.16	34.737
434.51	36.559
434.86	36.353
435.22	36.343
435.57	36.681
435.92	35.808
436.28	35.420
436.63	35.881
436.98	35.226
437.34	36.237
437.69	35.719
438.04	35.328
438.39	33.842
438.75	35.762
439.10	35.031
439.45	36.640
439.81	35.596
440.16	36.164
440.51	35.403
440.86	36.495
441.22	35.860
441.57	35.099
441.92	35.624
442.27	35.200
442.63	36.938
442.98	36.760
443.33	34.446
443.68	35.491
444.03	35.668
444.39	35.268
444.74	35.842
445.09	34.354
445.44	35.214
445.79	35.946
446.15	34.086
446.50	34.609
446.85	34.644
447.20	34.724
447.55	33.873
447.91	34.631
448.26	34.604
448.61	35.291
448.96	34.538
449.31	34.277
449.66	34.901
450.02	34.512
450.37	33.847
450.72	33.849
451.07	35.000
451.42	34.082
451.77	34.298
452.12	33.493
452.47	33.741
452.83	34.511
453.18	33.713
453.53	34.260
453.88	34.730
454.23	33.620
454.58	34.698
454.93	35.438
455.28	32.762
455.63	34.036
455.98	33.734
456.34	33.716
456.69	33.291
457.04	33.585
457.39	33.536
457.74	33.132
458.09	31.725
458.44	33.470
458.79	32.101
459.14	33.524
459.49	33.493
459.84	33.164
460.19	31.978
460.54	32.824
460.89	33.011
461.24	32.298
461.59	32.957
461.94	33.019
462.29	32.871
462.64	33.223
462.99	32.295
463.34	31.989
463.69	31.853
464.04	32.930
464.39	32.626
464.74	31.656
465.09	32.190
465.44	32.833
465.79	31.519
466.14	31.585
466.49	31.512
466.84	32.064
467.19	31.915
467.54	31.098
467.89	31.207
468.24	31.144
468.59	32.317
468.94	30.730
469.29	32.066
469.64	30.554
469.99	32.656
470.34	30.990
470.68	31.842
471.03	30.998
471.38	31.384
471.73	31.443
472.08	30.190
472.43	30.671
472.78	29.883
473.13	30.068
473.48	30.293
473.83	30.262
474.17	30.959
474.52	31.015
474.87	30.303
475.22	30.018
475.57	29.701
475.92	29.896
476.27	29.744
476.61	30.556
476.96	28.946
477.31	30.395
477.66	29.888
478.01	30.432
478.36	27.996
478.70	30.071
479.05	30.275
479.40	28.458
479.75	29.041
480.10	28.571
480.45	29.250
480.79	30.060
481.14	29.150
481.49	27.980
481.84	28.861
482.19	29.373
482.53	29.065
482.88	28.592
483.23	28.743
483.58	28.160
483.92	28.654
484.27	27.666
484.62	27.880
484.97	27.363
485.31	27.384
485.66	26.061
486.01	27.323
486.36	27.575
486.70	27.640
487.05	27.920
487.40	27.689
487.75	27.493
488.09	27.287
488.44	27.063
488.79	27.606
489.13	27.484
489.48	26.635
489.83	26.951
490.17	26.067
490.52	26.882
490.87	26.932
491.22	27.077
491.56	26.613
491.91	26.338
492.26	27.419
492.60	27.303
492.95	26.955
493.30	26.185
493.64	26.670
493.99	25.942
494.34	26.262
494.68	26.190
495.03	25.499
495.37	25.810
495.72	26.401
496.07	25.756
496.41	25.896
496.76	25.979
497.11	25.198
497.45	26.301
497.80	25.883
498.14	25.037
498.49	25.444
498.84	25.749
499.18	25.552
499.53	25.744
499.87	24.416
500.22	25.025
500.56	25.719
500.91	24.598
501.26	24.419
501.60	25.381
501.95	25.570
502.29	24.988
502.64	26.062
502.98	24.963
503.33	23.871
503.67	24.530
504.02	25.464
504.36	25.433
504.71	24.444
505.06	24.358
505.40	24.721
505.75	24.639
506.09	24.683
506.44	24.897
506.78	24.694
507.13	24.147
507.47	23.342
507.82	23.825
508.16	23.930
508.51	23.977
508.85	23.914
509.19	23.097
509.54	24.611
509.88	23.840
510.23	24.368
510.57	24.425
510.92	22.761
511.26	23.841
511.61	24.257
511.95	23.890
512.30	24.224
512.64	23.984
512.98	23.077
513.33	23.895
513.67	23.707
514.02	24.600
514.36	24.114
514.70	23.951
515.05	24.207
515.39	22.727
515.74	23.832
516.08	23.431
516.42	23.439
516.77	23.171
517.11	22.967
517.46	23.339
517.80	23.778
518.14	23.148
518.49	23.137
518.83	22.600
519.17	22.559
519.52	22.617
519.86	21.909
520.20	22.783
520.55	23.077
520.89	22.898
521.23	22.546
521.58	23.344
521.92	22.692
522.26	23.162
522.61	22.662
522.95	22.583
523.29	22.300
523.64	22.427
523.98	22.813
524.32	23.196
524.66	23.560
525.01	23.182
525.35	22.878
525.69	22.492
526.04	22.354
526.38	24.254
526.72	22.302
527.06	22.049
527.41	22.559
527.75	22.855
528.09	22.259
528.43	22.282
528.78	22.244
529.12	22.581
529.46	22.222
529.80	22.546
530.15	22.640
530.49	22.357
530.83	21.341
531.17	21.827
531.51	22.367
531.86	20.802
532.20	22.129
532.54	21.715
532.88	22.519
533.22	21.169
533.57	20.970
533.91	20.039
534.25	22.852
534.59	22.065
534.93	20.579
535.27	20.812
535.62	21.257
535.96	21.657
536.30	21.636
536.64	21.502
536.98	20.697
537.32	22.048
537.66	21.388
538.01	20.350
538.35	21.914
538.69	20.905
539.03	20.027
539.37	20.794
539.71	21.132
540.05	20.367
540.39	21.468
540.73	19.944
541.07	20.580
541.42	22.581
541.76	21.129
542.10	21.473
542.44	20.917
542.78	19.683
543.12	19.849
543.46	20.306
543.80	21.096
544.14	19.760
544.48	20.253
544.82	19.412
545.16	20.697
545.50	20.828
545.84	20.397
546.18	20.993
546.52	20.476
546.86	20.705
547.20	19.814
547.54	18.445
547.88	19.226
548.22	19.066
548.56	19.591
548.90	20.350
549.24	19.972
549.58	20.028
549.92	18.942
550.26	20.073
550.60	20.074
550.94	19.642
551.28	18.624
551.62	20.154
551.96	19.248
552.30	19.225
552.64	19.535
552.98	18.987
553.32	19.900
553.66	19.086
554.00	19.051
554.34	19.055
554.68	18.215
555.02	18.155
555.36	19.596
555.69	18.095
556.03	18.630
556.37	18.648
556.71	18.917
557.05	18.867
557.39	17.993
557.73	18.141
558.07	17.798
558.41	18.989
558.75	19.486
559.08	18.834
559.42	18.968
559.76	17.774
560.10	18.731
560.44	17.647
560.78	18.601
561.12	18.618
561.45	19.396
561.79	18.627
562.13	18.240
562.47	18.921
562.81	18.444
563.15	18.829
563.48	17.680
563.82	17.845
564.16	19.290
564.50	18.243
564.84	19.277
565.17	17.371
565.51	18.374
565.85	18.107
566.19	18.568
566.52	18.700
566.86	19.537
567.20	18.120
567.54	18.674
567.88	18.043
568.21	18.665
568.55	18.859
568.89	18.275
569.23	18.633
569.56	17.207
569.90	18.555
570.24	17.492
570.57	17.600
570.91	18.055
571.25	17.428
571.59	17.253
571.92	17.096
572.26	17.271
572.60	16.992
572.93	16.881
573.27	17.179
573.61	17.333
573.95	17.449
574.28	16.949
574.62	17.264
574.96	17.153
575.29	17.718
575.63	16.455
575.97	16.644
576.30	16.924
576.64	16.424
576.98	17.143
577.31	17.302
577.65	17.271
577.98	17.265
578.32	16.976
578.66	16.377
578.99	16.940
579.33	16.588
579.67	16.932
580.00	17.190
580.34	16.766
580.67	16.568
581.01	16.979
581.35	16.085
581.68	16.985
582.02	16.425
582.35	16.639
582.69	16.615
583.02	16.492
583.36	16.962
583.70	17.471
584.03	17.292
584.37	17.278
584.70	16.374
585.04	16.010
585.37	16.413
585.71	16.144
586.04	16.188
586.38	16.218
586.72	16.643
587.05	16.320
587.39	16.746
587.72	16.648
588.06	16.800
588.39	16.747
588.73	17.002
589.06	17.025
589.40	17.007
589.73	17.525
590.07	16.843
590.40	16.950
590.73	16.969
591.07	17.006
591.40	16.696
591.74	16.335
592.07	16.698
592.41	16.917
592.74	16.288
593.08	16.451
593.41	16.376
593.75	16.061
594.08	16.375
594.41	16.739
594.75	16.679
595.08	16.686
595.42	16.010
595.75	16.710
596.09	16.927
596.42	16.205
596.75	16.874
597.09	16.310
597.42	16.125
597.75	16.170
598.09	15.980
598.42	16.336
598.76	15.830
599.09	16.226
599.42	15.915
599.76	15.538
600.09	15.573
600.42	16.035
600.76	16.085
601.09	15.954
601.42	16.099
601.76	15.919
602.09	16.089
602.42	16.596
602.76	15.789
603.09	16.113
603.42	16.472
603.76	15.645
604.09	14.986
604.42	16.201
604.76	16.333
605.09	15.859
605.42	15.756
605.75	15.499
606.09	15.711
606.42	15.179
606.75	15.584
607.09	15.824
607.42	15.773
607.75	15.719
608.08	15.858
608.42	15.852
608.75	15.470
609.08	16.193
609.41	15.736
609.75	15.726
610.08	14.928
610.41	15.604
610.74	15.700
611.07	15.762
611.41	16.347
611.74	16.951
612.07	15.685
612.40	16.028
612.73	15.480
613.07	15.073
613.40	16.138
613.73	15.221
614.06	16.639
614.39	15.736
614.72	15.294
615.06	15.363
615.39	15.502
615.72	15.178
616.05	15.698
616.38	14.701
616.71	15.841
617.05	15.133
617.38	16.468
617.71	15.346
618.04	15.619
618.37	16.583
618.70	15.578
619.03	16.181
619.36	15.412
619.69	16.149
620.03	16.654
620.36	15.379
620.69	15.774
621.02	15.520
621.35	15.353
621.68	15.646
622.01	15.083
622.34	17.239
622.67	16.325
623.00	15.773
623.33	15.473
623.66	15.408
623.99	15.507
624.32	15.970
624.65	14.962
624.99	15.500
625.32	15.315
625.65	16.889
625.98	16.600
626.31	14.298
626.64	15.078
626.97	16.230
627.30	16.025
627.63	16.551
627.96	15.633
628.29	16.096
628.62	15.044
628.95	15.130
629.28	15.121
629.61	15.753
629.94	16.520
630.26	15.514
630.59	15.505
630.92	15.590
631.25	14.564
631.58	15.749
631.91	15.022
632.24	15.252
632.57	16.591
632.90	15.184
633.23	15.647
633.56	13.980
