SpectraSuite Data File
++++++++++++++++++++++++++++++++++++
Date: Fri May 15 20:52:44 PDT 2015
User: schluterlab
Dark Spectrum Present: Yes
Reference Spectrum Present: Yes
Number of Sampled Component Spectra: 1
Spectrometers: USB2E3373
Integration Time (usec): 3000 (USB2E3373)
Spectra Averaged: 3 (USB2E3373)
Boxcar Smoothing: 0 (USB2E3373)
Correct for Electrical Dark: No (USB2E3373)
Strobe/Lamp Enabled: No (USB2E3373)
Correct for Detector Non-linearity: No (USB2E3373)
Correct for Stray Light: No (USB2E3373)
Number of Pixels in Processed Spectrum: 2048
>>>>>Begin Processed Spectral Data<<<<<
178.53	0.000
178.91	0.000
179.29	25.000
179.67	-550.000
180.04	-42.857
180.42	75.000
180.80	-900.000
181.18	300.000
181.56	400.000
181.94	300.000
182.31	400.000
182.69	-20.000
183.07	-166.667
183.45	140.000
183.83	150.000
184.20	-36.364
184.58	11.111
184.96	-25.000
185.34	-100.000
185.72	-550.000
186.09	115.385
186.47	-700.000
186.85	16.667
187.23	144.444
187.61	200.000
187.98	-133.333
188.36	111.111
188.74	100.000
189.12	58.824
189.49	38.889
189.87	0.000
190.25	57.143
190.63	100.000
191.00	-400.000
191.38	-84.211
191.76	600.000
192.14	125.000
192.51	300.000
192.89	-88.889
193.27	-128.571
193.65	216.667
194.02	90.909
194.40	20.000
194.78	62.500
195.15	-125.000
195.53	-212.500
195.91	375.000
196.29	-225.000
196.66	69.231
197.04	185.714
197.42	-55.556
197.79	-433.333
198.17	-115.385
198.55	1100.000
198.92	-233.333
199.30	-900.000
199.68	-220.000
200.05	-400.000
200.43	0.000
200.81	-433.333
201.18	66.667
201.56	1200.000
201.94	-900.000
202.31	300.000
202.69	-220.000
203.07	-25.000
203.44	-600.000
203.82	0.000
204.19	-35.714
204.57	-333.333
204.95	-62.500
205.32	20.000
205.70	0.000
206.08	75.000
206.45	111.111
206.83	100.000
207.20	-142.857
207.58	1100.000
207.96	-333.333
208.33	-40.000
208.71	75.000
209.08	-166.667
209.46	-500.000
209.84	0.000
210.21	-900.000
210.59	-42.857
210.96	-50.000
211.34	175.000
211.71	-6.667
212.09	-142.857
212.46	-1500.000
212.84	0.000
213.22	-10.000
213.59	400.000
213.97	-46.154
214.34	9.091
214.72	-166.667
215.09	425.000
215.47	-15.385
215.84	-18.182
216.22	0.000
216.59	75.000
216.97	0.000
217.34	-25.000
217.72	-220.000
218.09	-62.500
218.47	200.000
218.84	-600.000
219.22	-55.556
219.59	0.000
219.97	266.667
220.34	250.000
220.72	-57.143
221.09	-175.000
221.47	0.000
221.84	-700.000
222.22	-700.000
222.59	-27.273
222.97	50.000
223.34	-533.333
223.72	-14.286
224.09	57.143
224.46	14.286
224.84	566.667
225.21	30.000
225.59	0.000
225.96	-600.000
226.34	425.000
226.71	-100.000
227.08	0.000
227.46	-50.000
227.83	-750.000
228.21	-44.444
228.58	-54.545
228.95	-50.000
229.33	130.000
229.70	31.250
230.08	-62.500
230.45	-142.857
230.82	-57.143
231.20	60.000
231.57	92.857
231.95	-42.857
232.32	-120.000
232.69	0.000
233.07	100.000
233.44	-80.000
233.81	-70.000
234.19	-66.667
234.56	35.294
234.93	650.000
235.31	75.000
235.68	-120.000
236.05	-15.385
236.43	-30.000
236.80	76.471
237.17	3.125
237.55	-5.000
237.92	3.704
238.29	5.556
238.67	-13.333
239.04	5.882
239.41	-31.707
239.79	13.333
240.16	12.195
240.53	5.263
240.91	13.043
241.28	15.873
241.65	35.714
242.02	27.397
242.40	25.000
242.77	27.119
243.14	27.273
243.51	20.000
243.89	33.333
244.26	12.644
244.63	9.524
245.00	17.526
245.38	23.711
245.75	26.966
246.12	27.586
246.49	32.231
246.87	21.154
247.24	21.849
247.61	25.439
247.98	19.512
248.36	18.750
248.73	26.316
249.10	20.130
249.47	24.684
249.84	21.569
250.22	28.824
250.59	33.333
250.96	27.230
251.33	26.744
251.70	33.529
252.08	26.396
252.45	30.198
252.82	24.121
253.19	33.641
253.56	27.570
253.94	28.378
254.31	30.870
254.68	31.140
255.05	33.071
255.42	31.004
255.79	32.046
256.16	30.350
256.54	29.478
256.91	27.757
257.28	24.535
257.65	26.592
258.02	28.369
258.39	26.599
258.76	31.136
259.14	25.249
259.51	24.595
259.88	24.399
260.25	30.065
260.62	30.903
260.99	30.847
261.36	30.137
261.73	27.532
262.10	30.395
262.47	26.994
262.85	28.527
263.22	31.385
263.59	28.349
263.96	33.851
264.33	27.576
264.70	31.250
265.07	27.083
265.44	32.295
265.81	26.271
266.18	28.962
266.55	25.707
266.92	31.347
267.29	29.243
267.66	27.877
268.03	29.843
268.40	28.460
268.77	32.353
269.14	26.139
269.51	30.334
269.88	27.182
270.25	26.276
270.62	28.293
270.99	27.877
271.36	23.961
271.73	27.934
272.10	27.494
272.47	32.624
272.84	29.208
273.21	29.698
273.58	28.675
273.95	29.977
274.32	27.252
274.69	24.208
275.06	28.348
275.43	28.345
275.80	26.049
276.17	29.655
276.54	24.839
276.91	28.070
277.28	26.419
277.65	28.512
278.02	25.532
278.39	26.915
278.76	26.834
279.13	25.726
279.50	29.622
279.87	24.838
280.23	24.516
280.60	28.070
280.97	26.465
281.34	26.731
281.71	29.979
282.08	26.176
282.45	27.202
282.82	25.097
283.19	26.306
283.56	28.131
283.92	24.478
284.29	24.808
284.66	25.775
285.03	26.916
285.40	26.843
285.77	26.186
286.14	24.368
286.51	30.812
286.87	25.594
287.24	26.703
287.61	26.279
287.98	25.263
288.35	24.783
288.72	25.744
289.08	25.000
289.45	25.132
289.82	24.126
290.19	24.573
290.56	23.156
290.93	25.926
291.29	22.342
291.66	25.197
292.03	26.156
292.40	23.065
292.77	23.604
293.13	23.701
293.50	22.458
293.87	23.664
294.24	25.193
294.60	23.100
294.97	21.429
295.34	22.699
295.71	23.845
296.08	23.019
296.44	22.333
296.81	22.083
297.18	22.754
297.55	23.713
297.91	21.781
298.28	21.768
298.65	21.845
299.02	22.642
299.38	22.025
299.75	22.483
300.12	22.251
300.48	22.661
300.85	23.574
301.22	22.597
301.59	22.105
301.95	24.051
302.32	22.698
302.69	22.264
303.05	21.040
303.42	22.914
303.79	23.014
304.15	23.417
304.52	22.592
304.89	22.105
305.25	22.276
305.62	21.820
305.99	22.456
306.35	22.659
306.72	21.147
307.09	21.779
307.45	23.421
307.82	22.685
308.19	23.926
308.55	21.483
308.92	23.094
309.29	23.911
309.65	23.789
310.02	23.542
310.38	24.369
310.75	24.153
311.12	23.466
311.48	24.708
311.85	23.455
312.22	23.734
312.58	24.098
312.95	22.625
313.31	25.673
313.68	22.513
314.05	24.082
314.41	25.258
314.78	24.948
315.14	26.516
315.51	26.398
315.87	26.537
316.24	28.008
316.61	26.378
316.97	26.687
317.34	25.293
317.70	27.151
318.07	26.827
318.43	27.255
318.80	26.989
319.16	28.320
319.53	27.350
319.89	27.362
320.26	28.846
320.62	28.887
320.99	28.288
321.35	29.394
321.72	30.322
322.08	30.413
322.45	31.574
322.81	31.238
323.18	30.815
323.54	30.598
323.91	32.035
324.27	31.152
324.64	32.959
325.00	30.474
325.37	33.884
325.73	31.641
326.10	32.698
326.46	32.646
326.83	34.121
327.19	34.699
327.56	34.405
327.92	35.475
328.29	34.107
328.65	37.264
329.01	36.121
329.38	34.931
329.74	34.750
330.11	34.569
330.47	35.158
330.84	36.731
331.20	36.502
331.56	34.907
331.93	36.804
332.29	37.305
332.66	34.932
333.02	35.037
333.38	36.572
333.75	36.538
334.11	35.094
334.48	36.265
334.84	35.440
335.20	35.316
335.57	36.174
335.93	38.121
336.29	35.912
336.66	36.694
337.02	35.502
337.38	35.370
337.75	36.455
338.11	37.151
338.47	35.949
338.84	35.767
339.20	35.923
339.56	35.963
339.93	36.347
340.29	37.156
340.65	36.649
341.02	35.284
341.38	34.867
341.74	36.131
342.11	34.922
342.47	35.498
342.83	35.727
343.20	34.408
343.56	35.391
343.92	35.252
344.28	35.525
344.65	35.233
345.01	35.091
345.37	35.660
345.73	35.816
346.10	35.116
346.46	35.071
346.82	34.452
347.19	33.998
347.55	35.756
347.91	34.871
348.27	33.953
348.63	35.349
349.00	34.619
349.36	35.079
349.72	36.070
350.08	35.328
350.45	34.876
350.81	36.130
351.17	33.550
351.53	34.776
351.89	34.517
352.26	33.440
352.62	33.226
352.98	33.574
353.34	34.380
353.70	34.871
354.07	34.355
354.43	34.428
354.79	35.838
355.15	35.159
355.51	34.731
355.87	34.628
356.24	33.361
356.60	34.276
356.96	34.286
357.32	33.866
357.68	33.464
358.04	34.168
358.40	33.039
358.77	35.088
359.13	34.428
359.49	33.513
359.85	34.321
360.21	33.174
360.57	32.517
360.93	34.191
361.29	33.157
361.66	34.639
362.02	34.091
362.38	34.196
362.74	33.687
363.10	35.064
363.46	34.025
363.82	34.636
364.18	33.948
364.54	33.529
364.90	34.194
365.26	33.988
365.62	33.431
365.98	33.651
366.35	33.285
366.71	34.664
367.07	35.196
367.43	34.004
367.79	34.064
368.15	34.530
368.51	33.867
368.87	33.453
369.23	33.935
369.59	34.402
369.95	35.704
370.31	33.815
370.67	33.657
371.03	33.532
371.39	34.427
371.75	34.579
372.11	33.167
372.47	34.320
372.83	34.209
373.19	34.593
373.55	33.718
373.91	33.477
374.27	34.373
374.63	34.817
374.99	34.610
375.35	33.774
375.71	36.014
376.07	34.972
376.42	33.810
376.78	34.899
377.14	34.800
377.50	35.325
377.86	34.070
378.22	34.269
378.58	34.679
378.94	35.350
379.30	34.248
379.66	35.423
380.02	33.783
380.38	34.814
380.74	35.069
381.09	35.521
381.45	34.924
381.81	35.225
382.17	34.518
382.53	33.979
382.89	35.530
383.25	35.968
383.61	34.939
383.97	34.730
384.32	34.021
384.68	34.613
385.04	34.191
385.40	35.159
385.76	36.226
386.12	36.546
386.48	35.760
386.83	34.559
387.19	35.348
387.55	36.073
387.91	35.513
388.27	34.066
388.62	35.872
388.98	34.991
389.34	35.166
389.70	35.426
390.06	36.123
390.42	35.104
390.77	34.794
391.13	34.868
391.49	35.317
391.85	35.413
392.20	34.589
392.56	35.346
392.92	34.821
393.28	34.906
393.64	35.676
393.99	35.987
394.35	35.294
394.71	35.888
395.07	34.884
395.42	34.791
395.78	34.658
396.14	35.309
396.50	35.637
396.85	34.965
397.21	36.153
397.57	34.357
397.92	34.991
398.28	36.207
398.64	34.458
399.00	34.424
399.35	33.916
399.71	34.578
400.07	35.490
400.42	34.700
400.78	35.517
401.14	35.511
401.49	34.306
401.85	34.918
402.21	34.337
402.57	33.875
402.92	33.940
403.28	34.712
403.63	34.489
403.99	35.077
404.35	35.166
404.70	33.214
405.06	33.314
405.42	32.753
405.77	33.411
406.13	33.353
406.49	32.978
406.84	34.230
407.20	34.738
407.55	33.870
407.91	32.553
408.27	34.353
408.62	33.908
408.98	33.025
409.34	33.333
409.69	32.817
410.05	33.190
410.40	33.951
410.76	33.233
411.11	33.000
411.47	33.465
411.83	32.454
412.18	33.719
412.54	32.522
412.89	32.204
413.25	33.394
413.60	33.043
413.96	32.761
414.31	33.049
414.67	32.457
415.03	32.357
415.38	32.115
415.74	32.573
416.09	33.508
416.45	32.478
416.80	32.981
417.16	33.080
417.51	33.245
417.87	32.920
418.22	32.902
418.58	33.445
418.93	33.605
419.29	31.306
419.64	32.080
420.00	33.312
420.35	32.358
420.71	32.685
421.06	33.026
421.42	33.113
421.77	32.081
422.12	32.123
422.48	32.648
422.83	32.367
423.19	32.731
423.54	32.745
423.90	33.216
424.25	33.352
424.61	32.742
424.96	31.940
425.31	33.218
425.67	33.392
426.02	33.863
426.38	34.189
426.73	33.838
427.09	33.671
427.44	33.471
427.79	33.412
428.15	32.828
428.50	32.405
428.85	31.511
429.21	33.220
429.56	33.531
429.92	32.922
430.27	31.328
430.62	32.514
430.98	32.537
431.33	33.438
431.68	31.973
432.04	33.315
432.39	32.687
432.74	31.870
433.10	34.943
433.45	31.481
433.80	33.314
434.16	31.191
434.51	32.581
434.86	33.566
435.22	33.034
435.57	33.687
435.92	31.856
436.28	31.246
436.63	32.459
436.98	32.039
437.34	31.821
437.69	33.512
438.04	32.365
438.39	32.010
438.75	32.605
439.10	32.088
439.45	32.319
439.81	31.988
440.16	33.254
440.51	34.269
440.86	34.018
441.22	33.371
441.57	32.285
441.92	33.106
442.27	32.871
442.63	32.495
442.98	33.314
443.33	33.278
443.68	32.679
444.03	33.482
444.39	32.317
444.74	34.225
445.09	33.018
445.44	33.162
445.79	33.626
446.15	32.379
446.50	32.224
446.85	33.528
447.20	33.212
447.55	33.147
447.91	32.769
448.26	32.897
448.61	32.930
448.96	33.563
449.31	32.948
449.66	33.682
450.02	32.687
450.37	33.136
450.72	32.532
451.07	34.937
451.42	32.709
451.77	32.911
452.12	32.715
452.47	32.840
452.83	34.335
453.18	33.586
453.53	33.692
453.88	33.455
454.23	33.436
454.58	33.312
454.93	34.214
455.28	31.937
455.63	33.726
455.98	33.313
456.34	32.886
456.69	33.291
457.04	33.333
457.39	32.989
457.74	33.011
458.09	32.372
458.44	32.651
458.79	32.437
459.14	33.524
459.49	32.776
459.84	33.221
460.19	32.221
460.54	32.335
460.89	32.330
461.24	32.671
461.59	33.373
461.94	32.893
462.29	33.776
462.64	34.020
462.99	33.040
463.34	33.102
463.69	32.690
464.04	33.475
464.39	32.686
464.74	32.331
465.09	33.188
465.44	32.776
465.79	31.066
466.14	33.067
466.49	32.720
466.84	32.778
467.19	32.916
467.54	32.375
467.89	32.912
468.24	32.847
468.59	33.905
468.94	32.063
469.29	33.443
469.64	33.083
469.99	33.917
470.34	33.515
470.68	33.855
471.03	32.484
471.38	33.024
471.73	32.913
472.08	33.379
472.43	32.685
472.78	32.488
473.13	32.585
473.48	32.638
473.83	32.441
474.17	33.614
474.52	32.802
474.87	33.273
475.22	32.276
475.57	32.693
475.92	33.352
476.27	33.003
476.61	32.928
476.96	31.511
477.31	32.558
477.66	32.079
478.01	32.791
478.36	32.407
478.70	32.463
479.05	32.802
479.40	33.492
479.75	31.283
480.10	32.924
480.45	32.300
480.79	32.226
481.14	33.299
481.49	31.773
481.84	31.660
482.19	31.384
482.53	32.182
482.88	32.411
483.23	32.198
483.58	32.264
483.92	32.236
484.27	30.583
484.62	32.273
484.97	30.763
485.31	30.527
485.66	28.963
486.01	28.757
486.36	28.893
486.70	29.892
487.05	30.377
487.40	29.964
487.75	30.930
488.09	31.242
488.44	31.671
488.79	31.603
489.13	32.572
489.48	31.381
489.83	31.166
490.17	31.146
490.52	31.778
490.87	31.698
491.22	32.044
491.56	31.546
491.91	31.597
492.26	31.891
492.60	31.910
492.95	32.858
493.30	31.265
493.64	31.778
493.99	32.126
494.34	31.602
494.68	31.714
495.03	30.511
495.37	32.875
495.72	31.903
496.07	31.659
496.41	31.651
496.76	32.059
497.11	31.393
497.45	31.790
497.80	32.240
498.14	31.595
498.49	31.437
498.84	30.739
499.18	31.275
499.53	31.399
499.87	30.788
500.22	30.811
500.56	31.619
500.91	31.777
501.26	31.883
501.60	31.038
501.95	30.907
502.29	31.090
502.64	31.178
502.98	32.264
503.33	30.500
503.67	30.313
504.02	31.232
504.36	30.678
504.71	30.606
505.06	30.498
505.40	30.558
505.75	31.340
506.09	30.411
506.44	31.263
506.78	31.684
507.13	30.145
507.47	31.175
507.82	31.410
508.16	30.798
508.51	30.535
508.85	30.874
509.19	31.080
509.54	31.099
509.88	31.392
510.23	31.576
510.57	31.427
510.92	30.490
511.26	30.878
511.61	31.133
511.95	30.630
512.30	31.208
512.64	31.052
512.98	31.106
513.33	31.841
513.67	30.756
514.02	31.636
514.36	32.286
514.70	31.585
515.05	31.786
515.39	30.638
515.74	32.515
516.08	31.321
516.42	32.155
516.77	31.129
517.11	31.751
517.46	31.837
517.80	30.989
518.14	31.843
518.49	30.589
518.83	31.349
519.17	31.716
519.52	31.024
519.86	31.453
520.20	31.652
520.55	30.832
520.89	32.183
521.23	31.159
521.58	31.798
521.92	31.795
522.26	32.075
522.61	32.338
522.95	32.053
523.29	31.512
523.64	32.338
523.98	31.756
524.32	31.508
524.66	32.778
525.01	31.494
525.35	31.692
525.69	32.054
526.04	30.159
526.38	32.555
526.72	31.001
527.06	30.350
527.41	32.256
527.75	30.697
528.09	30.365
528.43	32.613
528.78	30.099
529.12	30.839
529.46	30.734
529.80	30.842
530.15	32.409
530.49	31.313
530.83	31.259
531.17	31.632
531.51	32.011
531.86	30.387
532.20	30.550
532.54	32.063
532.88	31.280
533.22	30.780
533.57	30.341
533.91	31.919
534.25	30.794
534.59	29.634
534.93	29.327
535.27	29.315
535.62	29.682
535.96	30.659
536.30	29.485
536.64	30.531
536.98	30.383
537.32	31.152
537.66	31.206
538.01	31.329
538.35	30.236
538.69	30.027
539.03	29.528
539.37	29.139
539.71	31.084
540.05	29.871
540.39	29.778
540.73	30.962
541.07	31.008
541.42	30.376
541.76	30.489
542.10	29.869
542.44	30.438
542.78	28.768
543.12	29.258
543.46	29.764
543.80	29.008
544.14	28.104
544.48	29.181
544.82	30.554
545.16	29.372
545.50	30.040
545.84	30.737
546.18	30.213
546.52	30.209
546.86	30.122
547.20	28.755
547.54	30.459
547.88	29.076
548.22	29.389
548.56	29.222
548.90	30.054
549.24	28.306
549.58	29.760
549.92	28.663
550.26	29.744
550.60	29.888
550.94	29.425
551.28	29.598
551.62	31.077
551.96	29.774
552.30	29.313
552.64	29.337
552.98	28.411
553.32	28.816
553.66	28.157
554.00	29.270
554.34	30.355
554.68	28.319
555.02	30.432
555.36	28.347
555.69	28.938
556.03	28.123
556.37	28.754
556.71	29.170
557.05	29.605
557.39	27.807
557.73	28.561
558.07	29.940
558.41	28.943
558.75	30.086
559.08	28.448
559.42	28.175
559.76	28.983
560.10	28.364
560.44	28.220
560.78	29.161
561.12	28.279
561.45	29.445
561.79	29.692
562.13	28.673
562.47	27.410
562.81	29.179
563.15	27.221
563.48	28.430
563.82	29.307
564.16	27.925
564.50	27.770
564.84	29.183
565.17	27.767
565.51	29.372
565.85	27.984
566.19	28.647
566.52	28.619
566.86	28.792
567.20	27.709
567.54	27.311
567.88	27.944
568.21	27.319
568.55	26.793
568.89	26.694
569.23	26.288
569.56	26.401
569.90	26.147
570.24	25.233
570.57	26.545
570.91	25.584
571.25	25.058
571.59	24.759
571.92	24.385
572.26	24.668
572.60	24.744
572.93	24.882
573.27	24.420
573.61	24.761
573.95	24.850
574.28	24.285
574.62	24.256
574.96	23.934
575.29	24.154
575.63	23.633
575.97	23.936
576.30	24.374
576.64	23.364
576.98	24.659
577.31	24.601
577.65	24.404
577.98	24.134
578.32	23.691
578.66	23.469
578.99	24.637
579.33	24.007
579.67	24.249
580.00	23.772
580.34	24.080
580.67	24.159
581.01	23.775
581.35	23.105
581.68	23.302
582.02	23.747
582.35	23.101
582.69	23.646
583.02	23.414
583.36	24.154
583.70	24.637
584.03	24.659
584.37	24.901
584.70	24.698
585.04	23.912
585.37	23.857
585.71	24.043
586.04	23.903
586.38	23.740
586.72	24.075
587.05	24.639
587.39	24.658
587.72	24.686
588.06	23.831
588.39	24.608
588.73	24.573
589.06	24.984
589.40	24.922
589.73	25.119
590.07	25.340
590.40	25.271
590.73	25.206
591.07	25.573
591.40	25.467
591.74	25.656
592.07	25.603
592.41	25.707
592.74	25.129
593.08	23.996
593.41	23.855
593.75	24.010
594.08	23.412
594.41	24.309
594.75	24.084
595.08	23.761
595.42	24.255
595.75	24.671
596.09	25.332
596.42	24.556
596.75	25.044
597.09	25.194
597.42	24.661
597.75	24.737
598.09	25.351
598.42	25.271
598.76	24.668
599.09	24.880
599.42	24.214
599.76	24.567
600.09	24.133
600.42	24.375
600.76	24.071
601.09	24.466
601.42	24.168
601.76	24.692
602.09	24.546
602.42	24.937
602.76	24.830
603.09	25.125
603.42	24.958
603.76	24.153
604.09	23.775
604.42	25.677
604.76	25.412
605.09	25.594
605.42	24.470
605.75	24.212
606.09	24.161
606.42	24.520
606.75	24.502
607.09	24.703
607.42	24.324
607.75	24.867
608.08	24.528
608.42	23.892
608.75	25.687
609.08	25.112
609.41	24.315
609.75	24.546
610.08	25.362
610.41	24.783
610.74	25.890
611.07	25.323
611.41	25.221
611.74	25.426
612.07	25.214
612.40	25.930
612.73	25.876
613.07	25.309
613.40	25.711
613.73	24.342
614.06	25.264
614.39	25.606
614.72	25.770
615.06	25.475
615.39	24.945
615.72	25.027
616.05	25.698
616.38	23.932
616.71	24.587
617.05	26.436
617.38	25.393
617.71	25.786
618.04	26.095
618.37	25.977
618.70	27.129
619.03	26.458
619.36	25.326
619.69	25.929
620.03	26.370
620.36	26.037
620.69	25.125
621.02	26.758
621.35	28.050
621.68	27.806
622.01	25.917
622.34	25.539
622.67	26.262
623.00	25.804
623.33	26.296
623.66	25.430
623.99	25.492
624.32	26.312
624.65	25.113
624.99	26.486
625.32	26.308
625.65	27.651
625.98	26.833
626.31	26.018
626.64	28.250
626.97	27.487
627.30	27.145
627.63	27.383
627.96	27.224
628.29	27.845
628.62	28.024
628.95	27.555
629.28	27.621
629.61	27.318
629.94	28.250
630.26	27.273
630.59	28.304
630.92	28.308
631.25	27.897
631.58	28.965
631.91	27.083
632.24	27.867
632.57	28.864
632.90	28.707
633.23	28.471
633.56	30.605
