SpectraSuite Data File
++++++++++++++++++++++++++++++++++++
Date: Fri May 15 21:12:19 PDT 2015
User: schluterlab
Dark Spectrum Present: Yes
Reference Spectrum Present: Yes
Number of Sampled Component Spectra: 1
Spectrometers: USB2E3373
Integration Time (usec): 3000 (USB2E3373)
Spectra Averaged: 3 (USB2E3373)
Boxcar Smoothing: 0 (USB2E3373)
Correct for Electrical Dark: No (USB2E3373)
Strobe/Lamp Enabled: No (USB2E3373)
Correct for Detector Non-linearity: No (USB2E3373)
Correct for Stray Light: No (USB2E3373)
Number of Pixels in Processed Spectrum: 2048
>>>>>Begin Processed Spectral Data<<<<<
178.53	0.000
178.91	0.000
179.29	100.000
179.67	-750.000
180.04	-71.429
180.42	75.000
180.80	-700.000
181.18	300.000
181.56	650.000
181.94	0.000
182.31	1500.000
182.69	-20.000
183.07	-66.667
183.45	-100.000
183.83	283.333
184.20	-9.091
184.58	77.778
184.96	75.000
185.34	166.667
185.72	-300.000
186.09	100.000
186.47	-700.000
186.85	83.333
187.23	66.667
187.61	100.000
187.98	-533.333
188.36	-33.333
188.74	-300.000
189.12	17.647
189.49	-11.111
189.87	0.000
190.25	28.571
190.63	100.000
191.00	-133.333
191.38	-15.789
191.76	200.000
192.14	275.000
192.51	0.000
192.89	-133.333
193.27	-228.571
193.65	83.333
194.02	154.545
194.40	-40.000
194.78	-87.500
195.15	-16.667
195.53	-50.000
195.91	275.000
196.29	-275.000
196.66	123.077
197.04	157.143
197.42	-11.111
197.79	-400.000
198.17	-100.000
198.55	2100.000
198.92	-166.667
199.30	-1000.000
199.68	-80.000
200.05	-533.333
200.43	0.000
200.81	-133.333
201.18	-400.000
201.56	700.000
201.94	-50.000
202.31	366.667
202.69	-60.000
203.07	200.000
203.44	-600.000
203.82	0.000
204.19	-14.286
204.57	-366.667
204.95	200.000
205.32	-140.000
205.70	-14.286
206.08	-50.000
206.45	133.333
206.83	121.429
207.20	-71.429
207.58	1700.000
207.96	-266.667
208.33	-140.000
208.71	-275.000
209.08	-183.333
209.46	-200.000
209.84	-100.000
210.21	-1100.000
210.59	-14.286
210.96	-100.000
211.34	-150.000
211.71	20.000
212.09	-71.429
212.46	-1500.000
212.84	0.000
213.22	20.000
213.59	900.000
213.97	-46.154
214.34	27.273
214.72	-150.000
215.09	550.000
215.47	30.769
215.84	-45.455
216.22	-566.667
216.59	-87.500
216.97	700.000
217.34	0.000
217.72	-140.000
218.09	-62.500
218.47	187.500
218.84	-100.000
219.22	-77.778
219.59	-280.000
219.97	533.333
220.34	500.000
220.72	-185.714
221.09	-225.000
221.47	-300.000
221.84	-650.000
222.22	-1150.000
222.59	9.091
222.97	-50.000
223.34	-466.667
223.72	-42.857
224.09	-38.095
224.46	-7.143
224.84	666.667
225.21	-120.000
225.59	13.333
225.96	-50.000
226.34	225.000
226.71	-85.714
227.08	-133.333
227.46	-62.500
227.83	-400.000
228.21	-33.333
228.58	-27.273
228.95	37.500
229.33	200.000
229.70	-18.750
230.08	-87.500
230.45	-257.143
230.82	-71.429
231.20	-46.667
231.57	71.429
231.95	-185.714
232.32	-200.000
232.69	-64.286
233.07	-66.667
233.44	-140.000
233.81	-50.000
234.19	-11.111
234.56	5.882
234.93	350.000
235.31	-25.000
235.68	-240.000
236.05	-84.615
236.43	-35.000
236.80	-47.059
237.17	0.000
237.55	15.000
237.92	-18.519
238.29	-2.778
238.67	-3.333
239.04	-8.824
239.41	-43.902
239.79	-50.000
240.16	-2.439
240.53	7.895
240.91	-15.217
241.28	6.349
241.65	17.857
242.02	5.479
242.40	-5.000
242.77	-15.254
243.14	-18.182
243.51	-12.500
243.89	13.793
244.26	-1.149
244.63	3.571
245.00	8.247
245.38	11.340
245.75	-13.483
246.12	-1.724
246.49	-2.479
246.87	2.885
247.24	4.202
247.61	-6.140
247.98	2.439
248.36	2.500
248.73	5.263
249.10	4.545
249.47	4.430
249.84	1.961
250.22	1.176
250.59	2.614
250.96	12.207
251.33	-1.163
251.70	3.529
252.08	2.030
252.45	0.495
252.82	3.015
253.19	3.226
253.56	0.000
253.94	2.703
254.31	7.391
254.68	6.140
255.05	3.543
255.42	6.114
255.79	2.317
256.16	3.891
256.54	5.597
256.91	5.703
257.28	2.230
257.65	-1.498
258.02	4.610
258.39	10.101
258.76	7.692
259.14	7.309
259.51	8.091
259.88	4.467
260.25	4.575
260.62	8.333
260.99	-0.339
261.36	1.370
261.73	5.380
262.10	5.775
262.47	6.442
262.85	2.194
263.22	5.231
263.59	7.477
263.96	8.385
264.33	3.939
264.70	5.655
265.07	3.571
265.44	4.816
265.81	5.085
266.18	5.191
266.55	5.656
266.92	5.959
267.29	6.527
267.66	6.138
268.03	5.759
268.40	5.483
268.77	7.487
269.14	6.954
269.51	5.656
269.88	4.489
270.25	3.316
270.62	5.854
270.99	2.046
271.36	3.667
271.73	7.277
272.10	5.596
272.47	3.783
272.84	4.455
273.21	5.568
273.58	6.265
273.95	8.467
274.32	4.388
274.69	5.656
275.06	4.018
275.43	7.029
275.80	4.415
276.17	5.747
276.54	6.852
276.91	5.702
277.28	2.402
277.65	6.405
278.02	2.340
278.39	5.252
278.76	7.547
279.13	2.697
279.50	6.723
279.87	7.775
280.23	3.226
280.60	6.238
280.97	3.636
281.34	4.231
281.71	5.955
282.08	4.090
282.45	4.892
282.82	3.861
283.19	4.255
283.56	5.973
283.92	4.554
284.29	4.615
284.66	5.620
285.03	3.143
285.40	2.457
285.77	4.394
286.14	5.776
286.51	4.428
286.87	3.473
287.24	2.394
287.61	3.175
287.98	4.035
288.35	3.640
288.72	5.779
289.08	1.910
289.45	4.745
289.82	6.643
290.19	2.560
290.56	3.774
290.93	3.030
291.29	4.006
291.66	5.827
292.03	4.785
292.40	3.226
292.77	3.987
293.13	1.623
293.50	2.580
293.87	3.359
294.24	4.637
294.60	3.428
294.97	5.357
295.34	1.687
295.71	3.875
296.08	2.990
296.44	2.845
296.81	2.500
297.18	3.623
297.55	5.014
297.91	3.425
298.28	5.541
298.65	3.528
299.02	3.639
299.38	1.778
299.75	2.483
300.12	2.487
300.48	2.503
300.85	3.422
301.22	3.896
301.59	3.421
301.95	4.177
302.32	5.188
302.69	4.478
303.05	3.837
303.42	5.230
303.79	4.673
304.15	3.943
304.52	3.092
304.89	2.924
305.25	3.874
305.62	2.100
305.99	3.860
306.35	3.584
306.72	2.587
307.09	2.166
307.45	3.100
307.82	1.968
308.19	4.762
308.55	2.944
308.92	5.556
309.29	3.240
309.65	3.445
310.02	3.190
310.38	3.732
310.75	4.372
311.12	3.767
311.48	3.499
311.85	2.304
312.22	3.059
312.58	3.079
312.95	2.988
313.31	2.277
313.68	3.665
314.05	3.163
314.41	4.021
314.78	2.474
315.14	4.830
315.51	4.244
315.87	3.279
316.24	4.853
316.61	4.035
316.97	4.067
317.34	2.637
317.70	3.250
318.07	3.942
318.43	3.333
318.80	3.977
319.16	4.297
319.53	4.463
319.89	3.642
320.26	4.555
320.62	4.213
320.99	2.296
321.35	4.522
321.72	4.569
322.08	4.532
322.45	4.365
322.81	4.912
323.18	4.514
323.54	4.730
323.91	4.576
324.27	4.492
324.64	4.213
325.00	5.383
325.37	6.061
325.73	3.717
326.10	5.631
326.46	6.099
326.83	5.074
327.19	5.493
327.56	5.734
327.92	6.954
328.29	6.071
328.65	5.755
329.01	5.331
329.38	4.147
329.74	5.288
330.11	5.468
330.47	4.267
330.84	4.327
331.20	6.559
331.56	4.815
331.93	6.301
332.29	6.324
332.66	5.792
333.02	5.204
333.38	4.491
333.75	6.319
334.11	4.834
334.48	5.621
334.84	6.136
335.20	6.038
335.57	5.349
335.93	5.781
336.29	5.801
336.66	4.995
337.02	4.368
337.38	4.907
337.75	5.273
338.11	5.500
338.47	5.201
338.84	6.007
339.20	4.479
339.56	5.321
339.93	5.461
340.29	6.147
340.65	5.287
341.02	5.674
341.38	5.044
341.74	4.947
342.11	4.593
342.47	5.427
342.83	6.315
343.20	6.098
343.56	5.391
343.92	5.492
344.28	4.953
344.65	5.009
345.01	3.630
345.37	5.467
345.73	5.356
346.10	6.385
346.46	6.056
346.82	4.910
347.19	4.904
347.55	5.013
347.91	6.149
348.27	5.012
348.63	5.622
349.00	4.348
349.36	5.237
349.72	6.385
350.08	4.918
350.45	5.746
350.81	5.399
351.17	4.886
351.53	6.122
351.89	5.120
352.26	4.960
352.62	6.210
352.98	5.301
353.34	4.267
353.70	5.178
354.07	5.403
354.43	5.284
354.79	4.459
355.15	5.397
355.51	6.408
355.87	4.773
356.24	4.160
356.60	5.497
356.96	6.905
357.32	5.192
357.68	5.942
358.04	5.250
358.40	5.386
358.77	6.300
359.13	4.484
359.49	5.239
359.85	5.304
360.21	5.024
360.57	5.279
360.93	5.144
361.29	5.060
361.66	5.799
362.02	5.606
362.38	4.646
362.74	4.693
363.10	6.170
363.46	4.967
363.82	6.011
364.18	4.945
364.54	4.559
364.90	4.803
365.26	5.386
365.62	6.423
365.98	4.839
366.35	5.899
366.71	5.248
367.07	5.806
367.43	5.104
367.79	4.876
368.15	4.523
368.51	4.588
368.87	4.882
369.23	3.899
369.59	4.665
369.95	5.132
370.31	5.925
370.67	5.075
371.03	5.004
371.39	4.668
371.75	4.908
372.11	4.993
372.47	5.621
372.83	5.252
373.19	4.494
373.55	4.332
373.91	4.968
374.27	5.103
374.63	5.240
374.99	4.326
375.35	5.014
375.71	5.105
376.07	4.213
376.42	5.102
376.78	4.497
377.14	4.265
377.50	4.914
377.86	4.886
378.22	4.786
378.58	4.615
378.94	4.537
379.30	4.928
379.66	5.204
380.02	5.028
380.38	4.017
380.74	4.788
381.09	5.399
381.45	4.404
381.81	4.874
382.17	5.076
382.53	4.310
382.89	4.645
383.25	4.667
383.61	5.183
383.97	4.762
384.32	5.003
384.68	5.201
385.04	4.657
385.40	4.543
385.76	5.346
386.12	5.498
386.48	5.364
386.83	4.629
387.19	5.495
387.55	5.332
387.91	4.462
388.27	4.823
388.62	4.909
388.98	4.359
389.34	4.747
389.70	5.904
390.06	4.216
390.42	5.311
390.77	4.120
391.13	4.351
391.49	5.175
391.85	5.068
392.20	4.834
392.56	4.959
392.92	5.226
393.28	5.130
393.64	5.465
393.99	5.768
394.35	4.870
394.71	5.428
395.07	5.091
395.42	4.797
395.78	4.039
396.14	4.981
396.50	5.073
396.85	5.151
397.21	5.013
397.57	5.141
397.92	5.033
398.28	4.828
398.64	4.458
399.00	5.023
399.35	4.740
399.71	5.974
400.07	4.837
400.42	5.324
400.78	5.266
401.14	5.626
401.49	5.658
401.85	5.058
402.21	5.482
402.57	5.375
402.92	4.391
403.28	5.827
403.63	5.170
403.99	4.528
404.35	5.059
404.70	5.714
405.06	5.170
405.42	5.842
405.77	4.242
406.13	4.948
406.49	6.690
406.84	4.523
407.20	5.418
407.55	5.023
407.91	4.880
408.27	5.481
408.62	5.477
408.98	5.730
409.34	5.514
409.69	5.103
410.05	5.296
410.40	5.185
410.76	4.885
411.11	5.375
411.47	5.851
411.83	5.273
412.18	4.891
412.54	5.680
412.89	4.680
413.25	5.114
413.60	5.031
413.96	6.135
414.31	5.610
414.67	5.324
415.03	5.260
415.38	4.700
415.74	5.342
416.09	5.160
416.45	5.807
416.80	5.552
417.16	5.041
417.51	5.330
417.87	5.150
418.22	5.570
418.58	4.950
418.93	6.082
419.29	5.314
419.64	4.990
420.00	6.360
420.35	5.313
420.71	6.015
421.06	5.893
421.42	6.250
421.77	5.780
422.12	5.448
422.48	5.143
422.83	5.336
423.19	6.038
423.54	5.173
423.90	5.771
424.25	5.970
424.61	5.998
424.96	5.459
425.31	6.066
425.67	5.282
426.02	6.243
426.38	5.949
426.73	5.569
427.09	6.392
427.44	7.235
427.79	5.716
428.15	6.796
428.50	5.875
428.85	5.958
429.21	6.565
429.56	5.876
429.92	6.317
430.27	5.815
430.62	5.332
430.98	5.786
431.33	6.257
431.68	6.122
432.04	6.149
432.39	5.762
432.74	5.352
433.10	6.839
433.45	5.735
433.80	6.210
434.16	5.319
434.51	6.290
434.86	7.143
435.22	6.282
435.57	6.114
435.92	6.407
436.28	6.380
436.63	6.617
436.98	6.141
437.34	5.929
437.69	6.380
438.04	5.755
438.39	6.170
438.75	5.343
439.10	6.225
439.45	6.026
439.81	6.239
440.16	6.354
440.51	6.388
440.86	6.042
441.22	6.391
441.57	6.181
441.92	6.453
442.27	6.929
442.63	6.799
442.98	6.605
443.33	6.511
443.68	6.578
444.03	7.104
444.39	6.739
444.74	6.856
445.09	7.016
445.44	6.097
445.79	7.788
446.15	6.388
446.50	5.546
446.85	7.279
447.20	6.257
447.55	7.366
447.91	6.881
448.26	7.171
448.61	6.851
448.96	7.286
449.31	6.301
449.66	6.214
450.02	5.876
450.37	6.106
450.72	6.357
451.07	6.519
451.42	5.993
451.77	6.691
452.12	6.220
452.47	6.117
452.83	7.244
453.18	7.147
453.53	6.511
453.88	6.132
454.23	6.822
454.58	7.431
454.93	6.637
455.28	6.159
455.63	7.068
455.98	7.216
456.34	6.450
456.69	6.798
457.04	7.435
457.39	6.379
457.74	6.348
458.09	6.651
458.44	6.846
458.79	6.947
459.14	7.723
459.49	8.060
459.84	7.163
460.19	6.432
460.54	7.335
460.89	6.761
461.24	7.267
461.59	7.126
461.94	6.289
462.29	6.996
462.64	6.645
462.99	7.583
463.34	6.676
463.69	7.014
464.04	6.598
464.39	6.489
464.74	6.994
465.09	6.800
465.44	7.905
465.79	5.896
466.14	7.184
466.49	6.786
466.84	7.496
467.19	6.946
467.54	7.152
467.89	6.570
468.24	6.934
468.59	6.794
468.94	7.365
469.29	7.738
469.64	7.656
469.99	7.498
470.34	6.416
470.68	7.905
471.03	7.714
471.38	6.990
471.73	7.843
472.08	6.716
472.43	6.242
472.78	6.169
473.13	7.143
473.48	7.427
473.83	6.974
474.17	7.513
474.52	7.020
474.87	6.970
475.22	7.138
475.57	6.663
475.92	7.789
476.27	7.916
476.61	8.102
476.96	6.916
477.31	7.788
477.66	7.472
478.01	6.794
478.36	7.407
478.70	7.395
479.05	6.758
479.40	8.214
479.75	6.882
480.10	7.629
480.45	7.800
480.79	7.754
481.14	7.992
481.49	7.192
481.84	7.674
482.19	6.735
482.53	7.482
482.88	7.637
483.23	7.726
483.58	7.123
483.92	6.776
484.27	7.703
484.62	7.351
484.97	6.716
485.31	6.756
485.66	6.878
486.01	7.307
486.36	6.994
486.70	7.532
487.05	7.237
487.40	7.135
487.75	7.099
488.09	7.262
488.44	7.393
488.79	7.583
489.13	7.612
489.48	6.926
489.83	7.489
490.17	7.011
490.52	7.621
490.87	7.867
491.22	7.307
491.56	7.211
491.91	7.409
492.26	7.292
492.60	6.910
492.95	7.969
493.30	7.181
493.64	7.122
493.99	7.778
494.34	6.505
494.68	7.333
495.03	7.202
495.37	7.164
495.72	7.824
496.07	8.146
496.41	6.651
496.76	7.600
497.11	6.893
497.45	7.828
497.80	7.417
498.14	7.551
498.49	7.618
498.84	7.485
499.18	7.530
499.53	7.242
499.87	7.490
500.22	7.319
500.56	7.211
500.91	7.530
501.26	6.970
501.60	7.624
501.95	7.763
502.29	8.039
502.64	7.432
502.98	7.647
503.33	6.580
503.67	7.084
504.02	8.065
504.36	8.758
504.71	7.525
505.06	7.348
505.40	7.716
505.75	7.320
506.09	7.755
506.44	8.316
506.78	7.806
507.13	8.066
507.47	6.789
507.82	7.372
508.16	7.554
508.51	8.447
508.85	7.902
509.19	6.812
509.54	8.365
509.88	7.389
510.23	8.123
510.57	7.643
510.92	6.930
511.26	7.256
511.61	7.646
511.95	8.219
512.30	7.982
512.64	7.958
512.98	7.748
513.33	8.058
513.67	7.561
514.02	8.696
514.36	8.686
514.70	8.159
515.05	7.462
515.39	7.910
515.74	8.263
516.08	7.591
516.42	8.598
516.77	8.426
517.11	8.131
517.46	8.558
517.80	8.045
518.14	8.512
518.49	7.993
518.83	7.837
519.17	7.338
519.52	7.282
519.86	7.803
520.20	7.837
520.55	7.692
520.89	8.344
521.23	8.296
521.58	9.211
521.92	9.167
522.26	8.263
522.61	8.571
522.95	8.543
523.29	8.767
523.64	9.212
523.98	8.879
524.32	7.990
524.66	8.579
525.01	9.026
525.35	8.879
525.69	8.350
526.04	8.399
526.38	9.209
526.72	8.175
527.06	8.820
527.41	8.707
527.75	8.311
528.09	8.439
528.43	9.723
528.78	7.987
529.12	8.000
529.46	8.187
529.80	9.246
530.15	8.581
530.49	9.158
530.83	8.755
531.17	8.798
531.51	8.824
531.86	8.430
532.20	8.212
532.54	9.666
532.88	8.282
533.22	9.073
533.57	8.716
533.91	7.637
534.25	10.026
534.59	8.467
534.93	8.811
535.27	8.312
535.62	8.555
535.96	8.937
536.30	8.905
536.64	9.717
536.98	9.059
537.32	9.459
537.66	9.397
538.01	9.161
538.35	9.085
538.69	9.854
539.03	8.954
539.37	9.690
539.71	8.725
540.05	9.301
540.39	9.141
540.73	9.344
541.07	9.323
541.42	9.610
541.76	9.498
542.10	8.603
542.44	9.590
542.78	8.534
543.12	8.791
543.46	9.388
543.80	9.785
544.14	9.012
544.48	9.061
544.82	9.228
545.16	9.904
545.50	9.279
545.84	9.207
546.18	9.504
546.52	8.940
546.86	8.843
547.20	10.157
547.54	8.551
547.88	9.443
548.22	8.876
548.56	9.367
548.90	9.097
549.24	9.022
549.58	9.168
549.92	8.220
550.26	9.158
550.60	8.848
550.94	9.111
551.28	10.124
551.62	10.538
551.96	9.398
552.30	9.430
552.64	8.886
552.98	10.197
553.32	9.486
553.66	8.926
554.00	9.051
554.34	9.970
554.68	9.292
555.02	9.524
555.36	9.948
555.69	8.864
556.03	9.636
556.37	8.826
556.71	8.664
557.05	8.874
557.39	9.219
557.73	9.970
558.07	9.502
558.41	8.959
558.75	9.743
559.08	8.038
559.42	8.571
559.76	9.848
560.10	9.174
560.44	9.903
560.78	9.650
561.12	8.956
561.45	10.049
561.79	9.664
562.13	8.233
562.47	9.424
562.81	9.150
563.15	9.520
563.48	9.618
563.82	9.266
564.16	9.610
564.50	8.919
564.84	9.973
565.17	8.853
565.51	9.973
565.85	9.191
566.19	9.748
566.52	8.914
566.86	10.219
567.20	9.340
567.54	9.489
567.88	10.135
568.21	9.446
568.55	9.022
568.89	9.497
569.23	9.677
569.56	9.063
569.90	9.582
570.24	9.416
570.57	9.127
570.91	9.306
571.25	8.879
571.59	9.249
571.92	9.156
572.26	8.756
572.60	8.651
572.93	9.256
573.27	8.746
573.61	9.010
573.95	9.066
574.28	8.819
574.62	8.569
574.96	9.000
575.29	8.859
575.63	8.551
575.97	8.756
576.30	8.940
576.64	8.662
576.98	9.086
577.31	8.970
577.65	8.968
577.98	8.876
578.32	8.571
578.66	8.790
578.99	9.148
579.33	8.743
579.67	8.832
580.00	8.962
580.34	8.905
580.67	8.581
581.01	8.982
581.35	9.109
581.68	8.837
582.02	8.736
582.35	8.858
582.69	9.038
583.02	8.802
583.36	8.895
583.70	8.982
584.03	8.980
584.37	9.176
584.70	9.313
585.04	8.938
585.37	9.042
585.71	8.911
586.04	8.800
586.38	8.296
586.72	9.039
587.05	8.954
587.39	8.862
587.72	9.349
588.06	8.968
588.39	9.314
588.73	9.371
589.06	9.230
589.40	8.987
589.73	9.566
590.07	9.479
590.40	8.591
590.73	10.091
591.07	9.203
591.40	9.083
591.74	9.321
592.07	9.694
592.41	9.364
592.74	9.080
593.08	8.942
593.41	8.962
593.75	8.538
594.08	8.308
594.41	8.843
594.75	9.084
595.08	8.967
595.42	9.017
595.75	9.050
596.09	9.030
596.42	9.549
596.75	8.925
597.09	9.567
597.42	9.169
597.75	9.299
598.09	9.009
598.42	8.935
598.76	9.524
599.09	9.014
599.42	8.829
599.76	8.766
600.09	8.748
600.42	9.022
600.76	8.692
601.09	9.237
601.42	8.774
601.76	9.329
602.09	8.168
602.42	9.646
602.76	8.701
603.09	9.842
603.42	9.448
603.76	8.508
604.09	8.384
604.42	9.306
604.76	9.702
605.09	8.821
605.42	9.255
605.75	8.713
606.09	9.045
606.42	8.424
606.75	8.874
607.09	9.934
607.42	8.551
607.75	8.348
608.08	9.119
608.42	9.411
608.75	9.108
609.08	8.969
609.41	9.086
609.75	8.720
610.08	9.835
610.41	8.696
610.74	8.337
611.07	9.147
611.41	9.237
611.74	9.435
612.07	8.191
612.40	10.175
612.73	8.531
613.07	8.830
613.40	9.519
613.73	9.065
614.06	9.961
614.39	9.250
614.72	9.636
615.06	9.218
615.39	8.570
615.72	9.096
616.05	10.000
616.38	9.003
616.71	8.746
617.05	9.327
617.38	8.925
617.71	8.994
618.04	9.778
618.37	10.025
618.70	9.637
619.03	9.583
619.36	8.611
619.69	9.704
620.03	9.861
620.36	9.299
620.69	9.279
621.02	9.021
621.35	8.216
621.68	9.014
622.01	9.917
622.34	11.253
622.67	9.700
623.00	9.724
623.33	9.832
623.66	9.125
623.99	9.380
624.32	10.190
624.65	9.624
624.99	9.707
625.32	8.643
625.65	9.819
625.98	10.314
626.31	8.146
626.64	9.879
626.97	9.948
627.30	9.457
627.63	9.792
627.96	8.985
628.29	8.418
628.62	9.046
628.95	9.519
629.28	9.677
629.61	8.973
629.94	10.166
630.26	9.783
630.59	10.094
630.92	10.359
631.25	8.308
631.58	8.811
631.91	7.237
632.24	8.945
632.57	9.886
632.90	9.253
633.23	9.882
633.56	9.194
633.89	10.358
634.22	9.753
634.55	9.022
634.88	8.812
635.20	9.359
635.53	10.133
635.86	8.843
636.19	9.056
636.52	9.184
636.85	7.940
637.18	7.925
637.51	10.189
637.83	10.118
638.16	10.095
638.49	9.264
638.82	9.868
639.15	8.548
639.48	11.004
639.81	9.344
640.13	8.514
640.46	7.872
640.79	8.247
641.12	9.749
641.45	10.060
641.77	10.222
642.10	11.532
642.43	9.968
642.76	10.726
643.09	10.178
643.41	9.709
643.74	10.708
644.07	8.703
644.40	10.304
644.73	11.384
645.05	9.396
645.38	10.758
645.71	9.220
646.04	11.849
646.36	10.816
646.69	12.410
647.02	10.208
647.35	10.075
647.67	10.603
648.00	8.396
648.33	12.628
648.66	10.000
648.98	6.030
649.31	8.760
649.64	8.791
649.96	8.104
650.29	9.881
650.62	9.744
650.94	10.000
651.27	6.704
651.60	8.288
651.92	9.790
652.25	9.947
652.58	10.000
652.90	12.864
653.23	8.235
653.56	8.629
653.88	9.278
654.21	6.480
654.54	11.036
654.86	9.508
655.19	8.772
655.52	9.675
655.84	8.237
656.17	9.154
656.49	12.364
656.82	12.930
657.15	9.994
