SpectraSuite Data File
++++++++++++++++++++++++++++++++++++
Date: Fri May 15 21:12:41 PDT 2015
User: schluterlab
Dark Spectrum Present: Yes
Reference Spectrum Present: Yes
Number of Sampled Component Spectra: 1
Spectrometers: USB2E3373
Integration Time (usec): 3000 (USB2E3373)
Spectra Averaged: 3 (USB2E3373)
Boxcar Smoothing: 0 (USB2E3373)
Correct for Electrical Dark: No (USB2E3373)
Strobe/Lamp Enabled: No (USB2E3373)
Correct for Detector Non-linearity: No (USB2E3373)
Correct for Stray Light: No (USB2E3373)
Number of Pixels in Processed Spectrum: 2048
>>>>>Begin Processed Spectral Data<<<<<
178.53	0.000
178.91	0.000
179.29	125.000
179.67	-500.000
180.04	28.571
180.42	200.000
180.80	-900.000
181.18	366.667
181.56	100.000
181.94	-350.000
182.31	700.000
182.69	-140.000
183.07	-400.000
183.45	-200.000
183.83	100.000
184.20	27.273
184.58	66.667
184.96	-75.000
185.34	133.333
185.72	-350.000
186.09	130.769
186.47	-800.000
186.85	183.333
187.23	155.556
187.61	-300.000
187.98	-300.000
188.36	44.444
188.74	-266.667
189.12	23.529
189.49	55.556
189.87	0.000
190.25	35.714
190.63	150.000
191.00	-233.333
191.38	5.263
191.76	-100.000
192.14	250.000
192.51	100.000
192.89	111.111
193.27	-85.714
193.65	133.333
194.02	172.727
194.40	30.000
194.78	-112.500
195.15	-25.000
195.53	0.000
195.91	450.000
196.29	0.000
196.66	107.692
197.04	85.714
197.42	-44.444
197.79	-200.000
198.17	-153.846
198.55	900.000
198.92	-166.667
199.30	-1400.000
199.68	-20.000
200.05	-166.667
200.43	0.000
200.81	-166.667
201.18	-33.333
201.56	1300.000
201.94	-200.000
202.31	266.667
202.69	-220.000
203.07	175.000
203.44	-600.000
203.82	0.000
204.19	21.429
204.57	-500.000
204.95	100.000
205.32	20.000
205.70	42.857
206.08	-50.000
206.45	188.889
206.83	42.857
207.20	-257.143
207.58	200.000
207.96	-600.000
208.33	-140.000
208.71	-100.000
209.08	-250.000
209.46	100.000
209.84	80.000
210.21	-1000.000
210.59	42.857
210.96	-133.333
211.34	-225.000
211.71	-26.667
212.09	-142.857
212.46	-2400.000
212.84	0.000
213.22	-10.000
213.59	550.000
213.97	107.692
214.34	36.364
214.72	-216.667
215.09	500.000
215.47	-30.769
215.84	-45.455
216.22	-333.333
216.59	-75.000
216.97	-450.000
217.34	-125.000
217.72	-140.000
218.09	-62.500
218.47	150.000
218.84	0.000
219.22	-88.889
219.59	-80.000
219.97	266.667
220.34	325.000
220.72	14.286
221.09	-325.000
221.47	-100.000
221.84	-500.000
222.22	-700.000
222.59	45.455
222.97	0.000
223.34	-133.333
223.72	-78.571
224.09	-28.571
224.46	-17.857
224.84	466.667
225.21	-40.000
225.59	-33.333
225.96	-150.000
226.34	325.000
226.71	-57.143
227.08	-33.333
227.46	-25.000
227.83	-500.000
228.21	66.667
228.58	54.545
228.95	12.500
229.33	150.000
229.70	18.750
230.08	-125.000
230.45	-142.857
230.82	0.000
231.20	0.000
231.57	7.143
231.95	-114.286
232.32	-70.000
232.69	-28.571
233.07	-233.333
233.44	-100.000
233.81	-20.000
234.19	44.444
234.56	-17.647
234.93	650.000
235.31	225.000
235.68	-200.000
236.05	-69.231
236.43	-35.000
236.80	-58.824
237.17	18.750
237.55	-70.000
237.92	-18.519
238.29	-16.667
238.67	-20.000
239.04	-17.647
239.41	-19.512
239.79	-23.333
240.16	-12.195
240.53	-13.158
240.91	-19.565
241.28	3.175
241.65	0.000
242.02	13.699
242.40	6.667
242.77	3.390
243.14	-7.576
243.51	7.500
243.89	6.897
244.26	-10.345
244.63	-8.333
245.00	-6.186
245.38	1.031
245.75	-12.360
246.12	-6.897
246.49	-0.826
246.87	-4.808
247.24	-7.563
247.61	-16.667
247.98	-7.317
248.36	5.000
248.73	-2.632
249.10	-6.494
249.47	-1.266
249.84	-5.882
250.22	0.588
250.59	-9.804
250.96	4.225
251.33	-2.326
251.70	-6.471
252.08	-4.061
252.45	0.000
252.82	-0.503
253.19	0.922
253.56	-4.673
253.94	0.901
254.31	2.174
254.68	-2.193
255.05	-2.362
255.42	-3.930
255.79	0.000
256.16	3.502
256.54	3.358
256.91	1.141
257.28	-1.115
257.65	-4.869
258.02	-1.418
258.39	0.673
258.76	6.227
259.14	1.329
259.51	-1.618
259.88	-2.749
260.25	0.000
260.62	-1.389
260.99	-2.034
261.36	-2.055
261.73	-2.532
262.10	4.559
262.47	0.000
262.85	1.567
263.22	-1.846
263.59	1.869
263.96	1.242
264.33	0.303
264.70	-2.381
265.07	-3.274
265.44	0.283
265.81	0.282
266.18	2.732
266.55	2.571
266.92	-0.259
267.29	-0.522
267.66	1.535
268.03	2.880
268.40	-1.567
268.77	2.674
269.14	-0.480
269.51	2.057
269.88	-2.244
270.25	-1.531
270.62	-1.220
270.99	-1.790
271.36	-0.978
271.73	1.643
272.10	-1.217
272.47	0.236
272.84	-2.228
273.21	1.624
273.58	1.446
273.95	1.831
274.32	-0.924
274.69	-1.584
275.06	0.446
275.43	-0.227
275.80	1.325
276.17	-2.299
276.54	-0.428
276.91	0.439
277.28	-0.218
277.65	2.479
278.02	-1.489
278.39	0.656
278.76	1.677
279.13	-2.075
279.50	0.420
279.87	2.592
280.23	-0.215
280.60	2.144
280.97	1.414
281.34	-0.192
281.71	0.000
282.08	-0.818
282.45	0.978
282.82	-1.931
283.19	0.580
283.56	0.578
283.92	0.190
284.29	0.192
284.66	0.581
285.03	-2.161
285.40	0.000
285.77	0.703
286.14	0.722
286.51	1.476
286.87	-0.731
287.24	0.921
287.61	0.176
287.98	1.754
288.35	0.347
288.72	0.701
289.08	1.042
289.45	0.879
289.82	0.524
290.19	0.000
290.56	1.029
290.93	-1.178
291.29	1.233
291.66	1.417
292.03	0.159
292.40	1.290
292.77	-0.319
293.13	-2.435
293.50	-0.303
293.87	0.763
294.24	0.309
294.60	0.596
294.97	0.893
295.34	1.227
295.71	0.000
296.08	1.196
296.44	-1.565
296.81	0.556
297.18	-1.884
297.55	2.981
297.91	0.685
298.28	2.375
298.65	0.271
299.02	0.000
299.38	-0.958
299.75	0.552
300.12	0.654
300.48	-0.132
300.85	0.760
301.22	0.390
301.59	0.789
301.95	1.266
302.32	1.427
302.69	1.990
303.05	0.000
303.42	1.494
303.79	0.117
304.15	1.673
304.52	-0.119
304.89	0.585
305.25	0.363
305.62	0.117
305.99	0.468
306.35	-0.347
306.72	-1.012
307.09	0.684
307.45	0.344
307.82	1.273
308.19	-0.116
308.55	1.418
308.92	2.288
309.29	0.447
309.65	1.076
310.02	0.440
310.38	0.768
310.75	0.765
311.12	1.615
311.48	1.060
311.85	0.628
312.22	1.055
312.58	1.274
312.95	0.107
313.31	0.621
313.68	1.047
314.05	1.224
314.41	1.856
314.78	1.134
315.14	2.467
315.51	3.623
315.87	2.357
316.24	3.640
316.61	3.740
316.97	3.968
317.34	3.418
317.70	3.920
318.07	4.712
318.43	5.490
318.80	5.019
319.16	6.836
319.53	6.363
319.89	7.087
320.26	7.794
320.62	7.823
320.99	7.620
321.35	7.091
321.72	9.138
322.08	9.869
322.45	11.269
322.81	11.788
323.18	11.482
323.54	11.293
323.91	12.463
324.27	13.379
324.64	14.981
325.00	17.153
325.37	17.723
325.73	17.407
326.10	18.710
326.46	20.269
326.83	20.210
327.19	21.099
327.56	22.242
327.92	24.208
328.29	23.839
328.65	25.566
329.01	26.471
329.38	25.806
329.74	27.290
330.11	28.545
330.47	27.922
330.84	28.654
331.20	30.133
331.56	28.611
331.93	30.776
332.29	31.531
332.66	31.855
333.02	31.784
333.38	32.356
333.75	32.418
334.11	33.124
334.48	33.545
334.84	34.066
335.20	34.309
335.57	33.364
335.93	36.134
336.29	35.912
336.66	35.876
337.02	35.688
337.38	36.667
337.75	37.455
338.11	37.782
338.47	36.405
338.84	37.338
339.20	37.751
339.56	37.431
339.93	38.675
340.29	38.716
340.65	37.634
341.02	38.032
341.38	40.000
341.74	38.958
342.11	38.042
342.47	40.569
342.83	40.052
343.20	39.373
343.56	40.522
343.92	39.770
344.28	41.588
344.65	40.328
345.01	40.795
345.37	40.538
345.73	40.586
346.10	42.019
346.46	41.884
346.82	40.835
347.19	41.729
347.55	40.936
347.91	42.233
348.27	40.986
348.63	40.801
349.00	42.166
349.36	44.140
349.72	44.362
350.08	41.885
350.45	42.219
350.81	42.857
351.17	43.322
351.53	43.429
351.89	42.279
352.26	42.400
352.62	43.387
352.98	42.892
353.34	42.110
353.70	42.961
354.07	42.339
354.43	44.516
354.79	43.765
355.15	42.778
355.51	43.987
355.87	44.660
356.24	43.230
356.60	43.897
356.96	45.159
357.32	43.051
357.68	44.566
358.04	44.669
358.40	44.212
358.77	44.258
359.13	44.996
359.49	43.297
359.85	43.604
360.21	45.774
360.57	44.223
360.93	44.705
361.29	43.807
361.66	45.298
362.02	45.606
362.38	45.088
362.74	45.874
363.10	46.877
363.46	46.034
363.82	45.530
364.18	45.092
364.54	45.441
364.90	45.233
365.26	46.652
365.62	47.445
365.98	46.334
366.35	47.487
366.71	48.411
367.07	46.226
367.43	47.232
367.79	47.350
368.15	46.088
368.51	46.540
368.87	48.098
369.23	46.643
369.59	47.157
369.95	47.874
370.31	47.543
370.67	48.657
371.03	46.527
371.39	47.192
371.75	47.546
372.11	46.576
372.47	48.225
372.83	47.268
373.19	47.646
373.55	46.931
373.91	47.372
374.27	48.547
374.63	49.390
374.99	46.809
375.35	47.702
375.71	48.462
376.07	48.244
376.42	48.163
376.78	47.987
377.14	48.815
377.50	48.738
377.86	48.126
378.22	47.607
378.58	48.397
378.94	48.582
379.30	48.846
379.66	48.652
380.02	47.885
380.38	48.265
380.74	48.594
381.09	49.816
381.45	48.869
381.81	48.674
382.17	48.731
382.53	48.220
382.89	49.969
383.25	47.791
383.61	48.841
383.97	48.698
384.32	47.905
384.68	48.978
385.04	47.059
385.40	47.604
385.76	49.874
386.12	49.224
386.48	48.851
386.83	48.256
387.19	48.657
387.55	48.620
387.91	48.655
388.27	47.863
388.62	48.206
388.98	48.987
389.34	48.032
389.70	50.155
390.06	48.018
390.42	49.288
390.77	48.071
391.13	47.667
391.49	49.353
391.85	48.863
392.20	47.834
392.56	48.951
392.92	49.501
393.28	48.939
393.64	47.628
393.99	49.342
394.35	47.375
394.71	49.361
395.07	48.020
395.42	47.359
395.78	48.534
396.14	47.352
396.50	48.954
396.85	49.131
397.21	47.368
397.57	47.712
397.92	47.334
398.28	47.874
398.64	46.386
399.00	48.138
399.35	46.275
399.71	47.731
400.07	48.186
400.42	48.103
400.78	47.397
401.14	48.578
401.49	47.409
401.85	46.435
402.21	47.108
402.57	47.375
402.92	46.989
403.28	47.932
403.63	47.415
403.99	46.684
404.35	48.032
404.70	46.190
405.06	47.239
405.42	47.545
405.77	46.659
406.13	46.915
406.49	46.596
406.84	47.738
407.20	47.863
407.55	47.392
407.91	45.989
408.27	47.419
408.62	46.338
408.98	46.396
409.34	46.716
409.69	46.641
410.05	44.951
410.40	45.741
410.76	46.381
411.11	45.562
411.47	47.009
411.83	45.386
412.18	46.203
412.54	45.630
412.89	45.074
413.25	46.691
413.60	46.087
413.96	44.908
414.31	45.610
414.67	44.387
415.03	44.940
415.38	45.039
415.74	45.147
416.09	45.265
416.45	46.253
416.80	45.076
417.16	45.028
417.51	44.903
417.87	44.459
418.22	45.725
418.58	45.753
418.93	45.141
419.29	43.726
419.64	44.848
420.00	46.411
420.35	43.761
420.71	45.322
421.06	45.549
421.42	43.750
421.77	43.179
422.12	42.963
422.48	44.342
422.83	43.794
423.19	43.736
423.54	43.504
423.90	43.227
424.25	43.628
424.61	44.614
424.96	43.496
425.31	44.367
425.67	43.897
426.02	44.700
426.38	44.208
426.73	44.613
427.09	45.127
427.44	43.353
427.79	43.901
428.15	42.718
428.50	43.368
428.85	42.199
429.21	42.728
429.56	43.127
429.92	43.195
430.27	41.604
430.62	42.446
430.98	42.728
431.33	41.851
431.68	43.014
432.04	42.258
432.39	42.327
432.74	41.311
433.10	43.161
433.45	42.891
433.80	42.310
434.16	41.551
434.51	42.688
434.86	42.509
435.22	42.569
435.57	42.296
435.92	42.216
436.28	41.682
436.63	41.928
436.98	40.672
437.34	42.226
437.69	42.159
438.04	41.368
438.39	40.562
438.75	42.380
439.10	40.917
439.45	41.935
439.81	40.856
440.16	41.627
440.51	41.970
440.86	42.477
441.22	39.706
441.57	41.060
441.92	42.130
442.27	41.574
442.63	41.756
442.98	40.494
443.33	40.623
443.68	40.371
444.03	40.238
444.39	40.187
444.74	41.750
445.09	40.646
445.44	40.855
445.79	40.485
446.15	39.703
446.50	39.823
446.85	40.595
447.20	39.885
447.55	40.681
447.91	39.650
448.26	39.954
448.61	39.954
448.96	41.021
449.31	40.462
449.66	39.954
450.02	39.760
450.37	39.478
450.72	39.347
451.07	40.633
451.42	38.327
451.77	38.517
452.12	38.876
452.47	39.408
452.83	39.223
453.18	39.152
453.53	38.053
453.88	39.101
454.23	39.213
454.58	38.791
454.93	39.820
455.28	38.286
455.63	39.616
455.98	38.545
456.34	37.867
456.69	38.882
457.04	39.572
457.39	37.910
457.74	38.634
458.09	37.846
458.44	38.444
458.79	37.647
459.14	38.101
459.49	39.045
459.84	38.579
460.19	37.136
460.54	37.653
460.89	38.011
461.24	37.516
461.59	37.708
461.94	36.478
462.29	37.817
462.64	37.608
462.99	37.170
463.34	36.370
463.69	36.486
464.04	37.349
464.39	37.295
464.74	36.503
465.09	36.806
465.44	36.815
465.79	36.791
466.14	37.229
466.49	35.940
466.84	37.359
467.19	35.795
467.54	35.888
467.89	36.387
468.24	36.496
468.59	36.063
468.94	35.302
469.29	36.852
469.64	36.842
469.99	37.351
470.34	36.177
470.68	35.645
471.03	35.669
471.38	35.806
471.73	36.204
472.08	35.685
472.43	35.503
472.78	35.915
473.13	35.918
473.48	35.700
473.83	35.181
474.17	34.909
474.52	35.227
474.87	34.485
475.22	35.937
475.57	34.105
475.92	34.833
476.27	35.390
476.61	35.938
476.96	34.356
477.31	35.641
477.66	34.607
478.01	34.587
478.36	34.041
478.70	34.856
479.05	34.890
479.40	34.022
479.75	33.785
480.10	34.153
480.45	34.200
480.79	33.686
481.14	34.529
481.49	33.744
481.84	33.977
482.19	33.536
482.53	34.341
482.88	33.938
483.23	33.061
483.58	33.774
483.92	33.107
484.27	32.726
484.62	33.079
484.97	31.841
485.31	32.442
485.66	31.650
486.01	31.664
486.36	31.113
486.70	31.694
487.05	32.030
487.40	32.265
487.75	31.408
488.09	31.737
488.44	31.568
488.79	32.275
489.13	31.931
489.48	32.108
489.83	32.242
490.17	31.775
490.52	32.748
490.87	32.022
491.22	32.426
491.56	31.736
491.91	31.836
492.26	31.697
492.60	31.574
492.95	32.415
493.30	31.363
493.64	31.434
493.99	31.498
494.34	31.602
494.68	32.000
495.03	31.436
495.37	31.158
495.72	31.297
496.07	31.561
496.41	31.509
496.76	31.322
497.11	30.228
497.45	30.215
497.80	31.080
498.14	30.999
498.49	31.285
498.84	31.238
499.18	30.673
499.53	30.605
499.87	29.377
500.22	31.503
500.56	30.358
500.91	30.171
501.26	30.005
501.60	29.759
501.95	30.471
502.29	30.412
502.64	30.068
502.98	29.798
503.33	29.683
503.67	29.398
504.02	30.352
504.36	29.045
504.71	29.848
505.06	29.492
505.40	29.188
505.75	29.278
506.09	29.752
506.44	30.133
506.78	28.980
507.13	28.645
507.47	28.407
507.82	29.274
508.16	28.949
508.51	30.168
508.85	28.938
509.19	28.526
509.54	28.794
509.88	28.479
510.23	28.779
510.57	28.862
510.92	27.772
511.26	28.860
511.61	28.658
511.95	28.548
512.30	27.882
512.64	29.327
512.98	27.288
513.33	29.155
513.67	28.027
514.02	29.119
514.36	29.086
514.70	29.487
515.05	29.553
515.39	27.568
515.74	28.922
516.08	28.033
516.42	29.211
516.77	28.262
517.11	28.843
517.46	28.426
517.80	28.188
518.14	28.169
518.49	27.644
518.83	28.007
519.17	28.017
519.52	28.242
519.86	27.971
520.20	27.096
520.55	27.267
520.89	27.917
521.23	27.992
521.58	28.833
521.92	28.269
522.26	28.302
522.61	27.338
522.95	29.139
523.29	27.255
523.64	28.081
523.98	26.766
524.32	26.675
524.66	28.361
525.01	27.922
525.35	27.479
525.69	26.465
526.04	26.653
526.38	28.340
526.72	27.142
527.06	27.691
527.41	27.111
527.75	27.949
528.09	26.445
528.43	27.279
528.78	26.271
529.12	26.452
529.46	25.861
529.80	26.409
530.15	26.271
530.49	26.061
530.83	26.881
531.17	26.192
531.51	26.744
531.86	25.765
532.20	25.191
532.54	26.549
532.88	26.283
533.22	26.142
533.57	25.885
533.91	25.587
534.25	26.042
534.59	25.978
534.93	25.425
535.27	23.541
535.62	25.729
535.96	26.354
536.30	25.726
536.64	25.982
536.98	26.202
537.32	25.747
537.66	26.087
538.01	25.594
538.35	25.451
538.69	25.632
539.03	24.470
539.37	25.908
539.71	25.290
540.05	25.458
540.39	24.377
540.73	24.826
541.07	25.276
541.42	24.395
541.76	25.671
542.10	24.363
542.44	25.087
542.78	24.845
543.12	24.382
543.46	25.313
543.80	25.468
544.14	24.433
544.48	24.517
544.82	25.222
545.16	24.727
545.50	24.967
545.84	25.142
546.18	25.319
546.52	24.513
546.86	23.724
547.20	24.392
547.54	24.311
547.88	24.457
548.22	23.537
548.56	23.351
548.90	23.720
549.24	23.140
549.58	24.048
549.92	23.874
550.26	22.711
550.60	24.238
550.94	24.421
551.28	24.498
551.62	23.692
551.96	23.985
552.30	23.538
552.64	23.766
552.98	24.262
553.32	23.538
553.66	23.367
554.00	23.723
554.34	23.929
554.68	23.230
555.02	23.586
555.36	23.186
555.69	21.905
556.03	22.769
556.37	23.132
556.71	22.455
557.05	22.595
557.39	22.454
557.73	23.013
558.07	23.379
558.41	22.818
558.75	23.383
559.08	23.325
559.42	22.937
559.76	22.738
560.10	22.554
560.44	23.753
560.78	22.727
561.12	22.638
561.45	22.839
561.79	22.059
562.13	23.066
562.47	21.655
562.81	23.127
563.15	22.144
563.48	22.065
563.82	22.718
564.16	22.006
564.50	22.230
564.84	22.222
565.17	21.596
565.51	23.019
565.85	22.359
566.19	22.281
566.52	22.989
566.86	22.172
567.20	20.922
567.54	21.655
567.88	21.910
568.21	21.946
568.55	21.304
568.89	21.817
569.23	21.521
569.56	21.103
569.90	20.706
570.24	20.692
570.57	20.727
570.91	20.600
571.25	20.651
571.59	20.149
571.92	19.585
572.26	19.988
572.60	19.690
572.93	19.611
573.27	19.875
573.61	19.988
573.95	19.716
574.28	19.306
574.62	18.942
574.96	19.322
575.29	19.006
575.63	18.476
575.97	18.677
576.30	19.173
576.64	19.046
576.98	19.588
577.31	19.341
577.65	19.060
577.98	19.294
578.32	18.832
578.66	18.569
578.99	18.952
579.33	18.661
579.67	18.774
580.00	19.114
580.34	19.080
580.67	18.546
581.01	18.900
581.35	18.519
581.68	18.382
582.02	18.499
582.35	18.644
582.69	18.309
583.02	18.351
583.36	18.476
583.70	19.315
584.03	18.571
584.37	19.339
584.70	18.489
585.04	18.031
585.37	18.182
585.71	18.193
586.04	18.432
586.38	18.111
586.72	18.852
587.05	18.804
587.39	18.479
587.72	18.972
588.06	18.433
588.39	18.371
588.73	18.315
589.06	18.395
589.40	18.839
589.73	18.656
590.07	18.995
590.40	18.576
590.73	18.287
591.07	18.872
591.40	19.190
591.74	19.095
592.07	18.553
592.41	18.375
592.74	18.399
593.08	17.569
593.41	18.089
593.75	18.613
594.08	17.851
594.41	18.195
594.75	18.244
595.08	17.783
595.42	17.593
595.75	17.987
596.09	18.061
596.42	18.355
596.75	18.073
597.09	18.679
597.42	18.473
597.75	18.232
598.09	18.153
598.42	17.825
598.76	17.417
599.09	17.548
599.42	17.545
599.76	17.532
600.09	17.345
600.42	17.210
600.76	17.348
601.09	17.901
601.42	17.039
601.76	17.705
602.09	17.327
602.42	17.270
602.76	17.699
603.09	17.650
603.42	17.851
603.76	16.976
604.09	17.456
604.42	17.978
604.76	17.713
605.09	18.190
605.42	17.472
605.75	17.601
606.09	17.367
606.42	17.306
606.75	16.883
607.09	17.187
607.42	17.147
607.75	16.430
608.08	17.071
608.42	17.222
608.75	17.108
609.08	16.941
609.41	17.310
609.75	16.431
610.08	17.823
610.41	16.473
610.74	17.162
611.07	16.693
611.41	17.540
611.74	16.738
612.07	17.666
612.40	17.287
612.73	17.345
613.07	16.648
613.40	17.560
613.73	16.900
614.06	17.529
614.39	17.654
614.72	16.583
615.06	17.933
615.39	16.812
615.72	17.008
616.05	17.374
616.38	16.923
616.71	17.064
617.05	17.048
617.38	16.468
617.71	17.736
618.04	17.714
618.37	18.096
618.70	17.360
619.03	17.917
619.36	16.932
619.69	17.362
620.03	18.700
620.36	17.239
620.69	17.273
621.02	17.584
621.35	17.593
621.68	16.837
622.01	17.583
622.34	17.717
622.67	18.691
623.00	17.611
623.33	16.159
623.66	16.679
623.99	16.415
624.32	17.490
624.65	17.744
624.99	16.704
625.32	15.618
625.65	17.125
625.98	17.325
626.31	16.708
626.64	18.111
626.97	17.888
627.30	16.375
627.63	18.198
627.96	17.161
628.29	17.206
628.62	17.699
628.95	17.034
629.28	17.540
629.61	15.952
629.94	17.302
630.26	17.292
630.59	18.522
630.92	17.128
631.25	17.333
631.58	17.621
631.91	17.325
632.24	15.940
632.57	18.523
632.90	17.319
633.23	16.706
633.56	17.632
633.89	17.633
634.22	17.531
634.55	18.424
634.88	17.369
635.20	16.923
635.53	17.333
635.86	17.815
