SpectraSuite Data File
++++++++++++++++++++++++++++++++++++
Date: Fri May 15 21:07:39 PDT 2015
User: schluterlab
Dark Spectrum Present: Yes
Reference Spectrum Present: Yes
Number of Sampled Component Spectra: 1
Spectrometers: USB2E3373
Integration Time (usec): 3000 (USB2E3373)
Spectra Averaged: 3 (USB2E3373)
Boxcar Smoothing: 0 (USB2E3373)
Correct for Electrical Dark: No (USB2E3373)
Strobe/Lamp Enabled: No (USB2E3373)
Correct for Detector Non-linearity: No (USB2E3373)
Correct for Stray Light: No (USB2E3373)
Number of Pixels in Processed Spectrum: 2048
>>>>>Begin Processed Spectral Data<<<<<
178.53	0.000
178.91	0.000
179.29	50.000
179.67	-450.000
180.04	57.143
180.42	200.000
180.80	-700.000
181.18	133.333
181.56	1150.000
181.94	150.000
182.31	-500.000
182.69	20.000
183.07	-400.000
183.45	-120.000
183.83	183.333
184.20	-54.545
184.58	155.556
184.96	-25.000
185.34	166.667
185.72	-350.000
186.09	92.308
186.47	-1000.000
186.85	183.333
187.23	144.444
187.61	-300.000
187.98	-300.000
188.36	-55.556
188.74	-400.000
189.12	-11.765
189.49	22.222
189.87	0.000
190.25	7.143
190.63	100.000
191.00	-266.667
191.38	-21.053
191.76	-450.000
192.14	-0.000
192.51	-500.000
192.89	-122.222
193.27	-114.286
193.65	200.000
194.02	154.545
194.40	-40.000
194.78	-162.500
195.15	-58.333
195.53	12.500
195.91	300.000
196.29	-25.000
196.66	92.308
197.04	142.857
197.42	-66.667
197.79	-766.667
198.17	-76.923
198.55	2300.000
198.92	-200.000
199.30	-500.000
199.68	-160.000
200.05	0.000
200.43	0.000
200.81	-33.333
201.18	-100.000
201.56	1700.000
201.94	-250.000
202.31	-100.000
202.69	-220.000
203.07	125.000
203.44	300.000
203.82	0.000
204.19	42.857
204.57	-300.000
204.95	75.000
205.32	-30.000
205.70	-157.143
206.08	-50.000
206.45	166.667
206.83	42.857
207.20	14.286
207.58	-200.000
207.96	-400.000
208.33	-30.000
208.71	-325.000
209.08	-233.333
209.46	-800.000
209.84	-60.000
210.21	-600.000
210.59	-71.429
210.96	100.000
211.34	-400.000
211.71	26.667
212.09	-142.857
212.46	-1500.000
212.84	0.000
213.22	110.000
213.59	650.000
213.97	30.769
214.34	-27.273
214.72	-100.000
215.09	525.000
215.47	-15.385
215.84	-36.364
216.22	-333.333
216.59	0.000
216.97	200.000
217.34	175.000
217.72	-100.000
218.09	100.000
218.47	62.500
218.84	-300.000
219.22	-11.111
219.59	-200.000
219.97	566.667
220.34	325.000
220.72	-142.857
221.09	0.000
221.47	100.000
221.84	-800.000
222.22	-950.000
222.59	-72.727
222.97	-50.000
223.34	-266.667
223.72	-107.143
224.09	-23.810
224.46	0.000
224.84	433.333
225.21	-40.000
225.59	40.000
225.96	-750.000
226.34	175.000
226.71	-228.571
227.08	-83.333
227.46	-62.500
227.83	-650.000
228.21	-33.333
228.58	0.000
228.95	0.000
229.33	170.000
229.70	-37.500
230.08	-225.000
230.45	-42.857
230.82	42.857
231.20	-20.000
231.57	-21.429
231.95	-14.286
232.32	-100.000
232.69	14.286
233.07	-33.333
233.44	40.000
233.81	-80.000
234.19	-77.778
234.56	-41.176
234.93	100.000
235.31	-25.000
235.68	-280.000
236.05	-100.000
236.43	-35.000
236.80	-58.824
237.17	-18.750
237.55	-40.000
237.92	-37.037
238.29	-5.556
238.67	-3.333
239.04	-14.706
239.41	-43.902
239.79	-33.333
240.16	17.073
240.53	-7.895
240.91	0.000
241.28	6.349
241.65	-10.714
242.02	6.849
242.40	3.333
242.77	-3.390
243.14	-6.061
243.51	2.500
243.89	6.897
244.26	-11.494
244.63	0.000
245.00	12.371
245.38	0.000
245.75	-20.225
246.12	0.862
246.49	4.132
246.87	-5.769
247.24	0.840
247.61	-15.789
247.98	-6.504
248.36	1.875
248.73	1.974
249.10	-6.494
249.47	-0.633
249.84	0.000
250.22	-1.176
250.59	-7.843
250.96	4.695
251.33	-2.907
251.70	-7.059
252.08	0.000
252.45	-1.485
252.82	6.533
253.19	-1.843
253.56	-6.075
253.94	0.000
254.31	3.913
254.68	2.193
255.05	0.394
255.42	-0.873
255.79	2.703
256.16	-0.778
256.54	2.239
256.91	0.000
257.28	-1.487
257.65	-0.749
258.02	-1.418
258.39	4.377
258.76	1.832
259.14	5.316
259.51	2.589
259.88	1.031
260.25	-1.634
260.62	-0.347
260.99	-1.695
261.36	-5.137
261.73	-0.316
262.10	1.520
262.47	-1.534
262.85	-0.313
263.22	0.000
263.59	1.869
263.96	0.932
264.33	1.818
264.70	-4.167
265.07	-0.298
265.44	1.700
265.81	1.130
266.18	-0.820
266.55	1.799
266.92	1.554
267.29	1.567
267.66	2.302
268.03	1.832
268.40	-2.872
268.77	0.802
269.14	1.918
269.51	0.257
269.88	0.998
270.25	-1.786
270.62	2.439
270.99	-1.023
271.36	0.244
271.73	0.469
272.10	0.000
272.47	0.709
272.84	0.000
273.21	3.712
273.58	0.964
273.95	2.746
274.32	-1.386
274.69	0.226
275.06	0.893
275.43	0.680
275.80	2.428
276.17	-0.920
276.54	1.285
276.91	0.439
277.28	-0.655
277.65	0.620
278.02	1.277
278.39	0.000
278.76	0.419
279.13	-0.207
279.50	2.941
279.87	3.024
280.23	-1.505
280.60	1.754
280.97	3.636
281.34	0.769
281.71	3.080
282.08	-1.636
282.45	1.174
282.82	0.000
283.19	1.161
283.56	-0.963
283.92	-1.139
284.29	-0.192
284.66	1.550
285.03	0.589
285.40	0.756
285.77	0.000
286.14	1.444
286.51	0.554
286.87	0.914
287.24	0.552
287.61	-0.882
287.98	2.105
288.35	1.213
288.72	2.452
289.08	1.215
289.45	0.703
289.82	1.049
290.19	-0.171
290.56	0.343
290.93	-0.842
291.29	0.154
291.66	1.102
292.03	-0.797
292.40	0.968
292.77	-0.797
293.13	-2.110
293.50	-0.759
293.87	2.443
294.24	2.318
294.60	0.894
294.97	1.935
295.34	-0.307
295.71	0.149
296.08	0.299
296.44	-1.707
296.81	0.694
297.18	-0.580
297.55	0.813
297.91	0.959
298.28	1.451
298.65	0.814
299.02	0.135
299.38	-1.505
299.75	0.276
300.12	0.000
300.48	-0.659
300.85	2.028
301.22	0.779
301.59	0.263
301.95	1.392
302.32	0.908
302.69	1.244
303.05	-1.238
303.42	1.619
303.79	2.103
304.15	2.151
304.52	0.000
304.89	0.234
305.25	0.484
305.62	-0.583
305.99	0.468
306.35	1.040
306.72	-1.462
307.09	0.684
307.45	1.378
307.82	-0.116
308.19	1.626
308.55	0.981
308.92	1.089
309.29	-1.229
309.65	0.969
310.02	0.440
310.38	1.317
310.75	0.765
311.12	1.076
311.48	0.424
311.85	0.838
312.22	1.160
312.58	1.062
312.95	0.320
313.31	0.621
313.68	0.733
314.05	0.408
314.41	0.928
314.78	1.237
315.14	0.617
315.51	1.139
315.87	0.922
316.24	2.730
316.61	0.886
316.97	2.679
317.34	0.977
317.70	1.052
318.07	1.827
318.43	0.980
318.80	0.663
319.16	2.051
319.53	1.899
319.89	1.772
320.26	1.822
320.62	3.310
320.99	1.879
321.35	2.569
321.72	2.700
322.08	2.719
322.45	2.843
322.81	2.947
323.18	2.453
323.54	1.351
323.91	3.019
324.27	4.004
324.64	3.371
325.00	3.285
325.37	5.142
325.73	3.173
326.10	4.632
326.46	4.484
326.83	4.374
327.19	4.621
327.56	5.039
327.92	5.546
328.29	5.893
328.65	5.943
329.01	5.699
329.38	5.991
329.74	4.438
330.11	4.634
330.47	4.824
330.84	5.673
331.20	7.034
331.56	7.130
331.93	5.845
332.29	7.424
332.66	5.611
333.02	5.855
333.38	6.416
333.75	6.685
334.11	6.088
334.48	7.344
334.84	7.692
335.20	7.502
335.57	6.981
335.93	8.491
336.29	7.366
336.66	7.266
337.02	5.855
337.38	6.111
337.75	6.727
338.11	7.484
338.47	7.208
338.84	7.209
339.20	7.952
339.56	6.881
339.93	7.252
340.29	7.615
340.65	8.065
341.02	8.333
341.38	6.903
341.74	7.597
342.11	6.846
342.47	7.295
342.83	7.180
343.20	7.143
343.56	7.043
343.92	7.795
344.28	8.369
344.65	7.772
345.01	6.309
345.37	7.317
345.73	9.205
346.10	8.110
346.46	7.485
346.82	7.856
347.19	6.484
347.55	6.683
347.91	8.172
348.27	7.518
348.63	7.581
349.00	6.727
349.36	7.814
349.72	7.960
350.08	7.787
350.45	8.699
350.81	6.977
351.17	6.107
351.53	7.837
351.89	7.102
352.26	6.560
352.62	7.258
352.98	6.426
353.34	6.602
353.70	8.252
354.07	7.661
354.43	7.366
354.79	6.854
355.15	7.619
355.51	7.358
355.87	7.120
356.24	6.525
356.60	7.680
356.96	8.571
357.32	6.470
357.68	7.662
358.04	6.785
358.40	7.717
358.77	7.496
359.13	6.966
359.49	6.857
359.85	7.332
360.21	7.177
360.57	7.804
360.93	7.867
361.29	6.647
361.66	7.602
362.02	6.894
362.38	7.921
362.74	6.813
363.10	7.976
363.46	7.561
363.82	8.189
364.18	7.970
364.54	7.206
364.90	6.882
365.26	6.769
365.62	8.540
365.98	7.991
366.35	8.157
366.71	7.687
367.07	7.983
367.43	7.405
367.79	8.410
368.15	7.681
368.51	7.575
368.87	7.681
369.23	7.726
369.59	6.924
369.95	7.405
370.31	7.948
370.67	7.761
371.03	7.020
371.39	6.856
371.75	7.326
372.11	7.917
372.47	7.692
372.83	7.310
373.19	8.631
373.55	7.004
373.91	7.847
374.27	7.796
374.63	8.830
374.99	7.305
375.35	7.939
375.71	8.392
376.07	8.638
376.42	8.435
376.78	7.987
377.14	7.651
377.50	8.499
377.86	8.099
378.22	7.977
378.58	7.949
378.94	8.129
379.30	8.297
379.66	8.966
380.02	7.357
380.38	7.973
380.74	7.361
381.09	8.773
381.45	8.746
381.81	8.637
382.17	8.566
382.53	8.120
382.89	7.721
383.25	8.090
383.61	9.085
383.97	7.238
384.32	8.005
384.68	7.864
385.04	8.333
385.40	7.654
385.76	8.428
386.12	8.732
386.48	9.451
386.83	7.736
387.19	9.158
387.55	7.842
387.91	7.763
388.27	8.364
388.62	8.999
388.98	8.287
389.34	9.119
389.70	8.515
390.06	8.307
390.42	8.484
390.77	8.110
391.13	8.512
391.49	8.344
391.85	8.642
392.20	8.475
392.56	8.074
392.92	8.925
393.28	8.019
393.64	8.228
393.99	9.718
394.35	8.286
394.71	8.876
395.07	7.982
395.42	8.440
395.78	8.534
396.14	8.764
396.50	9.004
396.85	8.822
397.21	8.772
397.57	9.404
397.92	8.987
398.28	8.908
398.64	8.434
399.00	9.594
399.35	8.747
399.71	9.650
400.07	9.674
400.42	8.629
400.78	9.920
401.14	9.377
401.49	9.291
401.85	9.689
402.21	9.096
402.57	8.688
402.92	8.846
403.28	9.712
403.63	9.584
403.99	8.992
404.35	9.182
404.70	8.869
405.06	9.283
405.42	9.260
405.77	9.355
406.13	8.964
406.49	9.236
406.84	9.474
407.20	9.573
407.55	8.757
407.91	9.759
408.27	9.242
408.62	10.708
408.98	9.489
409.34	10.471
409.69	8.721
410.05	9.606
410.40	9.198
410.76	9.891
411.11	9.312
411.47	10.454
411.83	9.353
412.18	9.073
412.54	10.237
412.89	9.852
413.25	9.928
413.60	9.565
413.96	9.816
414.31	9.939
414.67	9.942
415.03	9.920
415.38	9.726
415.74	10.423
416.09	10.581
416.45	9.791
416.80	10.311
417.16	10.428
417.51	10.859
417.87	9.974
418.22	10.751
418.58	9.632
418.93	10.596
419.29	9.987
419.64	10.110
420.00	11.335
420.35	10.448
420.71	10.996
421.06	10.374
421.42	10.817
421.77	10.520
422.12	10.102
422.48	10.233
422.83	10.557
423.19	10.553
423.54	9.465
423.90	9.717
424.25	11.137
424.61	10.526
424.96	10.511
425.31	10.919
425.67	11.209
426.02	12.014
426.38	11.083
426.73	11.138
427.09	11.709
427.44	10.647
427.79	11.196
428.15	11.529
428.50	10.963
428.85	10.135
429.21	11.092
429.56	11.267
429.92	11.145
430.27	11.028
430.62	10.925
430.98	10.297
431.33	11.041
431.68	11.198
432.04	10.453
432.39	11.181
432.74	10.102
433.10	11.839
433.45	11.649
433.80	10.505
434.16	10.859
434.51	11.452
434.86	12.253
435.22	11.385
435.57	11.541
435.92	11.557
436.28	11.389
436.63	12.151
436.98	11.240
437.34	11.071
437.69	11.449
438.04	11.168
438.39	11.912
438.75	11.840
439.10	11.545
439.45	11.869
439.81	11.804
440.16	11.758
440.51	11.701
440.86	13.172
441.22	12.161
441.57	12.031
441.92	11.962
442.27	12.361
442.63	12.848
442.98	11.947
443.33	11.241
443.68	11.724
444.03	12.866
444.39	12.592
444.74	12.263
445.09	13.530
445.44	12.593
445.79	12.893
446.15	11.564
446.50	12.368
446.85	12.487
447.20	11.835
447.55	12.612
447.91	12.296
448.26	12.294
448.61	12.263
448.96	12.851
449.31	11.792
449.66	12.311
450.02	11.865
450.37	11.974
450.72	12.027
451.07	12.215
451.42	12.360
451.77	12.297
452.12	12.321
452.47	11.848
452.83	12.367
453.18	12.271
453.53	12.832
453.88	12.933
454.23	12.047
454.58	12.594
454.93	12.436
455.28	12.381
455.63	12.585
455.98	12.868
456.34	12.899
456.69	13.024
457.04	13.863
457.39	12.211
457.74	13.180
458.09	11.830
458.44	12.229
458.79	12.717
459.14	13.043
459.49	12.836
459.84	13.085
460.19	13.167
460.54	12.958
460.89	12.955
461.24	12.795
461.59	12.530
461.94	12.201
462.29	13.812
462.64	12.625
462.99	13.067
463.34	13.004
463.69	12.741
464.04	13.499
464.39	12.856
464.74	13.067
465.09	12.227
465.44	13.156
465.79	11.621
466.14	13.968
466.49	13.283
466.84	12.968
467.19	13.079
467.54	13.921
467.89	12.192
468.24	13.139
468.59	14.095
468.94	12.190
469.29	14.164
469.64	14.286
469.99	13.104
470.34	12.833
470.68	14.467
471.03	14.437
471.38	13.409
471.73	13.305
472.08	12.890
472.43	13.691
472.78	13.571
473.13	13.605
473.48	13.941
473.83	12.889
474.17	14.119
474.52	14.167
474.87	13.818
475.22	13.057
475.57	13.326
475.92	14.098
476.27	14.086
476.61	13.889
476.96	12.883
477.31	13.034
477.66	13.652
478.01	13.925
478.36	13.671
478.70	14.899
479.05	14.286
479.40	13.302
479.75	13.399
480.10	13.671
480.45	14.300
480.79	14.048
481.14	13.678
481.49	12.759
481.84	13.465
482.19	13.424
482.53	14.005
482.88	13.699
483.23	13.532
483.58	13.443
483.92	13.311
484.27	13.127
484.62	14.030
484.97	13.308
485.31	13.223
485.66	12.681
486.01	12.591
486.36	12.252
486.70	12.811
487.05	12.598
487.40	12.797
487.75	13.324
488.09	12.639
488.44	13.446
488.79	13.112
489.13	13.742
489.48	13.510
489.83	13.408
490.17	13.348
490.52	13.118
490.87	13.559
491.22	13.992
491.56	12.903
491.91	13.767
492.26	14.098
492.60	14.012
492.95	14.314
493.30	13.727
493.64	14.244
493.99	13.768
494.34	13.301
494.68	14.238
495.03	13.285
495.37	14.230
495.72	14.488
496.07	14.146
496.41	13.491
496.76	13.588
497.11	13.600
497.45	14.368
497.80	13.875
498.14	13.860
498.49	14.170
498.84	14.671
499.18	14.307
499.53	14.236
499.87	13.375
500.22	14.491
500.56	14.271
500.91	14.056
501.26	13.890
501.60	13.478
501.95	14.556
502.29	14.528
502.64	14.865
502.98	13.863
503.33	13.833
503.67	13.494
504.02	14.516
504.36	14.795
504.71	14.141
505.06	14.947
505.40	14.213
505.75	14.588
506.09	14.648
506.44	14.784
506.78	15.000
507.13	15.202
507.47	14.151
507.82	14.423
508.16	14.422
508.51	14.428
508.85	14.704
509.19	15.168
509.54	15.067
509.88	15.426
510.23	15.869
510.57	15.500
510.92	14.126
511.26	15.385
511.61	15.622
511.95	15.342
512.30	15.521
512.64	16.027
512.98	15.553
513.33	16.116
513.67	15.748
514.02	16.590
514.36	16.400
514.70	16.900
515.05	16.510
515.39	16.116
515.74	17.665
516.08	17.095
516.42	16.961
516.77	17.671
517.11	16.617
517.46	16.338
517.80	16.985
518.14	16.412
518.49	16.587
518.83	16.221
519.17	15.525
519.52	16.459
519.86	16.026
520.20	16.282
520.55	15.885
520.89	17.064
521.23	17.543
521.58	17.603
521.92	17.628
522.26	16.526
522.61	16.623
522.95	18.212
523.29	17.408
523.64	18.107
523.98	17.822
524.32	17.204
524.66	18.438
525.01	17.792
525.35	18.276
525.69	16.162
526.04	16.931
526.38	17.964
526.72	17.332
527.06	17.704
527.41	17.678
527.75	16.153
528.09	17.874
528.43	18.433
528.78	17.030
529.12	16.258
529.46	17.219
529.80	17.416
530.15	18.152
530.49	17.845
530.83	17.305
531.17	17.193
531.51	17.237
531.86	16.451
532.20	16.493
532.54	17.155
532.88	18.275
533.22	18.280
533.57	16.972
533.91	15.470
534.25	16.471
534.59	16.421
534.93	16.992
535.27	16.878
535.62	15.619
535.96	16.438
536.30	17.744
536.64	17.298
536.98	17.352
537.32	17.852
537.66	17.602
538.01	17.133
538.35	15.881
538.69	16.445
539.03	16.746
539.37	16.555
539.71	17.178
540.05	16.497
540.39	17.244
540.73	17.085
541.07	17.196
541.42	18.212
541.76	16.999
542.10	15.554
542.44	15.844
542.78	16.724
543.12	15.728
543.46	15.994
543.80	16.794
544.14	15.154
544.48	16.456
544.82	16.610
545.16	17.077
545.50	16.222
545.84	16.643
546.18	16.525
546.52	15.501
546.86	16.535
547.20	15.880
547.54	15.265
547.88	16.984
548.22	15.976
548.56	16.491
548.90	16.509
549.24	16.736
549.58	17.066
549.92	16.011
550.26	17.143
550.60	15.985
550.94	16.953
551.28	15.920
551.62	16.538
551.96	15.865
552.30	15.351
552.64	15.585
552.98	16.104
553.32	16.049
553.66	15.239
554.00	15.912
554.34	15.657
554.68	15.708
555.02	16.295
555.36	16.006
555.69	15.238
556.03	15.275
556.37	15.658
556.71	15.379
557.05	16.331
557.39	15.688
557.73	15.742
558.07	16.591
558.41	15.544
558.75	16.056
559.08	16.233
559.42	16.032
559.76	15.372
560.10	16.055
560.44	15.190
560.78	15.944
561.12	16.502
561.45	15.741
561.79	15.826
562.13	16.111
562.47	15.899
562.81	15.706
563.15	15.867
563.48	16.124
563.82	15.580
564.16	15.599
564.50	14.865
564.84	15.663
565.17	14.353
565.51	16.052
565.85	16.461
566.19	15.716
566.52	16.086
566.86	15.231
567.20	14.882
567.54	15.207
567.88	15.290
568.21	16.120
568.55	14.348
568.89	14.117
569.23	14.155
569.56	14.842
569.90	14.251
570.24	13.063
570.57	13.636
570.91	13.803
571.25	12.825
571.59	12.987
571.92	12.830
572.26	12.832
572.60	13.209
572.93	13.241
573.27	13.103
573.61	12.649
573.95	13.108
574.28	12.341
574.62	12.611
574.96	12.840
575.29	13.226
575.63	12.153
575.97	12.659
576.30	12.511
576.64	12.238
576.98	12.535
577.31	12.263
577.65	12.408
577.98	12.299
578.32	12.138
578.66	12.229
578.99	12.190
579.33	12.291
579.67	12.364
580.00	12.962
580.34	12.463
580.67	12.141
581.01	12.104
581.35	12.489
581.68	12.183
582.02	12.369
582.35	12.275
582.69	12.232
583.02	11.792
583.36	12.302
583.70	12.435
584.03	12.677
584.37	12.846
584.70	12.445
585.04	12.047
585.37	12.359
585.71	12.392
586.04	11.977
586.38	11.843
586.72	12.511
587.05	12.998
587.39	12.832
587.72	12.931
588.06	12.344
588.39	12.988
588.73	13.004
589.06	12.851
589.40	12.582
589.73	12.742
590.07	13.520
590.40	12.964
590.73	13.262
591.07	13.232
591.40	13.179
591.74	13.575
592.07	13.683
592.41	13.516
592.74	13.023
593.08	11.946
593.41	12.784
593.75	12.823
594.08	12.324
594.41	12.227
594.75	12.405
595.08	12.751
595.42	12.698
595.75	13.068
596.09	13.135
596.42	13.146
596.75	13.366
597.09	13.212
597.42	12.827
597.75	12.414
598.09	12.268
598.42	13.222
598.76	12.613
599.09	12.821
599.42	11.823
599.76	12.340
600.09	12.066
600.42	12.206
600.76	11.887
601.09	12.252
601.42	12.299
601.76	12.267
602.09	12.583
602.42	13.606
602.76	12.436
603.09	12.292
603.42	13.002
603.76	12.379
604.09	12.556
604.42	12.606
604.76	12.773
605.09	13.346
605.42	12.551
605.75	12.215
606.09	12.187
606.42	12.344
606.75	12.554
607.09	13.231
607.42	12.140
607.75	12.478
608.08	12.579
608.42	12.471
608.75	12.819
609.08	12.008
609.41	13.046
609.75	13.054
610.08	12.831
610.41	12.222
610.74	12.579
611.07	12.972
611.41	12.870
611.74	13.006
612.07	12.313
612.40	13.786
612.73	13.220
613.07	12.711
613.40	13.184
613.73	12.591
614.06	13.300
614.39	13.311
614.72	12.941
615.06	12.961
615.39	12.336
615.72	12.917
616.05	12.570
616.38	11.567
616.71	12.538
617.05	13.774
617.38	12.382
617.71	14.340
618.04	12.635
618.37	13.745
618.70	14.191
619.03	14.306
619.36	13.386
619.69	13.874
620.03	13.514
620.36	13.448
620.69	13.919
621.02	13.609
621.35	13.693
621.68	14.371
622.01	13.500
622.34	14.685
622.67	14.038
623.00	13.936
623.33	13.643
623.66	13.313
623.99	14.297
624.32	13.384
624.65	12.782
624.99	13.394
625.32	13.343
625.65	14.768
625.98	14.343
626.31	13.466
626.64	15.338
626.97	15.358
627.30	14.361
627.63	14.731
627.96	14.196
628.29	15.079
628.62	15.438
628.95	16.032
629.28	14.516
629.61	14.058
629.94	14.370
630.26	14.625
630.59	15.297
630.92	13.846
631.25	13.949
631.58	12.996
631.91	14.364
632.24	14.908
632.57	14.659
632.90	14.235
633.23	14.235
633.56	15.617
633.89	15.290
634.22	16.914
634.55	16.137
634.88	15.453
635.20	15.000
635.53	17.067
635.86	15.085
636.19	16.300
636.52	14.541
636.85	13.275
637.18	14.340
637.51	15.975
637.83	15.375
638.16	18.145
638.49	13.896
638.82	15.921
639.15	15.468
639.48	14.168
639.81	15.063
640.13	14.863
640.46	16.618
640.79	14.433
641.12	14.623
641.45	16.817
641.77	16.000
