SpectraSuite Data File
++++++++++++++++++++++++++++++++++++
Date: Fri May 15 21:12:33 PDT 2015
User: schluterlab
Dark Spectrum Present: Yes
Reference Spectrum Present: Yes
Number of Sampled Component Spectra: 1
Spectrometers: USB2E3373
Integration Time (usec): 3000 (USB2E3373)
Spectra Averaged: 3 (USB2E3373)
Boxcar Smoothing: 0 (USB2E3373)
Correct for Electrical Dark: No (USB2E3373)
Strobe/Lamp Enabled: No (USB2E3373)
Correct for Detector Non-linearity: No (USB2E3373)
Correct for Stray Light: No (USB2E3373)
Number of Pixels in Processed Spectrum: 2048
>>>>>Begin Processed Spectral Data<<<<<
178.53	0.000
178.91	0.000
179.29	0.000
179.67	-500.000
180.04	128.571
180.42	-175.000
180.80	200.000
181.18	333.333
181.56	750.000
181.94	0.000
182.31	-100.000
182.69	-160.000
183.07	-200.000
183.45	60.000
183.83	300.000
184.20	36.364
184.58	155.556
184.96	75.000
185.34	-66.667
185.72	100.000
186.09	92.308
186.47	-900.000
186.85	116.667
187.23	77.778
187.61	200.000
187.98	-66.667
188.36	-11.111
188.74	-433.333
189.12	52.941
189.49	-5.556
189.87	0.000
190.25	64.286
190.63	250.000
191.00	-66.667
191.38	5.263
191.76	300.000
192.14	175.000
192.51	-50.000
192.89	-66.667
193.27	-157.143
193.65	200.000
194.02	236.364
194.40	-40.000
194.78	-100.000
195.15	-50.000
195.53	-62.500
195.91	225.000
196.29	-325.000
196.66	146.154
197.04	85.714
197.42	-44.444
197.79	-633.333
198.17	-138.462
198.55	1700.000
198.92	-466.667
199.30	100.000
199.68	-160.000
200.05	-200.000
200.43	0.000
200.81	-466.667
201.18	-133.333
201.56	2400.000
201.94	-150.000
202.31	266.667
202.69	-200.000
203.07	250.000
203.44	400.000
203.82	0.000
204.19	14.286
204.57	-766.667
204.95	212.500
205.32	10.000
205.70	-100.000
206.08	25.000
206.45	222.222
206.83	0.000
207.20	-57.143
207.58	800.000
207.96	-200.000
208.33	-90.000
208.71	-125.000
209.08	-316.667
209.46	-400.000
209.84	-80.000
210.21	-1300.000
210.59	0.000
210.96	16.667
211.34	-225.000
211.71	13.333
212.09	-71.429
212.46	-1500.000
212.84	0.000
213.22	10.000
213.59	500.000
213.97	30.769
214.34	90.909
214.72	-83.333
215.09	400.000
215.47	-53.846
215.84	-72.727
216.22	-700.000
216.59	-50.000
216.97	-100.000
217.34	-250.000
217.72	-80.000
218.09	37.500
218.47	125.000
218.84	-800.000
219.22	-44.444
219.59	-180.000
219.97	500.000
220.34	400.000
220.72	42.857
221.09	-250.000
221.47	-500.000
221.84	-750.000
222.22	-600.000
222.59	27.273
222.97	0.000
223.34	-166.667
223.72	-7.143
224.09	9.524
224.46	-3.571
224.84	300.000
225.21	0.000
225.59	-6.667
225.96	-300.000
226.34	200.000
226.71	-200.000
227.08	-100.000
227.46	-37.500
227.83	-600.000
228.21	-33.333
228.58	81.818
228.95	50.000
229.33	110.000
229.70	31.250
230.08	-187.500
230.45	0.000
230.82	-42.857
231.20	6.667
231.57	-7.143
231.95	14.286
232.32	-50.000
232.69	-14.286
233.07	33.333
233.44	60.000
233.81	-100.000
234.19	0.000
234.56	-41.176
234.93	450.000
235.31	150.000
235.68	-40.000
236.05	-23.077
236.43	-45.000
236.80	41.176
237.17	21.875
237.55	5.000
237.92	22.222
238.29	30.556
238.67	23.333
239.04	8.824
239.41	-12.195
239.79	3.333
240.16	34.146
240.53	5.263
240.91	10.870
241.28	23.810
241.65	39.286
242.02	20.548
242.40	41.667
242.77	15.254
243.14	6.061
243.51	33.750
243.89	40.230
244.26	22.989
244.63	23.810
245.00	23.711
245.38	31.959
245.75	23.596
246.12	35.345
246.49	37.190
246.87	42.308
247.24	32.773
247.61	30.702
247.98	33.333
248.36	30.625
248.73	25.658
249.10	29.870
249.47	29.747
249.84	38.562
250.22	37.059
250.59	39.216
250.96	36.150
251.33	33.721
251.70	30.588
252.08	31.980
252.45	36.139
252.82	35.678
253.19	38.249
253.56	30.374
253.94	31.532
254.31	35.217
254.68	38.596
255.05	32.677
255.42	34.498
255.79	37.452
256.16	38.521
256.54	37.313
256.91	33.460
257.28	32.342
257.65	35.206
258.02	33.333
258.39	38.047
258.76	36.630
259.14	35.880
259.51	30.744
259.88	33.333
260.25	38.235
260.62	40.278
260.99	36.271
261.36	33.219
261.73	35.127
262.10	35.562
262.47	37.423
262.85	36.364
263.22	34.462
263.59	39.252
263.96	37.578
264.33	34.242
264.70	36.607
265.07	37.798
265.44	34.278
265.81	36.723
266.18	38.251
266.55	38.817
266.92	34.715
267.29	36.554
267.66	35.038
268.03	38.220
268.40	35.248
268.77	38.503
269.14	37.650
269.51	37.789
269.88	38.155
270.25	36.224
270.62	32.927
270.99	33.760
271.36	37.653
271.73	37.089
272.10	37.470
272.47	35.934
272.84	35.891
273.21	34.803
273.58	35.663
273.95	35.011
274.32	34.873
274.69	37.330
275.06	35.491
275.43	35.147
275.80	37.086
276.17	35.862
276.54	34.690
276.91	35.307
277.28	35.153
277.65	34.504
278.02	34.255
278.39	36.543
278.76	37.526
279.13	32.365
279.50	36.555
279.87	34.557
280.23	33.548
280.60	35.673
280.97	37.172
281.34	30.769
281.71	36.961
282.08	31.493
282.45	35.029
282.82	36.486
283.19	35.590
283.56	36.224
283.92	33.776
284.29	33.077
284.66	33.915
285.03	33.595
285.40	34.783
285.77	32.689
286.14	34.477
286.51	35.240
286.87	35.101
287.24	33.517
287.61	32.451
287.98	34.386
288.35	31.369
288.72	33.800
289.08	33.681
289.45	32.513
289.82	34.441
290.19	30.717
290.56	32.075
290.93	32.492
291.29	29.430
291.66	32.756
292.03	30.622
292.40	31.935
292.77	30.144
293.13	28.247
293.50	26.555
293.87	28.397
294.24	27.821
294.60	29.359
294.97	29.018
295.34	28.988
295.71	26.528
296.08	29.447
296.44	24.893
296.81	27.917
297.18	29.275
297.55	26.694
297.91	28.493
298.28	26.253
298.65	25.916
299.02	25.337
299.38	23.529
299.75	25.517
300.12	25.262
300.48	25.165
300.85	25.729
301.22	23.896
301.59	26.316
301.95	26.962
302.32	26.719
302.69	25.622
303.05	24.010
303.42	24.533
303.79	25.000
304.15	26.045
304.52	23.900
304.89	24.327
305.25	23.487
305.62	23.221
305.99	23.509
306.35	22.890
306.72	22.160
307.09	24.401
307.45	23.651
307.82	23.727
308.19	24.042
308.55	23.773
308.92	25.163
309.29	22.235
309.65	23.681
310.02	23.102
310.38	23.600
310.75	24.262
311.12	22.713
311.48	22.694
311.85	24.607
312.22	22.257
312.58	24.098
312.95	22.839
313.31	22.464
313.68	24.084
314.05	23.980
314.41	23.093
314.78	23.814
315.14	24.049
315.51	23.085
315.87	22.643
316.24	23.357
316.61	23.228
316.97	23.512
317.34	22.754
317.70	23.327
318.07	23.077
318.43	23.922
318.80	22.538
319.16	23.828
319.53	22.982
319.89	24.508
320.26	24.899
320.62	25.577
320.99	23.382
321.35	24.255
321.72	25.026
322.08	25.378
322.45	25.787
322.81	26.326
323.18	26.202
323.54	26.158
323.91	25.998
324.27	26.660
324.64	27.903
325.00	27.281
325.37	27.916
325.73	28.740
326.10	28.701
326.46	28.789
326.83	27.909
327.19	28.509
327.56	29.974
327.92	29.842
328.29	28.839
328.65	29.528
329.01	29.596
329.38	29.493
329.74	30.312
330.11	29.657
330.47	31.262
330.84	30.673
331.20	32.700
331.56	30.278
331.93	33.333
332.29	31.989
332.66	31.855
333.02	31.041
333.38	30.889
333.75	32.234
334.11	30.797
334.48	32.276
334.84	31.685
335.20	31.930
335.57	30.825
335.93	33.785
336.29	32.413
336.66	31.880
337.02	31.227
337.38	30.926
337.75	32.545
338.11	32.822
338.47	32.573
338.84	33.179
339.20	31.718
339.56	31.743
339.93	31.871
340.29	33.394
340.65	32.527
341.02	32.092
341.38	32.920
341.74	33.216
342.11	31.802
342.47	32.473
342.83	33.131
343.20	31.533
343.56	33.043
343.92	33.481
344.28	33.219
344.65	32.902
345.01	32.584
345.37	31.539
345.73	32.636
346.10	34.340
346.46	33.053
346.82	31.751
347.19	32.336
347.55	32.749
347.91	32.686
348.27	32.013
348.63	33.816
349.00	33.306
349.36	32.918
349.72	33.250
350.08	33.525
350.45	31.764
350.81	32.724
351.17	33.713
351.53	33.633
351.89	32.287
352.26	32.880
352.62	33.145
352.98	32.450
353.34	34.058
353.70	33.172
354.07	32.500
354.43	32.986
354.79	32.783
355.15	33.254
355.51	33.228
355.87	34.061
356.24	32.300
356.60	33.872
356.96	34.286
357.32	32.268
357.68	33.698
358.04	32.795
358.40	34.084
358.77	34.370
359.13	33.787
359.49	34.129
359.85	33.931
360.21	34.051
360.57	32.211
360.93	31.619
361.29	32.326
361.66	33.229
362.02	33.939
362.38	33.435
362.74	33.762
363.10	34.838
363.46	32.987
363.82	34.711
364.18	33.137
364.54	33.897
364.90	33.333
365.26	33.916
365.62	33.796
365.98	34.164
366.35	35.106
366.71	35.329
367.07	35.922
367.43	33.932
367.79	33.781
368.15	34.243
368.51	34.960
368.87	34.099
369.23	33.357
369.59	35.350
369.95	35.411
370.31	34.971
370.67	35.224
371.03	35.624
371.39	35.011
371.75	35.165
372.11	35.307
372.47	35.947
372.83	35.699
373.19	35.378
373.55	34.224
373.91	34.989
374.27	36.074
374.63	35.607
374.99	34.539
375.35	35.864
375.71	35.315
376.07	35.604
376.42	36.122
376.78	35.638
377.14	35.410
377.50	35.392
377.86	36.412
378.22	35.609
378.58	36.410
378.94	35.350
379.30	35.309
379.66	36.426
380.02	35.868
380.38	35.971
380.74	35.607
381.09	37.117
381.45	36.575
381.81	37.508
382.17	35.723
382.53	37.289
382.89	37.539
383.25	37.150
383.61	38.171
383.97	36.889
384.32	36.273
384.68	37.276
385.04	37.316
385.40	36.528
385.76	38.679
386.12	38.939
386.48	38.123
386.83	37.286
387.19	37.790
387.55	37.767
387.91	36.858
388.27	38.156
388.62	39.711
388.98	38.551
389.34	38.851
389.70	39.466
390.06	38.641
390.42	38.666
390.77	39.568
391.13	39.218
391.49	39.521
391.85	38.791
392.20	38.606
392.56	38.525
392.92	39.636
393.28	39.446
393.64	39.940
393.99	39.749
394.35	39.405
394.71	39.655
395.07	39.912
395.42	38.980
395.78	38.436
396.14	40.038
396.50	39.696
396.85	40.631
397.21	39.411
397.57	39.624
397.92	40.024
398.28	40.172
398.64	39.096
399.00	40.688
399.35	40.011
399.71	39.518
400.07	42.322
400.42	40.086
400.78	41.151
401.14	40.653
401.49	41.334
401.85	41.012
402.21	40.964
402.57	40.750
402.92	40.652
403.28	41.917
403.63	42.812
403.99	41.263
404.35	42.536
404.70	40.774
405.06	40.834
405.42	42.076
405.77	41.894
406.13	42.026
406.49	41.622
406.84	42.359
407.20	42.625
407.55	41.790
407.91	43.316
408.27	43.212
408.62	43.508
408.98	43.007
409.34	42.937
409.69	42.959
410.05	42.426
410.40	43.580
410.76	43.305
411.11	43.562
411.47	43.261
411.83	43.377
412.18	44.723
412.54	43.571
412.89	43.165
413.25	44.946
413.60	44.224
413.96	43.252
414.31	44.512
414.67	44.452
415.03	43.808
415.38	43.211
415.74	43.974
416.09	44.677
416.45	44.497
416.80	45.274
417.16	46.340
417.51	45.370
417.87	44.980
418.22	45.596
418.58	46.355
418.93	45.705
419.29	44.558
419.64	46.079
420.00	46.788
420.35	45.493
420.71	45.687
421.06	46.900
421.42	45.553
421.77	45.087
422.12	46.027
422.48	46.345
422.83	46.346
423.19	46.445
423.54	45.738
423.90	46.349
424.25	47.187
424.61	47.307
424.96	46.051
425.31	48.180
425.67	47.653
426.02	47.350
426.38	48.153
426.73	48.668
427.09	48.608
427.44	47.765
427.79	47.908
428.15	47.330
428.50	46.336
428.85	45.946
429.21	47.765
429.56	48.086
429.92	46.584
430.27	47.168
430.62	47.203
430.98	48.142
431.33	47.319
431.68	47.724
432.04	48.631
432.39	47.690
432.74	46.422
433.10	48.621
433.45	48.029
433.80	49.100
434.16	48.310
434.51	47.312
434.86	48.200
435.22	49.523
435.57	48.534
435.92	48.922
436.28	48.956
436.63	48.831
436.98	47.683
437.34	48.578
437.69	49.553
438.04	49.231
438.39	48.931
438.75	50.334
439.10	48.840
439.45	50.396
439.81	48.685
440.16	51.306
440.51	50.806
440.86	50.574
441.22	50.057
441.57	49.117
441.92	50.787
442.27	50.721
442.63	50.535
442.98	50.890
443.33	50.083
443.68	48.966
444.03	50.224
444.39	50.664
444.74	51.282
445.09	50.724
445.44	50.997
445.79	51.779
446.15	49.559
446.50	49.473
446.85	51.169
447.20	50.052
447.55	50.614
447.91	50.085
448.26	50.768
448.61	51.583
448.96	51.922
449.31	50.751
449.66	50.116
450.02	51.683
450.37	51.867
450.72	51.317
451.07	52.595
451.42	50.062
451.77	51.899
452.12	50.120
452.47	51.191
452.83	50.824
453.18	51.992
453.53	50.822
453.88	52.641
454.23	51.629
454.58	51.008
454.93	50.902
455.28	50.159
455.63	50.403
455.98	51.112
456.34	51.022
456.69	51.842
457.04	51.229
457.39	52.552
457.74	50.423
458.09	50.265
458.44	51.434
458.79	51.933
459.14	51.144
459.49	51.582
459.84	51.269
460.19	52.427
460.54	52.200
460.89	51.989
461.24	51.615
461.59	52.672
461.94	51.572
462.29	52.714
462.64	52.292
462.99	52.742
463.34	51.947
463.69	52.510
464.04	51.150
464.39	51.850
464.74	50.491
465.09	51.653
465.44	52.164
465.79	51.077
466.14	50.456
466.49	52.214
466.84	52.588
467.19	51.940
467.54	52.618
467.89	53.001
468.24	51.642
468.59	52.254
468.94	52.508
469.29	52.525
469.64	51.606
469.99	53.118
470.34	51.809
470.68	52.722
471.03	53.220
471.38	53.210
471.73	54.062
472.08	52.239
472.43	52.752
472.78	52.022
473.13	54.150
473.48	52.248
473.83	52.366
474.17	53.174
474.52	52.648
474.87	52.667
475.22	52.349
475.57	52.569
475.92	53.209
476.27	52.445
476.61	54.398
476.96	51.813
477.31	53.002
477.66	53.202
478.01	53.004
478.36	51.906
478.70	54.377
479.05	54.121
479.40	53.471
479.75	52.555
480.10	52.842
480.45	53.300
480.79	53.122
481.14	53.381
481.49	51.823
481.84	52.413
482.19	52.713
482.53	52.806
482.88	52.745
483.23	52.063
483.58	52.547
483.92	51.742
484.27	51.960
484.62	51.681
484.97	52.032
485.31	51.337
485.66	48.280
486.01	48.104
486.36	48.489
486.70	50.288
487.05	51.061
487.40	50.879
487.75	51.662
488.09	52.750
488.44	51.857
488.79	52.484
489.13	52.965
489.48	53.057
489.83	52.287
490.17	53.303
490.52	53.164
490.87	52.152
491.22	52.579
491.56	51.992
491.91	53.107
492.26	52.844
492.60	52.975
492.95	52.632
493.30	52.858
493.64	54.470
493.99	52.899
494.34	52.961
494.68	52.762
495.03	52.701
495.37	53.729
495.72	53.862
496.07	53.122
496.41	53.160
496.76	51.958
497.11	51.980
497.45	52.554
497.80	52.725
498.14	52.409
498.49	52.971
498.84	53.792
499.18	52.761
499.53	52.778
499.87	53.113
500.22	53.314
500.56	53.858
500.91	53.112
501.26	52.496
501.60	52.878
501.95	52.935
502.29	53.462
502.64	53.958
502.98	53.330
503.33	52.930
503.67	53.205
504.02	53.128
504.36	53.637
504.71	53.283
505.06	54.303
505.40	53.350
505.75	54.742
506.09	53.725
506.44	54.620
506.78	53.980
507.13	54.137
507.47	54.151
507.82	54.754
508.16	54.886
508.51	55.404
508.85	54.369
509.19	55.349
509.54	54.531
509.88	55.448
510.23	55.783
510.57	55.906
510.92	54.478
511.26	55.101
511.61	56.161
511.95	55.726
512.30	56.098
512.64	56.093
512.98	55.531
513.33	56.799
513.67	55.884
514.02	58.009
514.36	57.714
514.70	57.576
515.05	57.873
515.39	58.323
515.74	58.922
516.08	58.637
516.42	58.716
516.77	58.865
517.11	58.338
517.46	59.066
517.80	58.880
518.14	60.380
518.49	58.714
518.83	59.842
519.17	59.248
519.52	58.022
519.86	59.124
520.20	60.510
520.55	59.475
520.89	60.728
521.23	60.101
521.58	61.325
521.92	60.064
522.26	61.483
522.61	61.234
522.95	63.510
523.29	59.657
523.64	60.546
523.98	62.541
524.32	62.113
524.66	60.819
525.01	62.468
525.35	61.180
525.69	62.492
526.04	63.095
526.38	61.997
526.72	62.263
527.06	63.035
527.41	61.873
527.75	63.137
528.09	61.462
528.43	64.078
528.78	63.960
529.12	63.355
529.46	62.833
529.80	63.015
530.15	63.498
530.49	63.838
530.83	66.005
531.17	62.995
531.51	65.048
531.86	64.106
532.20	63.883
532.54	63.649
532.88	64.134
533.22	62.836
533.57	62.910
533.91	62.467
534.25	64.583
534.59	62.925
534.93	61.800
535.27	62.437
535.62	63.772
535.96	63.209
536.30	64.842
536.64	64.645
536.98	63.902
537.32	66.927
537.66	67.602
538.01	65.524
538.35	66.089
538.69	63.782
539.03	64.457
539.37	64.132
539.71	63.872
540.05	64.494
540.39	65.651
540.73	65.760
541.07	63.536
541.42	64.987
541.76	66.208
542.10	65.382
542.44	64.837
542.78	64.418
543.12	64.354
543.46	65.090
543.80	64.469
544.14	63.618
544.48	65.023
544.82	65.755
545.16	66.257
545.50	64.286
545.84	66.572
546.18	65.035
546.52	65.537
546.86	66.283
547.20	64.592
547.54	64.170
547.88	64.334
548.22	63.577
548.56	64.512
548.90	66.173
549.24	63.292
549.58	63.963
549.92	64.403
550.26	65.714
550.60	66.394
550.94	66.916
551.28	65.920
551.62	67.769
551.96	68.120
552.30	65.132
552.64	65.233
552.98	64.416
553.32	65.121
553.66	63.353
554.00	65.985
554.34	67.578
554.68	66.445
555.02	66.890
555.36	67.091
555.69	64.029
556.03	64.168
556.37	65.338
556.71	66.137
557.05	67.114
557.39	65.204
557.73	65.817
558.07	66.365
558.41	66.769
558.75	67.576
559.08	66.115
559.42	66.270
559.76	67.174
560.10	66.131
560.44	65.227
560.78	65.734
561.12	66.714
561.45	65.495
561.79	65.616
562.13	65.507
562.47	65.396
562.81	65.346
563.15	64.175
563.48	65.205
563.82	65.340
564.16	65.460
564.50	63.378
564.84	64.458
565.17	64.923
565.51	67.691
565.85	65.706
566.19	63.859
566.52	64.812
566.86	65.424
567.20	64.134
567.54	63.564
567.88	63.796
568.21	63.462
568.55	62.174
568.89	62.218
569.23	61.627
569.56	59.238
569.90	59.886
570.24	57.983
570.57	58.945
570.91	58.627
571.25	58.336
571.59	56.929
571.92	56.267
572.26	57.669
572.60	57.488
572.93	57.609
573.27	57.429
573.61	56.981
573.95	56.991
574.28	56.329
574.62	55.734
574.96	55.198
575.29	55.931
575.63	55.688
575.97	56.303
576.30	56.874
576.64	56.026
576.98	56.860
577.31	56.156
577.65	55.803
577.98	55.452
578.32	55.328
578.66	54.782
578.99	55.007
579.33	55.608
579.67	55.185
580.00	55.468
580.34	56.244
580.67	55.663
581.01	56.124
581.35	54.371
581.68	54.733
582.02	53.588
582.35	53.686
582.69	54.675
583.02	55.266
583.36	56.305
583.70	57.139
584.03	57.492
584.37	57.369
584.70	56.566
585.04	54.922
585.37	54.914
585.71	55.147
586.04	54.766
586.38	55.375
586.72	56.758
587.05	56.470
587.39	56.025
587.72	56.288
588.06	55.522
588.39	55.768
588.73	56.471
589.06	57.208
589.40	56.931
589.73	57.430
590.07	57.213
590.40	58.050
590.73	58.155
591.07	57.422
591.40	58.682
591.74	58.507
592.07	58.163
592.41	58.569
592.74	57.029
593.08	54.907
593.41	55.947
593.75	55.283
594.08	55.407
594.41	56.077
594.75	56.794
595.08	56.262
595.42	57.122
595.75	57.905
596.09	57.740
596.42	57.751
596.75	57.948
597.09	57.221
597.42	57.182
597.75	58.543
598.09	57.492
598.42	57.401
598.76	55.641
599.09	56.290
599.42	54.149
599.76	54.778
600.09	54.789
600.42	56.065
600.76	54.235
601.09	55.000
601.42	55.503
601.76	56.927
602.09	56.312
602.42	57.793
602.76	57.385
603.09	56.603
603.42	57.818
603.76	55.403
604.09	55.286
604.42	56.557
604.76	57.009
605.09	57.815
605.42	56.795
605.75	56.349
606.09	56.391
606.42	55.088
606.75	56.017
607.09	56.132
607.42	56.757
607.75	55.817
608.08	54.582
608.42	55.596
608.75	56.916
609.08	57.449
609.41	56.853
609.75	56.855
610.08	56.965
610.41	55.894
610.74	55.973
611.07	57.726
611.41	57.862
611.74	58.689
612.07	56.959
612.40	57.549
612.73	57.740
613.07	57.030
613.40	58.206
613.73	57.918
614.06	56.427
614.39	57.868
614.72	56.134
615.06	57.598
615.39	55.895
615.72	55.597
616.05	57.263
616.38	55.726
616.71	57.982
617.05	59.111
617.38	58.768
617.71	57.987
618.04	58.476
618.37	59.395
618.70	60.396
619.03	60.417
619.36	59.045
619.69	60.804
620.03	59.898
620.36	60.229
620.69	58.672
621.02	60.168
621.35	60.913
621.68	61.820
622.01	59.667
622.34	60.495
622.67	59.621
623.00	59.418
623.33	58.689
623.66	58.265
623.99	59.607
624.32	59.163
624.65	60.526
624.99	60.497
625.32	58.074
625.65	59.701
625.98	60.032
626.31	60.599
626.64	61.872
626.97	62.304
627.30	62.347
627.63	60.832
627.96	61.905
628.29	62.072
628.62	62.930
628.95	63.226
629.28	63.407
629.61	62.812
629.94	63.636
630.26	61.265
630.59	63.892
630.92	62.359
631.25	62.564
631.58	64.537
631.91	65.022
632.24	62.959
632.57	65.682
632.90	65.480
633.23	64.588
633.56	67.003
