SpectraSuite Data File
++++++++++++++++++++++++++++++++++++
Date: Tue May 12 16:11:32 PDT 2015
User: schluterlab
Dark Spectrum Present: Yes
Reference Spectrum Present: Yes
Number of Sampled Component Spectra: 1
Spectrometers: USB2E3373
Integration Time (usec): 3000 (USB2E3373)
Spectra Averaged: 3 (USB2E3373)
Boxcar Smoothing: 0 (USB2E3373)
Correct for Electrical Dark: No (USB2E3373)
Strobe/Lamp Enabled: No (USB2E3373)
Correct for Detector Non-linearity: No (USB2E3373)
Correct for Stray Light: No (USB2E3373)
Number of Pixels in Processed Spectrum: 2048
>>>>>Begin Processed Spectral Data<<<<<
178.53	0.000
178.91	-258.333
179.29	-950.000
179.67	-2800.000
180.04	-173.333
180.42	800.000
180.80	1850.000
181.18	0.000
181.56	-512.500
181.94	0.000
182.31	1400.000
182.69	-4100.000
183.07	714.286
183.45	-3300.000
183.83	-2050.000
184.20	380.000
184.58	557.143
184.96	-261.538
185.34	-225.000
185.72	1950.000
186.09	-750.000
186.47	-4000.000
186.85	1433.333
187.23	620.000
187.61	2200.000
187.98	525.000
188.36	292.857
188.74	375.000
189.12	358.333
189.49	825.000
189.87	0.000
190.25	587.500
190.63	2700.000
191.00	-208.333
191.38	-3600.000
191.76	-800.000
192.14	487.500
192.51	-2800.000
192.89	2050.000
193.27	900.000
193.65	-1300.000
194.02	-640.000
194.40	657.143
194.78	-228.571
195.15	313.333
195.53	-3200.000
195.91	-620.000
196.29	4600.000
196.66	287.500
197.04	800.000
197.42	-1450.000
197.79	800.000
198.17	341.667
198.55	0.000
198.92	457.143
199.30	966.667
199.68	2500.000
200.05	616.667
200.43	-450.000
200.81	200.000
201.18	3600.000
201.56	308.333
201.94	-825.000
202.31	-325.000
202.69	-540.000
203.07	3900.000
203.44	-566.667
203.82	358.333
204.19	720.000
204.57	-1550.000
204.95	-950.000
205.32	-620.000
205.70	500.000
206.08	1000.000
206.45	-766.667
206.83	522.222
207.20	210.526
207.58	291.667
207.96	780.000
208.33	0.000
208.71	500.000
209.08	780.000
209.46	-4800.000
209.84	-1000.000
210.21	740.000
210.59	-780.000
210.96	358.333
211.34	-1025.000
211.71	463.636
212.09	950.000
212.46	1650.000
212.84	-400.000
213.22	444.444
213.59	-2600.000
213.97	450.000
214.34	1200.000
214.72	1500.000
215.09	1366.667
215.47	-2500.000
215.84	-460.000
216.22	-450.000
216.59	0.000
216.97	0.000
217.34	1350.000
217.72	-2000.000
218.09	1333.333
218.47	512.500
218.84	925.000
219.22	1266.667
219.59	733.333
219.97	514.286
220.34	477.778
220.72	1550.000
221.09	3100.000
221.47	308.333
221.84	1033.333
222.22	450.000
222.59	216.667
222.97	250.000
223.34	250.000
223.72	-2000.000
224.09	1200.000
224.46	323.077
224.84	-975.000
225.21	333.333
225.59	280.000
225.96	1233.333
226.34	-840.000
226.71	-800.000
227.08	-520.000
227.46	0.000
227.83	-566.667
228.21	-1650.000
228.58	366.667
228.95	1325.000
229.33	422.222
229.70	1225.000
230.08	323.077
230.45	4400.000
230.82	-825.000
231.20	-900.000
231.57	-900.000
231.95	520.000
232.32	325.000
232.69	550.000
233.07	241.667
233.44	-1800.000
233.81	233.333
234.19	170.370
234.56	237.500
234.93	211.765
235.31	215.000
235.68	306.250
236.05	164.286
236.43	174.074
236.80	307.143
237.17	134.483
237.55	115.625
237.92	150.000
238.29	127.273
238.67	109.375
239.04	90.244
239.41	95.833
239.79	90.000
240.16	77.083
240.53	68.852
240.91	85.507
241.28	79.661
241.65	66.667
242.02	77.465
242.40	85.714
242.77	58.242
243.14	65.823
243.51	72.727
243.89	53.271
244.26	50.467
244.63	63.366
245.00	66.055
245.38	49.153
245.75	50.000
246.12	57.778
246.49	46.099
246.87	45.082
247.24	49.333
247.61	45.625
247.98	46.259
248.36	44.242
248.73	48.469
249.10	42.857
249.47	46.000
249.84	39.801
250.22	44.324
250.59	41.500
250.96	40.506
251.33	40.000
251.70	40.625
252.08	37.815
252.45	32.669
252.82	36.882
253.19	37.945
253.56	43.846
253.94	36.232
254.31	34.884
254.68	36.585
255.05	34.483
255.42	35.036
255.79	38.111
256.16	36.949
256.54	35.714
256.91	36.928
257.28	33.445
257.65	31.975
258.02	30.678
258.39	34.957
258.76	36.812
259.14	33.143
259.51	33.528
259.88	34.954
260.25	32.692
260.62	31.781
260.99	30.303
261.36	32.591
261.73	35.904
262.10	33.508
262.47	31.250
262.85	31.733
263.22	32.648
263.59	32.737
263.96	32.331
264.33	32.593
264.70	33.907
265.07	31.463
265.44	32.569
265.81	31.840
266.18	32.037
266.55	30.024
266.92	31.767
267.29	31.579
267.66	29.148
268.03	29.372
268.40	29.387
268.77	30.176
269.14	30.152
269.51	29.176
269.88	29.184
270.25	29.158
270.62	31.116
270.99	33.063
271.36	31.301
271.73	29.560
272.10	29.495
272.47	29.365
272.84	27.146
273.21	28.306
273.58	30.972
273.95	29.774
274.32	32.296
274.69	30.118
275.06	29.690
275.43	30.268
275.80	28.679
276.17	29.412
276.54	31.028
276.91	30.410
277.28	28.285
277.65	27.306
278.02	27.390
278.39	26.799
278.76	30.172
279.13	29.181
279.50	28.909
279.87	29.236
280.23	26.888
280.60	29.927
280.97	28.276
281.34	28.218
281.71	28.522
282.08	29.744
282.45	28.041
282.82	28.428
283.19	29.094
283.56	26.777
283.92	30.456
284.29	25.125
284.66	27.227
285.03	29.851
285.40	25.455
285.77	27.006
286.14	27.399
286.51	26.534
286.87	27.057
287.24	27.628
287.61	26.748
287.98	27.313
288.35	28.296
288.72	27.769
289.08	27.778
289.45	29.268
289.82	27.344
290.19	26.647
290.56	27.802
290.93	26.475
291.29	29.282
291.66	26.412
292.03	28.612
292.40	26.423
292.77	28.134
293.13	28.103
293.50	27.126
293.87	28.184
294.24	28.112
294.60	29.071
294.97	30.350
295.34	29.482
295.71	29.698
296.08	28.133
296.44	28.971
296.81	26.179
297.18	26.996
297.55	27.094
297.91	29.803
298.28	29.106
298.65	29.080
299.02	29.071
299.38	27.698
299.75	27.805
300.12	27.523
300.48	30.211
300.85	28.725
301.22	27.326
301.59	28.656
301.95	29.872
302.32	29.220
302.69	29.525
303.05	29.630
303.42	28.363
303.79	29.144
304.15	29.483
304.52	28.858
304.89	29.104
305.25	28.031
305.62	29.744
305.99	29.674
306.35	28.947
306.72	29.761
307.09	29.607
307.45	28.405
307.82	29.218
308.19	29.381
308.55	29.100
308.92	30.128
309.29	29.684
309.65	28.840
310.02	31.744
310.38	28.614
310.75	29.508
311.12	29.502
311.48	30.985
311.85	30.248
312.22	31.519
312.58	29.543
312.95	29.903
313.31	31.554
313.68	30.675
314.05	31.593
314.41	29.609
314.78	30.587
315.14	32.322
315.51	31.693
315.87	30.657
316.24	31.653
316.61	31.065
316.97	31.468
317.34	31.536
317.70	31.782
318.07	32.829
318.43	32.074
318.80	30.648
319.16	31.031
319.53	31.681
319.89	31.362
320.26	33.613
320.62	31.410
320.99	32.126
321.35	31.447
321.72	33.397
322.08	31.764
322.45	32.788
322.81	32.571
323.18	31.083
323.54	32.404
323.91	32.638
324.27	32.714
324.64	31.315
325.00	32.241
325.37	31.366
325.73	32.125
326.10	32.063
326.46	32.122
326.83	31.360
327.19	33.012
327.56	31.390
327.92	32.787
328.29	31.669
328.65	32.363
329.01	31.394
329.38	32.149
329.74	31.597
330.11	32.059
330.47	32.055
330.84	29.077
331.20	31.134
331.56	33.247
331.93	31.737
332.29	30.017
332.66	32.483
333.02	31.873
333.38	30.366
333.75	31.610
334.11	30.201
334.48	31.282
334.84	30.321
335.20	31.052
335.57	30.814
335.93	29.437
336.29	28.358
336.66	29.931
337.02	28.571
337.38	29.837
337.75	30.828
338.11	30.802
338.47	29.805
338.84	30.144
339.20	28.052
339.56	29.437
339.93	29.599
340.29	28.908
340.65	29.757
341.02	29.847
341.38	27.915
341.74	29.319
342.11	28.881
342.47	28.384
342.83	30.107
343.20	29.184
343.56	28.276
343.92	28.159
344.28	29.506
344.65	29.666
345.01	27.460
345.37	27.724
345.73	27.540
346.10	27.570
346.46	27.751
346.82	27.701
347.19	28.053
347.55	28.337
347.91	27.568
348.27	26.259
348.63	27.769
349.00	27.799
349.36	26.926
349.72	28.440
350.08	28.261
350.45	28.865
350.81	28.593
351.17	26.271
351.53	25.327
351.89	26.962
352.26	26.606
352.62	26.244
352.98	26.764
353.34	27.658
353.70	27.294
354.07	27.308
354.43	27.727
354.79	25.361
355.15	26.799
355.51	26.133
355.87	26.581
356.24	26.405
356.60	26.712
356.96	26.308
357.32	26.375
357.68	26.285
358.04	25.228
358.40	26.012
358.77	25.995
359.13	25.601
359.49	25.352
359.85	25.316
360.21	25.706
360.57	26.277
360.93	25.108
361.29	25.758
361.66	26.473
362.02	24.716
362.38	25.036
362.74	24.982
363.10	25.596
363.46	25.276
363.82	25.386
364.18	24.964
364.54	25.179
364.90	24.900
365.26	25.330
365.62	26.174
365.98	24.363
366.35	24.207
366.71	25.538
367.07	25.597
367.43	24.379
367.79	23.338
368.15	23.541
368.51	25.086
368.87	24.524
369.23	24.324
369.59	23.668
369.95	25.035
370.31	23.682
370.67	25.607
371.03	23.810
371.39	24.377
371.75	24.075
372.11	24.405
372.47	24.247
372.83	24.405
373.19	24.743
373.55	24.261
373.91	22.790
374.27	23.082
374.63	23.797
374.99	24.259
375.35	24.261
375.71	22.493
376.07	23.740
376.42	22.954
376.78	23.378
377.14	23.460
377.50	23.471
377.86	23.062
378.22	22.547
378.58	24.031
378.94	23.476
379.30	22.498
379.66	22.818
380.02	23.519
380.38	22.073
380.74	22.780
381.09	23.248
381.45	22.312
381.81	22.695
382.17	22.833
382.53	21.956
382.89	22.413
383.25	21.551
383.61	22.594
383.97	22.196
384.32	22.544
384.68	23.054
385.04	22.216
385.40	22.716
385.76	23.113
386.12	23.315
386.48	22.553
386.83	22.616
387.19	22.733
387.55	23.027
387.91	22.344
388.27	22.070
388.62	22.242
388.98	21.516
389.34	21.654
389.70	21.226
390.06	21.524
390.42	22.209
390.77	22.052
391.13	22.028
391.49	20.932
391.85	22.462
392.20	21.931
392.56	22.222
392.92	21.786
393.28	21.581
393.64	20.814
393.99	21.873
394.35	20.895
394.71	21.532
395.07	21.229
395.42	21.311
395.78	21.221
396.14	21.446
396.50	20.758
396.85	21.037
397.21	20.638
397.57	21.100
397.92	20.104
398.28	20.188
398.64	21.524
399.00	20.417
399.35	20.344
399.71	21.358
400.07	21.119
400.42	20.478
400.78	21.466
401.14	20.669
401.49	20.910
401.85	21.147
402.21	20.680
402.57	21.065
402.92	20.848
403.28	20.167
403.63	20.836
403.99	20.386
404.35	21.278
404.70	20.378
405.06	19.034
405.42	21.364
405.77	20.783
406.13	20.445
406.49	19.613
406.84	20.023
407.20	20.890
407.55	20.738
407.91	21.378
408.27	20.982
408.62	20.047
408.98	20.166
409.34	20.281
409.69	19.664
410.05	20.930
410.40	20.141
410.76	19.977
411.11	20.438
411.47	20.432
411.83	19.566
412.18	20.109
412.54	20.420
412.89	19.469
413.25	20.468
413.60	20.152
413.96	19.928
414.31	19.776
414.67	20.981
415.03	20.051
415.38	20.063
415.74	20.404
416.09	20.737
416.45	21.655
416.80	21.039
417.16	20.751
417.51	20.637
417.87	19.712
418.22	19.259
418.58	19.682
418.93	20.405
419.29	19.655
419.64	20.048
420.00	21.241
420.35	19.628
420.71	19.895
421.06	19.541
421.42	19.977
421.77	19.545
422.12	19.570
422.48	19.723
422.83	20.033
423.19	19.546
423.54	19.638
423.90	20.612
424.25	19.703
424.61	19.501
424.96	20.327
425.31	19.759
425.67	20.483
426.02	20.191
426.38	19.078
426.73	20.127
427.09	20.403
427.44	18.739
427.79	19.554
428.15	19.859
428.50	20.229
428.85	19.753
429.21	20.259
429.56	19.890
429.92	19.194
430.27	19.207
430.62	19.481
430.98	19.212
431.33	19.002
431.68	18.765
432.04	19.400
432.39	19.813
432.74	20.023
433.10	19.546
433.45	20.333
433.80	20.518
434.16	19.338
434.51	19.247
434.86	20.795
435.22	19.179
435.57	19.798
435.92	20.831
436.28	20.219
436.63	18.747
436.98	20.045
437.34	20.320
437.69	19.541
438.04	20.000
438.39	20.023
438.75	19.432
439.10	20.022
439.45	19.503
439.81	20.590
440.16	20.748
440.51	20.158
440.86	20.684
441.22	20.509
441.57	19.738
441.92	20.188
442.27	19.021
442.63	19.614
442.98	20.474
443.33	20.193
443.68	19.517
444.03	20.405
444.39	19.539
444.74	19.306
445.09	19.800
445.44	20.351
445.79	19.688
446.15	19.947
446.50	19.568
446.85	19.622
447.20	19.055
447.55	19.086
447.91	20.725
448.26	19.968
448.61	19.624
448.96	19.880
449.31	19.857
449.66	21.152
450.02	19.017
450.37	19.933
450.72	20.441
451.07	20.186
451.42	20.273
451.77	20.447
452.12	20.250
452.47	20.656
452.83	20.958
453.18	20.961
453.53	20.663
453.88	20.457
454.23	20.628
454.58	21.096
454.93	20.907
455.28	20.379
455.63	20.981
455.98	20.023
456.34	21.033
456.69	20.915
457.04	20.883
457.39	19.657
457.74	21.396
458.09	20.438
458.44	20.920
458.79	20.690
459.14	20.949
459.49	20.838
459.84	20.707
460.19	20.113
460.54	20.456
460.89	20.789
461.24	19.702
461.59	20.748
461.94	20.922
462.29	21.110
462.64	21.294
462.99	21.113
463.34	20.868
463.69	20.992
464.04	21.416
464.39	21.294
464.74	20.516
465.09	20.371
465.44	20.511
465.79	19.434
466.14	19.979
466.49	20.619
466.84	19.844
467.19	21.617
467.54	20.060
467.89	20.423
468.24	19.803
468.59	20.298
468.94	20.652
469.29	21.442
469.64	21.029
469.99	21.401
470.34	21.569
470.68	21.793
471.03	21.281
471.38	20.927
471.73	21.228
472.08	22.179
472.43	21.043
472.78	21.703
473.13	20.401
473.48	20.721
473.83	20.554
474.17	20.790
474.52	20.794
474.87	20.239
475.22	20.902
475.57	20.881
475.92	20.133
476.27	19.859
476.61	20.375
476.96	20.794
477.31	20.360
477.66	20.827
478.01	20.887
478.36	21.421
478.70	19.901
479.05	20.293
479.40	20.784
479.75	21.599
480.10	20.039
480.45	20.028
480.79	20.461
481.14	20.067
481.49	19.945
481.84	19.921
482.19	20.480
482.53	20.949
482.88	20.520
483.23	19.892
483.58	20.691
483.92	20.567
484.27	20.548
484.62	19.737
484.97	20.335
485.31	19.114
485.66	19.004
486.01	17.671
486.36	17.586
486.70	17.146
487.05	17.503
487.40	18.210
487.75	18.594
488.09	18.807
488.44	19.503
488.79	19.229
489.13	19.597
489.48	20.895
489.83	19.391
490.17	20.107
490.52	20.629
490.87	20.431
491.22	20.612
491.56	20.509
491.91	19.982
492.26	20.579
492.60	20.592
492.95	20.480
493.30	20.428
493.64	20.979
493.99	20.572
494.34	20.484
494.68	20.053
495.03	20.745
495.37	21.612
495.72	21.305
496.07	20.485
496.41	20.982
496.76	20.177
497.11	20.694
497.45	20.824
497.80	20.714
498.14	20.804
498.49	20.984
498.84	20.794
499.18	20.658
499.53	20.717
499.87	20.800
500.22	20.912
500.56	20.381
500.91	20.872
501.26	20.533
501.60	20.583
501.95	20.430
502.29	20.622
502.64	19.762
502.98	20.854
503.33	20.624
503.67	20.530
504.02	19.928
504.36	20.814
504.71	20.956
505.06	20.695
505.40	20.075
505.75	20.019
506.09	20.485
506.44	20.959
506.78	21.125
507.13	20.456
507.47	21.397
507.82	21.800
508.16	21.460
508.51	21.594
508.85	20.845
509.19	21.684
509.54	20.459
509.88	22.228
510.23	21.078
510.57	21.236
510.92	20.779
511.26	21.637
511.61	21.073
511.95	21.453
512.30	21.350
512.64	20.820
512.98	21.066
513.33	22.080
513.67	21.906
514.02	20.519
514.36	20.717
514.70	22.240
515.05	21.097
515.39	21.820
515.74	21.706
516.08	21.732
516.42	22.678
516.77	22.133
517.11	21.013
517.46	22.091
517.80	21.628
518.14	22.479
518.49	21.389
518.83	21.264
519.17	21.908
519.52	22.010
519.86	21.580
520.20	21.973
520.55	21.764
520.89	22.759
521.23	22.664
521.58	22.260
521.92	21.749
522.26	21.801
522.61	21.866
522.95	22.462
523.29	21.696
523.64	22.139
523.98	22.300
524.32	21.569
524.66	22.029
525.01	22.189
525.35	22.392
525.69	22.336
526.04	22.487
526.38	22.602
526.72	21.480
527.06	21.940
527.41	22.370
527.75	22.824
528.09	21.975
528.43	22.819
528.78	22.302
529.12	22.517
529.46	22.385
529.80	21.671
530.15	22.569
530.49	21.781
530.83	22.669
531.17	22.325
531.51	22.072
531.86	22.645
532.20	22.311
532.54	21.783
532.88	22.236
533.22	22.669
533.57	23.185
533.91	21.737
534.25	20.773
534.59	21.696
534.93	21.160
535.27	20.945
535.62	21.704
535.96	21.690
536.30	22.669
536.64	21.056
536.98	20.957
537.32	21.750
537.66	21.620
538.01	23.220
538.35	22.520
538.69	21.663
539.03	22.139
539.37	21.359
539.71	21.728
540.05	21.354
540.39	22.390
540.73	21.962
541.07	21.142
541.42	21.828
541.76	21.085
542.10	21.702
542.44	21.571
542.78	21.775
543.12	21.902
543.46	21.366
543.80	22.118
544.14	22.291
544.48	22.019
544.82	21.590
545.16	21.069
545.50	22.311
545.84	22.222
546.18	22.757
546.52	22.426
546.86	22.695
547.20	21.189
547.54	21.533
547.88	21.837
548.22	20.886
548.56	21.096
548.90	21.886
549.24	21.731
549.58	22.165
549.92	23.052
550.26	21.907
550.60	22.954
550.94	22.592
551.28	22.897
551.62	22.828
551.96	21.419
552.30	20.831
552.64	22.006
552.98	21.843
553.32	21.703
553.66	22.020
554.00	21.429
554.34	22.503
554.68	21.774
555.02	21.724
555.36	22.141
555.69	22.186
556.03	21.847
556.37	21.734
556.71	21.773
557.05	20.446
557.39	21.733
557.73	22.911
558.07	21.932
558.41	22.413
558.75	22.298
559.08	22.731
559.42	22.334
559.76	23.664
560.10	21.886
560.44	21.898
560.78	22.187
561.12	22.568
561.45	21.402
561.79	22.035
562.13	21.668
562.47	21.480
562.81	21.926
563.15	21.267
563.48	21.242
563.82	22.271
564.16	21.455
564.50	21.218
564.84	22.067
565.17	21.509
565.51	21.798
565.85	21.036
566.19	21.369
566.52	20.999
566.86	21.016
567.20	20.730
567.54	20.251
567.88	21.022
568.21	19.571
568.55	19.018
568.89	20.210
569.23	19.543
569.56	19.089
569.90	17.894
570.24	18.433
570.57	18.170
570.91	17.566
571.25	17.645
571.59	17.118
571.92	16.954
572.26	16.873
572.60	17.690
572.93	17.510
573.27	17.634
573.61	17.163
573.95	17.057
574.28	16.457
574.62	17.047
574.96	16.365
575.29	16.255
575.63	16.514
575.97	16.699
576.30	16.629
576.64	16.444
576.98	16.438
577.31	16.797
577.65	16.639
577.98	16.125
578.32	16.163
578.66	16.213
578.99	16.342
579.33	16.238
579.67	16.224
580.00	16.670
580.34	16.227
580.67	16.398
581.01	16.831
581.35	16.160
581.68	15.967
582.02	15.839
582.35	15.961
582.69	16.124
583.02	16.358
583.36	16.283
583.70	16.855
584.03	17.176
584.37	16.885
584.70	16.571
585.04	16.203
585.37	16.163
585.71	16.831
586.04	16.934
586.38	16.208
586.72	17.349
587.05	16.778
587.39	16.713
587.72	16.638
588.06	16.886
588.39	16.607
588.73	17.025
589.06	17.100
589.40	17.183
589.73	17.502
590.07	17.296
590.40	18.676
590.73	18.693
591.07	18.634
591.40	18.084
591.74	18.304
592.07	17.596
592.41	18.225
592.74	17.466
593.08	16.797
593.41	16.786
593.75	17.218
594.08	17.277
594.41	16.585
594.75	17.432
595.08	17.284
595.42	17.512
595.75	17.045
596.09	17.553
596.42	18.245
596.75	17.388
597.09	17.953
597.42	17.959
597.75	17.688
598.09	17.686
598.42	18.237
598.76	17.810
599.09	17.911
599.42	17.128
599.76	17.198
600.09	17.254
600.42	17.438
600.76	16.995
601.09	17.363
601.42	17.494
601.76	17.580
602.09	17.697
602.42	17.560
602.76	17.381
603.09	18.100
603.42	17.394
603.76	17.498
604.09	17.553
604.42	17.552
604.76	17.661
605.09	18.163
605.42	17.716
605.75	17.765
606.09	17.636
606.42	18.038
606.75	17.373
607.09	17.331
607.42	17.477
607.75	17.795
608.08	17.547
608.42	17.576
608.75	17.629
609.08	17.774
609.41	18.818
609.75	18.361
610.08	18.210
610.41	18.314
610.74	18.788
611.07	18.554
611.41	18.628
611.74	18.499
612.07	18.690
612.40	18.275
612.73	18.672
613.07	18.753
613.40	19.449
613.73	18.872
614.06	18.500
614.39	19.141
614.72	18.935
615.06	18.447
615.39	18.267
615.72	17.812
616.05	18.533
616.38	18.620
616.71	18.014
617.05	18.836
617.38	19.045
617.71	20.191
618.04	19.349
618.37	18.955
618.70	18.822
619.03	18.315
619.36	19.786
619.69	19.459
620.03	20.483
620.36	19.974
620.69	21.903
621.02	20.041
621.35	19.484
621.68	21.091
622.01	22.804
622.34	21.267
622.67	21.208
623.00	20.082
623.33	20.850
623.66	20.825
623.99	20.822
624.32	20.257
624.65	20.013
624.99	20.081
625.32	20.975
625.65	19.862
625.98	20.084
626.31	21.958
626.64	20.349
626.97	21.194
627.30	20.575
627.63	21.036
627.96	20.736
628.29	22.112
628.62	21.044
628.95	23.138
629.28	23.313
629.61	22.144
629.94	21.780
630.26	22.357
630.59	23.050
630.92	22.063
631.25	22.847
