SpectraSuite Data File
++++++++++++++++++++++++++++++++++++
Date: Tue May 12 16:11:22 PDT 2015
User: schluterlab
Dark Spectrum Present: Yes
Reference Spectrum Present: Yes
Number of Sampled Component Spectra: 1
Spectrometers: USB2E3373
Integration Time (usec): 3000 (USB2E3373)
Spectra Averaged: 3 (USB2E3373)
Boxcar Smoothing: 0 (USB2E3373)
Correct for Electrical Dark: No (USB2E3373)
Strobe/Lamp Enabled: No (USB2E3373)
Correct for Detector Non-linearity: No (USB2E3373)
Correct for Stray Light: No (USB2E3373)
Number of Pixels in Processed Spectrum: 2048
>>>>>Begin Processed Spectral Data<<<<<
178.53	0.000
178.91	-341.667
179.29	-1000.000
179.67	-4000.000
180.04	-166.667
180.42	775.000
180.80	1350.000
181.18	0.000
181.56	-400.000
181.94	0.000
182.31	900.000
182.69	-2900.000
183.07	600.000
183.45	-4800.000
183.83	-1400.000
184.20	370.000
184.58	542.857
184.96	-284.615
185.34	-225.000
185.72	1800.000
186.09	-875.000
186.47	-3100.000
186.85	1266.667
187.23	620.000
187.61	2250.000
187.98	437.500
188.36	314.286
188.74	400.000
189.12	483.333
189.49	1075.000
189.87	0.000
190.25	462.500
190.63	3900.000
191.00	-258.333
191.38	-3900.000
191.76	-850.000
192.14	575.000
192.51	-3600.000
192.89	1700.000
193.27	966.667
193.65	-1500.000
194.02	-1000.000
194.40	585.714
194.78	-185.714
195.15	273.333
195.53	-3200.000
195.91	-760.000
196.29	4900.000
196.66	262.500
197.04	950.000
197.42	-1900.000
197.79	900.000
198.17	366.667
198.55	0.000
198.92	628.571
199.30	1366.667
199.68	2100.000
200.05	833.333
200.43	-616.667
200.81	261.111
201.18	4600.000
201.56	283.333
201.94	-925.000
202.31	-500.000
202.69	-460.000
203.07	4700.000
203.44	-700.000
203.82	333.333
204.19	660.000
204.57	-1700.000
204.95	-700.000
205.32	-720.000
205.70	583.333
206.08	650.000
206.45	-1033.333
206.83	366.667
207.20	205.263
207.58	300.000
207.96	780.000
208.33	0.000
208.71	614.286
209.08	660.000
209.46	-2500.000
209.84	-775.000
210.21	980.000
210.59	-480.000
210.96	383.333
211.34	-1050.000
211.71	390.909
212.09	975.000
212.46	2000.000
212.84	-616.667
213.22	588.889
213.59	-3200.000
213.97	290.000
214.34	1100.000
214.72	1200.000
215.09	1133.333
215.47	-3700.000
215.84	-310.000
216.22	-425.000
216.59	0.000
216.97	0.000
217.34	1350.000
217.72	-2000.000
218.09	1233.333
218.47	512.500
218.84	975.000
219.22	1166.667
219.59	1133.333
219.97	628.571
220.34	455.556
220.72	2150.000
221.09	3600.000
221.47	325.000
221.84	1200.000
222.22	280.000
222.59	294.444
222.97	357.143
223.34	225.000
223.72	-1750.000
224.09	1533.333
224.46	346.154
224.84	-1025.000
225.21	388.889
225.59	320.000
225.96	1500.000
226.34	-720.000
226.71	-775.000
227.08	-760.000
227.46	0.000
227.83	-633.333
228.21	-1950.000
228.58	500.000
228.95	1025.000
229.33	288.889
229.70	1325.000
230.08	392.308
230.45	4500.000
230.82	-900.000
231.20	-833.333
231.57	-1300.000
231.95	600.000
232.32	350.000
232.69	533.333
233.07	291.667
233.44	-2050.000
233.81	273.333
234.19	196.296
234.56	300.000
234.93	235.294
235.31	200.000
235.68	250.000
236.05	146.429
236.43	188.889
236.80	292.857
237.17	168.966
237.55	150.000
237.92	125.000
238.29	139.394
238.67	162.500
239.04	112.195
239.41	87.500
239.79	102.500
240.16	104.167
240.53	65.574
240.91	76.812
241.28	72.881
241.65	95.455
242.02	98.592
242.40	74.286
242.77	60.440
243.14	62.025
243.51	69.697
243.89	61.682
244.26	53.271
244.63	53.465
245.00	60.550
245.38	46.610
245.75	47.727
246.12	60.741
246.49	48.936
246.87	44.262
247.24	51.333
247.61	55.000
247.98	51.020
248.36	43.636
248.73	49.490
249.10	48.810
249.47	44.000
249.84	45.771
250.22	44.865
250.59	38.500
250.96	37.975
251.33	40.000
251.70	42.411
252.08	42.017
252.45	34.263
252.82	37.262
253.19	39.130
253.56	38.462
253.94	39.855
254.31	37.597
254.68	33.798
255.05	43.448
255.42	35.401
255.79	35.179
256.16	35.932
256.54	38.312
256.91	34.967
257.28	38.462
257.65	31.348
258.02	36.283
258.39	36.390
258.76	34.493
259.14	33.714
259.51	36.443
259.88	38.298
260.25	31.868
260.62	36.438
260.99	30.303
261.36	32.591
261.73	31.117
262.10	31.152
262.47	31.500
262.85	33.600
263.22	31.362
263.59	32.992
263.96	32.080
264.33	33.333
264.70	30.958
265.07	34.146
265.44	35.321
265.81	33.255
266.18	31.579
266.55	30.260
266.92	29.530
267.29	32.237
267.66	32.960
268.03	30.493
268.40	32.347
268.77	32.819
269.14	30.586
269.51	32.739
269.88	29.592
270.25	28.078
270.62	30.472
270.99	30.223
271.36	31.098
271.73	28.721
272.10	28.687
272.47	31.548
272.84	28.543
273.21	28.306
273.58	30.972
273.95	27.310
274.32	29.377
274.69	31.299
275.06	28.962
275.43	30.460
275.80	27.736
276.17	29.412
276.54	30.280
276.91	31.530
277.28	30.657
277.65	31.181
278.02	29.044
278.39	28.417
278.76	28.621
279.13	27.046
279.50	30.364
279.87	27.374
280.23	27.624
280.60	26.642
280.97	26.034
281.34	27.393
281.71	28.000
282.08	28.718
282.45	28.547
282.82	28.428
283.19	26.868
283.56	27.107
283.92	28.502
284.29	29.285
284.66	25.714
285.03	29.022
285.40	26.777
285.77	25.617
286.14	26.471
286.51	29.908
286.87	25.949
287.24	26.276
287.61	26.292
287.98	27.313
288.35	25.333
288.72	25.341
289.08	24.474
289.45	25.305
289.82	28.281
290.19	26.208
290.56	26.201
290.93	25.324
291.29	24.586
291.66	23.588
292.03	24.684
292.40	24.390
292.77	22.423
293.13	23.252
293.50	23.617
293.87	22.629
294.24	24.476
294.60	22.476
294.97	24.196
295.34	20.850
295.71	23.522
296.08	22.933
296.44	22.363
296.81	20.596
297.18	20.152
297.55	22.414
297.91	20.813
298.28	22.222
298.65	21.595
299.02	21.230
299.38	22.182
299.75	21.341
300.12	20.986
300.48	21.429
300.85	21.931
301.22	21.860
301.59	21.226
301.95	20.303
302.32	21.304
302.69	20.701
303.05	22.334
303.42	20.740
303.79	20.585
304.15	19.582
304.52	20.296
304.89	20.896
305.25	20.245
305.62	21.215
305.99	20.217
306.35	19.579
306.72	19.875
307.09	19.772
307.45	20.591
307.82	20.165
308.19	21.134
308.55	20.000
308.92	20.608
309.29	21.302
309.65	20.614
310.02	20.183
310.38	19.541
310.75	20.926
311.12	20.977
311.48	20.270
311.85	21.469
312.22	19.866
312.58	20.797
312.95	20.388
313.31	20.974
313.68	20.919
314.05	20.147
314.41	20.298
314.78	22.159
315.14	21.991
315.51	20.814
315.87	19.799
316.24	22.035
316.61	21.934
316.97	20.734
317.34	22.642
317.70	23.003
318.07	23.754
318.43	22.496
318.80	22.855
319.16	22.640
319.53	22.920
319.89	21.416
320.26	24.674
320.62	24.176
320.99	24.309
321.35	24.768
321.72	26.945
322.08	24.284
322.45	26.249
322.81	25.435
323.18	25.933
323.54	27.003
323.91	27.017
324.27	26.702
324.64	26.038
325.00	28.707
325.37	27.740
325.73	27.740
326.10	29.412
326.46	28.654
326.83	28.480
327.19	29.478
327.56	29.233
327.92	30.902
328.29	32.406
328.65	31.592
329.01	31.223
329.38	31.810
329.74	30.401
330.11	32.320
330.47	31.543
330.84	31.061
331.20	32.234
331.56	32.470
331.93	32.079
332.29	31.803
332.66	32.908
333.02	33.247
333.38	33.072
333.75	33.361
334.11	33.054
334.48	34.188
334.84	34.797
335.20	33.961
335.57	33.585
335.93	33.726
336.29	33.499
336.66	33.705
337.02	33.704
337.38	33.362
337.75	33.024
338.11	33.418
338.47	33.531
338.84	34.293
339.20	34.459
339.56	33.053
339.93	34.030
340.29	33.277
340.65	34.032
341.02	34.191
341.38	33.744
341.74	33.140
342.11	33.472
342.47	34.372
342.83	34.126
343.20	33.549
343.56	33.122
343.92	34.269
344.28	33.971
344.65	34.067
345.01	32.937
345.37	33.013
345.73	33.413
346.10	32.829
346.46	33.573
346.82	34.028
347.19	33.462
347.55	33.021
347.91	32.628
348.27	33.462
348.63	34.731
349.00	33.206
349.36	34.553
349.72	33.104
350.08	34.161
350.45	33.359
350.81	33.563
351.17	33.282
351.53	32.871
351.89	33.411
352.26	32.955
352.62	33.107
352.98	33.589
353.34	34.284
353.70	33.410
354.07	34.308
354.43	32.412
354.79	33.030
355.15	34.074
355.51	33.233
355.87	33.434
356.24	33.872
356.60	32.725
356.96	33.662
357.32	34.363
357.68	34.361
358.04	34.195
358.40	34.333
358.77	34.110
359.13	33.108
359.49	34.396
359.85	34.028
360.21	32.764
360.57	32.263
360.93	33.983
361.29	34.632
361.66	35.198
362.02	32.884
362.38	33.983
362.74	33.546
363.10	34.362
363.46	32.320
363.82	33.801
364.18	34.211
364.54	33.476
364.90	34.404
365.26	34.143
365.62	33.564
365.98	33.379
366.35	33.793
366.71	33.865
367.07	33.311
367.43	33.580
367.79	34.176
368.15	32.157
368.51	34.597
368.87	33.492
369.23	34.581
369.59	33.378
369.95	34.056
370.31	33.402
370.67	32.824
371.03	34.734
371.39	34.211
371.75	34.054
372.11	33.787
372.47	34.110
372.83	33.855
373.19	33.379
373.55	33.058
373.91	33.149
374.27	33.664
374.63	33.627
374.99	33.760
375.35	34.677
375.71	33.905
376.07	34.549
376.42	33.184
376.78	34.489
377.14	34.535
377.50	32.834
377.86	31.967
378.22	34.430
378.58	34.201
378.94	34.037
379.30	33.899
379.66	34.317
380.02	33.490
380.38	33.255
380.74	34.890
381.09	33.528
381.45	33.526
381.81	33.038
382.17	33.394
382.53	33.893
382.89	33.353
383.25	33.452
383.61	33.429
383.97	33.713
384.32	33.333
384.68	34.046
385.04	33.822
385.40	33.808
385.76	33.528
386.12	34.570
386.48	33.739
386.83	33.985
387.19	33.628
387.55	33.569
387.91	34.353
388.27	33.492
388.62	33.040
388.98	33.411
389.34	32.005
389.70	32.370
390.06	33.659
390.42	33.128
390.77	32.678
391.13	33.434
391.49	32.486
391.85	33.723
392.20	33.313
392.56	33.035
392.92	33.015
393.28	32.063
393.64	32.167
393.99	33.551
394.35	32.607
394.71	31.966
395.07	32.178
395.42	32.377
395.78	33.189
396.14	32.651
396.50	32.852
396.85	32.805
397.21	31.288
397.57	32.636
397.92	32.005
398.28	31.991
398.64	32.984
399.00	31.962
399.35	30.811
399.71	31.733
400.07	32.021
400.42	31.463
400.78	31.261
401.14	31.533
401.49	31.797
401.85	32.155
402.21	31.634
402.57	32.376
402.92	31.212
403.28	30.728
403.63	30.606
403.99	31.725
404.35	31.829
404.70	32.900
405.06	30.320
405.42	30.940
405.77	30.540
406.13	30.477
406.49	30.813
406.84	31.077
407.20	32.477
407.55	30.831
407.91	31.142
408.27	31.292
408.62	32.348
408.98	30.633
409.34	29.047
409.69	30.118
410.05	29.696
410.40	31.037
410.76	29.594
411.11	31.043
411.47	31.111
411.83	30.170
412.18	30.797
412.54	30.571
412.89	30.619
413.25	30.046
413.60	30.082
413.96	30.940
414.31	30.697
414.67	31.285
415.03	31.098
415.38	31.041
415.74	30.764
416.09	31.355
416.45	30.705
416.80	31.366
417.16	30.681
417.51	30.573
417.87	31.039
418.22	31.835
418.58	31.465
418.93	30.220
419.29	30.622
419.64	32.223
420.00	31.623
420.35	31.823
420.71	31.680
421.06	31.254
421.42	31.031
421.77	30.983
422.12	31.974
422.48	31.382
422.83	32.087
423.19	31.533
423.54	31.980
423.90	31.767
424.25	32.526
424.61	32.443
424.96	32.185
425.31	32.074
425.67	31.594
426.02	32.081
426.38	30.863
426.73	31.810
427.09	32.444
427.44	32.583
427.79	32.876
428.15	32.233
428.50	33.486
428.85	33.510
429.21	32.793
429.56	31.805
429.92	32.571
430.27	32.753
430.62	32.893
430.98	32.984
431.33	32.107
431.68	31.556
432.04	32.592
432.39	32.711
432.74	34.602
433.10	33.112
433.45	34.061
433.80	34.087
434.16	33.526
434.51	32.972
434.86	33.206
435.22	33.712
435.57	34.381
435.92	35.287
436.28	33.929
436.63	34.252
436.98	35.023
437.34	34.018
437.69	33.483
438.04	33.871
438.39	34.384
438.75	34.967
439.10	34.377
439.45	34.370
439.81	35.165
440.16	34.838
440.51	35.135
440.86	35.670
441.22	35.173
441.57	35.171
441.92	35.044
442.27	34.330
442.63	34.909
442.98	34.914
443.33	34.494
443.68	35.765
444.03	35.203
444.39	35.217
444.74	34.834
445.09	34.755
445.44	34.857
445.79	35.526
446.15	35.842
446.50	35.601
446.85	35.159
447.20	35.423
447.55	35.943
447.91	36.921
448.26	35.623
448.61	36.871
448.96	36.275
449.31	36.359
449.66	36.711
450.02	35.116
450.37	36.258
450.72	36.694
451.07	35.486
451.42	37.226
451.77	35.510
452.12	35.905
452.47	36.148
452.83	37.183
453.18	37.778
453.53	37.182
453.88	37.086
454.23	37.827
454.58	36.713
454.93	36.113
455.28	37.515
455.63	37.116
455.98	36.774
456.34	37.872
456.69	37.134
457.04	36.814
457.39	37.029
457.74	39.020
458.09	36.721
458.44	37.404
458.79	36.976
459.14	37.425
459.49	37.203
459.84	37.826
460.19	37.345
460.54	37.664
460.89	37.473
461.24	36.827
461.59	37.415
461.94	37.057
462.29	36.670
462.64	38.128
462.99	38.068
463.34	37.719
463.69	37.689
464.04	38.284
464.39	37.779
464.74	36.811
465.09	37.086
465.44	37.269
465.79	36.854
466.14	37.520
466.49	36.951
466.84	37.068
467.19	38.547
467.54	37.838
467.89	37.735
468.24	37.869
468.59	37.679
468.94	38.708
469.29	38.119
469.64	38.650
469.99	37.661
470.34	37.445
470.68	38.345
471.03	37.825
471.38	37.947
471.73	37.949
472.08	39.856
472.43	39.541
472.78	37.196
473.13	38.798
473.48	38.325
473.83	37.986
474.17	38.845
474.52	38.566
474.87	37.578
475.22	38.607
475.57	37.775
475.92	36.689
476.27	36.126
476.61	37.319
476.96	38.610
477.31	39.229
477.66	38.325
478.01	38.164
478.36	38.311
478.70	37.667
479.05	38.912
479.40	39.286
479.75	38.282
480.10	38.432
480.45	37.722
480.79	37.834
481.14	37.851
481.49	37.511
481.84	37.599
482.19	37.817
482.53	37.154
482.88	37.858
483.23	37.934
483.58	37.882
483.92	38.894
484.27	37.286
484.62	38.413
484.97	37.203
485.31	36.972
485.66	36.479
486.01	36.161
486.36	35.638
486.70	34.572
487.05	35.675
487.40	35.874
487.75	36.074
488.09	36.165
488.44	36.329
488.79	37.695
489.13	37.887
489.48	38.594
489.83	37.948
490.17	38.068
490.52	37.382
490.87	38.147
491.22	39.007
491.56	38.560
491.91	38.082
492.26	38.218
492.60	38.588
492.95	39.375
493.30	38.535
493.64	39.039
493.99	38.909
494.34	39.758
494.68	38.424
495.03	39.335
495.37	38.901
495.72	38.834
496.07	38.365
496.41	38.184
496.76	38.962
497.11	39.075
497.45	38.053
497.80	38.462
498.14	38.696
498.49	38.904
498.84	38.785
499.18	38.026
499.53	38.677
499.87	39.039
500.22	39.521
500.56	39.369
500.91	39.518
501.26	38.861
501.60	38.752
501.95	39.158
502.29	38.756
502.64	38.862
502.98	38.862
503.33	38.842
503.67	38.852
504.02	38.334
504.36	38.371
504.71	39.026
505.06	38.527
505.40	39.307
505.75	38.915
506.09	39.664
506.44	39.803
506.78	40.406
507.13	39.409
507.47	38.768
507.82	39.075
508.16	40.078
508.51	40.097
508.85	39.126
509.19	40.039
509.54	39.551
509.88	40.080
510.23	39.265
510.57	38.031
510.92	39.660
511.26	40.512
511.61	38.996
511.95	40.269
512.30	39.600
512.64	39.616
512.98	40.338
513.33	40.266
513.67	40.808
514.02	40.675
514.36	40.395
514.70	40.693
515.05	40.863
515.39	41.228
515.74	40.623
516.08	40.196
516.42	41.530
516.77	40.000
517.11	41.067
517.46	40.571
517.80	40.579
518.14	40.676
518.49	40.408
518.83	39.835
519.17	41.320
519.52	41.835
519.86	40.872
520.20	41.699
520.55	40.927
520.89	40.345
521.23	41.414
521.58	41.193
521.92	41.924
522.26	40.403
522.61	40.939
522.95	42.643
523.29	41.871
523.64	40.000
523.98	41.667
524.32	41.638
524.66	40.812
525.01	41.243
525.35	40.896
525.69	41.963
526.04	41.820
526.38	41.730
526.72	41.408
527.06	41.455
527.41	43.047
527.75	42.362
528.09	41.842
528.43	41.367
528.78	41.324
529.12	41.722
529.46	41.087
529.80	40.888
530.15	40.660
530.49	40.433
530.83	41.926
531.17	42.189
531.51	41.447
531.86	40.519
532.20	40.482
532.54	41.682
532.88	40.412
533.22	41.316
533.57	42.282
533.91	40.967
534.25	40.681
534.59	41.637
534.93	40.501
535.27	39.442
535.62	40.082
535.96	40.898
536.30	42.048
536.64	40.311
536.98	41.473
537.32	41.937
537.66	40.944
538.01	40.867
538.35	42.420
538.69	40.473
539.03	41.667
539.37	40.595
539.71	41.111
540.05	40.800
540.39	40.692
540.73	40.506
541.07	41.092
541.42	40.547
541.76	42.047
542.10	40.691
542.44	41.708
542.78	41.473
543.12	40.736
543.46	40.664
543.80	40.539
544.14	41.053
544.48	41.849
544.82	41.223
545.16	40.559
545.50	41.119
545.84	40.593
546.18	42.393
546.52	41.508
546.86	41.135
547.20	40.568
547.54	39.519
547.88	40.876
548.22	40.741
548.56	39.717
548.90	39.442
549.24	40.682
549.58	40.335
549.92	41.126
550.26	42.934
550.60	41.450
550.94	41.316
551.28	41.793
551.62	42.621
551.96	42.365
552.30	41.463
552.64	40.906
552.98	40.915
553.32	40.845
553.66	41.107
554.00	40.605
554.34	42.543
554.68	41.868
555.02	41.141
555.36	41.024
555.69	41.950
556.03	41.338
556.37	40.153
556.71	42.177
557.05	39.908
557.39	40.000
557.73	41.509
558.07	41.046
558.41	41.261
558.75	42.066
559.08	42.459
559.42	41.231
559.76	41.910
560.10	41.432
560.44	40.146
560.78	41.240
561.12	41.513
561.45	40.738
561.79	40.512
562.13	41.314
562.47	41.986
562.81	41.900
563.15	40.724
563.48	40.248
563.82	40.986
564.16	41.356
564.50	41.049
564.84	39.635
565.17	40.107
565.51	40.948
565.85	40.592
566.19	40.417
566.52	40.313
566.86	41.097
567.20	40.955
567.54	39.738
567.88	41.210
568.21	38.742
568.55	39.397
568.89	38.321
569.23	38.136
569.56	38.738
569.90	37.981
570.24	37.513
570.57	37.638
570.91	36.786
571.25	37.159
571.59	36.605
571.92	36.733
572.26	35.984
572.60	35.962
572.93	37.378
573.27	37.249
573.61	36.383
573.95	36.379
574.28	36.840
574.62	35.701
574.96	36.212
575.29	35.658
575.63	35.548
575.97	34.786
576.30	35.712
576.64	36.244
576.98	36.267
577.31	36.461
577.65	35.610
577.98	35.905
578.32	34.654
578.66	35.089
578.99	35.725
579.33	35.701
579.67	35.195
580.00	35.817
580.34	35.360
580.67	35.503
581.01	35.857
581.35	35.261
581.68	34.846
582.02	35.145
582.35	34.783
582.69	35.400
583.02	35.369
583.36	35.857
583.70	36.454
584.03	36.515
584.37	36.522
584.70	35.830
585.04	36.165
585.37	35.234
585.71	36.000
586.04	35.632
586.38	35.791
586.72	36.190
587.05	35.872
587.39	36.207
587.72	36.497
588.06	36.677
588.39	36.208
588.73	35.985
589.06	37.234
589.40	37.433
589.73	36.775
590.07	37.920
590.40	38.362
590.73	38.083
591.07	38.634
591.40	37.445
591.74	38.433
592.07	36.564
592.41	37.810
592.74	37.239
593.08	36.556
593.41	36.146
593.75	35.959
594.08	36.280
594.41	37.080
594.75	36.233
595.08	36.797
595.42	37.130
595.75	36.854
596.09	37.504
596.42	36.890
596.75	38.822
597.09	37.887
597.42	37.388
597.75	36.308
598.09	37.628
598.42	37.903
598.76	37.240
599.09	36.852
599.42	36.228
599.76	36.872
600.09	35.627
600.42	36.222
600.76	36.608
601.09	37.073
601.42	36.431
601.76	36.627
602.09	36.608
602.42	36.525
602.76	36.850
603.09	37.481
603.42	37.101
603.76	36.876
604.09	36.808
604.42	36.949
604.76	37.416
605.09	37.388
605.42	37.464
605.75	37.189
606.09	36.687
606.42	35.663
606.75	36.961
607.09	36.478
607.42	36.842
607.75	36.744
608.08	37.043
608.42	37.081
608.75	36.457
609.08	36.032
609.41	37.591
609.75	38.462
610.08	37.410
610.41	37.198
610.74	36.753
611.07	38.108
611.41	37.627
611.74	37.189
612.07	38.006
612.40	37.427
612.73	38.293
613.07	38.013
613.40	38.346
613.73	36.695
614.06	36.450
614.39	37.172
614.72	37.469
615.06	36.845
615.39	37.376
615.72	36.496
616.05	38.222
616.38	37.240
616.71	38.144
617.05	36.903
617.38	38.933
617.71	38.358
618.04	37.970
618.37	38.744
618.70	37.933
619.03	38.523
619.36	39.008
619.69	39.380
620.03	39.791
620.36	38.793
620.69	38.953
621.02	38.111
621.35	38.754
621.68	39.454
622.01	39.188
622.34	39.330
622.67	39.045
623.00	38.598
623.33	38.394
623.66	38.789
623.99	40.548
624.32	38.482
624.65	38.315
624.99	39.013
625.32	39.679
625.65	38.069
625.98	38.563
626.31	39.243
626.64	37.737
626.97	38.485
627.30	38.587
627.63	39.796
627.96	40.063
628.29	40.594
628.62	39.521
628.95	41.223
629.28	41.280
629.61	41.388
629.94	39.585
630.26	39.775
630.59	40.957
630.92	39.462
