SpectraSuite Data File
++++++++++++++++++++++++++++++++++++
Date: Tue May 12 16:11:10 PDT 2015
User: schluterlab
Dark Spectrum Present: Yes
Reference Spectrum Present: Yes
Number of Sampled Component Spectra: 1
Spectrometers: USB2E3373
Integration Time (usec): 3000 (USB2E3373)
Spectra Averaged: 3 (USB2E3373)
Boxcar Smoothing: 0 (USB2E3373)
Correct for Electrical Dark: No (USB2E3373)
Strobe/Lamp Enabled: No (USB2E3373)
Correct for Detector Non-linearity: No (USB2E3373)
Correct for Stray Light: No (USB2E3373)
Number of Pixels in Processed Spectrum: 2048
>>>>>Begin Processed Spectral Data<<<<<
178.53	0.000
178.91	-216.667
179.29	-650.000
179.67	-4700.000
180.04	-146.667
180.42	1025.000
180.80	2050.000
181.18	0.000
181.56	-412.500
181.94	0.000
182.31	1333.333
182.69	-3300.000
183.07	657.143
183.45	-3100.000
183.83	-1600.000
184.20	430.000
184.58	628.571
184.96	-223.077
185.34	-208.333
185.72	2100.000
186.09	-875.000
186.47	-4100.000
186.85	1133.333
187.23	760.000
187.61	1450.000
187.98	437.500
188.36	285.714
188.74	416.667
189.12	408.333
189.49	1125.000
189.87	0.000
190.25	650.000
190.63	2800.000
191.00	-275.000
191.38	-3800.000
191.76	-725.000
192.14	625.000
192.51	-4100.000
192.89	1900.000
193.27	1166.667
193.65	-800.000
194.02	-840.000
194.40	457.143
194.78	-242.857
195.15	260.000
195.53	-3900.000
195.91	-720.000
196.29	4000.000
196.66	318.750
197.04	1025.000
197.42	-1900.000
197.79	975.000
198.17	366.667
198.55	0.000
198.92	471.429
199.30	1233.333
199.68	2300.000
200.05	716.667
200.43	-333.333
200.81	272.222
201.18	4200.000
201.56	325.000
201.94	-700.000
202.31	-462.500
202.69	-740.000
203.07	3600.000
203.44	-750.000
203.82	375.000
204.19	780.000
204.57	-1500.000
204.95	-625.000
205.32	-780.000
205.70	733.333
206.08	975.000
206.45	-1033.333
206.83	388.889
207.20	236.842
207.58	325.000
207.96	860.000
208.33	0.000
208.71	514.286
209.08	880.000
209.46	-2500.000
209.84	-775.000
210.21	980.000
210.59	-500.000
210.96	316.667
211.34	-1100.000
211.71	409.091
212.09	825.000
212.46	2150.000
212.84	-583.333
213.22	433.333
213.59	-2600.000
213.97	340.000
214.34	1000.000
214.72	1533.333
215.09	800.000
215.47	-3500.000
215.84	-340.000
216.22	-462.500
216.59	0.000
216.97	0.000
217.34	1700.000
217.72	-1500.000
218.09	1466.667
218.47	525.000
218.84	800.000
219.22	1200.000
219.59	1100.000
219.97	671.429
220.34	400.000
220.72	1300.000
221.09	4200.000
221.47	350.000
221.84	1100.000
222.22	400.000
222.59	272.222
222.97	185.714
223.34	262.500
223.72	-1700.000
224.09	1400.000
224.46	276.923
224.84	-775.000
225.21	455.556
225.59	280.000
225.96	1466.667
226.34	-620.000
226.71	-825.000
227.08	-580.000
227.46	0.000
227.83	-483.333
228.21	-1950.000
228.58	408.333
228.95	975.000
229.33	422.222
229.70	900.000
230.08	407.692
230.45	4000.000
230.82	-1200.000
231.20	-866.667
231.57	-1000.000
231.95	680.000
232.32	350.000
232.69	633.333
233.07	291.667
233.44	-1100.000
233.81	220.000
234.19	177.778
234.56	181.250
234.93	205.882
235.31	210.000
235.68	325.000
236.05	189.286
236.43	140.741
236.80	314.286
237.17	179.310
237.55	125.000
237.92	160.000
238.29	154.545
238.67	156.250
239.04	148.780
239.41	112.500
239.79	120.000
240.16	129.167
240.53	96.721
240.91	82.609
241.28	96.610
241.65	100.000
242.02	111.268
242.40	94.286
242.77	81.319
243.14	89.873
243.51	86.869
243.89	70.093
244.26	73.832
244.63	72.277
245.00	67.890
245.38	67.797
245.75	68.939
246.12	74.815
246.49	64.539
246.87	66.393
247.24	62.000
247.61	63.125
247.98	67.347
248.36	61.212
248.73	65.816
249.10	57.143
249.47	61.500
249.84	55.224
250.22	62.703
250.59	61.500
250.96	55.696
251.33	57.209
251.70	58.929
252.08	54.622
252.45	52.590
252.82	54.373
253.19	54.941
253.56	55.769
253.94	54.348
254.31	54.264
254.68	51.916
255.05	52.414
255.42	54.745
255.79	49.837
256.16	53.220
256.54	52.597
256.91	54.575
257.28	52.174
257.65	48.589
258.02	51.327
258.39	51.003
258.76	51.884
259.14	48.571
259.51	51.895
259.88	51.368
260.25	47.253
260.62	52.329
260.99	45.455
261.36	51.811
261.73	49.734
262.10	49.738
262.47	47.250
262.85	49.600
263.22	52.699
263.59	50.384
263.96	47.368
264.33	48.889
264.70	49.877
265.07	48.049
265.44	45.183
265.81	47.406
266.18	48.741
266.55	50.118
266.92	47.651
267.29	51.535
267.66	49.552
268.03	47.085
268.40	47.992
268.77	45.374
269.14	46.638
269.51	48.330
269.88	47.959
270.25	47.084
270.62	46.781
270.99	46.247
271.36	47.764
271.73	48.008
272.10	43.636
272.47	45.635
272.84	45.110
273.21	48.140
273.58	46.761
273.95	48.049
274.32	44.942
274.69	49.016
275.06	44.262
275.43	45.402
275.80	46.981
276.17	46.691
276.54	45.047
276.91	45.522
277.28	44.526
277.65	43.727
278.02	45.037
278.39	46.583
278.76	43.793
279.13	47.687
279.50	46.909
279.87	45.065
280.23	44.567
280.60	45.255
280.97	44.828
281.34	42.244
281.71	44.000
282.08	44.615
282.45	43.581
282.82	43.813
283.19	47.059
283.56	41.983
283.92	45.440
284.29	44.426
284.66	43.025
285.03	43.449
285.40	41.983
285.77	41.975
286.14	42.415
286.51	40.951
286.87	41.772
287.24	40.841
287.61	41.945
287.98	41.045
288.35	40.889
288.72	41.123
289.08	39.039
289.45	40.091
289.82	41.875
290.19	39.824
290.56	42.067
290.93	38.561
291.29	38.674
291.66	36.723
292.03	39.130
292.40	37.534
292.77	39.136
293.13	37.660
293.50	36.302
293.87	34.688
294.24	38.042
294.60	38.762
294.97	36.503
295.34	37.052
295.71	35.348
296.08	38.133
296.44	37.992
296.81	35.484
297.18	33.460
297.55	36.084
297.91	32.759
298.28	35.628
298.65	33.988
299.02	34.138
299.38	34.293
299.75	33.171
300.12	34.060
300.48	34.192
300.85	34.565
301.22	32.558
301.59	32.547
301.95	31.739
302.32	32.829
302.69	33.258
303.05	35.354
303.42	30.717
303.79	31.419
304.15	31.023
304.52	31.712
304.89	31.450
305.25	32.592
305.62	31.023
305.99	32.609
306.35	30.105
306.72	31.530
307.09	32.505
307.45	31.151
307.82	29.424
308.19	31.134
308.55	31.200
308.92	32.287
309.29	31.164
309.65	30.624
310.02	31.643
310.38	30.409
310.75	29.990
311.12	30.939
311.48	31.467
311.85	30.725
312.22	30.181
312.58	29.932
312.95	29.320
313.31	30.899
313.68	29.737
314.05	29.579
314.41	28.864
314.78	30.682
315.14	30.521
315.51	30.274
315.87	28.832
316.24	29.412
316.61	29.275
316.97	28.991
317.34	28.122
317.70	28.622
318.07	30.249
318.43	30.141
318.80	29.860
319.16	28.759
319.53	29.292
319.89	28.495
320.26	31.192
320.62	28.938
320.99	30.029
321.35	27.829
321.72	29.127
322.08	29.363
322.45	29.700
322.81	28.820
323.18	28.597
323.54	29.878
323.91	27.743
324.27	28.028
324.64	27.595
325.00	29.569
325.37	27.993
325.73	27.319
326.10	27.672
326.46	27.333
326.83	28.000
327.19	27.550
327.56	27.556
327.92	28.934
328.29	28.969
328.65	29.452
329.01	28.229
329.38	28.257
329.74	27.925
330.11	28.410
330.47	27.195
330.84	26.488
331.20	27.919
331.56	29.534
331.93	28.058
332.29	27.211
332.66	28.316
333.02	26.890
333.38	26.178
333.75	27.606
334.11	27.433
334.48	26.923
334.84	27.280
335.20	27.117
335.57	25.693
335.93	26.913
336.29	27.197
336.66	27.530
337.02	26.775
337.38	26.053
337.75	27.111
338.11	27.764
338.47	27.180
338.84	26.757
339.20	26.840
339.56	26.493
339.93	27.341
340.29	25.798
340.65	27.829
341.02	25.905
341.38	27.094
341.74	25.748
342.11	25.459
342.47	26.825
342.83	26.743
343.20	26.516
343.56	25.338
343.92	26.342
344.28	25.997
344.65	27.139
345.01	25.476
345.37	24.840
345.73	26.270
346.10	25.418
346.46	24.960
346.82	24.306
347.19	26.043
347.55	25.527
347.91	25.151
348.27	25.097
348.63	27.057
349.00	26.580
349.36	25.136
349.72	25.612
350.08	26.786
350.45	26.352
350.81	25.765
351.17	25.886
351.53	25.019
351.89	24.942
352.26	24.868
352.62	25.113
352.98	25.460
353.34	26.965
353.70	23.777
354.07	23.923
354.43	25.499
354.79	24.146
355.15	24.732
355.51	25.076
355.87	25.075
356.24	24.942
356.60	24.125
356.96	25.019
357.32	24.567
357.68	24.596
358.04	25.076
358.40	24.963
358.77	24.267
359.13	24.249
359.49	24.463
359.85	23.380
360.21	24.368
360.57	23.577
360.93	25.108
361.29	23.665
361.66	24.683
362.02	23.935
362.38	24.820
362.74	23.638
363.10	24.053
363.46	23.826
363.82	24.825
364.18	25.107
364.54	24.464
364.90	24.364
365.26	24.427
365.62	23.550
365.98	23.606
366.35	23.379
366.71	24.289
367.07	23.003
367.43	24.244
367.79	23.138
368.15	22.592
368.51	24.121
368.87	23.098
369.23	22.869
369.59	23.061
369.95	23.497
370.31	23.272
370.67	23.872
371.03	24.370
371.39	23.684
371.75	23.168
372.11	23.453
372.47	24.452
372.83	23.114
373.19	24.606
373.55	23.574
373.91	22.790
374.27	24.272
374.63	23.051
374.99	23.315
375.35	24.261
375.71	22.889
376.07	23.873
376.42	22.442
376.78	24.149
377.14	23.657
377.50	22.971
377.86	22.357
378.22	24.254
378.58	23.547
378.94	23.778
379.30	22.923
379.66	23.179
380.02	23.226
380.38	22.365
380.74	23.356
381.09	22.780
381.45	22.254
381.81	23.463
382.17	22.589
382.53	23.275
382.89	22.531
383.25	21.374
383.61	22.882
383.97	22.555
384.32	22.664
384.68	23.529
385.04	23.212
385.40	23.665
385.76	22.528
386.12	23.562
386.48	22.796
386.83	22.861
387.19	22.497
387.55	23.675
387.91	22.979
388.27	23.022
388.62	22.594
388.98	22.507
389.34	21.892
389.70	22.642
390.06	22.256
390.42	22.825
390.77	23.219
391.13	23.054
391.49	22.202
391.85	23.200
392.20	23.361
392.56	22.461
392.92	21.561
393.28	21.693
393.64	22.076
393.99	22.347
394.35	22.013
394.71	21.230
395.07	21.837
395.42	21.780
395.78	22.147
396.14	22.530
396.50	21.721
396.85	21.768
397.21	22.022
397.57	22.475
397.92	22.126
398.28	21.787
398.64	21.990
399.00	21.539
399.35	21.417
399.71	22.406
400.07	22.260
400.42	22.269
400.78	22.346
401.14	21.785
401.49	21.256
401.85	22.074
402.21	21.734
402.57	22.083
402.92	22.182
403.28	21.778
403.63	21.071
403.99	21.954
404.35	22.802
404.70	21.382
405.06	21.449
405.42	21.664
405.77	22.216
406.13	21.421
406.49	20.978
406.84	20.756
407.20	21.233
407.55	21.108
407.91	22.208
408.27	22.013
408.62	21.644
408.98	20.816
409.34	21.157
409.69	21.593
410.05	21.467
410.40	21.496
410.76	20.721
411.11	21.386
411.47	20.741
411.83	21.148
412.18	22.283
412.54	21.141
412.89	20.649
413.25	21.608
413.60	21.495
413.96	21.424
414.31	20.720
414.67	22.098
415.03	21.903
415.38	21.956
415.74	20.657
416.09	20.800
416.45	22.043
416.80	21.681
417.16	20.687
417.51	20.828
417.87	20.588
418.22	20.109
418.58	21.338
418.93	21.832
419.29	20.394
419.64	20.594
420.00	22.613
420.35	20.964
420.71	20.478
421.06	20.600
421.42	21.128
421.77	21.655
422.12	21.169
422.48	20.647
422.83	20.257
423.19	20.086
423.54	21.613
423.90	21.065
424.25	20.418
424.61	21.938
424.96	20.723
425.31	21.018
425.67	21.100
426.02	20.135
426.38	19.603
426.73	21.342
427.09	22.005
427.44	21.384
427.79	21.041
428.15	20.625
428.50	20.114
428.85	21.105
429.21	20.583
429.56	20.738
429.92	20.736
430.27	19.594
430.62	20.362
430.98	21.208
431.33	19.859
431.68	20.296
432.04	20.486
432.39	21.186
432.74	20.492
433.10	20.653
433.45	20.908
433.80	20.794
434.16	21.282
434.51	20.485
434.86	20.523
435.22	20.800
435.57	20.332
435.92	21.172
436.28	21.256
436.63	21.016
436.98	21.171
437.34	20.890
437.69	20.213
438.04	21.290
438.39	21.191
438.75	21.214
439.10	20.561
439.45	20.577
439.81	20.995
440.16	21.134
440.51	20.890
440.86	20.513
441.22	20.346
441.57	21.207
441.92	20.138
442.27	20.309
442.63	20.274
442.98	20.205
443.33	21.050
443.68	20.825
444.03	20.264
444.39	20.716
444.74	20.652
445.09	20.432
445.44	21.148
445.79	20.517
446.15	20.737
446.50	20.200
446.85	19.920
447.20	19.950
447.55	20.935
447.91	20.511
448.26	20.714
448.61	20.564
448.96	21.078
449.31	20.352
449.66	21.650
450.02	20.475
450.37	21.433
450.72	21.102
451.07	20.768
451.42	20.806
451.77	21.306
452.12	20.874
452.47	21.081
452.83	20.845
453.18	21.982
453.53	20.841
453.88	20.514
454.23	21.034
454.58	20.280
454.93	20.417
455.28	21.481
455.63	21.040
455.98	20.699
456.34	21.155
456.69	20.244
457.04	19.869
457.39	20.629
457.74	20.552
458.09	19.708
458.44	20.099
458.79	20.000
459.14	20.513
459.49	20.612
459.84	20.054
460.19	20.791
460.54	20.798
460.89	20.522
461.24	20.275
461.59	21.655
461.94	21.040
462.29	20.595
462.64	21.294
462.99	20.985
463.34	21.517
463.69	20.992
464.04	21.013
464.39	20.721
464.74	19.871
465.09	20.894
465.44	20.620
465.79	20.033
466.14	20.085
466.49	20.347
466.84	19.565
467.19	20.445
467.54	20.420
467.89	20.775
468.24	20.266
468.59	20.298
468.94	20.169
469.29	20.525
469.64	20.965
469.99	19.794
470.34	20.430
470.68	20.069
471.03	20.013
471.38	21.325
471.73	21.032
472.08	20.613
472.43	19.988
472.78	19.910
473.13	19.212
473.48	20.844
473.83	20.024
474.17	20.000
474.52	19.550
474.87	20.125
475.22	20.274
475.57	20.094
475.92	19.213
476.27	19.695
476.61	20.054
476.96	20.324
477.31	19.434
477.66	20.612
478.01	19.907
478.36	20.082
478.70	19.653
479.05	19.351
479.40	20.040
479.75	20.109
480.10	20.087
480.45	19.374
480.79	19.447
481.14	18.925
481.49	18.893
481.84	19.217
482.19	20.000
482.53	19.104
482.88	19.131
483.23	19.305
483.58	19.255
483.92	19.607
484.27	18.964
484.62	19.482
484.97	19.984
485.31	19.637
485.66	19.425
486.01	19.792
486.36	19.636
486.70	18.790
487.05	19.249
487.40	18.898
487.75	19.450
488.09	18.807
488.44	19.120
488.79	19.542
489.13	19.448
489.48	19.976
489.83	19.141
490.17	19.282
490.52	18.863
490.87	18.836
491.22	19.504
491.56	18.928
491.91	18.459
492.26	19.465
492.60	19.636
492.95	18.804
493.30	19.245
493.64	18.868
493.99	18.873
494.34	18.691
494.68	19.389
495.03	19.219
495.37	19.586
495.72	19.953
496.07	19.048
496.41	18.940
496.76	18.531
497.11	19.109
497.45	19.114
497.80	19.741
498.14	18.816
498.49	19.174
498.84	20.234
499.18	18.556
499.53	18.695
499.87	19.048
500.22	19.622
500.56	18.338
500.91	19.944
501.26	18.466
501.60	18.898
501.95	18.548
502.29	19.378
502.64	18.615
502.98	18.631
503.33	18.931
503.67	19.249
504.02	18.316
504.36	18.643
504.71	19.347
505.06	18.254
505.40	18.858
505.75	18.382
506.09	19.319
506.44	18.703
506.78	18.715
507.13	19.098
507.47	18.341
507.82	19.173
508.16	19.451
508.51	18.454
508.85	19.326
509.19	18.453
509.54	18.848
509.88	19.543
510.23	18.480
510.57	18.581
510.92	18.831
511.26	19.177
511.61	18.710
511.95	18.566
512.30	18.750
512.64	18.692
512.98	18.811
513.33	18.955
513.67	18.384
514.02	18.597
514.36	18.224
514.70	17.973
515.05	18.007
515.39	18.037
515.74	19.081
516.08	19.227
516.42	19.781
516.77	17.920
517.11	19.040
517.46	18.373
517.80	19.388
518.14	18.479
518.49	18.412
518.83	17.912
519.17	18.525
519.52	18.624
519.86	18.038
520.20	18.904
520.55	18.315
520.89	18.276
521.23	19.100
521.58	17.785
521.92	18.484
522.26	17.891
522.61	19.311
522.95	18.198
523.29	18.246
523.64	18.035
523.98	18.955
524.32	17.762
524.66	18.145
525.01	17.988
525.35	17.501
525.69	18.182
526.04	18.560
526.38	18.599
526.72	18.079
527.06	17.623
527.41	19.347
527.75	18.442
528.09	17.941
528.43	18.792
528.78	18.306
529.12	19.446
529.46	18.001
529.80	18.516
530.15	18.209
530.49	17.449
530.83	18.464
531.17	17.897
531.51	18.271
531.86	17.512
532.20	18.789
532.54	17.577
532.88	17.614
533.22	18.891
533.57	19.097
533.91	18.007
534.25	18.638
534.59	18.304
534.93	18.828
535.27	17.473
535.62	18.553
535.96	17.967
536.30	19.013
536.64	17.826
536.98	17.873
537.32	18.563
537.66	17.474
538.01	18.080
538.35	18.091
538.69	18.022
539.03	18.781
539.37	18.204
539.71	18.889
540.05	17.600
540.39	18.805
540.73	18.671
541.07	17.942
541.42	17.226
541.76	18.126
542.10	17.571
542.44	18.392
542.78	17.810
543.12	18.037
543.46	18.484
543.80	18.045
544.14	18.885
544.48	18.005
544.82	19.205
545.16	18.033
545.50	17.701
545.84	18.119
546.18	18.986
546.52	18.230
546.86	18.827
547.20	16.860
547.54	18.556
547.88	18.370
548.22	17.972
548.56	18.621
548.90	18.446
549.24	17.498
549.58	17.977
549.92	18.271
550.26	18.661
550.60	18.896
550.94	18.385
551.28	18.345
551.62	19.241
551.96	19.324
552.30	16.809
552.64	18.252
552.98	17.397
553.32	18.182
553.66	19.088
554.00	17.568
554.34	19.108
554.68	18.481
555.02	18.466
555.36	17.886
555.69	17.801
556.03	17.707
556.37	17.846
556.71	19.361
557.05	16.514
557.39	18.667
557.73	19.070
558.07	18.779
558.41	18.780
558.75	19.289
559.08	18.799
559.42	18.039
559.76	18.603
560.10	18.238
560.44	18.115
560.78	19.437
561.12	18.881
561.45	17.772
561.79	17.603
562.13	17.183
562.47	17.521
562.81	18.022
563.15	18.552
563.48	17.329
563.82	19.401
564.16	18.408
564.50	17.902
564.84	18.602
565.17	17.944
565.51	18.781
565.85	18.816
566.19	19.226
566.52	17.509
566.86	19.206
567.20	18.820
567.54	18.395
567.88	18.362
568.21	17.723
568.55	17.996
568.89	18.568
569.23	18.335
569.56	18.411
569.90	18.577
570.24	18.978
570.57	18.722
570.91	18.253
571.25	18.624
571.59	18.895
571.92	17.976
572.26	18.059
572.60	18.023
572.93	18.401
573.27	18.466
573.61	18.625
573.95	18.401
574.28	18.783
574.62	18.514
574.96	18.354
575.29	18.021
575.63	18.021
575.97	18.184
576.30	17.869
576.64	18.949
576.98	18.714
577.31	18.701
577.65	19.013
577.98	18.799
578.32	18.359
578.66	18.332
578.99	18.628
579.33	18.493
579.67	18.001
580.00	18.115
580.34	18.350
580.67	18.277
581.01	18.631
581.35	18.565
581.68	18.499
582.02	18.806
582.35	18.672
582.69	18.335
583.02	18.305
583.36	18.878
583.70	18.515
584.03	18.817
584.37	18.930
584.70	18.636
585.04	18.558
585.37	18.215
585.71	19.371
586.04	18.404
586.38	18.291
586.72	18.404
587.05	18.914
587.39	18.837
587.72	18.687
588.06	18.376
588.39	18.884
588.73	18.524
589.06	18.559
589.40	18.842
589.73	18.551
590.07	19.149
590.40	19.129
590.73	19.831
591.07	18.748
591.40	18.603
591.74	18.831
592.07	18.220
592.41	18.185
592.74	18.198
593.08	18.717
593.41	18.223
593.75	18.155
594.08	18.663
594.41	18.736
594.75	18.801
595.08	18.861
595.42	18.762
595.75	18.723
596.09	18.978
596.42	18.572
596.75	19.511
597.09	18.655
597.42	18.816
597.75	18.621
598.09	18.506
598.42	18.605
598.76	17.810
599.09	18.978
599.42	18.512
599.76	18.623
600.09	18.271
600.42	18.474
600.76	18.049
601.09	18.329
601.42	18.444
601.76	18.618
602.09	18.985
602.42	18.632
602.76	19.279
603.09	19.344
603.42	19.193
603.76	18.655
604.09	18.856
604.42	18.757
604.76	18.412
605.09	18.531
605.42	18.448
605.75	19.226
606.09	18.592
606.42	18.452
606.75	18.694
607.09	17.923
607.42	18.763
607.75	18.551
608.08	18.075
608.42	18.540
608.75	17.587
609.08	18.170
609.41	18.636
609.75	18.819
610.08	19.020
610.41	18.797
610.74	18.745
611.07	18.645
611.41	19.231
611.74	18.451
612.07	18.738
612.40	18.324
612.73	19.421
613.07	19.209
613.40	18.546
613.73	18.572
614.06	18.250
614.39	18.990
614.72	18.533
615.06	18.200
615.39	17.822
615.72	18.393
616.05	18.483
616.38	18.316
616.71	18.123
617.05	18.671
617.38	18.483
617.71	19.010
618.04	18.732
618.37	18.733
618.70	18.418
619.03	19.414
619.36	19.598
619.69	18.536
620.03	19.439
620.36	17.662
620.69	18.455
621.02	19.158
621.35	18.195
621.68	19.027
622.01	19.410
622.34	17.917
622.67	18.750
623.00	18.312
623.33	18.219
623.66	17.831
623.99	19.178
624.32	18.225
624.65	18.433
624.99	18.594
625.32	18.437
625.65	18.207
625.98	18.131
626.31	17.804
626.64	18.299
626.97	17.368
627.30	18.789
627.63	19.623
627.96	18.153
628.29	18.729
628.62	18.135
628.95	19.149
629.28	18.755
629.61	18.541
629.94	17.373
630.26	18.371
630.59	18.972
630.92	16.592
