SpectraSuite Data File
++++++++++++++++++++++++++++++++++++
Date: Tue May 12 16:11:06 PDT 2015
User: schluterlab
Dark Spectrum Present: Yes
Reference Spectrum Present: Yes
Number of Sampled Component Spectra: 1
Spectrometers: USB2E3373
Integration Time (usec): 3000 (USB2E3373)
Spectra Averaged: 3 (USB2E3373)
Boxcar Smoothing: 0 (USB2E3373)
Correct for Electrical Dark: No (USB2E3373)
Strobe/Lamp Enabled: No (USB2E3373)
Correct for Detector Non-linearity: No (USB2E3373)
Correct for Stray Light: No (USB2E3373)
Number of Pixels in Processed Spectrum: 2048
>>>>>Begin Processed Spectral Data<<<<<
178.53	0.000
178.91	-175.000
179.29	-575.000
179.67	-3200.000
180.04	-173.333
180.42	625.000
180.80	1550.000
181.18	0.000
181.56	-362.500
181.94	0.000
182.31	1366.667
182.69	-3300.000
183.07	585.714
183.45	-3500.000
183.83	-1850.000
184.20	450.000
184.58	457.143
184.96	-353.846
185.34	-250.000
185.72	1350.000
186.09	-1125.000
186.47	-3500.000
186.85	800.000
187.23	680.000
187.61	1700.000
187.98	475.000
188.36	321.429
188.74	350.000
189.12	416.667
189.49	900.000
189.87	0.000
190.25	500.000
190.63	3100.000
191.00	-266.667
191.38	-4700.000
191.76	-650.000
192.14	525.000
192.51	-2500.000
192.89	2200.000
193.27	1366.667
193.65	-1266.667
194.02	-760.000
194.40	585.714
194.78	-214.286
195.15	320.000
195.53	-3300.000
195.91	-480.000
196.29	3500.000
196.66	262.500
197.04	750.000
197.42	-1600.000
197.79	700.000
198.17	375.000
198.55	0.000
198.92	414.286
199.30	1400.000
199.68	2450.000
200.05	883.333
200.43	-516.667
200.81	216.667
201.18	3600.000
201.56	266.667
201.94	-875.000
202.31	-350.000
202.69	-620.000
203.07	4200.000
203.44	-566.667
203.82	316.667
204.19	740.000
204.57	-1500.000
204.95	-825.000
205.32	-700.000
205.70	550.000
206.08	725.000
206.45	-866.667
206.83	444.444
207.20	226.316
207.58	275.000
207.96	720.000
208.33	0.000
208.71	728.571
209.08	780.000
209.46	-3600.000
209.84	-950.000
210.21	800.000
210.59	-560.000
210.96	308.333
211.34	-925.000
211.71	481.818
212.09	725.000
212.46	1900.000
212.84	-333.333
213.22	444.444
213.59	-3200.000
213.97	360.000
214.34	1125.000
214.72	1200.000
215.09	1366.667
215.47	-4200.000
215.84	-400.000
216.22	-387.500
216.59	0.000
216.97	0.000
217.34	1700.000
217.72	-1700.000
218.09	1400.000
218.47	575.000
218.84	1175.000
219.22	1366.667
219.59	1066.667
219.97	500.000
220.34	511.111
220.72	2050.000
221.09	3200.000
221.47	233.333
221.84	1133.333
222.22	380.000
222.59	238.889
222.97	214.286
223.34	275.000
223.72	-1750.000
224.09	1433.333
224.46	338.462
224.84	-650.000
225.21	511.111
225.59	280.000
225.96	1366.667
226.34	-680.000
226.71	-825.000
227.08	-600.000
227.46	0.000
227.83	-416.667
228.21	-1700.000
228.58	375.000
228.95	975.000
229.33	477.778
229.70	1175.000
230.08	384.615
230.45	3600.000
230.82	-900.000
231.20	-833.333
231.57	-1033.333
231.95	580.000
232.32	308.333
232.69	516.667
233.07	291.667
233.44	-1650.000
233.81	246.667
234.19	207.407
234.56	231.250
234.93	194.118
235.31	210.000
235.68	293.750
236.05	153.571
236.43	155.556
236.80	285.714
237.17	134.483
237.55	106.250
237.92	137.500
238.29	109.091
238.67	159.375
239.04	109.756
239.41	95.833
239.79	82.500
240.16	89.583
240.53	67.213
240.91	72.464
241.28	84.746
241.65	69.697
242.02	69.014
242.40	70.000
242.77	56.044
243.14	40.506
243.51	52.525
243.89	53.271
244.26	53.271
244.63	55.446
245.00	54.128
245.38	48.305
245.75	41.667
246.12	51.852
246.49	41.844
246.87	35.246
247.24	42.000
247.61	45.625
247.98	42.857
248.36	34.545
248.73	39.286
249.10	34.524
249.47	40.000
249.84	33.831
250.22	35.676
250.59	38.000
250.96	35.865
251.33	36.744
251.70	31.696
252.08	36.134
252.45	32.669
252.82	26.616
253.19	34.783
253.56	29.231
253.94	33.696
254.31	29.845
254.68	33.798
255.05	31.724
255.42	30.657
255.79	31.596
256.16	28.136
256.54	32.143
256.91	29.739
257.28	28.428
257.65	30.094
258.02	29.499
258.39	30.372
258.76	30.725
259.14	27.714
259.51	27.988
259.88	28.267
260.25	25.000
260.62	27.397
260.99	26.722
261.36	27.298
261.73	28.191
262.10	29.058
262.47	24.250
262.85	26.667
263.22	29.049
263.59	27.366
263.96	27.318
264.33	23.210
264.70	26.290
265.07	25.610
265.44	25.000
265.81	28.066
266.18	26.545
266.55	25.768
266.92	24.832
267.29	27.193
267.66	23.094
268.03	23.318
268.40	27.061
268.77	25.771
269.14	23.861
269.51	25.167
269.88	23.878
270.25	22.030
270.62	24.678
270.99	23.529
271.36	25.407
271.73	24.109
272.10	21.818
272.47	21.627
272.84	22.954
273.21	22.521
273.58	24.291
273.95	22.177
274.32	22.179
274.69	24.409
275.06	23.497
275.43	21.839
275.80	25.660
276.17	24.081
276.54	23.364
276.91	25.187
277.28	24.818
277.65	22.694
278.02	22.794
278.39	22.842
278.76	22.241
279.13	20.819
279.50	22.545
279.87	21.229
280.23	19.705
280.60	20.985
280.97	20.862
281.34	20.627
281.71	22.957
282.08	22.393
282.45	20.270
282.82	21.070
283.19	22.576
283.56	22.149
283.92	20.684
284.29	23.295
284.66	20.336
285.03	22.056
285.40	21.157
285.77	20.370
286.14	20.898
286.51	20.859
286.87	19.937
287.24	17.568
287.61	20.517
287.98	20.597
288.35	19.111
288.72	19.575
289.08	19.970
289.45	21.341
289.82	23.594
290.19	18.594
290.56	20.815
290.93	19.712
291.29	19.890
291.66	18.503
292.03	18.794
292.40	18.428
292.77	19.081
293.13	17.261
293.50	17.679
293.87	16.938
294.24	20.140
294.60	18.573
294.97	18.741
295.34	18.858
295.71	19.580
296.08	18.133
296.44	18.043
296.81	17.866
297.18	16.477
297.55	17.365
297.91	15.517
298.28	17.391
298.65	18.282
299.02	17.129
299.38	17.386
299.75	15.732
300.12	16.972
300.48	17.096
300.85	15.852
301.22	16.977
301.59	16.863
301.95	16.803
302.32	17.811
302.69	17.195
303.05	17.172
303.42	16.031
303.79	16.468
304.15	15.512
304.52	15.433
304.89	17.058
305.25	17.130
305.62	16.418
305.99	16.957
306.35	16.000
306.72	15.713
307.09	16.356
307.45	15.839
307.82	15.638
308.19	15.876
308.55	16.200
308.92	16.290
309.29	16.568
309.65	15.362
310.02	15.822
310.38	14.756
310.75	15.911
311.12	15.613
311.48	16.699
311.85	15.935
312.22	16.046
312.58	15.549
312.95	16.019
313.31	16.199
313.68	15.572
314.05	16.209
314.41	14.898
314.78	14.583
315.14	15.924
315.51	15.043
315.87	15.328
316.24	16.153
316.61	13.876
316.97	14.404
317.34	14.465
317.70	14.750
318.07	16.281
318.43	15.378
318.80	14.098
319.16	15.035
319.53	15.487
319.89	15.323
320.26	14.898
320.62	16.484
320.99	15.062
321.35	13.173
321.72	16.603
322.08	14.312
322.45	14.714
322.81	14.090
323.18	14.476
323.54	15.767
323.91	15.956
324.27	14.854
324.64	14.619
325.00	14.828
325.37	14.165
325.73	15.346
326.10	14.996
326.46	15.607
326.83	14.080
327.19	13.655
327.56	14.377
327.92	14.262
328.29	14.566
328.65	15.240
329.01	15.141
329.38	15.482
329.74	14.859
330.11	15.030
330.47	15.004
330.84	13.719
331.20	13.875
331.56	14.940
331.93	15.740
332.29	13.350
332.66	15.561
333.02	14.261
333.38	13.525
333.75	14.846
334.11	14.765
334.48	14.188
334.84	14.865
335.20	15.056
335.57	14.694
335.93	14.298
336.29	14.013
336.66	15.437
337.02	14.713
337.38	14.273
337.75	14.780
338.11	14.684
338.47	13.887
338.84	14.564
339.20	13.333
339.56	15.307
339.93	14.548
340.29	13.529
340.65	14.837
341.02	13.918
341.38	13.711
341.74	14.203
342.11	13.439
342.47	14.110
342.83	14.110
343.20	14.551
343.56	12.947
343.92	13.873
344.28	14.354
344.65	13.855
345.01	13.413
345.37	12.580
345.73	13.016
346.10	13.625
346.46	14.115
346.82	12.963
347.19	14.760
347.55	13.427
347.91	13.520
348.27	12.548
348.63	14.003
349.00	12.643
349.36	13.774
349.72	13.456
350.08	13.354
350.45	13.328
350.81	13.532
351.17	13.020
351.53	13.087
351.89	13.753
352.26	13.228
352.62	14.027
352.98	12.500
353.34	14.561
353.70	12.920
354.07	13.077
354.43	13.134
354.79	12.984
355.15	12.864
355.51	12.387
355.87	13.027
356.24	13.934
356.60	12.785
356.96	12.358
357.32	12.434
357.68	13.363
358.04	12.918
358.40	13.493
358.77	13.599
359.13	12.613
359.49	13.195
359.85	12.956
360.21	11.516
360.57	13.066
360.93	13.059
361.29	13.853
361.66	14.243
362.02	12.713
362.38	12.915
362.74	12.951
363.10	12.763
363.46	12.293
363.82	12.412
364.18	12.518
364.54	13.019
364.90	13.119
365.26	12.908
365.62	12.362
365.98	13.008
366.35	12.276
366.71	12.353
367.07	12.696
367.43	12.424
367.79	12.766
368.15	12.008
368.51	12.061
368.87	12.160
369.23	12.197
369.59	12.677
369.95	13.357
370.31	11.704
370.67	12.977
371.03	12.955
371.39	13.019
371.75	11.584
372.11	12.780
372.47	12.603
372.83	11.625
373.19	13.160
373.55	13.127
373.91	12.500
374.27	12.698
374.63	12.475
374.99	12.601
375.35	12.366
375.71	12.467
376.07	12.865
376.42	11.829
376.78	11.818
377.14	12.189
377.50	12.235
377.86	11.851
378.22	12.310
378.58	12.772
378.94	12.191
379.30	11.098
379.66	12.101
380.02	12.551
380.38	11.066
380.74	12.457
381.09	12.500
381.45	12.254
381.81	11.761
382.17	11.477
382.53	11.938
382.89	11.827
383.25	11.664
383.61	12.392
383.97	12.178
384.32	11.573
384.68	12.715
385.04	12.485
385.40	11.981
385.76	11.703
386.12	11.998
386.48	11.185
386.83	12.347
387.19	12.132
387.55	12.426
387.91	11.894
388.27	12.552
388.62	12.852
388.98	12.828
389.34	11.779
389.70	11.380
390.06	11.646
390.42	12.338
390.77	12.346
391.13	11.587
391.49	12.039
391.85	12.123
392.20	11.859
392.56	12.067
392.92	11.623
393.28	11.603
393.64	10.837
393.99	11.559
394.35	12.360
394.71	12.183
395.07	12.044
395.42	11.827
395.78	12.400
396.14	12.590
396.50	11.733
396.85	12.073
397.21	11.793
397.57	12.074
397.92	11.150
398.28	10.976
398.64	12.100
399.00	11.277
399.35	11.326
399.71	11.810
400.07	11.701
400.42	11.582
400.78	12.082
401.14	11.685
401.49	11.521
401.85	12.920
402.21	10.838
402.57	12.208
402.92	12.121
403.28	11.277
403.63	11.595
403.99	11.761
404.35	11.547
404.70	12.227
405.06	11.286
405.42	11.849
405.77	11.521
406.13	12.039
406.49	11.200
406.84	11.337
407.20	11.358
407.55	11.138
407.91	12.061
408.27	12.068
408.62	12.005
408.98	11.236
409.34	11.689
409.69	11.139
410.05	11.688
410.40	11.779
410.76	11.620
411.11	11.730
411.47	12.593
411.83	11.775
412.18	10.870
412.54	12.853
412.89	10.501
413.25	11.345
413.60	11.449
413.96	11.191
414.31	11.452
414.67	12.663
415.03	11.877
415.38	11.924
415.74	11.876
416.09	12.180
416.45	12.282
416.80	11.738
417.16	11.840
417.51	12.229
417.87	10.701
418.22	11.482
418.58	11.847
418.93	12.433
419.29	11.399
419.64	12.114
420.00	12.053
420.35	11.324
420.71	11.085
421.06	11.242
421.42	11.341
421.77	11.993
422.12	10.584
422.48	11.608
422.83	11.217
423.19	10.745
423.54	10.752
423.90	11.552
424.25	10.567
424.61	11.550
424.96	10.333
425.31	11.166
425.67	11.504
426.02	10.937
426.38	10.968
426.73	10.758
427.09	11.862
427.44	10.580
427.79	10.577
428.15	11.844
428.50	11.829
428.85	11.464
429.21	11.129
429.56	11.017
429.92	11.089
430.27	10.837
430.62	11.062
430.98	11.028
431.33	10.988
431.68	10.420
432.04	11.640
432.39	11.251
432.74	11.358
433.10	11.074
433.45	11.086
433.80	11.859
434.16	10.720
434.51	10.939
434.86	11.159
435.22	10.859
435.57	11.500
435.92	11.497
436.28	11.809
436.63	11.237
436.98	12.162
437.34	11.815
437.69	10.750
438.04	11.828
438.39	11.559
438.75	11.581
439.10	11.063
439.45	11.815
439.81	11.567
440.16	11.558
440.51	10.980
440.86	11.225
441.22	10.985
441.57	11.496
441.92	10.661
442.27	11.134
442.63	10.671
442.98	11.045
443.33	11.355
443.68	11.771
444.03	10.933
444.39	11.017
444.74	11.335
445.09	11.322
445.44	11.849
445.79	11.404
446.15	11.105
446.50	11.603
446.85	11.404
447.20	9.701
447.55	10.712
447.91	12.680
448.26	11.129
448.61	11.001
448.96	11.383
449.31	10.891
449.66	11.628
450.02	11.615
450.37	11.160
450.72	11.295
451.07	11.402
451.42	11.796
451.77	10.997
452.12	11.004
452.47	11.543
452.83	11.944
453.18	11.712
453.53	11.901
453.88	12.343
454.23	11.505
454.58	11.946
454.93	11.588
455.28	11.995
455.63	12.234
455.98	12.296
456.34	11.854
456.69	11.402
457.04	11.337
457.39	12.057
457.74	11.824
458.09	11.061
458.44	12.212
458.79	11.777
459.14	11.620
459.49	12.231
459.84	12.120
460.19	11.582
460.54	11.738
460.89	11.940
461.24	10.997
461.59	11.905
461.94	11.525
462.29	12.414
462.64	12.249
462.99	11.708
463.34	12.962
463.69	12.825
464.04	11.341
464.39	11.792
464.74	11.606
465.09	11.434
465.44	11.534
465.79	11.268
466.14	12.242
466.49	11.449
466.84	11.204
467.19	11.658
467.54	11.712
467.89	12.089
468.24	11.349
468.59	11.667
468.94	11.957
469.29	12.462
469.64	12.154
469.99	12.082
470.34	12.777
470.68	11.310
471.03	12.542
471.38	11.854
471.73	11.757
472.08	12.851
472.43	12.415
472.78	12.804
473.13	11.640
473.48	12.286
473.83	12.250
474.17	12.340
474.52	12.026
474.87	11.256
475.22	11.993
475.57	11.752
475.92	11.344
476.27	10.609
476.61	10.724
476.96	11.755
477.31	11.774
477.66	11.809
478.01	11.707
478.36	10.968
478.70	11.166
479.05	11.559
479.40	11.806
479.75	11.321
480.10	11.133
480.45	11.064
480.79	11.336
481.14	11.460
481.49	10.842
481.84	11.653
482.19	11.354
482.53	11.287
482.88	11.783
483.23	11.231
483.58	11.445
483.92	11.700
484.27	11.045
484.62	11.715
484.97	11.025
485.31	10.603
485.66	10.253
486.01	9.970
486.36	9.601
486.70	9.716
487.05	10.213
487.40	10.565
487.75	10.529
488.09	11.080
488.44	10.867
488.79	10.795
489.13	10.862
489.48	11.266
489.83	10.592
490.17	11.230
490.52	10.810
490.87	11.293
491.22	11.613
491.56	11.726
491.91	11.156
492.26	11.136
492.60	11.344
492.95	11.509
493.30	10.965
493.64	11.006
493.99	11.091
494.34	11.295
494.68	10.846
495.03	11.316
495.37	12.202
495.72	11.841
496.07	11.590
496.41	11.034
496.76	11.186
497.11	11.740
497.45	11.749
497.80	11.075
498.14	11.327
498.49	11.328
498.84	11.682
499.18	11.289
499.53	11.484
499.87	10.782
500.22	11.101
500.56	11.281
500.91	11.132
501.26	11.897
501.60	11.111
501.95	10.797
502.29	11.067
502.64	11.028
502.98	11.072
503.33	11.136
503.67	11.921
504.02	11.017
504.36	11.403
504.71	11.684
505.06	11.215
505.40	11.137
505.75	12.114
506.09	11.386
506.44	11.560
506.78	11.342
507.13	11.827
507.47	11.596
507.82	12.263
508.16	12.494
508.51	12.512
508.85	11.443
509.19	11.111
509.54	12.012
509.88	11.785
510.23	11.618
510.57	11.052
510.92	11.239
511.26	11.747
511.61	11.620
511.95	11.548
512.30	11.950
512.64	11.007
512.98	11.379
513.33	11.578
513.67	12.066
514.02	11.221
514.36	11.267
514.70	11.680
515.05	11.774
515.39	11.787
515.74	11.427
516.08	11.438
516.42	12.623
516.77	12.267
517.11	11.467
517.46	12.284
517.80	11.251
518.14	11.042
518.49	11.356
518.83	12.198
519.17	12.757
519.52	12.616
519.86	11.935
520.20	12.055
520.55	11.815
520.89	12.011
521.23	12.383
521.58	12.106
521.92	12.012
522.26	11.197
522.61	12.953
522.95	12.132
523.29	12.339
523.64	11.445
523.98	12.969
524.32	12.226
524.66	12.116
525.01	11.953
525.35	11.373
525.69	11.800
526.04	12.671
526.38	11.772
526.72	11.933
527.06	12.182
527.41	12.757
527.75	11.990
528.09	11.258
528.43	13.118
528.78	12.582
529.12	11.740
529.46	11.981
529.80	12.734
530.15	12.080
530.49	12.034
530.83	11.700
531.17	11.562
531.51	12.262
531.86	12.017
532.20	12.176
532.54	11.990
532.88	11.930
533.22	12.188
533.57	12.020
533.91	11.422
534.25	11.829
534.59	11.988
534.93	11.889
535.27	11.895
535.62	11.669
535.96	11.111
536.30	12.553
536.64	10.932
536.98	11.139
537.32	12.188
537.66	11.480
538.01	12.198
538.35	12.352
538.69	11.226
539.03	11.007
539.37	12.015
539.71	12.469
540.05	12.123
540.39	12.201
540.73	12.089
541.07	10.790
541.42	11.443
541.76	11.221
542.10	11.837
542.44	12.843
542.78	11.705
543.12	10.920
543.46	11.654
543.80	11.779
544.14	11.827
544.48	11.496
544.82	11.804
545.16	11.718
545.50	11.862
545.84	11.553
546.18	12.419
546.52	12.852
546.86	12.444
547.20	12.209
547.54	12.223
547.88	11.922
548.22	11.900
548.56	11.491
548.90	12.040
549.24	12.255
549.58	11.598
549.92	12.312
550.26	11.968
550.60	11.045
550.94	12.415
551.28	11.862
551.62	13.103
551.96	11.554
552.30	11.536
552.64	11.262
552.98	11.018
553.32	11.332
553.66	11.661
554.00	11.326
554.34	12.716
554.68	12.500
555.02	11.066
555.36	11.902
555.69	12.107
556.03	11.401
556.37	12.620
556.71	12.581
557.05	10.682
557.39	11.933
557.73	12.332
558.07	11.737
558.41	11.446
558.75	12.654
559.08	11.937
559.42	12.384
559.76	12.188
560.10	11.425
560.44	11.812
560.78	12.788
561.12	11.316
561.45	11.389
561.79	11.985
562.13	11.308
562.47	11.551
562.81	11.776
563.15	12.153
563.48	10.870
563.82	12.227
564.16	11.505
564.50	11.392
564.84	11.307
565.17	11.943
565.51	11.946
565.85	11.474
566.19	10.833
566.52	11.432
566.86	11.675
567.20	12.303
567.54	11.190
567.88	11.581
568.21	10.834
568.55	10.652
568.89	11.268
569.23	10.569
569.56	10.783
569.90	10.780
570.24	9.881
570.57	10.383
570.91	9.828
571.25	9.964
571.59	9.927
571.92	9.795
572.26	9.488
572.60	9.608
572.93	10.006
573.27	9.707
573.61	9.529
573.95	10.010
574.28	9.476
574.62	9.432
574.96	9.516
575.29	9.758
575.63	9.376
575.97	9.469
576.30	9.542
576.64	9.657
576.98	9.705
577.31	9.496
577.65	9.808
577.98	9.140
578.32	9.311
578.66	9.312
578.99	9.650
579.33	9.811
579.67	9.624
580.00	9.195
580.34	9.857
580.67	9.597
581.01	9.590
581.35	9.282
581.68	8.933
582.02	9.320
582.35	9.185
582.69	9.229
583.02	9.467
583.36	9.745
583.70	9.938
584.03	10.515
584.37	10.273
584.70	9.828
585.04	9.446
585.37	9.220
585.71	9.753
586.04	9.541
586.38	9.385
586.72	9.730
587.05	9.830
587.39	9.912
587.72	9.758
588.06	9.784
588.39	9.775
588.73	9.997
589.06	10.155
589.40	10.047
589.73	10.193
590.07	9.952
590.40	10.383
590.73	11.017
591.07	11.233
591.40	10.539
591.74	10.430
592.07	10.316
592.41	10.871
592.74	9.996
593.08	9.896
593.41	9.366
593.75	9.722
594.08	10.009
594.41	9.645
594.75	10.205
595.08	10.460
595.42	10.434
595.75	9.806
596.09	10.601
596.42	10.342
596.75	10.817
597.09	10.359
597.42	10.653
597.75	9.777
598.09	10.259
598.42	10.241
598.76	10.447
599.09	10.739
599.42	10.104
599.76	10.075
600.09	10.068
600.42	10.014
600.76	9.415
601.09	10.010
601.42	10.560
601.76	10.347
602.09	10.780
602.42	10.203
602.76	9.943
603.09	10.520
603.42	10.385
603.76	10.087
604.09	10.098
604.42	9.868
604.76	10.510
605.09	10.327
605.42	10.565
605.75	10.383
606.09	10.520
606.42	10.109
606.75	10.494
607.09	9.988
607.42	10.325
607.75	10.231
608.08	9.911
608.42	10.822
608.75	10.312
609.08	10.339
609.41	10.864
609.75	10.897
610.08	10.477
610.41	10.540
610.74	11.082
611.07	10.732
611.41	10.936
611.74	10.229
612.07	10.212
612.40	10.965
612.73	10.884
613.07	10.441
613.40	10.977
613.73	10.584
614.06	10.600
614.39	11.616
614.72	10.648
615.06	10.682
615.39	10.248
615.72	10.261
616.05	10.849
616.38	10.908
616.71	10.364
617.05	10.599
617.38	10.899
617.71	11.755
618.04	11.554
618.37	10.839
618.70	10.855
619.03	10.562
619.36	11.872
619.69	10.818
620.03	11.742
620.36	10.405
620.69	12.644
621.02	11.617
621.35	11.175
621.68	11.726
622.01	12.399
622.34	11.580
622.67	11.587
623.00	11.709
623.33	11.876
623.66	11.178
623.99	11.781
624.32	10.230
624.65	11.060
624.99	11.968
625.32	11.490
625.65	10.966
625.98	11.367
626.31	11.944
626.64	10.934
626.97	11.859
627.30	12.189
627.63	12.480
627.96	11.111
628.29	11.551
628.62	12.062
628.95	12.677
629.28	13.059
629.61	11.687
629.94	11.668
630.26	12.825
630.59	13.475
630.92	12.108
631.25	13.781
631.58	13.404
631.91	12.655
632.24	12.439
632.57	11.002
