SpectraSuite Data File
++++++++++++++++++++++++++++++++++++
Date: Tue May 12 16:11:45 PDT 2015
User: schluterlab
Dark Spectrum Present: Yes
Reference Spectrum Present: Yes
Number of Sampled Component Spectra: 1
Spectrometers: USB2E3373
Integration Time (usec): 3000 (USB2E3373)
Spectra Averaged: 3 (USB2E3373)
Boxcar Smoothing: 0 (USB2E3373)
Correct for Electrical Dark: No (USB2E3373)
Strobe/Lamp Enabled: No (USB2E3373)
Correct for Detector Non-linearity: No (USB2E3373)
Correct for Stray Light: No (USB2E3373)
Number of Pixels in Processed Spectrum: 2048
>>>>>Begin Processed Spectral Data<<<<<
178.53	0.000
178.91	-241.667
179.29	-800.000
179.67	-3100.000
180.04	-133.333
180.42	750.000
180.80	1650.000
181.18	0.000
181.56	-300.000
181.94	0.000
182.31	1233.333
182.69	-3500.000
183.07	542.857
183.45	-3600.000
183.83	-1500.000
184.20	470.000
184.58	457.143
184.96	-207.692
185.34	-258.333
185.72	1600.000
186.09	-775.000
186.47	-3500.000
186.85	1100.000
187.23	740.000
187.61	1750.000
187.98	450.000
188.36	292.857
188.74	333.333
189.12	375.000
189.49	1000.000
189.87	0.000
190.25	575.000
190.63	2800.000
191.00	-191.667
191.38	-3000.000
191.76	-975.000
192.14	525.000
192.51	-3000.000
192.89	1700.000
193.27	1133.333
193.65	-1433.333
194.02	-860.000
194.40	471.429
194.78	-142.857
195.15	266.667
195.53	-3200.000
195.91	-680.000
196.29	4600.000
196.66	306.250
197.04	950.000
197.42	-2050.000
197.79	675.000
198.17	350.000
198.55	0.000
198.92	414.286
199.30	1400.000
199.68	2150.000
200.05	750.000
200.43	-350.000
200.81	261.111
201.18	3900.000
201.56	308.333
201.94	-775.000
202.31	-437.500
202.69	-680.000
203.07	3400.000
203.44	-450.000
203.82	300.000
204.19	680.000
204.57	-1750.000
204.95	-725.000
205.32	-600.000
205.70	533.333
206.08	800.000
206.45	-533.333
206.83	377.778
207.20	205.263
207.58	291.667
207.96	900.000
208.33	0.000
208.71	514.286
209.08	780.000
209.46	-3100.000
209.84	-725.000
210.21	960.000
210.59	-560.000
210.96	391.667
211.34	-925.000
211.71	318.182
212.09	950.000
212.46	1600.000
212.84	-433.333
213.22	455.556
213.59	-3100.000
213.97	330.000
214.34	800.000
214.72	1200.000
215.09	1100.000
215.47	-3500.000
215.84	-320.000
216.22	-462.500
216.59	0.000
216.97	0.000
217.34	2050.000
217.72	-1250.000
218.09	1400.000
218.47	450.000
218.84	1000.000
219.22	1266.667
219.59	1233.333
219.97	571.429
220.34	488.889
220.72	1900.000
221.09	3200.000
221.47	283.333
221.84	1233.333
222.22	360.000
222.59	288.889
222.97	192.857
223.34	206.250
223.72	-1700.000
224.09	1366.667
224.46	292.308
224.84	-900.000
225.21	322.222
225.59	286.667
225.96	1300.000
226.34	-660.000
226.71	-1000.000
227.08	-720.000
227.46	0.000
227.83	-650.000
228.21	-2000.000
228.58	408.333
228.95	975.000
229.33	400.000
229.70	1125.000
230.08	346.154
230.45	3700.000
230.82	-950.000
231.20	-800.000
231.57	-1166.667
231.95	700.000
232.32	291.667
232.69	550.000
233.07	350.000
233.44	-2200.000
233.81	213.333
234.19	166.667
234.56	337.500
234.93	270.588
235.31	275.000
235.68	287.500
236.05	182.143
236.43	192.593
236.80	328.571
237.17	200.000
237.55	146.875
237.92	155.000
238.29	142.424
238.67	175.000
239.04	114.634
239.41	110.417
239.79	130.000
240.16	104.167
240.53	98.361
240.91	95.652
241.28	115.254
241.65	86.364
242.02	97.183
242.40	88.571
242.77	73.626
243.14	86.076
243.51	87.879
243.89	80.374
244.26	67.290
244.63	86.139
245.00	76.147
245.38	66.949
245.75	66.667
246.12	72.593
246.49	72.340
246.87	66.393
247.24	72.000
247.61	71.250
247.98	65.306
248.36	59.394
248.73	61.224
249.10	63.095
249.47	61.000
249.84	62.189
250.22	61.622
250.59	66.500
250.96	51.477
251.33	64.186
251.70	59.821
252.08	58.824
252.45	55.777
252.82	53.612
253.19	54.545
253.56	56.154
253.94	56.884
254.31	58.140
254.68	57.491
255.05	55.862
255.42	57.299
255.79	59.283
256.16	53.559
256.54	63.312
256.91	54.248
257.28	53.512
257.65	52.978
258.02	53.392
258.39	56.160
258.76	53.333
259.14	50.571
259.51	54.519
259.88	55.015
260.25	50.000
260.62	52.055
260.99	50.413
261.36	53.760
261.73	53.989
262.10	52.880
262.47	51.500
262.85	52.000
263.22	53.728
263.59	49.872
263.96	49.624
264.33	50.864
264.70	51.597
265.07	51.707
265.44	52.752
265.81	52.358
266.18	50.343
266.55	53.191
266.92	52.125
267.29	51.974
267.66	50.673
268.03	52.691
268.40	47.992
268.77	53.304
269.14	50.759
269.51	49.666
269.88	51.224
270.25	46.652
270.62	48.712
270.99	48.682
271.36	50.203
271.73	49.266
272.10	48.283
272.47	49.405
272.84	45.110
273.21	46.901
273.58	51.619
273.95	49.281
274.32	51.167
274.69	50.591
275.06	48.087
275.43	48.467
275.80	48.679
276.17	49.081
276.54	47.103
276.91	49.254
277.28	46.715
277.65	48.524
278.02	50.368
278.39	46.043
278.76	47.241
279.13	49.466
279.50	48.545
279.87	47.858
280.23	47.330
280.60	49.453
280.97	49.310
281.34	47.030
281.71	44.174
282.08	47.863
282.45	45.608
282.82	47.826
283.19	46.741
283.56	41.653
283.92	46.906
284.29	44.426
284.66	46.218
285.03	44.279
285.40	44.793
285.77	45.062
286.14	44.892
286.51	47.393
286.87	43.513
287.24	42.643
287.61	43.617
287.98	44.925
288.35	43.852
288.72	44.158
289.08	43.694
289.45	43.598
289.82	44.688
290.19	43.045
290.56	45.415
290.93	44.317
291.29	41.851
291.66	42.938
292.03	41.655
292.40	40.921
292.77	41.226
293.13	42.225
293.50	39.811
293.87	40.921
294.24	41.259
294.60	40.646
294.97	43.077
295.34	39.442
295.71	40.210
296.08	40.933
296.44	39.390
296.81	37.345
297.18	39.037
297.55	41.010
297.91	37.931
298.28	40.217
298.65	38.528
299.02	38.359
299.38	39.089
299.75	38.171
300.12	38.417
300.48	38.056
300.85	41.001
301.22	39.186
301.59	37.736
301.95	39.440
302.32	38.417
302.69	38.801
303.05	38.608
303.42	35.874
303.79	37.270
304.15	37.404
304.52	35.412
304.89	37.313
305.25	38.598
305.62	37.420
305.99	37.391
306.35	37.368
306.72	38.189
307.09	37.474
307.45	37.064
307.82	36.111
308.19	37.423
308.55	36.400
308.92	37.782
309.29	37.278
309.65	36.769
310.02	37.525
310.38	35.693
310.75	36.258
311.12	35.824
311.48	38.900
311.85	38.359
312.22	36.867
312.58	38.095
312.95	36.796
313.31	37.640
313.68	37.617
314.05	38.553
314.41	36.685
314.78	38.068
315.14	39.052
315.51	39.073
315.87	37.682
316.24	37.628
316.61	37.601
316.97	37.798
317.34	38.365
317.70	38.367
318.07	37.989
318.43	39.455
318.80	38.967
319.16	37.325
319.53	39.204
319.89	37.455
320.26	38.361
320.62	38.736
320.99	38.513
321.35	38.312
321.72	39.279
322.08	38.873
322.45	38.329
322.81	38.701
323.18	39.343
323.54	39.373
323.91	39.982
324.27	38.196
324.64	38.408
325.00	38.362
325.37	38.196
325.73	37.858
326.10	38.442
326.46	37.903
326.83	37.280
327.19	40.000
327.56	37.540
327.92	40.000
328.29	38.298
328.65	39.127
329.01	37.896
329.38	39.425
329.74	37.575
330.11	39.444
330.47	39.301
330.84	38.827
331.20	38.748
331.56	38.256
331.93	38.751
332.29	37.245
332.66	38.265
333.02	38.660
333.38	38.220
333.75	38.782
334.11	38.423
334.48	38.803
334.84	37.078
335.20	38.323
335.57	37.196
335.93	37.090
336.29	35.904
336.66	37.907
337.02	35.843
337.38	37.661
337.75	39.189
338.11	37.722
338.47	37.849
338.84	36.410
339.20	34.892
339.56	36.417
339.93	37.375
340.29	36.639
340.65	37.385
341.02	36.444
341.38	37.274
341.74	37.292
342.11	35.559
342.47	36.505
342.83	37.572
343.20	35.166
343.56	34.790
343.92	36.499
344.28	35.965
344.65	37.001
345.01	35.476
345.37	34.615
345.73	35.238
346.10	35.139
346.46	36.443
346.82	34.799
347.19	36.167
347.55	35.051
347.91	34.215
348.27	34.624
348.63	34.810
349.00	35.187
349.36	36.265
349.72	35.168
350.08	36.180
350.45	36.024
350.81	35.856
351.17	33.590
351.53	33.487
351.89	35.120
352.26	34.996
352.62	34.615
352.98	35.890
353.34	35.978
353.70	33.716
354.07	35.077
354.43	34.869
354.79	34.093
355.15	34.763
355.51	34.139
355.87	35.090
356.24	34.796
356.60	33.866
356.96	34.117
357.32	34.137
357.68	33.627
358.04	34.498
358.40	34.483
358.77	34.260
359.13	34.384
359.49	34.248
359.85	33.656
360.21	33.952
360.57	33.796
360.93	33.117
361.29	33.983
361.66	34.899
362.02	32.812
362.38	33.550
362.74	33.829
363.10	33.240
363.46	32.390
363.82	33.520
364.18	33.570
364.54	33.763
364.90	32.932
365.26	33.102
365.62	33.287
365.98	33.173
366.35	33.172
366.71	34.004
367.07	33.720
367.43	33.647
367.79	33.245
368.15	31.818
368.51	32.736
368.87	31.726
369.23	33.125
369.59	33.041
369.95	33.776
370.31	32.923
370.67	34.004
371.03	33.473
371.39	34.349
371.75	33.566
372.11	33.923
372.47	34.315
372.83	33.515
373.19	32.831
373.55	32.646
373.91	33.287
374.27	32.143
374.63	33.424
374.99	32.951
375.35	34.274
375.71	32.784
376.07	32.493
376.42	31.650
376.78	34.168
377.14	32.962
377.50	32.896
377.86	32.671
378.22	32.602
378.58	33.111
378.94	32.167
379.30	32.262
379.66	32.390
380.02	32.845
380.38	32.670
380.74	32.526
381.09	32.418
381.45	31.965
381.81	31.915
382.17	32.051
382.53	32.813
382.89	32.052
383.25	31.972
383.61	32.277
383.97	31.794
384.32	32.007
384.68	33.512
385.04	32.884
385.40	32.740
385.76	32.651
386.12	31.973
386.48	32.158
386.83	32.702
387.19	31.802
387.55	32.038
387.91	31.928
388.27	32.838
388.62	31.455
388.98	31.312
389.34	30.637
389.70	31.014
390.06	32.500
390.42	31.771
390.77	32.125
391.13	32.408
391.49	31.518
391.85	31.877
392.20	31.883
392.56	32.915
392.92	30.769
393.28	31.839
393.64	31.365
393.99	31.476
394.35	31.018
394.71	30.579
395.07	31.144
395.42	31.792
395.78	32.202
396.14	32.831
396.50	31.408
396.85	31.220
397.21	31.649
397.57	31.142
397.92	31.080
398.28	31.495
398.64	31.995
399.00	31.053
399.35	30.542
399.71	31.291
400.07	31.164
400.42	32.060
400.78	31.613
401.14	31.180
401.49	30.760
401.85	32.097
402.21	30.639
402.57	31.598
402.92	31.939
403.28	30.847
403.63	30.783
403.99	31.484
404.35	30.715
404.70	30.478
405.06	29.759
405.42	30.820
405.77	30.650
406.13	29.881
406.49	30.529
406.84	31.246
407.20	30.479
407.55	31.200
407.91	31.525
408.27	30.625
408.62	30.692
408.98	30.810
409.34	29.690
409.69	31.487
410.05	31.425
410.40	30.035
410.76	30.567
411.11	31.280
411.47	30.123
411.83	30.111
412.18	31.341
412.54	30.210
412.89	29.558
413.25	30.958
413.60	31.367
413.96	30.221
414.31	30.638
414.67	31.099
415.03	30.907
415.38	31.041
415.74	30.764
416.09	30.106
416.45	30.899
416.80	31.879
417.16	30.808
417.51	31.083
417.87	31.164
418.22	30.255
418.58	31.401
418.93	31.291
419.29	30.006
419.64	30.285
420.00	31.146
420.35	31.765
420.71	30.280
421.06	30.547
421.42	30.282
421.77	31.205
422.12	30.706
422.48	29.019
422.83	29.911
423.19	29.698
423.54	31.048
423.90	31.427
424.25	30.930
424.61	31.283
424.96	30.378
425.31	30.542
425.67	30.135
426.02	30.510
426.38	30.047
426.73	29.960
427.09	30.961
427.44	30.163
427.79	31.561
428.15	31.055
428.50	31.486
428.85	31.276
429.21	30.470
429.56	29.711
429.92	30.283
430.27	29.898
430.62	29.711
430.98	30.190
431.33	30.393
431.68	29.086
432.04	29.850
432.39	30.900
432.74	30.972
433.10	30.565
433.45	30.902
433.80	31.826
434.16	30.058
434.51	30.495
434.86	30.811
435.22	30.578
435.57	31.417
435.92	32.157
436.28	31.682
436.63	30.740
436.98	31.363
437.34	31.221
437.69	30.291
438.04	31.237
438.39	31.173
438.75	30.791
439.10	30.491
439.45	30.695
439.81	32.099
440.16	31.425
440.51	30.349
440.86	31.054
441.22	31.277
441.57	31.339
441.92	30.652
442.27	31.031
442.63	30.945
442.98	30.065
443.33	31.709
443.68	30.785
444.03	31.244
444.39	31.968
444.74	30.021
445.09	31.543
445.44	30.871
445.79	30.068
446.15	30.947
446.50	31.646
446.85	30.627
447.20	30.846
447.55	31.376
447.91	32.286
448.26	32.322
448.61	32.117
448.96	32.135
449.31	31.188
449.66	31.229
450.02	30.416
450.37	32.371
450.72	32.176
451.07	32.461
451.42	31.476
451.77	31.730
452.12	32.104
452.47	32.625
452.83	32.169
453.18	32.492
453.53	32.327
453.88	32.171
454.23	31.842
454.58	32.110
454.93	31.576
455.28	31.640
455.63	31.619
455.98	31.246
456.34	32.705
456.69	32.256
457.04	31.862
457.39	31.943
457.74	31.194
458.09	31.275
458.44	31.325
458.79	31.671
459.14	31.478
459.49	32.163
459.84	32.065
460.19	31.525
460.54	31.852
460.89	31.930
461.24	31.730
461.59	31.803
461.94	32.092
462.29	32.151
462.64	32.538
462.99	31.926
463.34	32.080
463.69	32.123
464.04	32.815
464.39	32.627
464.74	31.301
465.09	31.921
465.44	31.066
465.79	31.900
466.14	31.267
466.49	32.122
466.84	31.550
467.19	31.107
467.54	30.871
467.89	32.453
468.24	31.905
468.59	31.607
468.94	32.005
469.29	31.521
469.64	32.090
469.99	32.455
470.34	31.752
470.68	31.655
471.03	32.822
471.38	32.318
471.73	30.895
472.08	32.811
472.43	32.588
472.78	32.650
473.13	31.289
473.48	31.724
473.83	31.920
474.17	30.638
474.52	32.168
474.87	31.666
475.22	31.239
475.57	32.162
475.92	32.039
476.27	30.794
476.61	31.367
476.96	31.296
477.31	31.774
477.66	33.119
478.01	31.666
478.36	31.514
478.70	31.067
479.05	31.433
479.40	31.647
479.75	31.976
480.10	31.607
480.45	31.139
480.79	30.691
481.14	31.479
481.49	30.604
481.84	31.047
482.19	31.223
482.53	30.171
482.88	31.317
483.23	30.086
483.58	31.104
483.92	31.810
484.27	30.908
484.62	31.027
484.97	30.697
485.31	30.903
485.66	30.548
486.01	29.371
486.36	29.191
486.70	28.210
487.05	28.934
487.40	28.989
487.75	29.461
488.09	29.375
488.44	29.254
488.79	29.469
489.13	31.206
489.48	30.603
489.83	30.359
490.17	30.347
490.52	30.749
490.87	30.991
491.22	30.363
491.56	30.874
491.91	30.645
492.26	31.403
492.60	31.936
492.95	30.403
493.30	31.574
493.64	30.548
493.99	30.993
494.34	30.524
494.68	30.633
495.03	31.028
495.37	31.292
495.72	31.469
496.07	30.638
496.41	30.843
496.76	31.195
497.11	30.934
497.45	30.031
497.80	30.677
498.14	31.345
498.49	30.966
498.84	31.916
499.18	30.530
499.53	30.730
499.87	30.773
500.22	30.677
500.56	31.105
500.91	32.096
501.26	31.098
501.60	31.421
501.95	31.048
502.29	31.600
502.64	30.657
502.98	30.814
503.33	31.047
503.67	30.905
504.02	29.825
504.36	30.362
504.71	30.795
505.06	30.831
505.40	30.744
505.75	30.449
506.09	30.518
506.44	31.062
506.78	31.616
507.13	31.265
507.47	30.422
507.82	31.873
508.16	31.357
508.51	30.821
508.85	30.722
509.19	31.180
509.54	31.201
509.88	31.129
510.23	30.882
510.57	30.454
510.92	30.519
511.26	31.827
511.61	30.625
511.95	30.513
512.30	31.000
512.64	30.322
512.98	30.600
513.33	30.994
513.67	30.451
514.02	30.649
514.36	30.426
514.70	29.973
515.05	30.155
515.39	31.634
515.74	31.001
516.08	31.536
516.42	31.913
516.77	30.453
517.11	30.613
517.46	31.088
517.80	31.404
518.14	31.831
518.49	31.974
518.83	30.000
519.17	31.337
519.52	31.677
519.86	31.390
520.20	31.562
520.55	30.526
520.89	30.805
521.23	31.659
521.58	31.153
521.92	31.020
522.26	31.339
522.61	30.957
522.95	32.372
523.29	30.994
523.64	30.520
523.98	30.927
524.32	31.084
524.66	30.493
525.01	31.065
525.35	30.524
525.69	30.464
526.04	31.945
526.38	30.665
526.72	30.489
527.06	30.574
527.41	32.044
527.75	29.458
528.09	29.079
528.43	30.995
528.78	31.246
529.12	31.246
529.46	30.216
529.80	30.958
530.15	31.173
530.49	30.866
530.83	30.286
531.17	31.734
531.51	31.208
531.86	29.710
532.20	29.666
532.54	30.760
532.88	30.731
533.22	30.774
533.57	30.872
533.91	30.303
534.25	29.313
534.59	29.825
534.93	30.319
535.27	28.970
535.62	30.338
535.96	29.965
536.30	31.444
536.64	29.689
536.98	28.760
537.32	30.375
537.66	29.847
538.01	30.155
538.35	30.318
538.69	30.097
539.03	30.535
539.37	29.005
539.71	30.185
540.05	29.538
540.39	30.252
540.73	30.380
541.07	29.737
541.42	29.478
541.76	29.963
542.10	30.086
542.44	29.239
542.78	30.396
543.12	28.650
543.46	29.825
543.80	30.576
544.14	30.588
544.48	30.292
544.82	30.887
545.16	28.840
545.50	30.055
545.84	30.303
546.18	30.949
546.52	30.033
546.86	30.432
547.20	29.587
547.54	29.892
547.88	29.684
548.22	29.933
548.56	29.110
548.90	28.648
549.24	30.133
549.58	29.317
549.92	29.993
550.26	29.953
550.60	31.204
550.94	31.411
551.28	30.069
551.62	31.793
551.96	30.608
552.30	29.334
552.64	30.744
552.98	28.608
553.32	29.321
553.66	29.121
554.00	30.180
554.34	30.759
554.68	28.629
555.02	30.550
555.36	29.654
555.69	30.039
556.03	29.745
556.37	30.784
556.71	30.639
557.05	29.489
557.39	29.800
557.73	30.054
558.07	30.718
558.41	29.130
558.75	30.575
559.08	30.450
559.42	30.351
559.76	29.508
560.10	30.145
560.44	29.263
560.78	29.731
561.12	30.261
561.45	29.224
561.79	28.714
562.13	28.743
562.47	29.137
562.81	29.668
563.15	29.024
563.48	29.068
563.82	30.880
564.16	29.104
564.50	28.210
564.84	29.909
565.17	29.887
565.51	29.495
565.85	30.783
566.19	29.048
566.52	28.761
566.86	30.064
567.20	29.045
567.54	28.821
567.88	28.951
568.21	28.008
568.55	28.453
568.89	28.650
569.23	27.653
569.56	27.716
569.90	27.201
570.24	27.973
570.57	27.223
570.91	26.833
571.25	26.839
571.59	26.537
571.92	26.211
572.26	25.957
572.60	26.048
572.93	26.193
573.27	26.939
573.61	26.232
573.95	26.145
574.28	26.272
574.62	25.827
574.96	25.633
575.29	25.492
575.63	25.489
575.97	25.487
576.30	25.513
576.64	25.979
576.98	25.749
577.31	26.361
577.65	26.197
577.98	25.572
578.32	25.136
578.66	25.583
578.99	25.635
579.33	25.282
579.67	25.571
580.00	25.430
580.34	25.928
580.67	25.638
581.01	26.158
581.35	25.800
581.68	25.099
582.02	25.809
582.35	25.280
582.69	25.492
583.02	25.539
583.36	25.564
583.70	26.055
584.03	26.498
584.37	26.325
584.70	26.201
585.04	25.458
585.37	25.564
585.71	26.045
586.04	25.503
586.38	25.640
586.72	26.100
587.05	25.759
587.39	25.487
587.72	25.982
588.06	25.875
588.39	25.742
588.73	25.524
589.06	26.554
589.40	26.228
589.73	26.614
590.07	26.939
590.40	27.282
590.73	27.360
591.07	26.831
591.40	26.946
591.74	26.583
592.07	26.747
592.41	26.859
592.74	27.206
593.08	25.814
593.41	25.554
593.75	25.652
594.08	26.209
594.41	25.774
594.75	25.890
595.08	26.783
595.42	26.169
595.75	25.897
596.09	26.277
596.42	26.438
596.75	26.963
597.09	26.372
597.42	26.082
597.75	26.166
598.09	26.795
598.42	26.071
598.76	26.446
599.09	26.407
599.42	26.401
599.76	26.221
600.09	25.797
600.42	26.278
600.76	26.139
601.09	26.061
601.42	25.871
601.76	25.922
602.09	26.600
602.42	25.619
602.76	25.655
603.09	26.659
603.42	26.642
603.76	26.500
604.09	25.878
604.42	26.177
604.76	26.314
605.09	26.857
605.42	26.371
605.75	26.174
606.09	26.741
606.42	25.893
606.75	26.739
607.09	26.293
607.42	25.874
607.75	26.154
608.08	26.036
608.42	26.384
608.75	26.059
609.08	25.517
609.41	26.909
609.75	27.198
610.08	26.439
610.41	26.307
610.74	26.407
611.07	26.103
611.41	26.877
611.74	25.956
612.07	26.301
612.40	27.047
612.73	27.359
613.07	27.116
613.40	25.965
613.73	26.710
614.06	26.500
614.39	27.121
614.72	26.570
615.06	26.113
615.39	26.881
615.72	26.912
616.05	26.469
616.38	26.484
616.71	26.370
617.05	26.194
617.38	26.011
617.71	27.278
618.04	26.360
618.37	26.959
618.70	26.963
619.03	26.862
619.36	27.575
619.69	27.243
620.03	28.376
620.36	27.874
620.69	28.863
621.02	26.970
621.35	27.579
621.68	28.466
622.01	29.520
622.34	27.240
622.67	28.160
623.00	28.251
623.33	26.653
623.66	26.347
623.99	27.945
624.32	27.913
624.65	27.189
624.99	27.992
625.32	28.657
625.65	26.621
625.98	26.709
626.31	28.561
626.64	27.866
626.97	27.391
627.30	28.416
627.63	28.571
627.96	28.404
628.29	29.290
628.62	27.973
628.95	30.053
629.28	30.149
629.61	28.647
629.94	27.658
630.26	28.336
630.59	28.635
630.92	28.341
