SpectraSuite Data File
++++++++++++++++++++++++++++++++++++
Date: Tue May 12 16:11:29 PDT 2015
User: schluterlab
Dark Spectrum Present: Yes
Reference Spectrum Present: Yes
Number of Sampled Component Spectra: 1
Spectrometers: USB2E3373
Integration Time (usec): 3000 (USB2E3373)
Spectra Averaged: 3 (USB2E3373)
Boxcar Smoothing: 0 (USB2E3373)
Correct for Electrical Dark: No (USB2E3373)
Strobe/Lamp Enabled: No (USB2E3373)
Correct for Detector Non-linearity: No (USB2E3373)
Correct for Stray Light: No (USB2E3373)
Number of Pixels in Processed Spectrum: 2048
>>>>>Begin Processed Spectral Data<<<<<
178.53	0.000
178.91	-291.667
179.29	-925.000
179.67	-4700.000
180.04	-113.333
180.42	700.000
180.80	1750.000
181.18	0.000
181.56	-337.500
181.94	0.000
182.31	1433.333
182.69	-2800.000
183.07	571.429
183.45	-3800.000
183.83	-1700.000
184.20	400.000
184.58	514.286
184.96	-238.462
185.34	-266.667
185.72	2000.000
186.09	-900.000
186.47	-4000.000
186.85	1166.667
187.23	760.000
187.61	2100.000
187.98	387.500
188.36	307.143
188.74	375.000
189.12	416.667
189.49	875.000
189.87	0.000
190.25	475.000
190.63	2300.000
191.00	-150.000
191.38	-4000.000
191.76	-900.000
192.14	600.000
192.51	-3300.000
192.89	2100.000
193.27	1100.000
193.65	-1000.000
194.02	-820.000
194.40	628.571
194.78	-221.429
195.15	326.667
195.53	-2600.000
195.91	-700.000
196.29	4200.000
196.66	250.000
197.04	750.000
197.42	-1650.000
197.79	775.000
198.17	350.000
198.55	0.000
198.92	571.429
199.30	1500.000
199.68	2600.000
200.05	583.333
200.43	-616.667
200.81	272.222
201.18	3700.000
201.56	266.667
201.94	-900.000
202.31	-350.000
202.69	-720.000
203.07	3600.000
203.44	-683.333
203.82	416.667
204.19	800.000
204.57	-1750.000
204.95	-1000.000
205.32	-660.000
205.70	633.333
206.08	1075.000
206.45	-700.000
206.83	411.111
207.20	257.895
207.58	375.000
207.96	800.000
208.33	0.000
208.71	542.857
209.08	840.000
209.46	-3000.000
209.84	-775.000
210.21	820.000
210.59	-580.000
210.96	291.667
211.34	-1025.000
211.71	418.182
212.09	1175.000
212.46	1500.000
212.84	-516.667
213.22	522.222
213.59	-3100.000
213.97	320.000
214.34	950.000
214.72	1533.333
215.09	1300.000
215.47	-2400.000
215.84	-360.000
216.22	-437.500
216.59	0.000
216.97	0.000
217.34	1850.000
217.72	-1000.000
218.09	1233.333
218.47	512.500
218.84	1050.000
219.22	1100.000
219.59	1300.000
219.97	600.000
220.34	488.889
220.72	1750.000
221.09	3500.000
221.47	333.333
221.84	1133.333
222.22	350.000
222.59	277.778
222.97	235.714
223.34	293.750
223.72	-1500.000
224.09	1433.333
224.46	307.692
224.84	-725.000
225.21	388.889
225.59	313.333
225.96	1400.000
226.34	-880.000
226.71	-825.000
227.08	-480.000
227.46	0.000
227.83	-466.667
228.21	-1500.000
228.58	400.000
228.95	975.000
229.33	433.333
229.70	975.000
230.08	330.769
230.45	4200.000
230.82	-950.000
231.20	-1133.333
231.57	-1366.667
231.95	600.000
232.32	350.000
232.69	633.333
233.07	250.000
233.44	-1250.000
233.81	233.333
234.19	211.111
234.56	281.250
234.93	241.176
235.31	235.000
235.68	225.000
236.05	210.714
236.43	148.148
236.80	300.000
237.17	200.000
237.55	146.875
237.92	140.000
238.29	151.515
238.67	162.500
239.04	126.829
239.41	120.833
239.79	115.000
240.16	118.750
240.53	95.082
240.91	92.754
241.28	100.000
241.65	93.939
242.02	114.085
242.40	92.857
242.77	86.813
243.14	81.013
243.51	84.848
243.89	76.636
244.26	72.897
244.63	79.208
245.00	76.147
245.38	66.949
245.75	69.697
246.12	77.037
246.49	55.319
246.87	67.213
247.24	68.667
247.61	65.000
247.98	71.429
248.36	59.394
248.73	60.714
249.10	58.333
249.47	57.000
249.84	52.736
250.22	65.946
250.59	57.500
250.96	55.696
251.33	58.140
251.70	53.125
252.08	60.504
252.45	47.410
252.82	52.091
253.19	53.360
253.56	52.308
253.94	52.899
254.31	56.202
254.68	52.962
255.05	54.483
255.42	56.204
255.79	52.117
256.16	55.254
256.54	53.896
256.91	50.980
257.28	53.177
257.65	50.157
258.02	46.018
258.39	51.862
258.76	53.623
259.14	48.857
259.51	51.312
259.88	52.584
260.25	47.253
260.62	49.589
260.99	47.934
261.36	46.797
261.73	46.277
262.10	47.906
262.47	48.000
262.85	48.000
263.22	50.643
263.59	47.570
263.96	47.118
264.33	47.901
264.70	47.666
265.07	48.537
265.44	45.872
265.81	47.406
266.18	48.513
266.55	46.572
266.92	47.651
267.29	49.561
267.66	47.085
268.03	46.861
268.40	46.723
268.77	49.780
269.14	46.638
269.51	47.661
269.88	47.347
270.25	44.060
270.62	48.283
270.99	48.884
271.36	44.919
271.73	46.541
272.10	43.030
272.47	45.238
272.84	45.908
273.21	44.835
273.58	48.785
273.95	44.559
274.32	45.720
274.69	47.638
275.06	42.441
275.43	43.678
275.80	44.717
276.17	45.037
276.54	45.794
276.91	46.642
277.28	45.985
277.65	44.834
278.02	43.199
278.39	43.165
278.76	44.138
279.13	43.238
279.50	43.455
279.87	43.017
280.23	41.805
280.60	43.613
280.97	44.310
281.34	44.389
281.71	44.522
282.08	42.735
282.45	42.568
282.82	44.649
283.19	41.812
283.56	41.983
283.92	42.671
284.29	41.431
284.66	42.017
285.03	42.289
285.40	42.975
285.77	40.741
286.14	40.557
286.51	40.184
286.87	39.399
287.24	38.589
287.61	39.970
287.98	41.343
288.35	40.148
288.72	40.668
289.08	41.141
289.45	40.244
289.82	40.781
290.19	40.849
290.56	41.921
290.93	40.863
291.29	37.707
291.66	38.701
292.03	38.990
292.40	38.347
292.77	38.022
293.13	38.802
293.50	38.057
293.87	37.940
294.24	38.182
294.60	39.031
294.97	39.441
295.34	37.583
295.71	37.845
296.08	38.933
296.44	38.247
296.81	37.469
297.18	35.995
297.55	38.054
297.91	37.438
298.28	36.232
298.65	36.687
299.02	36.912
299.38	36.211
299.75	35.244
300.12	36.468
300.48	38.759
300.85	37.426
301.22	37.093
301.59	36.675
301.95	35.589
302.32	37.718
302.69	36.878
303.05	37.149
303.42	36.211
303.79	36.836
304.15	36.744
304.52	36.364
304.89	36.034
305.25	36.374
305.62	37.527
305.99	37.609
306.35	35.579
306.72	37.461
307.09	35.714
307.45	37.276
307.82	36.111
308.19	37.113
308.55	36.300
308.92	37.978
309.29	38.363
309.65	36.967
310.02	37.221
310.38	35.892
310.75	36.741
311.12	37.069
311.48	37.934
311.85	37.309
312.22	38.013
312.58	37.318
312.95	37.282
313.31	38.109
313.68	36.867
314.05	38.370
314.41	38.641
314.78	40.057
315.14	39.905
315.51	39.167
315.87	37.591
316.24	38.655
316.61	37.153
316.97	37.615
317.34	38.005
317.70	38.104
318.07	38.434
318.43	38.313
318.80	38.354
319.16	38.462
319.53	38.673
319.89	37.724
320.26	40.503
320.62	38.919
320.99	39.847
321.35	39.610
321.72	39.848
322.08	40.351
322.45	39.419
322.81	39.616
323.18	39.432
323.54	38.415
323.91	40.617
324.27	39.434
324.64	38.668
325.00	38.448
325.37	38.786
325.73	39.376
326.10	39.437
326.46	39.306
326.83	37.600
327.19	39.759
327.56	39.457
327.92	38.770
328.29	39.771
328.65	38.613
329.01	38.409
329.38	38.071
329.74	38.685
330.11	38.575
330.47	37.255
330.84	38.050
331.20	38.494
331.56	38.774
331.93	38.580
332.29	36.224
332.66	39.031
333.02	39.089
333.38	38.220
333.75	38.365
334.11	38.003
334.48	38.034
334.84	37.500
335.20	37.297
335.57	37.280
335.93	38.015
336.29	37.562
336.66	37.564
337.02	37.126
337.38	37.059
337.75	37.162
338.11	37.637
338.47	37.426
338.84	37.680
339.20	36.797
339.56	35.576
339.93	36.371
340.29	36.471
340.65	36.463
341.02	36.766
341.38	36.617
341.74	34.551
342.11	35.977
342.47	36.341
342.83	38.064
343.20	35.570
343.56	34.472
343.92	35.838
344.28	36.683
344.65	37.571
345.01	35.476
345.37	34.535
345.73	35.714
346.10	35.777
346.46	35.247
346.82	33.951
347.19	35.549
347.55	35.753
347.91	35.196
348.27	33.772
348.63	35.443
349.00	34.273
349.36	35.798
349.72	33.945
350.08	34.550
350.45	34.958
350.81	35.092
351.17	32.897
351.53	34.180
351.89	34.110
352.26	33.333
352.62	33.107
352.98	33.206
353.34	36.055
353.70	32.875
354.07	33.846
354.43	34.485
354.79	33.409
355.15	34.992
355.51	33.610
355.87	33.735
356.24	34.796
356.60	33.790
356.96	34.496
357.32	33.007
357.68	33.480
358.04	33.663
358.40	33.208
358.77	32.908
359.13	32.583
359.49	33.062
359.85	33.358
360.21	33.135
360.57	32.482
360.93	32.973
361.29	33.333
361.66	33.781
362.02	30.966
362.38	32.395
362.74	32.838
363.10	31.837
363.46	30.801
363.82	32.258
364.18	33.286
364.54	32.976
364.90	32.062
365.26	33.171
365.62	32.666
365.98	31.315
366.35	31.517
366.71	31.853
367.07	32.218
367.43	31.632
367.79	30.851
368.15	31.072
368.51	32.667
368.87	31.726
369.23	32.571
369.59	32.502
369.95	33.287
370.31	30.938
370.67	31.506
371.03	31.583
371.39	31.856
371.75	30.635
372.11	31.271
372.47	32.534
372.83	31.339
373.19	31.940
373.55	31.615
373.91	31.146
374.27	31.878
374.63	30.847
374.99	31.199
375.35	31.922
375.71	31.860
376.07	30.570
376.42	30.179
376.78	31.278
377.14	31.782
377.50	29.775
377.86	30.750
378.22	30.104
378.58	30.932
378.94	30.356
379.30	29.109
379.66	31.005
380.02	29.736
380.38	30.386
380.74	30.450
381.09	30.549
381.45	30.173
381.81	29.551
382.17	31.013
382.53	29.214
382.89	30.337
383.25	29.544
383.61	28.530
383.97	30.234
384.32	29.777
384.68	30.006
385.04	30.305
385.40	29.241
385.76	29.257
386.12	30.118
386.48	29.909
386.83	30.623
387.19	29.682
387.55	28.916
387.91	30.023
388.27	29.566
388.62	29.577
388.98	28.630
389.34	28.852
389.70	28.479
390.06	29.451
390.42	28.871
390.77	28.378
391.13	29.692
391.49	29.099
391.85	29.477
392.20	27.831
392.56	29.331
392.92	28.692
393.28	28.700
393.64	27.523
393.99	28.038
394.35	28.370
394.71	27.986
395.07	27.920
395.42	27.752
395.78	28.933
396.14	28.675
396.50	27.738
396.85	28.476
397.21	27.978
397.57	28.811
397.92	28.076
398.28	26.475
398.64	27.749
399.00	26.777
399.35	27.536
399.71	27.539
400.07	27.283
400.42	27.403
400.78	27.625
401.14	27.481
401.49	26.901
401.85	28.563
402.21	28.354
402.57	27.947
402.92	27.576
403.28	26.432
403.63	27.546
403.99	26.900
404.35	27.784
404.70	27.939
405.06	26.502
405.42	26.990
405.77	27.067
406.13	27.440
406.49	26.435
406.84	26.734
407.20	27.397
407.55	26.523
407.91	28.271
408.27	27.350
408.62	26.375
408.98	27.794
409.34	26.359
409.69	26.758
410.05	26.237
410.40	25.913
410.76	26.560
411.11	26.422
411.47	26.420
411.83	25.659
412.18	26.932
412.54	26.547
412.89	25.192
413.25	25.884
413.60	26.577
413.96	25.972
414.31	25.856
414.67	26.567
415.03	26.373
415.38	27.192
415.74	26.027
416.09	26.046
416.45	26.309
416.80	27.004
417.16	26.162
417.51	25.732
417.87	25.907
418.22	26.245
418.58	26.688
418.93	25.937
419.29	25.570
419.64	26.287
420.00	27.208
420.35	25.552
420.71	25.788
421.06	25.603
421.42	25.849
421.77	26.707
422.12	25.469
422.48	25.783
422.83	26.786
423.19	26.620
423.54	25.288
423.90	27.010
424.25	26.197
424.61	26.465
424.96	26.708
425.31	25.835
425.67	26.655
426.02	25.631
426.38	25.496
426.73	25.911
427.09	26.275
427.44	26.224
427.79	25.843
428.15	27.519
428.50	26.114
428.85	26.044
429.21	25.284
429.56	25.623
429.92	26.653
430.27	26.173
430.62	24.816
430.98	25.250
431.33	24.798
431.68	24.296
432.04	25.867
432.39	26.345
432.74	25.937
433.10	26.024
433.45	26.192
433.80	26.255
434.16	25.854
434.51	26.625
434.86	26.946
435.22	25.932
435.57	26.023
435.92	26.579
436.28	26.555
436.63	26.040
436.98	27.534
437.34	26.655
437.69	25.308
438.04	26.720
438.39	25.744
438.75	25.724
439.10	26.713
439.45	25.608
439.81	26.316
440.16	26.747
440.51	25.676
440.86	26.496
441.22	25.920
441.57	25.879
441.92	25.864
442.27	25.567
442.63	27.236
442.98	26.293
443.33	26.620
443.68	26.056
444.03	26.013
444.39	26.224
444.74	26.553
445.09	26.014
445.44	26.089
445.79	26.316
446.15	26.105
446.50	26.371
446.85	25.946
447.20	26.667
447.55	26.862
447.91	26.532
448.26	26.411
448.61	26.092
448.96	27.451
449.31	27.228
449.66	27.575
450.02	26.418
450.37	26.929
450.72	27.273
451.07	26.876
451.42	27.623
451.77	26.632
452.12	27.396
452.47	26.974
452.83	26.761
453.18	27.147
453.53	26.465
453.88	27.314
454.23	26.264
454.58	27.331
454.93	26.609
455.28	27.601
455.63	26.478
455.98	26.678
456.34	27.416
456.69	27.073
457.04	26.611
457.39	26.629
457.74	26.464
458.09	26.670
458.44	26.835
458.79	26.684
459.14	26.623
459.49	26.954
459.84	26.739
460.19	27.232
460.54	26.439
460.89	25.959
461.24	26.804
461.59	27.324
461.94	26.478
462.29	26.373
462.64	27.513
462.99	26.743
463.34	26.442
463.69	26.679
464.04	27.173
464.39	26.674
464.74	26.553
465.09	26.988
465.44	26.061
465.79	26.184
466.14	26.550
466.49	27.075
466.84	26.700
467.19	27.417
467.54	25.826
467.89	26.878
468.24	26.288
468.59	26.071
468.94	26.691
469.29	26.695
469.64	27.203
469.99	26.671
470.34	26.502
470.68	26.621
471.03	27.485
471.38	27.086
471.73	26.061
472.08	26.680
472.43	26.567
472.78	27.145
473.13	25.782
473.48	25.733
473.83	26.678
474.17	26.201
474.52	26.777
474.87	25.071
475.22	26.271
475.57	26.758
475.92	26.162
476.27	25.680
476.61	25.952
476.96	25.235
477.31	26.221
477.66	26.677
478.01	26.663
478.36	27.188
478.70	26.253
479.05	25.785
479.40	24.950
479.75	26.465
480.10	25.557
480.45	25.070
480.79	26.129
481.14	25.678
481.49	25.023
481.84	25.638
482.19	25.939
482.53	25.296
482.88	25.224
483.23	25.169
483.58	25.224
483.92	25.960
484.27	25.728
484.62	25.424
484.97	25.750
485.31	24.974
485.66	25.277
486.01	25.037
486.36	24.375
486.70	23.936
487.05	24.142
487.40	24.240
487.75	25.156
488.09	24.489
488.44	25.366
488.79	24.610
489.13	24.412
489.48	25.290
489.83	24.687
490.17	24.566
490.52	25.668
490.87	24.828
491.22	25.709
491.56	24.594
491.91	25.179
492.26	25.033
492.60	25.740
492.95	25.057
493.30	25.205
493.64	25.157
493.99	24.955
494.34	25.280
494.68	25.011
495.03	24.877
495.37	25.529
495.72	24.615
496.07	25.562
496.41	24.891
496.76	24.525
497.11	25.407
497.45	24.463
497.80	24.282
498.14	24.133
498.49	24.420
498.84	25.000
499.18	25.046
499.53	24.897
499.87	24.304
500.22	25.380
500.56	24.605
500.91	25.186
501.26	25.218
501.60	24.454
501.95	24.104
502.29	24.578
502.64	23.996
502.98	24.055
503.33	25.212
503.67	24.503
504.02	24.227
504.36	24.751
504.71	25.355
505.06	24.214
505.40	24.942
505.75	23.480
506.09	24.732
506.44	25.000
506.78	25.520
507.13	25.351
507.47	24.939
507.82	25.401
508.16	24.743
508.51	24.976
508.85	24.074
509.19	24.865
509.54	23.975
509.88	25.261
510.23	24.461
510.57	23.456
510.92	24.525
511.26	24.598
511.61	23.486
511.95	25.037
512.30	24.500
512.64	24.091
512.98	24.141
513.33	24.898
513.67	24.909
514.02	24.623
514.36	24.039
514.70	24.960
515.05	23.761
515.39	23.904
515.74	25.041
516.08	23.802
516.42	25.738
516.77	25.013
517.11	24.427
517.46	23.815
517.80	23.703
518.14	24.225
518.49	23.594
518.83	23.626
519.17	24.570
519.52	24.631
519.86	24.033
520.20	25.753
520.55	24.421
520.89	24.540
521.23	24.299
521.58	24.498
521.92	23.207
522.26	24.348
522.61	24.777
522.95	23.844
523.29	24.444
523.64	23.699
523.98	24.531
524.32	24.452
524.66	24.174
525.01	24.201
525.35	23.866
525.69	24.503
526.04	24.390
526.38	23.661
526.72	23.807
527.06	24.128
527.41	25.333
527.75	25.259
528.09	23.721
528.43	24.588
528.78	24.747
529.12	24.082
529.46	24.313
529.80	23.949
530.15	23.689
530.49	23.406
530.83	24.558
531.17	24.170
531.51	24.586
531.86	23.732
532.20	23.609
532.54	23.478
532.88	23.798
533.22	24.802
533.57	24.039
533.91	22.727
534.25	23.774
534.59	24.152
534.93	22.981
535.27	23.563
535.62	24.329
535.96	24.113
536.30	24.619
536.64	23.665
536.98	23.600
537.32	24.625
537.66	23.342
538.01	24.025
538.35	24.891
538.69	23.483
539.03	23.881
539.37	23.362
539.71	24.259
540.05	23.262
540.39	24.151
540.73	23.481
541.07	23.651
541.42	23.632
541.76	24.168
542.10	22.380
542.44	24.127
542.78	23.789
543.12	22.638
543.46	23.559
543.80	24.123
544.14	24.025
544.48	24.088
544.82	24.465
545.16	23.194
545.50	24.647
545.84	25.189
546.18	24.642
546.52	23.934
546.86	24.758
547.20	24.612
547.54	24.193
547.88	23.601
548.22	23.740
548.56	23.689
548.90	22.539
549.24	23.689
549.58	22.938
549.92	23.707
550.26	24.544
550.60	24.351
550.94	23.881
551.28	24.483
551.62	23.172
551.96	24.122
552.30	22.676
552.64	24.142
552.98	23.067
553.32	22.855
553.66	23.127
554.00	23.681
554.34	24.301
554.68	24.059
555.02	23.625
555.36	24.202
555.69	23.953
556.03	23.439
556.37	23.582
556.71	24.446
557.05	22.280
557.39	24.333
557.73	23.652
558.07	22.803
558.41	23.441
558.75	23.940
559.08	23.803
559.42	23.479
559.76	23.093
560.10	22.987
560.44	23.026
560.78	24.041
561.12	24.539
561.45	22.841
561.79	23.783
562.13	22.678
562.47	23.556
562.81	23.162
563.15	23.659
563.48	22.360
563.82	23.144
564.16	23.881
564.50	23.146
564.84	22.857
565.17	22.757
565.51	24.507
565.85	23.319
566.19	23.452
566.52	23.526
566.86	23.701
567.20	23.820
567.54	23.035
567.88	23.944
568.21	23.065
568.55	23.444
568.89	23.631
569.23	23.684
569.56	23.363
569.90	22.566
570.24	23.135
570.57	22.842
570.91	22.496
571.25	23.221
571.59	22.335
571.92	21.959
572.26	21.995
572.60	21.994
572.93	22.484
573.27	22.803
573.61	22.523
573.95	22.510
574.28	22.492
574.62	22.357
574.96	22.333
575.29	21.757
575.63	21.885
575.97	21.470
576.30	21.868
576.64	22.452
576.98	22.405
577.31	22.486
577.65	22.553
577.98	22.282
578.32	21.870
578.66	22.006
578.99	22.194
579.33	22.057
579.67	22.156
580.00	22.105
580.34	22.240
580.67	22.103
581.01	22.339
581.35	22.580
581.68	21.917
582.02	22.074
582.35	22.001
582.69	22.079
583.02	22.008
583.36	21.514
583.70	22.273
584.03	22.844
584.37	22.413
584.70	22.842
585.04	22.032
585.37	22.272
585.71	23.056
586.04	22.270
586.38	22.768
586.72	22.085
587.05	22.671
587.39	22.731
587.72	22.493
588.06	22.324
588.39	22.646
588.73	22.201
589.06	22.673
589.40	22.723
589.73	22.517
590.07	22.924
590.40	23.066
590.73	23.430
591.07	23.188
591.40	22.754
591.74	22.768
592.07	22.296
592.41	22.782
592.74	22.446
593.08	21.810
593.41	22.053
593.75	22.108
594.08	22.575
594.41	22.255
594.75	22.568
595.08	22.874
595.42	22.251
595.75	22.442
596.09	22.906
596.42	22.433
596.75	23.037
597.09	23.029
597.42	22.857
597.75	22.677
598.09	21.912
598.42	22.481
598.76	22.899
599.09	22.803
599.42	22.215
599.76	22.727
600.09	22.373
600.42	22.617
600.76	21.890
601.09	21.988
601.42	22.492
601.76	22.019
602.09	22.737
602.42	21.590
602.76	23.074
603.09	23.190
603.42	22.826
603.76	22.668
604.09	22.295
604.42	22.674
604.76	22.955
605.09	22.367
605.42	22.349
605.75	22.266
606.09	22.303
606.42	22.210
606.75	22.503
607.09	22.503
607.42	22.378
607.75	22.373
608.08	22.340
608.42	22.609
608.75	22.208
609.08	22.613
609.41	22.500
609.75	23.718
610.08	22.482
610.41	22.617
610.74	22.987
611.07	22.738
611.41	23.170
611.74	22.849
612.07	22.977
612.40	23.197
612.73	23.814
613.07	23.974
613.40	22.907
613.73	23.215
614.06	22.800
614.39	23.182
614.72	22.551
615.06	22.502
615.39	22.921
615.72	22.362
616.05	22.551
616.38	22.780
616.71	22.301
617.05	22.680
617.38	22.472
617.71	22.891
618.04	23.051
618.37	23.735
618.70	22.229
619.03	22.589
619.36	22.864
619.69	23.153
620.03	24.397
620.36	23.443
620.69	23.244
621.02	24.253
621.35	22.994
621.68	24.410
622.01	23.764
622.34	22.068
622.67	23.385
623.00	23.417
623.33	22.672
623.66	22.821
623.99	23.630
624.32	23.916
624.65	22.976
624.99	24.070
625.32	23.781
625.65	22.552
625.98	22.245
626.31	23.071
626.64	23.083
626.97	23.336
627.30	23.447
627.63	23.391
627.96	22.770
628.29	23.102
628.62	21.814
628.95	23.404
629.28	24.715
629.61	23.638
629.94	23.768
630.26	23.830
630.59	23.582
630.92	22.960
