SpectraSuite Data File
++++++++++++++++++++++++++++++++++++
Date: Tue May 12 16:11:01 PDT 2015
User: schluterlab
Dark Spectrum Present: Yes
Reference Spectrum Present: Yes
Number of Sampled Component Spectra: 1
Spectrometers: USB2E3373
Integration Time (usec): 3000 (USB2E3373)
Spectra Averaged: 3 (USB2E3373)
Boxcar Smoothing: 0 (USB2E3373)
Correct for Electrical Dark: No (USB2E3373)
Strobe/Lamp Enabled: No (USB2E3373)
Correct for Detector Non-linearity: No (USB2E3373)
Correct for Stray Light: No (USB2E3373)
Number of Pixels in Processed Spectrum: 2048
>>>>>Begin Processed Spectral Data<<<<<
178.53	0.000
178.91	-225.000
179.29	-825.000
179.67	-4600.000
180.04	-146.667
180.42	675.000
180.80	1300.000
181.18	0.000
181.56	-337.500
181.94	0.000
182.31	1433.333
182.69	-2200.000
183.07	600.000
183.45	-3900.000
183.83	-1450.000
184.20	440.000
184.58	657.143
184.96	-292.308
185.34	-241.667
185.72	1750.000
186.09	-675.000
186.47	-4600.000
186.85	1433.333
187.23	820.000
187.61	2350.000
187.98	512.500
188.36	307.143
188.74	350.000
189.12	308.333
189.49	1175.000
189.87	0.000
190.25	537.500
190.63	3100.000
191.00	-266.667
191.38	-3800.000
191.76	-800.000
192.14	637.500
192.51	-3300.000
192.89	1850.000
193.27	1333.333
193.65	-1066.667
194.02	-680.000
194.40	600.000
194.78	-207.143
195.15	253.333
195.53	-2400.000
195.91	-580.000
196.29	3700.000
196.66	256.250
197.04	950.000
197.42	-1800.000
197.79	625.000
198.17	308.333
198.55	0.000
198.92	628.571
199.30	1633.333
199.68	2450.000
200.05	766.667
200.43	-550.000
200.81	200.000
201.18	4900.000
201.56	325.000
201.94	-800.000
202.31	-337.500
202.69	-600.000
203.07	2900.000
203.44	-600.000
203.82	250.000
204.19	680.000
204.57	-2100.000
204.95	-975.000
205.32	-740.000
205.70	666.667
206.08	925.000
206.45	-900.000
206.83	322.222
207.20	189.474
207.58	300.000
207.96	920.000
208.33	0.000
208.71	628.571
209.08	860.000
209.46	-3700.000
209.84	-700.000
210.21	1000.000
210.59	-560.000
210.96	366.667
211.34	-1075.000
211.71	390.909
212.09	1025.000
212.46	1750.000
212.84	-550.000
213.22	533.333
213.59	-3600.000
213.97	320.000
214.34	1250.000
214.72	1433.333
215.09	1200.000
215.47	-4000.000
215.84	-420.000
216.22	-512.500
216.59	0.000
216.97	0.000
217.34	1350.000
217.72	-1450.000
218.09	1233.333
218.47	462.500
218.84	825.000
219.22	1533.333
219.59	1266.667
219.97	500.000
220.34	444.444
220.72	2150.000
221.09	3300.000
221.47	300.000
221.84	933.333
222.22	320.000
222.59	261.111
222.97	292.857
223.34	268.750
223.72	-1600.000
224.09	1233.333
224.46	284.615
224.84	-800.000
225.21	466.667
225.59	300.000
225.96	1633.333
226.34	-820.000
226.71	-775.000
227.08	-560.000
227.46	0.000
227.83	-583.333
228.21	-1250.000
228.58	350.000
228.95	825.000
229.33	355.556
229.70	1250.000
230.08	376.923
230.45	3800.000
230.82	-1025.000
231.20	-966.667
231.57	-1133.333
231.95	580.000
232.32	358.333
232.69	683.333
233.07	333.333
233.44	-1700.000
233.81	273.333
234.19	185.185
234.56	250.000
234.93	176.471
235.31	255.000
235.68	293.750
236.05	196.429
236.43	192.593
236.80	285.714
237.17	172.414
237.55	131.250
237.92	125.000
238.29	181.818
238.67	165.625
239.04	134.146
239.41	104.167
239.79	112.500
240.16	89.583
240.53	88.525
240.91	85.507
241.28	84.746
241.65	78.788
242.02	90.141
242.40	67.143
242.77	68.132
243.14	62.025
243.51	71.717
243.89	60.748
244.26	60.748
244.63	52.475
245.00	49.541
245.38	54.237
245.75	54.545
246.12	59.259
246.49	54.610
246.87	46.721
247.24	51.333
247.61	49.375
247.98	51.701
248.36	45.455
248.73	44.388
249.10	48.810
249.47	46.000
249.84	43.781
250.22	43.243
250.59	49.500
250.96	46.414
251.33	38.140
251.70	44.196
252.08	42.857
252.45	38.247
252.82	36.882
253.19	41.897
253.56	39.615
253.94	41.667
254.31	41.860
254.68	41.115
255.05	43.448
255.42	42.336
255.79	39.414
256.16	41.695
256.54	41.558
256.91	38.562
257.28	37.124
257.65	35.423
258.02	33.333
258.39	36.103
258.76	38.261
259.14	35.143
259.51	39.942
259.88	39.210
260.25	33.242
260.62	37.260
260.99	36.088
261.36	36.212
261.73	35.904
262.10	37.958
262.47	35.000
262.85	32.000
263.22	35.990
263.59	36.573
263.96	39.098
264.33	32.346
264.70	36.364
265.07	35.854
265.44	34.174
265.81	35.849
266.18	37.071
266.55	32.388
266.92	33.557
267.29	35.746
267.66	35.202
268.03	32.511
268.40	34.461
268.77	37.885
269.14	34.056
269.51	34.298
269.88	34.490
270.25	34.773
270.62	32.833
270.99	34.483
271.36	34.553
271.73	34.382
272.10	31.919
272.47	32.540
272.84	31.138
273.21	32.231
273.58	34.008
273.95	33.060
274.32	33.852
274.69	35.039
275.06	31.876
275.43	32.567
275.80	32.830
276.17	35.110
276.54	31.776
276.91	33.022
277.28	33.577
277.65	30.996
278.02	30.882
278.39	32.014
278.76	31.552
279.13	30.427
279.50	33.818
279.87	29.981
280.23	33.702
280.60	32.299
280.97	31.207
281.34	29.703
281.71	31.304
282.08	30.598
282.45	30.574
282.82	31.773
283.19	31.002
283.56	30.579
283.92	32.248
284.29	32.612
284.66	28.571
285.03	31.177
285.40	30.909
285.77	28.241
286.14	30.031
286.51	30.521
286.87	28.481
287.24	29.279
287.61	29.787
287.98	28.507
288.35	29.926
288.72	27.921
289.08	28.378
289.45	29.878
289.82	30.469
290.19	27.086
290.56	29.840
290.93	29.209
291.29	28.039
291.66	26.695
292.03	29.313
292.40	26.152
292.77	26.741
293.13	26.391
293.50	25.641
293.87	25.339
294.24	25.035
294.60	26.245
294.97	26.294
295.34	24.967
295.71	26.675
296.08	25.600
296.44	25.794
296.81	25.186
297.18	23.828
297.55	25.862
297.91	23.030
298.28	24.155
298.65	23.436
299.02	23.643
299.38	24.341
299.75	23.293
300.12	22.133
300.48	23.536
300.85	24.434
301.22	23.372
301.59	22.642
301.95	23.337
302.32	23.166
302.69	23.643
303.05	22.783
303.42	21.973
303.79	21.668
304.15	22.112
304.52	21.987
304.89	23.774
305.25	22.692
305.62	22.601
305.99	22.283
306.35	22.632
306.72	21.852
307.09	21.429
307.45	22.175
307.82	20.679
308.19	22.165
308.55	21.800
308.92	21.884
309.29	21.696
309.65	21.110
310.02	23.022
310.38	20.140
310.75	19.865
311.12	20.115
311.48	22.104
311.85	21.947
312.22	21.394
312.58	21.477
312.95	20.583
313.31	20.412
313.68	20.732
314.05	21.429
314.41	21.415
314.78	20.833
315.14	20.569
315.51	20.530
315.87	21.168
316.24	19.795
316.61	20.949
316.97	19.725
317.34	20.485
317.70	20.018
318.07	22.153
318.43	21.090
318.80	21.278
319.16	20.804
319.53	19.115
319.89	19.713
320.26	22.346
320.62	21.337
320.99	20.591
321.35	21.150
321.72	22.011
322.08	21.237
322.45	20.618
322.81	19.762
323.18	21.581
323.54	21.254
323.91	21.396
324.27	21.132
324.64	19.550
325.00	20.172
325.37	19.562
325.73	20.152
326.10	20.961
326.46	19.158
326.83	20.720
327.19	20.803
327.56	20.607
327.92	20.246
328.29	22.177
328.65	21.404
329.01	21.044
329.38	20.643
329.74	19.385
330.11	20.765
330.47	19.693
330.84	19.758
331.20	19.036
331.56	20.725
331.93	19.675
332.29	19.728
332.66	20.238
333.02	19.158
333.38	19.546
333.75	20.767
334.11	18.876
334.48	19.915
334.84	20.017
335.20	19.333
335.57	18.640
335.93	19.680
336.29	19.652
336.66	20.412
337.02	19.333
337.38	19.433
337.75	20.186
338.11	20.338
338.47	19.644
338.84	19.644
339.20	18.095
339.56	19.344
339.93	19.816
340.29	18.739
340.65	20.201
341.02	19.147
341.38	19.622
341.74	18.771
342.11	18.781
342.47	18.622
342.83	20.180
343.20	18.998
343.56	17.315
343.92	18.249
344.28	19.298
344.65	19.071
345.01	19.365
345.37	18.429
345.73	19.127
346.10	19.124
346.46	18.820
346.82	17.670
347.19	19.397
347.55	18.189
347.91	18.051
348.27	18.978
348.63	18.513
349.00	18.812
349.36	20.078
349.72	18.884
350.08	19.876
350.45	18.583
350.81	18.349
351.17	17.411
351.53	18.014
351.89	17.871
352.26	18.141
352.62	18.250
352.98	19.862
353.34	17.565
353.70	17.431
354.07	18.538
354.43	18.280
354.79	16.781
355.15	18.147
355.51	18.051
355.87	18.223
356.24	18.245
356.60	17.884
356.96	18.271
357.32	19.066
357.68	17.841
358.04	17.553
358.40	19.265
358.77	18.182
359.13	17.793
359.49	18.681
359.85	17.945
360.21	17.533
360.57	17.737
360.93	17.172
361.29	18.110
361.66	17.972
362.02	17.685
362.38	17.677
362.74	18.330
363.10	17.882
363.46	16.851
363.82	18.093
364.18	18.137
364.54	16.738
364.90	18.340
365.26	16.863
365.62	17.196
365.98	16.862
366.35	17.310
366.71	17.488
367.07	17.474
367.43	17.730
367.79	17.021
368.15	16.689
368.51	18.401
368.87	17.120
369.23	16.771
369.59	17.465
369.95	17.133
370.31	17.043
370.67	16.724
371.03	18.417
371.39	17.313
371.75	17.655
372.11	18.219
372.47	17.808
372.83	16.995
373.19	17.889
373.55	17.457
373.91	17.196
374.27	16.733
374.63	17.017
374.99	17.049
375.35	17.876
375.71	17.414
376.07	16.976
376.42	17.072
376.78	17.598
377.14	17.104
377.50	17.416
377.86	15.951
378.22	17.124
378.58	17.797
378.94	16.898
379.30	16.798
379.66	16.857
380.02	17.889
380.38	16.159
380.74	17.128
381.09	16.998
381.45	17.052
381.81	16.194
382.17	16.361
382.53	16.617
382.89	16.736
383.25	16.519
383.61	16.888
383.97	15.777
384.32	17.239
384.68	17.944
385.04	17.761
385.40	17.675
385.76	16.852
386.12	16.883
386.48	16.717
386.83	17.787
387.19	16.372
387.55	17.138
387.91	17.494
388.27	17.371
388.62	17.664
388.98	15.918
389.34	16.419
389.70	16.156
390.06	17.439
390.42	17.088
390.77	16.585
391.13	16.838
391.49	16.334
391.85	17.846
392.20	17.759
392.56	17.503
392.92	17.069
393.28	16.592
393.64	16.342
393.99	16.538
394.35	15.951
394.71	16.466
395.07	16.545
395.42	16.101
395.78	17.027
396.14	17.289
396.50	16.125
396.85	16.524
397.21	16.727
397.57	16.975
397.92	16.696
398.28	17.209
398.64	17.277
399.00	16.622
399.35	16.747
399.71	16.777
400.07	15.982
400.42	15.881
400.78	15.718
401.14	16.442
401.49	17.108
401.85	16.686
402.21	16.169
402.57	16.218
402.92	16.485
403.28	15.811
403.63	16.892
403.99	16.405
404.35	16.999
404.70	17.720
405.06	16.395
405.42	16.756
405.77	16.924
406.13	16.432
406.49	16.828
406.84	16.413
407.20	16.781
407.55	16.246
407.91	17.167
408.27	16.495
408.62	17.090
408.98	17.031
409.34	15.956
409.69	16.553
410.05	16.756
410.40	15.430
410.76	16.027
411.11	16.469
411.47	16.173
411.83	16.110
412.18	16.304
412.54	16.036
412.89	16.047
413.25	16.306
413.60	16.180
413.96	15.799
414.31	16.057
414.67	16.822
415.03	16.092
415.38	16.530
415.74	15.919
416.09	17.114
416.45	16.484
416.80	17.062
417.16	16.614
417.51	16.752
417.87	15.394
418.22	16.282
418.58	15.987
418.93	16.002
419.29	15.773
419.64	16.293
420.00	17.303
420.35	15.215
420.71	16.161
421.06	16.421
421.42	17.041
421.77	15.880
422.12	15.601
422.48	16.127
422.83	16.295
423.19	15.929
423.54	16.182
423.90	16.195
424.25	16.346
424.61	16.541
424.96	15.810
425.31	14.997
425.67	16.386
426.02	15.480
426.38	15.578
426.73	16.021
427.09	16.667
427.44	15.757
427.79	14.866
428.15	16.971
428.50	16.857
428.85	16.049
429.21	15.883
429.56	16.152
429.92	16.012
430.27	15.481
430.62	15.810
430.98	15.818
431.33	15.020
431.68	15.160
432.04	15.416
432.39	16.136
432.74	16.803
433.10	15.670
433.45	16.944
433.80	16.437
434.16	16.132
434.51	15.325
434.86	16.440
435.22	15.883
435.57	15.768
435.92	16.847
436.28	16.590
436.63	15.829
436.98	16.104
437.34	16.153
437.69	14.446
438.04	16.183
438.39	16.696
438.75	16.927
439.10	15.920
439.45	15.432
439.81	15.500
440.16	15.905
440.51	16.273
440.86	16.638
441.22	16.017
441.57	16.220
441.92	16.436
442.27	15.619
442.63	16.311
442.98	15.517
443.33	15.801
443.68	16.197
444.03	15.316
444.39	15.772
444.74	15.321
445.09	15.745
445.44	16.312
445.79	15.789
446.15	15.158
446.50	15.454
446.85	15.538
447.20	15.522
447.55	16.150
447.91	16.782
448.26	16.347
448.61	15.589
448.96	16.449
449.31	16.172
449.66	16.777
450.02	15.343
450.37	15.936
450.72	15.868
451.07	16.870
451.42	16.420
451.77	15.693
452.12	15.655
452.47	15.978
452.83	16.056
453.18	16.036
453.53	16.400
453.88	15.714
454.23	16.328
454.58	16.142
454.93	15.328
455.28	16.034
455.63	16.489
455.98	16.074
456.34	16.839
456.69	15.915
457.04	15.453
457.39	15.600
457.74	17.005
458.09	15.778
458.44	15.827
458.79	16.499
459.14	15.767
459.49	15.742
459.84	15.652
460.19	15.932
460.54	16.068
460.89	16.098
461.24	15.578
461.59	16.327
461.94	16.194
462.29	16.304
462.64	16.206
462.99	15.995
463.34	16.980
463.69	17.120
464.04	16.580
464.39	16.543
464.74	15.064
465.09	16.019
465.44	15.832
465.79	15.623
466.14	14.997
466.49	15.735
466.84	16.165
467.19	16.169
467.54	16.456
467.89	16.491
468.24	15.518
468.59	15.893
468.94	15.761
469.29	17.471
469.64	15.949
469.99	16.645
470.34	16.192
470.68	16.345
471.03	16.344
471.38	16.358
471.73	15.741
472.08	16.438
472.43	16.263
472.78	16.069
473.13	15.645
473.48	15.587
473.83	16.078
474.17	15.988
474.52	15.225
474.87	15.122
475.22	15.762
475.57	15.635
475.92	15.534
476.27	15.125
476.61	15.603
476.96	15.726
477.31	16.247
477.66	16.425
478.01	16.039
478.36	15.963
478.70	15.385
479.05	15.743
479.40	16.121
479.75	15.988
480.10	15.924
480.45	15.546
480.79	15.899
481.14	14.979
481.49	14.913
481.84	15.787
482.19	15.371
482.53	15.503
482.88	15.278
483.23	15.156
483.58	15.126
483.92	16.042
484.27	15.068
484.62	15.407
484.97	15.349
485.31	14.894
485.66	15.340
486.01	15.123
486.36	14.821
486.70	14.204
487.05	14.538
487.40	14.744
487.75	14.860
488.09	15.028
488.44	14.850
488.79	15.134
489.13	15.342
489.48	15.142
489.83	14.846
490.17	15.194
490.52	15.159
490.87	15.560
491.22	14.982
491.56	15.459
491.91	15.905
492.26	15.323
492.60	15.216
492.95	15.315
493.30	15.560
493.64	15.409
493.99	15.564
494.34	15.598
494.68	14.564
495.03	15.492
495.37	15.894
495.72	15.711
496.07	15.364
496.41	15.639
496.76	15.450
497.11	15.338
497.45	15.256
497.80	16.033
498.14	15.303
498.49	15.692
498.84	15.888
499.18	15.448
499.53	16.031
499.87	15.049
500.22	15.431
500.56	15.877
500.91	15.724
501.26	15.572
501.60	15.574
501.95	14.785
502.29	15.600
502.64	14.733
502.98	15.251
503.33	15.679
503.67	15.364
504.02	15.405
504.36	15.158
504.71	15.421
505.06	15.157
505.40	15.349
505.75	14.780
506.09	15.586
506.44	15.038
506.78	15.454
507.13	15.172
507.47	15.575
507.82	16.204
508.16	15.973
508.51	14.734
508.85	15.480
509.19	14.929
509.54	15.869
509.88	15.365
510.23	15.294
510.57	14.768
510.92	15.534
511.26	15.361
511.61	15.953
511.95	15.331
512.30	15.600
512.64	14.901
512.98	15.838
513.33	15.676
513.67	15.847
514.02	15.117
514.36	15.317
514.70	15.573
515.05	15.290
515.39	15.789
515.74	15.746
516.08	15.795
516.42	16.393
516.77	15.307
517.11	15.893
517.46	15.140
517.80	15.620
518.14	15.662
518.49	15.436
518.83	14.890
519.17	15.530
519.52	15.948
519.86	15.640
520.20	15.562
520.55	15.206
520.89	15.230
521.23	15.596
521.58	15.318
521.92	15.685
522.26	15.107
522.61	15.330
522.95	15.976
523.29	15.965
523.64	15.434
523.98	15.845
524.32	16.148
524.66	15.304
525.01	15.325
525.35	15.203
525.69	15.894
526.04	15.705
526.38	15.892
526.72	15.036
527.06	15.494
527.41	16.264
527.75	15.460
528.09	15.232
528.43	15.985
528.78	15.981
529.12	16.195
529.46	16.306
529.80	15.654
530.15	16.500
530.49	14.681
530.83	16.453
531.17	15.498
531.51	15.083
531.86	15.399
532.20	15.822
532.54	15.191
532.88	15.428
533.22	15.356
533.57	15.741
533.91	15.152
534.25	15.291
534.59	16.140
534.93	15.131
535.27	14.627
535.62	15.228
535.96	15.662
536.30	16.392
536.64	15.528
536.98	15.481
537.32	16.312
537.66	14.286
538.01	15.728
538.35	15.409
538.69	15.413
539.03	15.174
539.37	15.291
539.71	15.370
540.05	15.754
540.39	16.164
540.73	15.696
541.07	14.806
541.42	15.174
541.76	15.598
542.10	15.413
542.44	15.711
542.78	15.293
543.12	16.012
543.46	15.476
543.80	15.852
544.14	15.480
544.48	14.903
544.82	15.107
545.16	14.329
545.50	15.734
545.84	15.909
546.18	16.060
546.52	15.082
546.86	16.054
547.20	14.729
547.54	16.719
547.88	15.876
548.22	15.786
548.56	15.321
548.90	15.421
549.24	14.908
549.58	14.820
549.92	16.110
550.26	15.348
550.60	15.502
550.94	16.079
551.28	16.483
551.62	15.586
551.96	15.676
552.30	15.821
552.64	15.987
552.98	15.271
553.32	14.533
553.66	15.049
554.00	15.830
554.34	16.445
554.68	15.323
555.02	16.090
555.36	14.894
555.69	15.052
556.03	15.860
556.37	15.679
556.71	15.319
557.05	15.072
557.39	15.467
557.73	15.566
558.07	16.030
558.41	16.107
558.75	16.553
559.08	16.083
559.42	15.963
559.76	16.108
560.10	15.760
560.44	16.656
560.78	16.432
561.12	16.084
561.45	14.956
561.79	15.855
562.13	15.224
562.47	15.704
562.81	15.810
563.15	15.966
563.48	14.969
563.82	15.596
564.16	16.604
564.50	15.069
564.84	15.805
565.17	14.676
565.51	15.764
565.85	15.608
566.19	15.060
566.52	14.200
566.86	16.229
567.20	16.517
567.54	15.066
567.88	15.441
568.21	15.876
568.55	15.272
568.89	15.876
569.23	14.927
569.56	15.096
569.90	14.768
570.24	14.753
570.57	14.731
570.91	14.914
571.25	14.561
571.59	14.608
571.92	14.747
572.26	14.528
572.60	14.329
572.93	14.606
573.27	14.618
573.61	14.618
573.95	14.741
574.28	14.857
574.62	14.718
574.96	14.354
575.29	14.965
575.63	14.441
575.97	14.289
576.30	14.325
576.64	14.619
576.98	14.604
577.31	14.804
577.65	14.661
577.98	14.431
578.32	14.042
578.66	14.561
578.99	14.579
579.33	14.502
579.67	14.332
580.00	14.171
580.34	14.417
580.67	14.273
581.01	14.439
581.35	14.669
581.68	14.611
582.02	14.738
582.35	14.573
582.69	14.714
583.02	14.335
583.36	14.343
583.70	14.803
584.03	14.666
584.37	14.715
584.70	14.581
585.04	14.442
585.37	14.247
585.71	14.787
586.04	14.492
586.38	14.819
586.72	14.672
587.05	14.720
587.39	14.665
587.72	14.979
588.06	14.601
588.39	14.688
588.73	14.873
589.06	15.086
589.40	15.524
589.73	15.143
590.07	15.546
590.40	15.366
590.73	15.057
591.07	15.598
591.40	15.010
591.74	15.300
592.07	15.349
592.41	15.108
592.74	14.866
593.08	14.941
593.41	14.931
593.75	15.110
594.08	14.875
594.41	14.923
594.75	14.658
595.08	15.158
595.42	15.537
595.75	15.038
596.09	14.911
596.42	15.186
596.75	15.224
597.09	15.229
597.42	15.020
597.75	14.686
598.09	14.403
598.42	14.688
598.76	15.497
599.09	15.300
599.42	14.879
599.76	15.129
600.09	14.712
600.42	14.710
600.76	15.194
601.09	14.808
601.42	15.241
601.76	14.751
602.09	15.305
602.42	15.120
602.76	15.104
603.09	15.158
603.42	15.339
603.76	15.474
604.09	15.273
604.42	14.727
604.76	15.093
605.09	14.816
605.42	15.156
605.75	15.713
606.09	15.340
606.42	14.769
606.75	15.235
607.09	15.081
607.42	14.785
607.75	15.088
608.08	14.825
608.42	15.310
608.75	15.019
609.08	14.474
609.41	15.636
609.75	15.934
610.08	15.153
610.41	15.064
610.74	15.152
611.07	15.507
611.41	15.107
611.74	15.440
612.07	15.125
612.40	16.131
612.73	16.026
613.07	15.712
613.40	15.539
613.73	15.177
614.06	15.200
614.39	15.051
614.72	15.269
615.06	14.936
615.39	15.198
615.72	15.344
616.05	15.470
616.38	15.322
616.71	15.193
617.05	15.321
617.38	15.506
617.71	16.535
618.04	15.648
618.37	15.175
618.70	15.589
619.03	15.690
619.36	15.955
619.69	16.425
620.03	16.438
620.36	16.121
620.69	16.284
621.02	15.965
621.35	14.971
621.68	15.413
622.01	16.089
622.34	15.076
622.67	16.503
623.00	16.610
623.33	15.115
623.66	15.702
623.99	15.890
624.32	15.718
624.65	15.471
624.99	16.227
625.32	15.631
625.65	13.931
625.98	15.830
626.31	16.320
626.64	15.718
626.97	14.767
627.30	15.761
627.63	15.856
627.96	15.493
628.29	16.584
628.62	15.654
628.95	17.199
629.28	17.441
629.61	16.081
629.94	15.212
630.26	17.071
630.59	16.755
630.92	15.426
