SpectraSuite Data File
++++++++++++++++++++++++++++++++++++
Date: Tue May 12 16:11:35 PDT 2015
User: schluterlab
Dark Spectrum Present: Yes
Reference Spectrum Present: Yes
Number of Sampled Component Spectra: 1
Spectrometers: USB2E3373
Integration Time (usec): 3000 (USB2E3373)
Spectra Averaged: 3 (USB2E3373)
Boxcar Smoothing: 0 (USB2E3373)
Correct for Electrical Dark: No (USB2E3373)
Strobe/Lamp Enabled: No (USB2E3373)
Correct for Detector Non-linearity: No (USB2E3373)
Correct for Stray Light: No (USB2E3373)
Number of Pixels in Processed Spectrum: 2048
>>>>>Begin Processed Spectral Data<<<<<
178.53	0.000
178.91	-283.333
179.29	-900.000
179.67	-3500.000
180.04	-146.667
180.42	750.000
180.80	2100.000
181.18	0.000
181.56	-425.000
181.94	0.000
182.31	966.667
182.69	-3000.000
183.07	542.857
183.45	-3500.000
183.83	-1350.000
184.20	380.000
184.58	514.286
184.96	-276.923
185.34	-300.000
185.72	2250.000
186.09	-950.000
186.47	-3300.000
186.85	1200.000
187.23	500.000
187.61	1450.000
187.98	500.000
188.36	264.286
188.74	375.000
189.12	416.667
189.49	1150.000
189.87	0.000
190.25	387.500
190.63	3600.000
191.00	-183.333
191.38	-4400.000
191.76	-750.000
192.14	537.500
192.51	-3000.000
192.89	1450.000
193.27	1000.000
193.65	-1133.333
194.02	-700.000
194.40	642.857
194.78	-207.143
195.15	246.667
195.53	-2500.000
195.91	-600.000
196.29	4400.000
196.66	193.750
197.04	1000.000
197.42	-1650.000
197.79	600.000
198.17	425.000
198.55	0.000
198.92	585.714
199.30	1600.000
199.68	1950.000
200.05	783.333
200.43	-566.667
200.81	238.889
201.18	3700.000
201.56	300.000
201.94	-700.000
202.31	-250.000
202.69	-520.000
203.07	3700.000
203.44	-300.000
203.82	408.333
204.19	740.000
204.57	-1450.000
204.95	-900.000
205.32	-560.000
205.70	666.667
206.08	975.000
206.45	-1200.000
206.83	300.000
207.20	194.737
207.58	283.333
207.96	820.000
208.33	0.000
208.71	628.571
209.08	800.000
209.46	-2700.000
209.84	-750.000
210.21	920.000
210.59	-500.000
210.96	325.000
211.34	-900.000
211.71	463.636
212.09	975.000
212.46	2100.000
212.84	-583.333
213.22	400.000
213.59	-3100.000
213.97	310.000
214.34	1050.000
214.72	1100.000
215.09	1233.333
215.47	-3300.000
215.84	-300.000
216.22	-350.000
216.59	0.000
216.97	0.000
217.34	1500.000
217.72	-2200.000
218.09	1300.000
218.47	612.500
218.84	950.000
219.22	866.667
219.59	1266.667
219.97	614.286
220.34	366.667
220.72	2300.000
221.09	3700.000
221.47	350.000
221.84	933.333
222.22	340.000
222.59	283.333
222.97	242.857
223.34	206.250
223.72	-1850.000
224.09	1566.667
224.46	292.308
224.84	-950.000
225.21	500.000
225.59	246.667
225.96	1466.667
226.34	-780.000
226.71	-1075.000
227.08	-620.000
227.46	0.000
227.83	-716.667
228.21	-2100.000
228.58	425.000
228.95	1125.000
229.33	433.333
229.70	950.000
230.08	384.615
230.45	3700.000
230.82	-925.000
231.20	-1066.667
231.57	-1133.333
231.95	620.000
232.32	308.333
232.69	500.000
233.07	291.667
233.44	-1650.000
233.81	253.333
234.19	207.407
234.56	256.250
234.93	241.176
235.31	215.000
235.68	281.250
236.05	171.429
236.43	166.667
236.80	314.286
237.17	162.069
237.55	137.500
237.92	140.000
238.29	154.545
238.67	143.750
239.04	119.512
239.41	87.500
239.79	112.500
240.16	97.917
240.53	101.639
240.91	84.058
241.28	81.356
241.65	89.394
242.02	80.282
242.40	97.143
242.77	69.231
243.14	67.089
243.51	86.869
243.89	63.551
244.26	65.421
244.63	65.347
245.00	76.147
245.38	50.000
245.75	59.848
246.12	59.259
246.49	54.610
246.87	63.115
247.24	58.000
247.61	48.750
247.98	57.823
248.36	50.909
248.73	56.122
249.10	48.810
249.47	50.000
249.84	50.746
250.22	47.568
250.59	44.000
250.96	45.992
251.33	47.907
251.70	50.446
252.08	41.597
252.45	43.028
252.82	41.445
253.19	46.640
253.56	40.000
253.94	45.652
254.31	41.473
254.68	43.902
255.05	44.483
255.42	44.526
255.79	43.322
256.16	44.407
256.54	43.506
256.91	40.850
257.28	44.816
257.65	40.125
258.02	38.643
258.39	41.261
258.76	43.188
259.14	39.714
259.51	37.026
259.88	42.857
260.25	35.165
260.62	41.096
260.99	35.813
261.36	38.162
261.73	38.298
262.10	37.435
262.47	37.250
262.85	38.933
263.22	37.789
263.59	36.317
263.96	35.338
264.33	36.790
264.70	43.243
265.07	39.756
265.44	38.532
265.81	40.566
266.18	40.732
266.55	39.480
266.92	37.360
267.29	37.500
267.66	36.996
268.03	35.650
268.40	41.015
268.77	38.106
269.14	36.876
269.51	38.085
269.88	37.755
270.25	35.637
270.62	40.129
270.99	38.945
271.36	37.805
271.73	35.220
272.10	36.364
272.47	37.500
272.84	34.930
273.21	35.537
273.58	34.615
273.95	35.524
274.32	35.409
274.69	37.205
275.06	35.883
275.43	34.674
275.80	35.472
276.17	34.559
276.54	36.449
276.91	37.313
277.28	33.942
277.65	34.686
278.02	35.110
278.39	33.273
278.76	35.172
279.13	34.875
279.50	35.273
279.87	34.451
280.23	33.517
280.60	34.489
280.97	36.207
281.34	34.818
281.71	36.522
282.08	37.607
282.45	33.108
282.82	34.783
283.19	35.612
283.56	31.405
283.92	35.993
284.29	34.276
284.66	32.269
285.03	34.992
285.40	33.719
285.77	30.864
286.14	33.746
286.51	32.822
286.87	31.962
287.24	30.631
287.61	33.131
287.98	34.030
288.35	33.481
288.72	32.929
289.08	33.784
289.45	32.774
289.82	32.812
290.19	30.161
290.56	32.897
290.93	31.942
291.29	31.077
291.66	31.215
292.03	32.679
292.40	32.249
292.77	30.362
293.13	32.810
293.50	30.769
293.87	32.114
294.24	32.727
294.60	34.590
294.97	32.867
295.34	32.271
295.71	30.880
296.08	33.733
296.44	32.529
296.81	32.258
297.18	31.939
297.55	32.020
297.91	30.911
298.28	33.213
298.65	32.761
299.02	33.293
299.38	31.415
299.75	32.195
300.12	31.881
300.48	32.787
300.85	34.446
301.22	32.674
301.59	32.783
301.95	33.022
302.32	32.945
302.69	33.258
303.05	34.007
303.42	31.614
303.79	32.936
304.15	34.323
304.52	32.558
304.89	33.262
305.25	35.150
305.62	32.729
305.99	32.717
306.35	33.789
306.72	34.339
307.09	33.644
307.45	33.157
307.82	33.539
308.19	33.505
308.55	31.900
308.92	33.562
309.29	34.517
309.65	33.399
310.02	33.671
310.38	33.799
310.75	33.462
311.12	33.525
311.48	35.907
311.85	34.637
312.22	34.862
312.58	33.819
312.95	34.563
313.31	35.861
313.68	34.240
314.05	34.707
314.41	35.382
314.78	36.080
315.14	35.924
315.51	35.289
315.87	35.766
316.24	33.800
316.61	34.557
316.97	34.587
317.34	35.220
317.70	34.680
318.07	36.388
318.43	35.413
318.80	35.289
319.16	34.878
319.53	34.513
319.89	35.305
320.26	36.778
320.62	35.531
320.99	36.606
321.35	36.085
321.72	35.769
322.08	35.457
322.45	35.695
322.81	36.139
323.18	35.702
323.54	36.063
323.91	37.353
324.27	36.074
324.64	35.640
325.00	35.086
325.37	33.811
325.73	34.486
326.10	35.626
326.46	36.003
326.83	33.760
327.19	35.582
327.56	34.265
327.92	35.246
328.29	34.534
328.65	34.760
329.01	34.987
329.38	35.702
329.74	33.903
330.11	35.187
330.47	34.271
330.84	33.736
331.20	34.687
331.56	34.456
331.93	35.158
332.29	32.823
332.66	34.949
333.02	33.591
333.38	34.729
333.75	34.195
334.11	33.473
334.48	32.821
334.84	34.206
335.20	34.645
335.57	33.417
335.93	33.474
336.29	32.504
336.66	33.619
337.02	32.849
337.38	32.760
337.75	33.277
338.11	33.671
338.47	32.176
338.84	32.854
339.20	31.861
339.56	31.960
339.93	32.107
340.29	32.185
340.65	32.607
341.02	32.663
341.38	33.498
341.74	31.478
342.11	31.636
342.47	30.845
342.83	32.650
343.20	32.255
343.56	30.898
343.92	31.957
344.28	32.217
344.65	31.459
345.01	30.476
345.37	30.769
345.73	30.714
346.10	30.120
346.46	32.217
346.82	30.633
347.19	31.839
347.55	30.211
347.91	29.532
348.27	29.899
348.63	30.696
349.00	30.998
349.36	31.051
349.72	29.740
350.08	30.668
350.45	29.474
350.81	29.664
351.17	29.353
351.53	30.177
351.89	30.070
352.26	29.554
352.62	30.618
352.98	29.985
353.34	30.817
353.70	28.135
354.07	29.923
354.43	30.415
354.79	29.689
355.15	29.862
355.51	29.079
355.87	29.292
356.24	29.484
356.60	28.234
356.96	28.279
357.32	29.088
357.68	28.855
358.04	30.319
358.40	29.310
358.77	29.602
359.13	28.003
359.49	27.872
359.85	28.518
360.21	28.009
360.57	28.613
360.93	28.860
361.29	27.201
361.66	29.157
362.02	27.273
362.38	27.922
362.74	29.158
363.10	27.489
363.46	27.417
363.82	27.279
364.18	27.667
364.54	28.326
364.90	27.711
365.26	27.203
365.62	27.417
365.98	26.497
366.35	27.517
366.71	27.689
367.07	27.031
367.43	27.334
367.79	26.795
368.15	25.780
368.51	27.292
368.87	26.902
369.23	27.027
369.59	26.837
369.95	27.203
370.31	25.873
370.67	26.509
371.03	26.681
371.39	26.524
371.75	27.355
372.11	26.920
372.47	27.397
372.83	26.037
373.19	27.142
373.55	26.804
373.91	25.552
374.27	26.190
374.63	25.627
374.99	26.685
375.35	26.546
375.71	26.187
376.07	26.790
376.42	24.872
376.78	26.654
377.14	26.081
377.50	25.156
377.86	25.881
378.22	25.046
378.58	26.332
378.94	26.313
379.30	25.288
379.66	25.587
380.02	26.393
380.38	25.176
380.74	26.586
381.09	26.051
381.45	25.491
381.81	25.473
382.17	24.847
382.53	25.315
382.89	26.434
383.25	25.281
383.61	24.265
383.97	25.195
384.32	24.533
384.68	25.847
385.04	24.971
385.40	24.911
385.76	25.219
386.12	25.170
386.48	25.836
386.83	25.367
387.19	25.147
387.55	24.558
387.91	24.480
388.27	25.342
388.62	25.352
388.98	24.373
389.34	24.271
389.70	24.175
390.06	24.756
390.42	24.491
390.77	24.263
391.13	25.045
391.49	24.682
391.85	24.369
392.20	24.076
392.56	24.612
392.92	24.031
393.28	23.711
393.64	23.968
393.99	24.363
394.35	23.955
394.71	23.703
395.07	24.209
395.42	24.122
395.78	23.627
396.14	24.759
396.50	23.466
396.85	24.146
397.21	24.067
397.57	23.072
397.92	23.166
398.28	23.221
398.64	24.084
399.00	23.463
399.35	22.974
399.71	23.455
400.07	23.801
400.42	23.761
400.78	23.930
401.14	23.194
401.49	23.272
401.85	24.218
402.21	22.671
402.57	23.160
402.92	23.697
403.28	22.673
403.63	23.190
403.99	23.160
404.35	24.209
404.70	23.272
405.06	22.347
405.42	22.801
405.77	23.319
406.13	22.993
406.49	23.593
406.84	22.955
407.20	23.116
407.55	22.769
407.91	23.931
408.27	23.347
408.62	23.773
408.98	23.477
409.34	22.618
409.69	22.713
410.05	22.779
410.40	22.144
410.76	23.183
411.11	22.334
411.47	22.407
411.83	22.027
412.18	22.886
412.54	23.423
412.89	22.124
413.25	23.033
413.60	22.138
413.96	22.322
414.31	22.255
414.67	24.084
415.03	22.925
415.38	23.218
415.74	22.363
416.09	23.173
416.45	23.335
416.80	23.605
417.16	22.788
417.51	23.248
417.87	22.278
418.22	22.236
418.58	22.548
418.93	22.665
419.29	22.428
419.64	22.774
420.00	23.210
420.35	22.009
420.71	22.287
421.06	22.778
421.42	22.740
421.77	22.099
422.12	22.051
422.48	21.674
422.83	22.210
423.19	22.624
423.54	22.436
423.90	23.273
424.25	22.179
424.61	22.577
424.96	22.021
425.31	22.332
425.67	22.447
426.02	22.546
426.38	21.412
426.73	23.077
427.09	23.191
427.44	21.272
427.79	21.841
428.15	22.982
428.50	23.371
428.85	23.516
429.21	22.853
429.56	21.685
429.92	22.079
430.27	22.303
430.62	21.586
430.98	22.505
431.33	21.371
431.68	21.086
432.04	21.521
432.39	22.613
432.74	23.068
433.10	22.315
433.45	22.458
433.80	23.221
434.16	21.597
434.51	22.601
434.86	22.646
435.22	21.988
435.57	22.762
435.92	23.278
436.28	22.753
436.63	22.744
436.98	23.029
437.34	23.288
437.69	21.613
438.04	22.473
438.39	23.468
438.75	22.439
439.10	22.234
439.45	21.764
439.81	23.424
440.16	23.060
440.51	22.860
440.86	23.191
441.22	22.078
441.57	22.625
441.92	22.507
442.27	22.680
442.63	21.951
442.98	22.522
443.33	22.335
443.68	22.133
444.03	22.526
444.39	23.117
444.74	22.723
445.09	22.696
445.44	22.529
445.79	22.271
446.15	22.895
446.50	22.416
446.85	23.008
447.20	22.388
447.55	22.893
447.91	22.749
448.26	22.364
448.61	22.499
448.96	23.148
449.31	22.662
449.66	23.256
450.02	22.096
450.37	23.376
450.72	22.810
451.07	23.444
451.42	22.881
451.77	23.597
452.12	23.199
452.47	23.633
452.83	23.268
453.18	23.363
453.53	23.209
453.88	23.714
454.23	23.475
454.58	22.902
454.93	23.421
455.28	24.786
455.63	24.291
455.98	23.689
456.34	24.377
456.69	22.744
457.04	23.926
457.39	23.143
457.74	23.930
458.09	23.470
458.44	23.877
458.79	23.130
459.14	22.859
459.49	23.556
459.84	23.859
460.19	22.429
460.54	23.989
460.89	22.868
461.24	23.310
461.59	23.980
461.94	22.872
462.29	23.684
462.64	24.497
462.99	24.440
463.34	24.433
463.69	24.501
464.04	23.719
464.39	23.698
464.74	24.091
465.09	23.680
465.44	23.504
465.79	24.115
466.14	22.682
466.49	23.060
466.84	23.356
467.19	24.019
467.54	23.483
467.89	23.063
468.24	23.972
468.59	23.036
468.94	23.732
469.29	23.580
469.64	23.666
469.99	25.643
470.34	24.352
470.68	24.483
471.03	23.883
471.38	24.834
471.73	24.233
472.08	24.918
472.43	25.202
472.78	24.712
473.13	24.155
473.48	23.716
473.83	23.969
474.17	24.559
474.52	24.585
474.87	24.105
475.22	24.500
475.57	23.190
475.92	23.097
476.27	23.069
476.61	23.056
476.96	23.929
477.31	23.702
477.66	24.262
478.01	23.259
478.36	24.459
478.70	23.722
479.05	23.222
479.40	23.562
479.75	24.429
480.10	23.766
480.45	22.969
480.79	23.548
481.14	23.300
481.49	22.324
481.84	23.527
482.19	23.406
482.53	23.057
482.88	23.656
483.23	23.139
483.58	23.833
483.92	23.720
484.27	23.373
484.62	23.260
484.97	23.335
485.31	22.602
485.66	21.745
486.01	20.443
486.36	20.087
486.70	19.711
487.05	20.203
487.40	21.439
487.75	21.577
488.09	22.244
488.44	22.498
488.79	22.700
489.13	23.218
489.48	22.932
489.83	23.103
490.17	23.204
490.52	23.730
490.87	23.793
491.22	24.202
491.56	24.023
491.91	23.342
492.26	24.098
492.60	23.508
492.95	23.879
493.30	24.158
493.64	23.765
493.99	23.837
494.34	23.173
494.68	23.285
495.03	23.978
495.37	24.088
495.72	24.848
496.07	23.360
496.41	22.850
496.76	24.019
497.11	23.993
497.45	23.981
497.80	23.865
498.14	24.041
498.49	23.909
498.84	24.206
499.18	22.761
499.53	23.473
499.87	23.450
500.22	24.551
500.56	23.491
500.91	23.887
501.26	23.886
501.60	23.588
501.95	23.029
502.29	23.733
502.64	23.599
502.98	23.344
503.33	23.875
503.67	23.885
504.02	23.601
504.36	23.439
504.71	24.314
505.06	24.214
505.40	23.912
505.75	24.041
506.09	24.265
506.44	24.154
506.78	23.866
507.13	24.091
507.47	24.017
507.82	24.818
508.16	24.988
508.51	24.686
508.85	24.454
509.19	24.327
509.54	24.756
509.88	24.863
510.23	23.480
510.57	23.793
510.92	24.675
511.26	24.197
511.61	24.914
511.95	24.739
512.30	24.600
512.64	24.974
512.98	23.936
513.33	24.488
513.67	24.858
514.02	24.779
514.36	24.351
514.70	24.587
515.05	24.028
515.39	25.658
515.74	24.986
516.08	25.871
516.42	26.339
516.77	25.600
517.11	24.907
517.46	25.539
517.80	24.577
518.14	25.521
518.49	25.634
518.83	24.505
519.17	24.958
519.52	26.051
519.86	25.341
520.20	25.370
520.55	24.873
520.89	25.747
521.23	26.051
521.58	25.416
521.92	25.131
522.26	25.711
522.61	26.797
522.95	26.366
523.29	25.848
523.64	25.838
523.98	25.704
524.32	25.490
524.66	25.855
525.01	25.621
525.35	25.103
525.69	27.393
526.04	26.889
526.38	26.133
526.72	25.835
527.06	25.488
527.41	26.119
527.75	26.050
528.09	25.286
528.43	26.174
528.78	26.416
529.12	25.587
529.46	25.132
529.80	26.168
530.15	25.751
530.49	25.812
530.83	25.960
531.17	25.523
531.51	26.180
531.86	26.449
532.20	25.896
532.54	26.051
532.88	26.171
533.22	26.569
533.57	25.991
533.91	24.883
534.25	25.216
534.59	25.965
534.93	25.597
535.27	24.132
535.62	24.912
535.96	25.236
536.30	25.411
536.64	26.522
536.98	25.236
537.32	26.625
537.66	26.339
538.01	25.697
538.35	26.450
538.69	24.697
539.03	24.938
539.37	25.303
539.71	25.679
540.05	25.046
540.39	26.604
540.73	25.696
541.07	25.784
541.42	25.746
541.76	25.277
542.10	25.894
542.44	26.122
542.78	25.802
543.12	24.724
543.46	26.065
543.80	25.877
544.14	25.635
544.48	25.426
544.82	25.810
545.16	25.076
545.50	25.753
545.84	25.884
546.18	26.528
546.52	26.164
546.86	26.564
547.20	25.711
547.54	26.092
547.88	25.669
548.22	25.865
548.56	24.219
548.90	24.318
549.24	24.953
549.58	25.387
549.92	26.195
550.26	26.910
550.60	25.749
550.94	26.594
551.28	26.276
551.62	27.379
551.96	24.797
552.30	24.588
552.64	24.984
552.98	25.129
553.32	25.864
553.66	24.821
554.00	24.775
554.34	26.099
554.68	26.882
555.02	25.526
555.36	24.269
555.69	25.327
556.03	25.223
556.37	25.175
556.71	26.467
557.05	24.574
557.39	26.000
557.73	25.472
558.07	25.419
558.41	25.565
558.75	25.787
559.08	25.661
559.42	26.628
559.76	26.515
560.10	25.120
560.44	25.083
560.78	25.895
561.12	25.747
561.45	24.781
561.79	25.281
562.13	25.142
562.47	25.762
562.81	25.634
563.15	24.952
563.48	24.037
563.82	25.265
564.16	25.062
564.50	24.533
564.84	24.438
565.17	24.005
565.51	25.123
565.85	24.985
566.19	24.881
566.52	25.511
566.86	24.402
567.20	25.169
567.54	23.526
567.88	24.204
568.21	22.666
568.55	23.735
568.89	22.765
569.23	22.476
569.56	22.204
569.90	21.667
570.24	21.704
570.57	21.609
570.91	20.655
571.25	20.403
571.59	19.966
571.92	20.022
572.26	20.054
572.60	20.189
572.93	20.759
573.27	20.276
573.61	20.005
573.95	19.920
574.28	20.165
574.62	19.865
574.96	19.326
575.29	19.040
575.63	19.246
575.97	20.083
576.30	19.084
576.64	19.338
576.98	19.689
577.31	19.642
577.65	19.346
577.98	18.857
578.32	18.303
578.66	18.915
578.99	18.859
579.33	19.508
579.67	19.201
580.00	19.537
580.34	18.842
580.67	18.747
581.01	19.311
581.35	18.684
581.68	18.499
582.02	18.473
582.35	18.354
582.69	18.614
583.02	18.534
583.36	19.342
583.70	19.437
584.03	20.159
584.37	19.233
584.70	19.084
585.04	18.939
585.37	18.688
585.71	18.944
586.04	19.173
586.38	19.033
586.72	19.485
587.05	19.635
587.39	19.520
587.72	19.663
588.06	19.121
588.39	19.473
588.73	19.886
589.06	20.163
589.40	20.282
589.73	20.551
590.07	20.933
590.40	20.767
590.73	21.337
591.07	21.556
591.40	21.118
591.74	21.266
592.07	20.840
592.41	21.023
592.74	20.908
593.08	20.020
593.41	20.108
593.75	19.707
594.08	20.419
594.41	20.267
594.75	20.068
595.08	20.267
595.42	20.770
595.75	20.336
596.09	21.098
596.42	20.539
596.75	21.955
597.09	21.750
597.42	21.551
597.75	20.730
598.09	20.394
598.42	20.808
598.76	20.355
599.09	20.338
599.42	20.208
599.76	20.183
600.09	20.034
600.42	20.166
600.76	19.714
601.09	20.021
601.42	20.767
601.76	21.160
602.09	21.082
602.42	20.702
602.76	20.835
603.09	21.078
603.42	20.514
603.76	20.463
604.09	20.195
604.42	20.527
604.76	21.098
605.09	21.102
605.42	20.926
605.75	21.121
606.09	20.811
606.42	20.594
606.75	20.560
607.09	20.253
607.42	20.892
607.75	20.541
608.08	20.715
608.42	20.973
608.75	20.710
609.08	21.073
609.41	21.409
609.75	21.795
610.08	20.998
610.41	21.124
610.74	21.212
611.07	21.919
611.41	20.528
611.74	22.036
612.07	22.254
612.40	21.832
612.73	23.265
613.07	21.997
613.40	21.955
613.73	22.267
614.06	21.450
614.39	22.576
614.72	21.798
615.06	21.563
615.39	22.327
615.72	20.910
616.05	22.250
616.38	21.766
616.71	21.975
617.05	22.735
617.38	22.472
617.71	23.003
618.04	22.434
618.37	22.346
618.70	22.460
619.03	23.382
619.36	23.807
619.69	23.615
620.03	24.331
620.36	23.121
620.69	24.904
621.02	24.321
621.35	23.854
621.68	24.631
622.01	25.904
622.34	23.889
622.67	25.211
623.00	23.622
623.33	23.752
623.66	23.087
623.99	23.288
624.32	24.322
624.65	23.634
624.99	23.867
625.32	24.248
625.65	24.069
625.98	23.710
626.31	25.816
626.64	23.690
626.97	23.948
627.30	24.224
627.63	25.903
627.96	24.804
628.29	26.238
628.62	25.406
628.95	27.039
629.28	27.082
629.61	25.659
629.94	26.707
630.26	27.730
630.59	27.039
630.92	25.561
