SpectraSuite Data File
++++++++++++++++++++++++++++++++++++
Date: Tue May 12 16:55:57 PDT 2015
User: schluterlab
Dark Spectrum Present: Yes
Reference Spectrum Present: Yes
Number of Sampled Component Spectra: 1
Spectrometers: USB2E3373
Integration Time (usec): 3000 (USB2E3373)
Spectra Averaged: 3 (USB2E3373)
Boxcar Smoothing: 0 (USB2E3373)
Correct for Electrical Dark: No (USB2E3373)
Strobe/Lamp Enabled: No (USB2E3373)
Correct for Detector Non-linearity: No (USB2E3373)
Correct for Stray Light: No (USB2E3373)
Number of Pixels in Processed Spectrum: 2048
>>>>>Begin Processed Spectral Data<<<<<
178.53	0.000
178.91	-150.000
179.29	-575.000
179.67	-3500.000
180.04	-126.667
180.42	575.000
180.80	1500.000
181.18	0.000
181.56	-300.000
181.94	0.000
182.31	866.667
182.69	-3200.000
183.07	600.000
183.45	-3200.000
183.83	-1700.000
184.20	210.000
184.58	414.286
184.96	-230.769
185.34	-241.667
185.72	1150.000
186.09	-750.000
186.47	-2700.000
186.85	1066.667
187.23	620.000
187.61	1900.000
187.98	550.000
188.36	285.714
188.74	358.333
189.12	375.000
189.49	875.000
189.87	0.000
190.25	425.000
190.63	2200.000
191.00	-225.000
191.38	-2600.000
191.76	-525.000
192.14	550.000
192.51	-2500.000
192.89	1700.000
193.27	1166.667
193.65	-1100.000
194.02	-860.000
194.40	571.429
194.78	-178.571
195.15	233.333
195.53	-3300.000
195.91	-660.000
196.29	3200.000
196.66	237.500
197.04	775.000
197.42	-1550.000
197.79	525.000
198.17	308.333
198.55	0.000
198.92	414.286
199.30	966.667
199.68	2100.000
200.05	600.000
200.43	-450.000
200.81	194.444
201.18	3700.000
201.56	233.333
201.94	-975.000
202.31	-200.000
202.69	-380.000
203.07	3200.000
203.44	-450.000
203.82	266.667
204.19	560.000
204.57	-900.000
204.95	-650.000
205.32	-680.000
205.70	766.667
206.08	750.000
206.45	-766.667
206.83	422.222
207.20	163.158
207.58	225.000
207.96	560.000
208.33	0.000
208.71	571.429
209.08	540.000
209.46	-3000.000
209.84	-750.000
210.21	820.000
210.59	-520.000
210.96	316.667
211.34	-900.000
211.71	445.455
212.09	875.000
212.46	1300.000
212.84	-316.667
213.22	455.556
213.59	-3000.000
213.97	350.000
214.34	975.000
214.72	1166.667
215.09	1100.000
215.47	-2900.000
215.84	-320.000
216.22	-462.500
216.59	0.000
216.97	0.000
217.34	1450.000
217.72	-1550.000
218.09	1133.333
218.47	412.500
218.84	900.000
219.22	1000.000
219.59	633.333
219.97	414.286
220.34	277.778
220.72	1650.000
221.09	3700.000
221.47	333.333
221.84	1166.667
222.22	260.000
222.59	200.000
222.97	235.714
223.34	256.250
223.72	-1400.000
224.09	1366.667
224.46	238.462
224.84	-675.000
225.21	355.556
225.59	280.000
225.96	1100.000
226.34	-600.000
226.71	-800.000
227.08	-500.000
227.46	0.000
227.83	-566.667
228.21	-1700.000
228.58	325.000
228.95	825.000
229.33	377.778
229.70	1075.000
230.08	353.846
230.45	3300.000
230.82	-900.000
231.20	-833.333
231.57	-1000.000
231.95	480.000
232.32	416.667
232.69	600.000
233.07	233.333
233.44	-1700.000
233.81	206.667
234.19	170.370
234.56	200.000
234.93	229.412
235.31	260.000
235.68	287.500
236.05	135.714
236.43	181.481
236.80	228.571
237.17	144.828
237.55	143.750
237.92	122.500
238.29	93.939
238.67	121.875
239.04	100.000
239.41	112.500
239.79	105.000
240.16	85.417
240.53	91.803
240.91	88.406
241.28	94.915
241.65	60.606
242.02	90.141
242.40	95.714
242.77	64.835
243.14	72.152
243.51	71.717
243.89	53.271
244.26	69.159
244.63	61.386
245.00	50.459
245.38	55.085
245.75	63.636
246.12	56.296
246.49	54.610
246.87	54.098
247.24	58.000
247.61	57.500
247.98	63.265
248.36	51.515
248.73	54.082
249.10	51.190
249.47	51.500
249.84	48.259
250.22	60.000
250.59	48.500
250.96	50.211
251.33	51.628
251.70	50.446
252.08	52.941
252.45	46.614
252.82	46.008
253.19	45.455
253.56	50.769
253.94	44.203
254.31	50.775
254.68	46.341
255.05	47.931
255.42	45.985
255.79	48.208
256.16	49.492
256.54	46.104
256.91	45.752
257.28	46.823
257.65	43.887
258.02	46.903
258.39	46.991
258.76	44.058
259.14	41.429
259.51	45.481
259.88	48.328
260.25	44.505
260.62	40.548
260.99	41.873
261.36	44.847
261.73	44.947
262.10	49.476
262.47	38.500
262.85	40.533
263.22	44.216
263.59	45.524
263.96	42.105
264.33	42.963
264.70	43.489
265.07	42.439
265.44	44.725
265.81	41.038
266.18	43.249
266.55	46.099
266.92	39.150
267.29	42.325
267.66	42.601
268.03	41.704
268.40	41.860
268.77	42.291
269.14	40.130
269.51	40.757
269.88	41.224
270.25	39.525
270.62	40.987
270.99	43.205
271.36	40.650
271.73	39.832
272.10	38.788
272.47	39.683
272.84	40.519
273.21	40.289
273.58	41.093
273.95	41.889
274.32	44.553
274.69	42.520
275.06	41.894
275.43	40.613
275.80	40.755
276.17	39.890
276.54	39.626
276.91	43.657
277.28	39.234
277.65	40.775
278.02	41.176
278.39	39.748
278.76	42.759
279.13	40.214
279.50	40.909
279.87	40.223
280.23	40.331
280.60	41.606
280.97	40.690
281.34	39.934
281.71	39.652
282.08	39.658
282.45	40.541
282.82	39.967
283.19	39.428
283.56	38.512
283.92	41.368
284.29	39.601
284.66	38.487
285.03	39.138
285.40	40.661
285.77	37.963
286.14	41.176
286.51	39.877
286.87	37.975
287.24	37.087
287.61	37.538
287.98	37.164
288.35	38.519
288.72	37.936
289.08	38.138
289.45	37.805
289.82	38.125
290.19	36.896
290.56	37.118
290.93	38.417
291.29	35.497
291.66	37.429
292.03	34.923
292.40	37.398
292.77	35.655
293.13	37.946
293.50	34.818
293.87	34.417
294.24	36.503
294.60	35.666
294.97	38.042
295.34	37.185
295.71	37.057
296.08	36.400
296.44	35.959
296.81	36.104
297.18	34.728
297.55	36.823
297.91	34.360
298.28	35.145
298.65	32.761
299.02	35.103
299.38	34.772
299.75	34.756
300.12	34.060
300.48	34.895
300.85	35.638
301.22	34.419
301.59	32.901
301.95	35.823
302.32	35.157
302.69	36.199
303.05	36.813
303.42	33.744
303.79	35.645
304.15	35.754
304.52	35.201
304.89	35.501
305.25	36.485
305.62	34.435
305.99	35.435
306.35	35.263
306.72	36.004
307.09	35.404
307.45	34.952
307.82	35.082
308.19	34.845
308.55	33.600
308.92	34.740
309.29	37.081
309.65	35.877
310.02	36.308
310.38	35.294
310.75	35.583
311.12	36.877
311.48	36.873
311.85	37.977
312.22	37.727
312.58	36.540
312.95	38.155
313.31	39.419
313.68	37.242
314.05	37.363
314.41	39.199
314.78	39.110
315.14	40.853
315.51	40.492
315.87	37.591
316.24	39.683
316.61	38.944
316.97	39.908
317.34	39.623
317.70	41.001
318.07	41.637
318.43	41.301
318.80	41.681
319.16	40.472
319.53	40.885
319.89	41.756
320.26	44.600
320.62	42.674
320.99	43.565
321.35	42.857
321.72	43.833
322.08	45.891
322.45	44.414
322.81	44.739
323.18	44.405
323.54	44.338
323.91	47.597
324.27	44.739
324.64	45.156
325.00	45.690
325.37	46.037
325.73	46.459
326.10	46.976
326.46	47.234
326.83	47.440
327.19	48.514
327.56	48.323
327.92	49.344
328.29	49.345
328.65	49.401
329.01	48.760
329.38	49.492
329.74	47.652
330.11	49.609
330.47	50.043
330.84	47.714
331.20	47.716
331.56	49.396
331.93	51.069
332.29	48.724
332.66	49.575
333.02	49.399
333.38	50.087
333.75	49.625
334.11	49.077
334.48	49.231
334.84	48.311
335.20	48.845
335.57	49.622
335.93	48.528
336.29	47.927
336.66	49.142
337.02	47.476
337.38	49.441
337.75	46.453
338.11	48.523
338.47	48.857
338.84	48.857
339.20	48.485
339.56	47.603
339.93	47.993
340.29	47.227
340.65	47.946
341.02	48.512
341.38	47.783
341.74	49.419
342.11	47.496
342.47	47.744
342.83	49.221
343.20	47.615
343.56	45.671
343.92	47.894
344.28	47.847
344.65	47.840
345.01	46.984
345.37	46.795
345.73	46.667
346.10	47.012
346.46	49.203
346.82	46.759
347.19	47.063
347.55	46.526
347.91	45.393
348.27	45.856
348.63	47.864
349.00	46.078
349.36	46.459
349.72	48.471
350.08	47.283
350.45	46.382
350.81	46.560
351.17	46.148
351.53	46.728
351.89	45.377
352.26	47.695
352.62	46.305
352.98	46.549
353.34	48.074
353.70	46.789
354.07	47.692
354.43	46.390
354.79	45.786
355.15	47.626
355.51	46.073
355.87	46.837
356.24	49.115
356.60	46.347
356.96	46.550
357.32	47.702
357.68	47.430
358.04	47.644
358.40	46.102
358.77	48.460
359.13	46.772
359.49	45.738
359.85	48.027
360.21	46.360
360.57	46.642
360.93	47.330
361.29	46.320
361.66	46.383
362.02	45.313
362.38	46.537
362.74	48.125
363.10	46.844
363.46	46.409
363.82	46.283
364.18	47.297
364.54	47.210
364.90	46.653
365.26	46.912
365.62	47.030
365.98	46.318
366.35	46.897
366.71	46.912
367.07	46.143
367.43	46.004
367.79	46.343
368.15	46.201
368.51	46.520
368.87	46.332
369.23	45.530
369.59	46.055
369.95	47.762
370.31	46.543
370.67	46.704
371.03	47.689
371.39	47.438
371.75	45.848
372.11	46.499
372.47	47.671
372.83	46.975
373.19	47.430
373.55	46.598
373.91	46.823
374.27	45.966
374.63	47.322
374.99	46.631
375.35	47.581
375.71	46.438
376.07	46.817
376.42	45.716
376.78	47.142
377.14	47.182
377.50	46.192
377.86	46.829
378.22	46.740
378.58	47.518
378.94	47.616
379.30	46.695
379.66	47.742
380.02	47.566
380.38	47.073
380.74	47.636
381.09	46.612
381.45	46.012
381.81	47.695
382.17	46.520
382.53	46.011
382.89	45.653
383.25	46.477
383.61	46.916
383.97	45.891
384.32	47.498
384.68	47.178
385.04	46.600
385.40	46.263
385.76	46.050
386.12	46.877
386.48	46.809
386.83	47.127
387.19	47.703
387.55	46.584
387.91	47.229
388.27	46.758
388.62	47.007
388.98	45.889
389.34	44.914
389.70	45.696
390.06	46.768
390.42	45.651
390.77	45.885
391.13	47.194
391.49	46.279
391.85	47.754
392.20	45.650
392.56	46.117
392.92	46.154
393.28	46.132
393.64	45.413
393.99	45.465
394.35	44.968
394.71	45.657
395.07	45.560
395.42	46.077
395.78	45.898
396.14	46.446
396.50	44.826
396.85	45.183
397.21	46.450
397.57	46.444
397.92	44.252
398.28	45.505
398.64	46.248
399.00	43.506
399.35	45.250
399.71	45.309
400.07	44.406
400.42	45.313
400.78	44.809
401.14	45.156
401.49	43.952
401.85	44.959
402.21	44.815
402.57	45.542
402.92	44.182
403.28	43.974
403.63	44.556
403.99	43.426
404.35	45.076
404.70	44.832
405.06	44.413
405.42	44.345
405.77	43.881
406.13	44.360
406.49	44.002
406.84	43.542
407.20	44.863
407.55	43.938
407.91	44.225
408.27	43.481
408.62	44.116
408.98	43.998
409.34	42.957
409.69	43.435
410.05	43.292
410.40	42.344
410.76	41.900
411.11	42.595
411.47	43.025
411.83	43.117
412.18	42.633
412.54	42.402
412.89	42.596
413.25	42.075
413.60	42.056
413.96	43.567
414.31	41.913
414.67	43.575
415.03	42.529
415.38	42.524
415.74	43.083
416.09	42.536
416.45	42.986
416.80	42.271
417.16	41.948
417.51	42.994
417.87	42.303
418.22	41.252
418.58	42.739
418.93	42.475
419.29	40.974
419.64	42.338
420.00	43.019
420.35	42.044
420.71	42.124
421.06	42.319
421.42	41.739
421.77	42.143
422.12	42.448
422.48	41.859
422.83	42.467
423.19	42.711
423.54	42.567
423.90	43.035
424.25	42.763
424.61	43.064
424.96	42.970
425.31	41.708
425.67	42.424
426.02	42.288
426.38	41.365
426.73	43.204
427.09	43.120
427.44	42.093
427.79	42.367
428.15	42.074
428.50	43.143
428.85	42.328
429.21	42.734
429.56	41.226
429.92	42.019
430.27	41.413
430.62	41.018
430.98	41.168
431.33	41.734
431.68	41.383
432.04	42.266
432.39	42.151
432.74	41.979
433.10	41.971
433.45	42.964
433.80	42.030
434.16	43.037
434.51	42.570
434.86	42.950
435.22	42.572
435.57	42.739
435.92	43.597
436.28	43.433
436.63	43.112
436.98	43.187
437.34	42.694
437.69	42.385
438.04	42.634
438.39	43.316
438.75	42.428
439.10	43.119
439.45	41.662
439.81	43.088
440.16	43.919
440.51	43.637
440.86	43.989
441.22	43.723
441.57	43.412
441.92	42.547
442.27	42.268
442.63	42.886
442.98	43.481
443.33	43.706
443.68	43.109
444.03	42.648
444.39	43.503
444.74	43.478
445.09	43.813
445.44	43.092
445.79	43.226
446.15	42.789
446.50	43.460
446.85	43.127
447.20	42.488
447.55	42.795
447.91	43.420
448.26	43.024
448.61	43.118
448.96	43.301
449.31	42.904
449.66	43.965
450.02	42.788
450.37	43.476
450.72	42.975
451.07	42.990
451.42	43.331
451.77	42.841
452.12	42.825
452.47	43.439
452.83	44.056
453.18	43.664
453.53	43.872
453.88	43.143
454.23	43.579
454.58	42.832
454.93	42.428
455.28	42.962
455.63	43.972
455.98	42.132
456.34	42.857
456.69	43.659
457.04	42.601
457.39	43.429
457.74	43.919
458.09	43.290
458.44	42.059
458.79	42.069
459.14	41.244
459.49	41.959
459.84	43.967
460.19	42.260
460.54	42.165
460.89	43.177
461.24	41.810
461.59	42.177
461.94	42.849
462.29	43.535
462.64	42.085
462.99	41.715
463.34	43.681
463.69	42.710
464.04	44.444
464.39	42.816
464.74	41.442
465.09	42.078
465.44	41.839
465.79	41.154
466.14	40.806
466.49	42.322
466.84	41.862
467.19	41.945
467.54	40.961
467.89	41.901
468.24	41.401
468.59	40.476
468.94	41.969
469.29	41.539
469.64	41.929
469.99	41.710
470.34	41.493
470.68	41.448
471.03	41.694
471.38	41.192
471.73	40.170
472.08	41.357
472.43	41.899
472.78	42.510
473.13	39.737
473.48	41.687
473.83	40.459
474.17	41.277
474.52	41.765
474.87	40.421
475.22	40.206
475.57	41.343
475.92	41.134
476.27	40.261
476.61	40.268
476.96	40.282
477.31	41.080
477.66	41.116
478.01	39.763
478.36	40.268
478.70	39.553
479.05	40.167
479.40	40.278
479.75	41.360
480.10	40.803
480.45	40.149
480.79	39.677
481.14	40.514
481.49	38.930
481.84	40.325
482.19	40.000
482.53	40.097
482.88	39.471
483.23	39.242
483.58	40.440
483.92	40.905
484.27	39.341
484.62	40.407
484.97	39.891
485.31	39.065
485.66	39.404
486.01	39.528
486.36	39.786
486.70	39.208
487.05	38.497
487.40	37.844
487.75	38.096
488.09	37.898
488.44	38.305
488.79	38.181
489.13	39.567
489.48	39.113
489.83	38.032
490.17	37.696
490.52	38.760
490.87	37.586
491.22	38.209
491.56	38.955
491.91	37.724
492.26	38.708
492.60	38.314
492.95	37.970
493.30	38.672
493.64	39.488
493.99	37.835
494.34	38.593
494.68	38.203
495.03	38.797
495.37	38.361
495.72	38.788
496.07	37.960
496.41	37.706
496.76	38.624
497.11	38.003
497.45	38.580
497.80	38.044
498.14	37.402
498.49	37.744
498.84	37.477
499.18	37.340
499.53	37.712
499.87	37.736
500.22	37.771
500.56	37.047
500.91	38.080
501.26	37.253
501.60	37.386
501.95	36.649
502.29	37.289
502.64	35.951
502.98	36.683
503.33	37.283
503.67	37.174
504.02	37.573
504.36	36.878
504.71	37.606
505.06	36.368
505.40	37.061
505.75	36.249
506.09	37.144
506.44	36.889
506.78	37.524
507.13	36.791
507.47	36.778
507.82	37.372
508.16	37.139
508.51	36.763
508.85	36.990
509.19	37.249
509.54	37.109
509.88	36.748
510.23	35.931
510.57	35.763
510.92	36.064
511.26	38.203
511.61	35.894
511.95	35.441
512.30	36.250
512.64	37.072
512.98	36.955
513.33	35.400
513.67	35.629
514.02	36.987
514.36	35.514
514.70	36.107
515.05	35.003
515.39	36.568
515.74	36.468
516.08	35.839
516.42	37.650
516.77	35.733
517.11	36.907
517.46	36.638
517.80	36.155
518.14	37.239
518.49	36.218
518.83	34.725
519.17	36.106
519.52	37.684
519.86	35.967
520.20	35.616
520.55	35.387
520.89	35.287
521.23	35.689
521.58	34.940
521.92	35.743
522.26	35.367
522.61	35.829
522.95	36.577
523.29	35.965
523.64	35.087
523.98	35.153
524.32	35.236
524.66	34.319
525.01	35.325
525.35	34.590
525.69	35.220
526.04	35.098
526.38	35.609
526.72	34.845
527.06	35.245
527.41	35.611
527.75	35.971
528.09	34.256
528.43	35.570
528.78	35.182
529.12	36.303
529.46	35.126
529.80	35.397
530.15	35.415
530.49	33.514
530.83	34.126
531.17	34.932
531.51	34.457
531.86	34.481
532.20	33.436
532.54	34.589
532.88	35.665
533.22	35.466
533.57	34.228
533.91	33.625
534.25	33.756
534.59	34.444
534.93	33.845
535.27	32.954
535.62	33.547
535.96	34.161
536.30	34.491
536.64	34.348
536.98	33.606
537.32	34.250
537.66	34.821
538.01	33.498
538.35	34.186
538.69	33.677
539.03	33.147
539.37	33.738
539.71	33.086
540.05	32.923
540.39	33.899
540.73	33.228
541.07	33.124
541.42	34.888
541.76	33.600
542.10	33.600
542.44	34.165
542.78	33.040
543.12	32.331
543.46	33.521
543.80	33.145
544.14	32.755
544.48	34.185
544.82	33.211
545.16	33.030
545.50	33.682
545.84	33.586
546.18	34.330
546.52	33.443
546.86	33.398
547.20	32.106
547.54	32.489
547.88	33.577
548.22	33.758
548.56	33.235
548.90	32.681
549.24	32.344
549.58	32.474
549.92	32.875
550.26	33.807
550.60	32.934
550.94	33.446
551.28	33.862
551.62	33.448
551.96	31.892
552.30	32.894
552.64	33.592
552.98	32.796
553.32	31.434
553.66	32.182
554.00	31.918
554.34	32.290
554.68	32.930
555.02	32.043
555.36	32.181
555.69	33.050
556.03	32.420
556.37	33.270
556.71	33.442
557.05	31.389
557.39	32.333
557.73	33.288
558.07	32.059
558.41	32.899
558.75	32.763
559.08	32.738
559.42	33.214
559.76	33.001
560.10	32.485
560.44	31.586
560.78	32.289
561.12	32.867
561.45	31.977
561.79	32.772
562.13	31.459
562.47	31.862
562.81	31.100
563.15	31.028
563.48	30.373
563.82	33.001
564.16	32.090
564.50	31.766
564.84	31.915
565.17	31.788
565.51	32.451
565.85	33.128
566.19	30.655
566.52	32.551
566.86	32.166
567.20	31.517
567.54	32.424
567.88	32.134
568.21	31.103
568.55	32.053
568.89	31.797
569.23	31.191
569.56	31.749
569.90	31.549
570.24	31.652
570.57	32.382
570.91	31.232
571.25	31.524
571.59	31.275
571.92	31.432
572.26	30.809
572.60	30.603
572.93	31.972
573.27	31.361
573.61	31.240
573.95	30.926
574.28	31.217
574.62	31.160
574.96	30.990
575.29	30.858
575.63	30.530
575.97	30.307
576.30	30.575
576.64	30.406
576.98	31.066
577.31	31.176
577.65	31.424
577.98	30.883
578.32	30.524
578.66	31.124
578.99	31.550
579.33	31.168
579.67	30.695
580.00	30.131
580.34	30.376
580.67	30.783
581.01	30.985
581.35	30.531
581.68	30.832
582.02	31.494
582.35	31.052
582.69	31.290
583.02	30.731
583.36	30.669
583.70	30.689
584.03	30.599
584.37	30.641
584.70	30.779
585.04	30.478
585.37	30.478
585.71	31.528
586.04	30.658
586.38	30.668
586.72	30.682
587.05	30.494
587.39	30.695
587.72	30.934
588.06	30.867
588.39	31.218
588.73	31.163
589.06	30.639
589.40	31.268
589.73	30.515
590.07	30.851
590.40	30.976
590.73	32.207
591.07	31.423
591.40	31.218
591.74	30.722
592.07	30.033
592.41	30.296
592.74	30.282
593.08	29.980
593.41	30.162
593.75	30.512
594.08	31.198
594.41	30.238
594.75	30.411
595.08	30.727
595.42	30.612
595.75	30.701
596.09	31.074
596.42	30.444
596.75	31.170
597.09	31.077
597.42	29.878
597.75	30.629
598.09	30.447
598.42	30.804
598.76	30.185
599.09	31.114
599.42	30.104
599.76	30.902
600.09	30.305
600.42	30.801
600.76	30.150
601.09	30.652
601.42	30.517
601.76	30.433
602.09	30.611
602.42	30.240
602.76	30.285
603.09	30.618
603.42	30.128
603.76	29.899
604.09	30.366
604.42	29.341
604.76	30.344
605.09	30.286
605.42	29.744
605.75	29.886
606.09	30.298
606.42	30.552
606.75	30.470
607.09	29.886
607.42	29.892
607.75	29.896
608.08	29.448
608.42	30.327
608.75	30.039
609.08	30.048
609.41	30.000
609.75	30.220
610.08	29.721
610.41	29.513
610.74	30.000
611.07	30.650
611.41	30.399
611.74	29.876
612.07	29.528
612.40	30.068
612.73	30.205
613.07	29.904
613.40	30.276
613.73	30.404
614.06	28.550
614.39	29.798
614.72	28.980
615.06	29.179
615.39	29.307
615.72	28.896
616.05	29.884
616.38	29.173
616.71	28.812
617.05	29.105
617.38	29.382
617.71	29.978
618.04	28.772
618.37	29.572
618.70	29.965
619.03	29.060
619.36	29.899
619.69	28.430
620.03	30.528
620.36	29.480
620.69	30.013
621.02	30.027
621.35	29.155
621.68	28.392
622.01	28.487
622.34	29.133
622.67	29.635
623.00	29.612
623.33	28.947
623.66	28.876
623.99	28.425
624.32	29.878
624.65	29.164
624.99	29.074
625.32	29.125
625.65	28.759
625.98	28.103
626.31	30.193
626.64	28.929
626.97	28.309
627.30	29.193
627.63	29.592
627.96	27.934
628.29	29.455
628.62	28.571
628.95	28.989
629.28	29.623
629.61	28.471
629.94	27.831
630.26	29.376
630.59	28.635
630.92	28.969
631.25	29.102
