SpectraSuite Data File
++++++++++++++++++++++++++++++++++++
Date: Tue May 12 16:50:22 PDT 2015
User: schluterlab
Dark Spectrum Present: Yes
Reference Spectrum Present: Yes
Number of Sampled Component Spectra: 1
Spectrometers: USB2E3373
Integration Time (usec): 3000 (USB2E3373)
Spectra Averaged: 3 (USB2E3373)
Boxcar Smoothing: 0 (USB2E3373)
Correct for Electrical Dark: No (USB2E3373)
Strobe/Lamp Enabled: No (USB2E3373)
Correct for Detector Non-linearity: No (USB2E3373)
Correct for Stray Light: No (USB2E3373)
Number of Pixels in Processed Spectrum: 2048
>>>>>Begin Processed Spectral Data<<<<<
178.53	0.000
178.91	-225.000
179.29	-1100.000
179.67	-4100.000
180.04	-166.667
180.42	800.000
180.80	1200.000
181.18	0.000
181.56	-387.500
181.94	0.000
182.31	1333.333
182.69	-3300.000
183.07	528.571
183.45	-3900.000
183.83	-1700.000
184.20	320.000
184.58	514.286
184.96	-192.308
185.34	-241.667
185.72	1550.000
186.09	-550.000
186.47	-3800.000
186.85	1100.000
187.23	560.000
187.61	1950.000
187.98	475.000
188.36	285.714
188.74	408.333
189.12	350.000
189.49	925.000
189.87	0.000
190.25	537.500
190.63	3100.000
191.00	-191.667
191.38	-3800.000
191.76	-800.000
192.14	662.500
192.51	-2900.000
192.89	1550.000
193.27	933.333
193.65	-1433.333
194.02	-840.000
194.40	485.714
194.78	-178.571
195.15	273.333
195.53	-3000.000
195.91	-500.000
196.29	4800.000
196.66	325.000
197.04	900.000
197.42	-1650.000
197.79	725.000
198.17	358.333
198.55	0.000
198.92	628.571
199.30	1100.000
199.68	2200.000
200.05	733.333
200.43	-466.667
200.81	238.889
201.18	3700.000
201.56	291.667
201.94	-875.000
202.31	-262.500
202.69	-620.000
203.07	2700.000
203.44	-533.333
203.82	341.667
204.19	800.000
204.57	-1300.000
204.95	-875.000
205.32	-680.000
205.70	600.000
206.08	750.000
206.45	-1166.667
206.83	444.444
207.20	210.526
207.58	300.000
207.96	660.000
208.33	0.000
208.71	557.143
209.08	820.000
209.46	-2700.000
209.84	-700.000
210.21	980.000
210.59	-560.000
210.96	316.667
211.34	-900.000
211.71	427.273
212.09	850.000
212.46	1650.000
212.84	-316.667
213.22	566.667
213.59	-3100.000
213.97	320.000
214.34	950.000
214.72	1500.000
215.09	933.333
215.47	-3200.000
215.84	-330.000
216.22	-300.000
216.59	0.000
216.97	0.000
217.34	1600.000
217.72	-1800.000
218.09	1500.000
218.47	487.500
218.84	775.000
219.22	1166.667
219.59	1433.333
219.97	557.143
220.34	377.778
220.72	1650.000
221.09	3200.000
221.47	200.000
221.84	833.333
222.22	350.000
222.59	294.444
222.97	221.429
223.34	231.250
223.72	-1350.000
224.09	1300.000
224.46	300.000
224.84	-900.000
225.21	377.778
225.59	293.333
225.96	1366.667
226.34	-740.000
226.71	-800.000
227.08	-500.000
227.46	0.000
227.83	-666.667
228.21	-1500.000
228.58	366.667
228.95	1000.000
229.33	400.000
229.70	1100.000
230.08	438.462
230.45	3900.000
230.82	-825.000
231.20	-966.667
231.57	-1166.667
231.95	660.000
232.32	283.333
232.69	500.000
233.07	316.667
233.44	-1550.000
233.81	293.333
234.19	181.481
234.56	256.250
234.93	217.647
235.31	170.000
235.68	225.000
236.05	178.571
236.43	177.778
236.80	285.714
237.17	172.414
237.55	109.375
237.92	92.500
238.29	139.394
238.67	131.250
239.04	100.000
239.41	87.500
239.79	120.000
240.16	95.833
240.53	68.852
240.91	81.159
241.28	96.610
241.65	66.667
242.02	70.423
242.40	70.000
242.77	61.538
243.14	62.025
243.51	70.707
243.89	48.598
244.26	54.206
244.63	59.406
245.00	55.046
245.38	36.441
245.75	46.970
246.12	54.074
246.49	51.064
246.87	36.885
247.24	44.667
247.61	50.000
247.98	42.857
248.36	38.788
248.73	43.878
249.10	40.476
249.47	39.000
249.84	38.308
250.22	40.541
250.59	40.000
250.96	35.443
251.33	35.814
251.70	37.500
252.08	34.874
252.45	35.857
252.82	36.502
253.19	33.202
253.56	35.000
253.94	35.145
254.31	37.984
254.68	32.753
255.05	36.207
255.42	36.131
255.79	32.573
256.16	34.576
256.54	29.545
256.91	33.660
257.28	34.448
257.65	30.721
258.02	30.088
258.39	33.238
258.76	32.464
259.14	26.286
259.51	30.904
259.88	31.307
260.25	24.725
260.62	32.055
260.99	27.273
261.36	28.412
261.73	28.723
262.10	30.628
262.47	30.250
262.85	30.667
263.22	30.334
263.59	30.179
263.96	29.323
264.33	27.901
264.70	28.747
265.07	31.463
265.44	28.670
265.81	28.538
266.18	31.350
266.55	25.296
266.92	28.635
267.29	29.605
267.66	29.596
268.03	27.354
268.40	27.061
268.77	31.278
269.14	26.464
269.51	29.176
269.88	28.571
270.25	26.782
270.62	27.682
270.99	29.615
271.36	26.829
271.73	27.254
272.10	27.879
272.47	27.778
272.84	27.345
273.21	27.893
273.58	28.340
273.95	27.105
274.32	27.626
274.69	28.740
275.06	28.233
275.43	26.054
275.80	28.868
276.17	26.838
276.54	26.542
276.91	30.410
277.28	26.460
277.65	27.675
278.02	25.000
278.39	24.820
278.76	25.172
279.13	25.979
279.50	25.636
279.87	24.767
280.23	24.862
280.60	26.825
280.97	25.172
281.34	24.092
281.71	25.913
282.08	24.615
282.45	23.311
282.82	25.251
283.19	27.186
283.56	24.793
283.92	25.733
284.29	25.458
284.66	24.202
285.03	26.202
285.40	25.950
285.77	25.463
286.14	25.542
286.51	24.540
286.87	21.994
287.24	22.823
287.61	22.492
287.98	23.881
288.35	23.704
288.72	23.065
289.08	24.024
289.45	23.628
289.82	27.187
290.19	22.840
290.56	23.435
290.93	23.453
291.29	22.514
291.66	21.893
292.03	23.983
292.40	23.442
292.77	22.284
293.13	24.108
293.50	22.402
293.87	22.900
294.24	22.378
294.60	23.957
294.97	23.636
295.34	23.108
295.71	23.916
296.08	22.533
296.44	23.126
296.81	23.821
297.18	21.420
297.55	23.399
297.91	21.059
298.28	22.705
298.65	22.454
299.02	21.472
299.38	22.902
299.75	21.341
300.12	22.821
300.48	24.356
300.85	24.076
301.22	22.442
301.59	20.991
301.95	22.404
302.32	22.934
302.69	22.851
303.05	25.589
303.42	21.637
303.79	22.860
304.15	23.212
304.52	23.467
304.89	25.586
305.25	24.138
305.62	23.241
305.99	24.239
306.35	23.158
306.72	23.413
307.09	23.913
307.45	24.287
307.82	23.148
308.19	23.814
308.55	23.400
308.92	25.810
309.29	26.529
309.65	25.570
310.02	25.862
310.38	25.523
310.75	26.519
311.12	26.724
311.48	27.317
311.85	26.527
312.22	26.743
312.58	27.017
312.95	27.961
313.31	28.933
313.68	28.049
314.05	29.396
314.41	28.771
314.78	29.735
315.14	28.910
315.51	29.612
315.87	29.380
316.24	30.065
316.61	29.902
316.97	30.367
317.34	32.165
317.70	31.782
318.07	34.786
318.43	33.216
318.80	33.538
319.16	34.178
319.53	33.274
319.89	34.767
320.26	37.244
320.62	35.073
320.99	37.083
321.35	35.807
321.72	37.761
322.08	37.488
322.45	37.421
322.81	37.969
323.18	39.076
323.54	40.418
323.91	40.707
324.27	40.053
324.64	41.349
325.00	42.155
325.37	41.821
325.73	43.002
326.10	43.911
326.46	43.435
326.83	44.000
327.19	44.498
327.56	44.888
327.92	45.410
328.29	46.399
328.65	46.832
329.01	45.081
329.38	46.193
329.74	47.225
330.11	47.785
330.47	47.656
330.84	47.023
331.20	45.939
331.56	48.532
331.93	48.246
332.29	45.238
332.66	47.959
333.02	46.478
333.38	46.946
333.75	48.624
334.11	46.728
334.48	47.436
334.84	46.537
335.20	47.220
335.57	47.355
335.93	48.949
336.29	48.093
336.66	47.513
337.02	48.845
337.38	47.635
337.75	47.466
338.11	48.692
338.47	48.349
338.84	47.248
339.20	47.446
339.56	45.669
339.93	46.572
340.29	45.210
340.65	47.108
341.02	45.776
341.38	46.305
341.74	47.841
342.11	46.494
342.47	46.021
342.83	47.662
343.20	46.888
343.56	46.307
343.92	46.491
344.28	45.614
344.65	48.737
345.01	46.270
345.37	47.356
345.73	46.508
346.10	46.056
346.46	46.491
346.82	45.756
347.19	46.522
347.55	45.121
347.91	44.411
348.27	45.081
348.63	46.835
349.00	45.545
349.36	45.214
349.72	46.254
350.08	45.031
350.45	45.468
350.81	45.413
351.17	45.146
351.53	45.804
351.89	45.843
352.26	44.596
352.62	44.193
352.98	46.702
353.34	46.533
353.70	44.801
354.07	46.923
354.43	45.929
354.79	43.888
355.15	45.636
355.51	45.468
355.87	44.804
356.24	43.957
356.60	44.368
356.96	43.973
357.32	45.064
357.68	45.081
358.04	44.453
358.40	43.403
358.77	44.703
359.13	44.294
359.49	43.736
359.85	45.570
360.21	43.982
360.57	43.504
360.93	44.228
361.29	44.661
361.66	44.966
362.02	43.537
362.38	45.382
362.74	43.595
363.10	44.250
363.46	43.992
363.82	44.109
364.18	43.457
364.54	43.419
364.90	44.712
365.26	45.593
365.62	43.577
365.98	43.290
366.35	43.724
366.71	43.026
367.07	43.959
367.43	44.191
367.79	43.152
368.15	42.537
368.51	43.418
368.87	42.867
369.23	43.590
369.59	42.819
369.95	43.217
370.31	43.669
370.67	42.124
371.03	43.347
371.39	42.244
371.75	42.917
372.11	43.508
372.47	44.726
372.83	43.440
373.19	44.140
373.55	43.299
373.91	43.025
374.27	43.519
374.63	42.915
374.99	44.542
375.35	43.481
375.71	44.525
376.07	43.302
376.42	42.839
376.78	44.252
377.14	43.119
377.50	43.071
377.86	42.537
378.22	43.998
378.58	43.402
378.94	43.150
379.30	42.571
379.66	43.046
380.02	43.226
380.38	42.564
380.74	42.734
381.09	42.874
381.45	40.694
381.81	41.785
382.17	41.697
382.53	42.172
382.89	42.283
383.25	41.918
383.61	41.556
383.97	41.752
384.32	42.194
384.68	42.484
385.04	42.380
385.40	42.645
385.76	41.662
386.12	41.806
386.48	42.796
386.83	41.320
387.19	40.872
387.55	41.637
387.91	41.224
388.27	42.177
388.62	42.254
388.98	41.224
389.34	41.285
389.70	40.743
390.06	41.524
390.42	41.579
390.77	42.138
391.13	41.340
391.49	41.016
391.85	41.662
392.20	41.061
392.56	41.039
392.92	40.595
393.28	40.807
393.64	40.826
393.99	41.849
394.35	40.377
394.71	40.169
395.07	40.633
395.42	40.867
395.78	41.147
396.14	42.470
396.50	41.697
396.85	40.427
397.21	40.313
397.57	39.988
397.92	39.457
398.28	39.493
398.64	40.954
399.00	39.551
399.35	39.882
399.71	38.631
400.07	40.183
400.42	40.239
400.78	40.997
401.14	41.398
401.49	39.459
401.85	39.340
402.21	39.016
402.57	40.814
402.92	40.061
403.28	38.902
403.63	39.317
403.99	39.264
404.35	39.742
404.70	41.583
405.06	39.921
405.42	39.916
405.77	38.754
406.13	39.534
406.49	38.431
406.84	38.184
407.20	38.870
407.55	38.338
407.91	40.013
408.27	38.629
408.62	39.148
408.98	39.562
409.34	37.989
409.69	38.146
410.05	37.686
410.40	38.810
410.76	38.580
411.11	38.270
411.47	38.457
411.83	37.200
412.18	38.345
412.54	38.378
412.89	38.466
413.25	37.799
413.60	37.617
413.96	37.822
414.31	37.839
414.67	39.789
415.03	39.591
415.38	39.243
415.74	39.040
416.09	38.601
416.45	39.173
416.80	40.026
417.16	38.001
417.51	39.873
417.87	38.861
418.22	39.186
418.58	39.045
418.93	37.775
419.29	37.708
419.64	38.159
420.00	38.663
420.35	39.315
420.71	38.856
421.06	39.200
421.42	38.687
421.77	38.312
422.12	39.195
422.48	37.545
422.83	38.337
423.19	38.391
423.54	37.795
423.90	38.732
424.25	38.525
424.61	39.002
424.96	38.848
425.31	39.901
425.67	40.123
426.02	38.811
426.38	38.448
426.73	39.271
427.09	39.087
427.44	39.561
427.79	39.565
428.15	39.776
428.50	40.571
428.85	38.742
429.21	39.762
429.56	39.282
429.92	39.682
430.27	38.994
430.62	38.473
430.98	38.772
431.33	39.516
431.68	38.914
432.04	39.783
432.39	40.231
432.74	40.515
433.10	40.144
433.45	40.264
433.80	40.982
434.16	39.359
434.51	40.041
434.86	41.263
435.22	40.249
435.57	41.375
435.92	40.751
436.28	41.187
436.63	40.573
436.98	40.878
437.34	41.210
437.69	40.761
438.04	40.699
438.39	42.265
438.75	41.203
439.10	40.745
439.45	40.927
439.81	41.816
440.16	40.892
440.51	41.216
440.86	41.140
441.22	40.801
441.57	41.890
441.92	40.375
442.27	41.340
442.63	41.717
442.98	40.787
443.33	41.189
443.68	41.751
444.03	41.046
444.39	41.620
444.74	41.046
445.09	40.548
445.44	41.711
445.79	41.959
446.15	42.368
446.50	41.930
446.85	41.434
447.20	40.597
447.55	41.544
447.91	42.355
448.26	41.906
448.61	42.454
448.96	42.102
449.31	42.739
449.66	43.522
450.02	42.085
450.37	43.920
450.72	43.526
451.07	43.805
451.42	42.561
451.77	43.757
452.12	43.676
452.47	43.864
452.83	43.268
453.18	43.063
453.53	44.050
453.88	44.514
454.23	43.812
454.58	43.823
454.93	42.735
455.28	42.656
455.63	44.504
455.98	43.655
456.34	43.587
456.69	42.866
457.04	43.496
457.39	43.714
457.74	43.468
458.09	42.841
458.44	43.538
458.79	44.244
459.14	43.153
459.49	44.224
459.84	43.533
460.19	43.277
460.54	44.103
460.89	42.857
461.24	42.898
461.59	44.218
461.94	43.972
462.29	44.279
462.64	44.347
462.99	44.786
463.34	44.459
463.69	43.799
464.04	44.157
464.39	43.789
464.74	43.611
465.09	43.471
465.44	43.417
465.79	42.842
466.14	43.190
466.49	43.245
466.84	43.757
467.19	43.878
467.54	43.544
467.89	44.014
468.24	44.470
468.59	43.393
468.94	45.290
469.29	43.800
469.64	44.759
469.99	43.573
470.34	44.213
470.68	42.966
471.03	44.630
471.38	44.106
471.73	44.154
472.08	46.380
472.43	45.748
472.78	44.622
473.13	43.617
473.48	44.621
473.83	43.168
474.17	43.526
474.52	43.543
474.87	42.467
475.22	45.745
475.57	43.022
475.92	43.332
476.27	43.362
476.61	43.861
476.96	43.678
477.31	44.936
477.66	46.055
478.01	43.167
478.36	43.769
478.70	43.970
479.05	44.038
479.40	43.651
479.75	44.042
480.10	44.966
480.45	43.091
480.79	43.779
481.14	43.842
481.49	44.190
481.84	43.096
482.19	43.537
482.53	43.215
482.88	43.996
483.23	43.347
483.58	43.627
483.92	44.607
484.27	43.236
484.62	43.846
484.97	42.306
485.31	42.972
485.66	41.170
486.01	40.848
486.36	40.283
486.70	40.161
487.05	40.000
487.40	40.907
487.75	40.923
488.09	41.705
488.44	42.192
488.79	41.965
489.13	42.441
489.48	43.907
489.83	42.952
490.17	43.187
490.52	43.497
490.87	43.233
491.22	44.548
491.56	43.830
491.91	43.772
492.26	43.653
492.60	44.191
492.95	43.407
493.30	43.403
493.64	43.531
493.99	43.381
494.34	43.747
494.68	44.444
495.03	43.467
495.37	43.674
495.72	43.730
496.07	43.531
496.41	43.267
496.76	43.309
497.11	44.002
497.45	42.481
497.80	43.605
498.14	44.198
498.49	44.058
498.84	43.785
499.18	43.464
499.53	43.225
499.87	44.070
500.22	44.956
500.56	43.918
500.91	43.924
501.26	44.603
501.60	44.126
501.95	42.608
502.29	43.733
502.64	43.494
502.98	43.308
503.33	44.009
503.67	44.194
504.02	42.275
504.36	42.851
504.71	44.939
505.06	44.252
505.40	42.723
505.75	43.452
506.09	43.397
506.44	43.468
506.78	43.006
507.13	44.111
507.47	43.765
507.82	43.990
508.16	43.802
508.51	43.865
508.85	43.305
509.19	43.319
509.54	43.506
509.88	44.505
510.23	43.529
510.57	42.857
510.92	44.356
511.26	43.725
511.61	44.018
511.95	43.355
512.30	44.350
512.64	43.873
512.98	43.209
513.33	43.391
513.67	43.397
514.02	44.571
514.36	43.510
514.70	44.160
515.05	43.847
515.39	44.298
515.74	44.779
516.08	44.444
516.42	45.464
516.77	44.053
517.11	44.213
517.46	43.319
517.80	43.200
518.14	45.239
518.49	44.542
518.83	44.945
519.17	45.923
519.52	44.457
519.86	44.578
520.20	44.986
520.55	44.262
520.89	44.253
521.23	44.743
521.58	44.005
521.92	44.431
522.26	44.846
522.61	45.455
522.95	46.126
523.29	44.561
523.64	43.988
523.98	44.249
524.32	43.714
524.66	43.478
525.01	44.556
525.35	44.372
525.69	43.949
526.04	44.200
526.38	45.026
526.72	43.258
527.06	43.347
527.41	43.954
527.75	44.614
528.09	43.709
528.43	43.380
528.78	44.902
529.12	45.154
529.46	43.074
529.80	43.224
530.15	44.019
530.49	43.502
530.83	44.668
531.17	43.973
531.51	42.857
531.86	43.297
532.20	44.005
532.54	44.319
532.88	43.161
533.22	43.205
533.57	44.356
533.91	42.774
534.25	42.239
534.59	44.269
534.93	41.638
535.27	40.979
535.62	43.582
535.96	42.553
536.30	43.327
536.64	42.857
536.98	42.920
537.32	42.188
537.66	42.985
538.01	44.211
538.35	43.294
538.69	43.629
539.03	42.102
539.37	42.536
539.71	43.210
540.05	41.846
540.39	43.019
540.73	42.722
541.07	42.284
541.42	43.843
541.76	43.095
542.10	43.218
542.44	43.142
542.78	43.109
543.12	42.822
543.46	42.607
543.80	43.672
544.14	42.229
544.48	42.457
544.82	43.547
545.16	42.987
545.50	43.024
545.84	43.119
546.18	44.148
546.52	43.803
546.86	42.876
547.20	42.119
547.54	42.495
547.88	40.937
548.22	42.562
548.56	41.956
548.90	41.340
549.24	43.083
549.58	42.268
549.92	42.371
550.26	42.055
550.60	42.582
550.94	43.080
551.28	42.414
551.62	43.517
551.96	42.905
552.30	41.002
552.64	42.589
552.98	41.688
553.32	41.165
553.66	41.824
554.00	41.763
554.34	42.610
554.68	42.137
555.02	43.856
555.36	40.426
555.69	42.016
556.03	41.401
556.37	41.746
556.71	43.416
557.05	40.826
557.39	41.400
557.73	42.251
558.07	42.186
558.41	41.741
558.75	41.929
559.08	43.174
559.42	43.164
559.76	43.193
560.10	42.120
560.44	41.009
560.78	41.176
561.12	41.322
561.45	40.801
561.79	41.948
562.13	40.303
562.47	40.169
562.81	42.095
563.15	40.918
563.48	40.745
563.82	41.672
564.16	42.475
564.50	40.205
564.84	40.182
565.17	39.156
565.51	42.488
565.85	41.641
566.19	40.238
566.52	40.253
566.86	40.105
567.20	39.663
567.54	39.465
567.88	40.689
568.21	39.041
568.55	39.591
568.89	38.960
569.23	38.438
569.56	38.339
569.90	37.442
570.24	36.593
570.57	37.443
570.91	36.225
571.25	37.218
571.59	35.251
571.92	35.307
572.26	34.960
572.60	35.629
572.93	35.739
573.27	35.784
573.61	36.004
573.95	35.309
574.28	35.579
574.62	34.746
574.96	35.149
575.29	34.684
575.63	34.982
575.97	34.713
576.30	35.004
576.64	34.931
576.98	35.059
577.31	34.670
577.65	34.611
577.98	34.058
578.32	33.790
578.66	33.904
578.99	34.319
579.33	34.641
579.67	34.456
580.00	34.877
580.34	34.578
580.67	33.826
581.01	34.540
581.35	34.645
581.68	33.490
582.02	33.795
582.35	34.181
582.69	34.111
583.02	34.262
583.36	34.592
583.70	34.240
584.03	35.173
584.37	35.134
584.70	34.909
585.04	34.737
585.37	34.017
585.71	34.539
586.04	34.343
586.38	34.283
586.72	34.208
587.05	34.740
587.39	34.539
587.72	34.545
588.06	34.318
588.39	34.161
588.73	34.350
589.06	35.104
589.40	35.336
589.73	35.333
590.07	36.136
590.40	36.167
590.73	37.165
591.07	37.571
591.40	36.607
591.74	35.511
592.07	35.732
592.41	35.971
592.74	35.042
593.08	34.115
593.41	34.740
593.75	34.348
594.08	35.048
594.41	34.865
594.75	35.274
595.08	35.322
595.42	35.385
595.75	34.682
596.09	35.349
596.42	35.834
596.75	36.378
597.09	36.277
597.42	36.327
597.75	35.619
598.09	34.633
598.42	35.455
598.76	35.351
599.09	34.719
599.42	35.087
599.76	34.193
600.09	34.000
600.42	35.221
600.76	34.194
601.09	34.311
601.42	34.284
601.76	34.658
602.09	34.915
602.42	33.900
602.76	34.763
603.09	34.842
603.42	35.339
603.76	34.526
604.09	34.672
604.42	34.689
604.76	34.137
605.09	35.184
605.42	34.742
605.75	34.741
606.09	34.966
606.42	34.160
606.75	34.668
607.09	34.228
607.42	33.990
607.75	34.952
608.08	34.444
608.42	35.109
608.75	34.232
609.08	36.076
609.41	35.000
609.75	35.165
610.08	34.712
610.41	34.914
610.74	35.238
611.07	34.607
611.41	35.264
611.74	36.233
612.07	34.538
612.40	35.916
612.73	36.795
613.07	35.530
613.40	35.990
613.73	35.097
614.06	34.650
614.39	35.455
614.72	34.505
615.06	35.361
615.39	34.653
615.72	34.753
616.05	34.505
616.38	34.652
616.71	35.214
617.05	36.189
617.38	35.281
617.71	35.489
618.04	35.222
618.37	35.686
618.70	34.411
619.03	35.409
619.36	36.118
619.69	35.884
620.03	36.856
620.36	35.453
620.69	36.335
621.02	37.364
621.35	36.748
621.68	37.094
622.01	37.343
622.34	36.708
622.67	36.096
623.00	36.555
623.33	35.358
623.66	35.729
623.99	36.781
624.32	35.501
624.65	35.221
624.99	35.091
625.32	36.473
625.65	34.552
625.98	34.728
626.31	36.053
626.64	35.383
626.97	36.572
627.30	35.870
627.63	37.520
627.96	36.854
628.29	39.274
628.62	37.468
628.95	38.032
629.28	37.862
629.61	36.819
629.94	36.301
630.26	38.302
630.59	37.500
630.92	37.220
631.25	37.171
