SpectraSuite Data File
++++++++++++++++++++++++++++++++++++
Date: Tue May 12 16:48:01 PDT 2015
User: schluterlab
Dark Spectrum Present: Yes
Reference Spectrum Present: Yes
Number of Sampled Component Spectra: 1
Spectrometers: USB2E3373
Integration Time (usec): 3000 (USB2E3373)
Spectra Averaged: 3 (USB2E3373)
Boxcar Smoothing: 0 (USB2E3373)
Correct for Electrical Dark: No (USB2E3373)
Strobe/Lamp Enabled: No (USB2E3373)
Correct for Detector Non-linearity: No (USB2E3373)
Correct for Stray Light: No (USB2E3373)
Number of Pixels in Processed Spectrum: 2048
>>>>>Begin Processed Spectral Data<<<<<
178.53	0.000
178.91	-316.667
179.29	-775.000
179.67	-3700.000
180.04	-113.333
180.42	675.000
180.80	1450.000
181.18	0.000
181.56	-312.500
181.94	0.000
182.31	1400.000
182.69	-2400.000
183.07	471.429
183.45	-4100.000
183.83	-1350.000
184.20	320.000
184.58	442.857
184.96	-215.385
185.34	-175.000
185.72	1850.000
186.09	-975.000
186.47	-3600.000
186.85	1133.333
187.23	700.000
187.61	1750.000
187.98	500.000
188.36	285.714
188.74	308.333
189.12	366.667
189.49	825.000
189.87	0.000
190.25	412.500
190.63	2600.000
191.00	-241.667
191.38	-3700.000
191.76	-750.000
192.14	462.500
192.51	-3100.000
192.89	2000.000
193.27	933.333
193.65	-933.333
194.02	-700.000
194.40	542.857
194.78	-250.000
195.15	240.000
195.53	-2000.000
195.91	-460.000
196.29	2900.000
196.66	218.750
197.04	825.000
197.42	-1400.000
197.79	800.000
198.17	316.667
198.55	0.000
198.92	500.000
199.30	1533.333
199.68	1950.000
200.05	783.333
200.43	-433.333
200.81	188.889
201.18	4300.000
201.56	266.667
201.94	-875.000
202.31	-275.000
202.69	-560.000
203.07	3300.000
203.44	-566.667
203.82	325.000
204.19	720.000
204.57	-1200.000
204.95	-825.000
205.32	-880.000
205.70	683.333
206.08	925.000
206.45	-333.333
206.83	266.667
207.20	205.263
207.58	308.333
207.96	700.000
208.33	0.000
208.71	528.571
209.08	900.000
209.46	-3400.000
209.84	-775.000
210.21	900.000
210.59	-660.000
210.96	266.667
211.34	-950.000
211.71	318.182
212.09	775.000
212.46	1550.000
212.84	-400.000
213.22	311.111
213.59	-2800.000
213.97	310.000
214.34	850.000
214.72	833.333
215.09	1233.333
215.47	-2400.000
215.84	-340.000
216.22	-475.000
216.59	0.000
216.97	0.000
217.34	1250.000
217.72	-1350.000
218.09	1533.333
218.47	437.500
218.84	650.000
219.22	866.667
219.59	1100.000
219.97	514.286
220.34	455.556
220.72	1450.000
221.09	3200.000
221.47	341.667
221.84	900.000
222.22	300.000
222.59	261.111
222.97	271.429
223.34	268.750
223.72	-1450.000
224.09	1266.667
224.46	261.538
224.84	-625.000
225.21	444.444
225.59	286.667
225.96	1500.000
226.34	-680.000
226.71	-775.000
227.08	-540.000
227.46	0.000
227.83	-350.000
228.21	-1650.000
228.58	358.333
228.95	950.000
229.33	400.000
229.70	1050.000
230.08	392.308
230.45	3900.000
230.82	-850.000
231.20	-733.333
231.57	-933.333
231.95	540.000
232.32	375.000
232.69	566.667
233.07	316.667
233.44	-1750.000
233.81	286.667
234.19	170.370
234.56	237.500
234.93	247.059
235.31	215.000
235.68	268.750
236.05	175.000
236.43	155.556
236.80	285.714
237.17	196.552
237.55	150.000
237.92	147.500
238.29	181.818
238.67	162.500
239.04	134.146
239.41	112.500
239.79	115.000
240.16	112.500
240.53	95.082
240.91	100.000
241.28	108.475
241.65	96.970
242.02	100.000
242.40	88.571
242.77	80.220
243.14	78.481
243.51	85.859
243.89	73.832
244.26	85.981
244.63	68.317
245.00	69.725
245.38	70.339
245.75	69.697
246.12	78.519
246.49	73.759
246.87	63.115
247.24	70.667
247.61	68.125
247.98	78.231
248.36	70.909
248.73	67.857
249.10	63.690
249.47	62.000
249.84	59.701
250.22	73.514
250.59	58.500
250.96	64.557
251.33	58.605
251.70	64.732
252.08	63.445
252.45	59.761
252.82	58.555
253.19	58.103
253.56	61.154
253.94	58.696
254.31	61.240
254.68	57.491
255.05	58.276
255.42	61.679
255.79	59.935
256.16	58.644
256.54	60.714
256.91	58.170
257.28	59.197
257.65	51.097
258.02	58.112
258.39	55.874
258.76	55.652
259.14	55.429
259.51	57.726
259.88	59.574
260.25	52.747
260.62	59.452
260.99	55.372
261.36	57.382
261.73	56.649
262.10	54.188
262.47	53.750
262.85	54.400
263.22	59.383
263.59	57.545
263.96	54.135
264.33	52.099
264.70	55.037
265.07	56.829
265.44	55.963
265.81	55.425
266.18	53.547
266.55	60.047
266.92	53.020
267.29	56.579
267.66	55.605
268.03	54.933
268.40	52.431
268.77	54.626
269.14	53.145
269.51	52.339
269.88	53.061
270.25	52.700
270.62	54.506
270.99	55.375
271.36	53.659
271.73	52.201
272.10	53.737
272.47	52.183
272.84	52.495
273.21	53.099
273.58	54.251
273.95	53.388
274.32	53.307
274.69	54.134
275.06	50.455
275.43	51.724
275.80	52.264
276.17	52.757
276.54	50.093
276.91	52.799
277.28	51.460
277.65	51.661
278.02	50.368
278.39	52.518
278.76	54.310
279.13	52.135
279.50	51.455
279.87	49.348
280.23	49.724
280.60	53.832
280.97	52.414
281.34	51.485
281.71	49.217
282.08	51.111
282.45	51.689
282.82	52.007
283.19	49.762
283.56	50.413
283.92	50.977
284.29	50.416
284.66	50.756
285.03	52.736
285.40	49.917
285.77	50.154
286.14	50.619
286.51	49.540
286.87	48.259
287.24	45.345
287.61	51.064
287.98	49.403
288.35	49.185
288.72	49.469
289.08	48.498
289.45	48.628
289.82	49.531
290.19	47.145
290.56	49.345
290.93	46.763
291.29	46.685
291.66	48.446
292.03	48.808
292.40	46.206
292.77	47.075
293.13	47.504
293.50	46.559
293.87	46.341
294.24	48.671
294.60	47.376
294.97	47.552
295.34	47.676
295.71	45.598
296.08	45.600
296.44	45.870
296.81	44.665
297.18	44.106
297.55	47.044
297.91	43.966
298.28	46.860
298.65	45.399
299.02	46.441
299.38	45.683
299.75	46.098
300.12	44.495
300.48	47.775
300.85	46.841
301.22	45.581
301.59	47.170
301.95	45.624
302.32	45.518
302.69	45.249
303.05	48.148
303.42	43.834
303.79	46.587
304.15	47.195
304.52	47.040
304.89	45.842
305.25	46.830
305.62	47.015
305.99	47.826
306.35	47.474
306.72	47.242
307.09	46.170
307.45	45.301
307.82	46.605
308.19	46.804
308.55	47.800
308.92	48.871
309.29	49.803
309.65	48.464
310.02	48.884
310.38	48.255
310.75	48.698
311.12	48.755
311.48	51.448
311.85	50.477
312.22	51.480
312.58	51.701
312.95	52.039
313.31	50.562
313.68	51.782
314.05	53.022
314.41	52.793
314.78	51.989
315.14	54.597
315.51	54.305
315.87	53.650
316.24	53.782
316.61	53.894
316.97	54.128
317.34	54.987
317.70	55.136
318.07	57.829
318.43	55.800
318.80	56.830
319.16	56.906
319.53	57.345
319.89	58.423
320.26	60.056
320.62	59.707
320.99	59.581
321.35	57.885
321.72	60.911
322.08	61.588
322.45	62.216
322.81	63.586
323.18	62.700
323.54	64.199
323.91	64.551
324.27	62.334
324.64	64.360
325.00	65.862
325.37	64.671
325.73	65.346
326.10	67.191
326.46	65.896
326.83	66.000
327.19	67.711
327.56	66.933
327.92	68.607
328.29	67.921
328.65	70.205
329.01	68.092
329.38	66.497
329.74	67.122
330.11	67.854
330.47	68.031
330.84	67.386
331.20	66.836
331.56	68.826
331.93	69.889
332.29	66.837
332.66	69.388
333.02	67.612
333.38	67.976
333.75	67.723
334.11	67.953
334.48	69.658
334.84	67.230
335.20	67.836
335.57	67.842
335.93	66.611
336.29	65.257
336.66	68.868
337.02	68.263
337.38	67.068
337.75	67.905
338.11	67.004
338.47	67.485
338.84	67.655
339.20	66.840
339.56	67.536
339.93	67.475
340.29	65.714
340.65	67.058
341.02	65.165
341.38	66.913
341.74	68.355
342.11	68.197
342.47	65.956
342.83	68.171
343.20	67.340
343.56	66.402
343.92	65.153
344.28	65.789
344.65	68.134
345.01	65.714
345.37	65.224
345.73	64.444
346.10	66.614
346.46	65.152
346.82	64.738
347.19	66.229
347.55	65.808
347.91	64.879
348.27	65.840
348.63	66.377
349.00	65.042
349.36	65.370
349.72	65.443
350.08	66.460
350.45	66.337
350.81	66.514
351.17	65.100
351.53	64.973
351.89	64.491
352.26	64.248
352.62	64.781
352.98	65.414
353.34	66.333
353.70	64.144
354.07	65.538
354.43	65.284
354.79	64.237
355.15	64.242
355.51	65.559
355.87	63.931
356.24	66.667
356.60	64.460
356.96	65.959
357.32	65.109
357.68	64.464
358.04	64.514
358.40	66.192
358.77	63.787
359.13	64.790
359.49	65.456
359.85	66.121
360.21	64.710
360.57	64.745
360.93	66.306
361.29	65.079
361.66	65.101
362.02	63.494
362.38	66.595
362.74	65.605
363.10	65.077
363.46	63.881
363.82	64.867
364.18	66.999
364.54	66.309
364.90	65.462
365.26	65.718
365.62	64.641
365.98	63.799
366.35	64.138
366.71	65.441
367.07	65.392
367.43	64.338
367.79	65.093
368.15	63.161
368.51	65.817
368.87	65.761
369.23	64.796
369.59	65.071
369.95	65.944
370.31	64.545
370.67	65.024
371.03	64.356
371.39	65.305
371.75	66.085
372.11	64.990
372.47	64.658
372.83	65.466
373.19	64.428
373.55	65.430
373.91	66.022
374.27	65.278
374.63	64.407
374.99	65.970
375.35	65.793
375.71	67.150
376.07	67.241
376.42	63.875
376.78	66.538
377.14	66.579
377.50	65.356
377.86	65.855
378.22	65.204
378.58	67.010
378.94	66.687
379.30	66.101
379.66	66.285
380.02	66.334
380.38	65.984
380.74	67.186
381.09	64.836
381.45	65.491
381.81	65.839
382.17	65.690
382.53	65.327
382.89	67.830
383.25	65.246
383.61	65.303
383.97	66.647
384.32	67.812
384.68	67.558
385.04	65.592
385.40	65.777
385.76	64.658
386.12	66.172
386.48	66.018
386.83	67.298
387.19	66.431
387.55	65.901
387.91	66.166
388.27	66.032
388.62	65.962
388.98	65.598
389.34	65.199
389.70	65.920
390.06	66.220
390.42	67.242
390.77	66.093
391.13	67.773
391.49	65.336
391.85	67.262
392.20	66.269
392.56	66.906
392.92	66.030
393.28	66.984
393.64	66.399
393.99	66.449
394.35	65.921
394.71	65.742
395.07	66.119
395.42	65.164
395.78	67.242
396.14	66.506
396.50	66.245
396.85	65.976
397.21	67.088
397.57	67.723
397.92	64.760
398.28	66.851
398.64	67.830
399.00	66.061
399.35	65.593
399.71	66.225
400.07	65.126
400.42	66.030
400.78	66.745
401.14	65.179
401.49	66.475
401.85	65.817
402.21	67.194
402.57	66.427
402.92	66.788
403.28	64.916
403.63	65.333
403.99	65.440
404.35	66.471
404.70	66.804
405.06	65.413
405.42	66.008
405.77	65.656
406.13	64.425
406.49	65.151
406.84	64.636
407.20	65.183
407.55	66.769
407.91	67.773
408.27	65.737
408.62	64.932
408.98	66.292
409.34	65.926
409.69	66.086
410.05	64.281
410.40	65.901
410.76	65.827
411.11	65.166
411.47	64.198
411.83	64.851
412.18	65.519
412.54	66.727
412.89	64.248
413.25	64.424
413.60	65.713
413.96	65.649
414.31	65.584
414.67	66.418
415.03	65.453
415.38	64.921
415.74	65.698
416.09	66.833
416.45	67.098
416.80	66.389
417.16	63.972
417.51	66.815
417.87	65.019
418.22	65.188
418.58	66.561
418.93	66.746
419.29	65.866
419.64	66.445
420.00	67.422
420.35	66.028
420.71	65.811
421.06	65.627
421.42	65.573
421.77	66.074
422.12	66.318
422.48	65.126
422.83	67.132
423.19	64.093
423.54	65.661
423.90	67.384
424.25	67.254
424.61	66.802
424.96	65.613
425.31	67.105
425.67	67.901
426.02	65.956
426.38	65.811
426.73	67.149
427.09	67.734
427.44	66.685
427.79	66.209
428.15	67.943
428.50	67.829
428.85	66.961
429.21	67.261
429.56	66.301
429.92	67.081
430.27	66.183
430.62	66.667
430.98	66.168
431.33	65.171
431.68	65.037
432.04	66.167
432.39	66.850
432.74	67.681
433.10	68.106
433.45	67.835
433.80	68.119
434.16	67.210
434.51	65.893
434.86	67.229
435.22	68.017
435.57	67.635
435.92	69.152
436.28	69.585
436.63	67.531
436.98	69.032
437.34	68.151
437.69	65.901
438.04	66.667
438.39	67.834
438.75	66.314
439.10	66.811
439.45	66.196
439.81	68.884
440.16	68.409
440.51	67.962
440.86	67.521
441.22	67.749
441.57	67.087
441.92	67.769
442.27	68.402
442.63	68.140
442.98	67.834
443.33	68.077
443.68	68.260
444.03	66.258
444.39	67.702
444.74	67.598
445.09	68.246
445.44	68.385
445.79	67.495
446.15	68.526
446.50	68.354
446.85	67.978
447.20	66.965
447.55	70.038
447.91	66.915
448.26	66.880
448.61	68.988
448.96	68.028
449.31	68.097
449.66	68.272
450.02	67.261
450.37	67.907
450.72	68.981
451.07	67.481
451.42	67.694
451.77	68.614
452.12	68.236
452.47	68.104
452.83	67.718
453.18	68.649
453.53	67.377
453.88	67.943
454.23	68.332
454.58	68.415
454.93	67.137
455.28	69.033
455.63	68.735
455.98	66.610
456.34	68.815
456.69	69.146
457.04	69.272
457.39	68.000
457.74	67.905
458.09	67.434
458.44	66.813
458.79	67.905
459.14	67.267
459.49	67.950
459.84	68.370
460.19	68.136
460.54	66.667
460.89	67.804
461.24	67.755
461.59	67.687
461.94	67.021
462.29	68.535
462.64	68.153
462.99	68.330
463.34	67.077
463.69	67.030
464.04	67.242
464.39	66.800
464.74	66.295
465.09	66.570
465.44	65.832
465.79	67.120
466.14	65.925
466.49	67.173
466.84	66.276
467.19	66.257
467.54	66.486
467.89	66.138
468.24	67.053
468.59	66.488
468.94	68.237
469.29	65.974
469.64	67.203
469.99	66.517
470.34	67.426
470.68	66.621
471.03	67.245
471.38	66.358
471.73	66.492
472.08	67.776
472.43	67.598
472.78	65.749
473.13	66.583
473.48	67.054
473.83	66.372
474.17	67.660
474.52	66.232
474.87	65.151
475.22	65.905
475.57	65.425
475.92	66.633
476.27	64.799
476.61	65.684
476.96	65.778
477.31	67.506
477.66	67.525
478.01	65.240
478.36	66.478
478.70	66.253
479.05	67.155
479.40	65.823
479.75	65.938
480.10	65.682
480.45	64.939
480.79	65.392
481.14	66.334
481.49	65.371
481.84	65.128
482.19	65.764
482.53	64.734
482.88	65.233
483.23	64.953
483.58	66.023
483.92	66.545
484.27	64.212
484.62	65.577
484.97	63.927
485.31	65.085
485.66	66.078
486.01	64.937
486.36	65.388
486.70	63.768
487.05	63.797
487.40	62.987
487.75	62.993
488.09	62.869
488.44	63.735
488.79	64.249
489.13	64.875
489.48	64.563
489.83	64.137
490.17	63.666
490.52	64.513
490.87	63.966
491.22	64.273
491.56	63.944
491.91	64.158
492.26	63.786
492.60	64.875
492.95	63.299
493.30	64.468
493.64	64.331
493.99	63.283
494.34	62.976
494.68	63.435
495.03	63.314
495.37	63.395
495.72	63.217
496.07	63.252
496.41	64.118
496.76	62.769
497.11	64.439
497.45	63.086
497.80	63.763
498.14	62.691
498.49	62.721
498.84	64.065
499.18	62.386
499.53	63.987
499.87	62.219
500.22	63.289
500.56	63.463
500.91	63.126
501.26	64.538
501.60	62.978
501.95	63.620
502.29	62.267
502.64	62.020
502.98	61.049
503.33	62.227
503.67	62.561
504.02	61.218
504.36	61.086
504.71	63.198
505.06	61.614
505.40	62.658
505.75	62.582
506.09	61.549
506.44	62.970
506.78	63.563
507.13	63.694
507.47	61.766
507.82	62.141
508.16	62.567
508.51	61.836
508.85	60.541
509.19	62.359
509.54	61.865
509.88	62.059
510.23	61.520
510.57	61.390
510.92	61.788
511.26	63.153
511.61	61.251
511.95	60.577
512.30	60.500
512.64	61.994
512.98	60.841
513.33	60.809
513.67	62.714
514.02	60.208
514.36	60.748
514.70	61.280
515.05	60.735
515.39	61.897
515.74	61.728
516.08	61.819
516.42	61.639
516.77	61.013
517.11	60.693
517.46	60.506
517.80	60.677
518.14	61.690
518.49	60.198
518.83	60.220
519.17	61.730
519.52	61.442
519.86	60.272
520.20	60.384
520.55	59.921
520.89	60.977
521.23	61.332
521.58	60.528
521.92	59.650
522.26	59.716
522.61	60.844
522.95	60.661
523.29	59.474
523.64	59.017
523.98	59.918
524.32	59.458
524.66	59.594
525.01	59.408
525.35	60.047
525.69	61.349
526.04	60.143
526.38	59.506
526.72	58.592
527.06	58.841
527.41	59.492
527.75	59.525
528.09	58.820
528.43	59.915
528.78	59.869
529.12	60.144
529.46	59.965
529.80	58.119
530.15	58.751
530.49	58.303
530.83	59.415
531.17	59.348
531.51	59.289
531.86	58.756
532.20	58.220
532.54	58.694
532.88	59.151
533.22	59.171
533.57	59.854
533.91	58.974
534.25	57.242
534.59	59.298
534.93	57.622
535.27	56.232
535.62	56.884
535.96	57.210
536.30	60.451
536.64	57.453
536.98	57.395
537.32	57.187
537.66	57.334
538.01	57.709
538.35	58.515
538.69	58.070
539.03	57.152
539.37	55.886
539.71	57.901
540.05	56.923
540.39	58.868
540.73	58.165
541.07	56.462
541.42	55.659
541.76	57.953
542.10	56.289
542.44	57.980
542.78	58.653
543.12	56.258
543.46	56.516
543.80	56.767
544.14	57.833
544.48	56.083
544.82	56.147
545.16	55.859
545.50	56.853
545.84	56.629
546.18	58.843
546.52	56.852
546.86	56.673
547.20	56.395
547.54	54.338
547.88	54.684
548.22	56.284
548.56	55.156
548.90	55.872
549.24	56.222
549.58	56.379
549.92	55.730
550.26	55.849
550.60	56.420
550.94	56.716
551.28	54.483
551.62	56.897
551.96	55.203
552.30	54.647
552.64	56.052
552.98	55.284
553.32	54.866
553.66	54.397
554.00	55.212
554.34	55.193
554.68	54.839
555.02	54.447
555.36	55.718
555.69	54.777
556.03	54.713
556.37	54.748
556.71	54.759
557.05	53.080
557.39	55.267
557.73	54.784
558.07	53.722
558.41	55.586
558.75	55.677
559.08	55.325
559.42	55.333
559.76	54.740
560.10	52.650
560.44	53.152
560.78	54.156
561.12	55.181
561.45	54.193
561.79	53.184
562.13	53.632
562.47	53.018
562.81	53.481
563.15	54.040
563.48	52.050
563.82	53.774
564.16	53.358
564.50	52.622
564.84	54.833
565.17	53.535
565.51	54.988
565.85	54.411
566.19	53.095
566.52	53.369
566.86	53.882
567.20	53.764
567.54	53.493
567.88	54.512
568.21	51.822
568.55	53.842
568.89	52.965
569.23	52.890
569.56	53.395
569.90	52.174
570.24	53.424
570.57	53.147
570.91	52.356
571.25	52.046
571.59	52.200
571.92	51.776
572.26	50.916
572.60	51.319
572.93	52.041
573.27	51.522
573.61	50.920
573.95	52.639
574.28	52.424
574.62	51.327
574.96	50.610
575.29	50.826
575.63	49.823
575.97	49.781
576.30	50.721
576.64	51.277
576.98	50.592
577.31	51.176
577.65	50.812
577.98	51.145
578.32	50.910
578.66	51.536
578.99	50.031
579.33	50.789
579.67	49.942
580.00	50.218
580.34	51.073
580.67	50.045
581.01	51.459
581.35	50.984
581.68	50.344
582.02	50.667
582.35	50.427
582.69	50.566
583.02	50.067
583.36	49.779
583.70	49.643
584.03	50.360
584.37	50.252
584.70	49.515
585.04	50.059
585.37	50.068
585.71	49.888
586.04	49.423
586.38	49.437
586.72	49.395
587.05	48.842
587.39	49.330
587.72	49.646
588.06	49.342
588.39	49.770
588.73	49.714
589.06	49.519
589.40	49.922
589.73	49.099
590.07	50.309
590.40	49.512
590.73	50.753
591.07	50.550
591.40	49.102
591.74	49.594
592.07	48.336
592.41	49.041
592.74	48.920
593.08	48.047
593.41	48.773
593.75	48.551
594.08	48.414
594.41	47.866
594.75	47.877
595.08	48.354
595.42	47.992
595.75	47.351
596.09	49.009
596.42	48.325
596.75	48.317
597.09	47.627
597.42	47.469
597.75	47.262
598.09	47.435
598.42	47.695
598.76	47.070
599.09	48.584
599.42	47.163
599.76	48.100
600.09	46.881
600.42	48.101
600.76	47.927
601.09	47.739
601.42	47.237
601.76	47.762
602.09	47.388
602.42	46.285
602.76	47.173
603.09	47.285
603.42	47.560
603.76	47.035
604.09	46.507
604.42	46.855
604.76	46.306
605.09	47.143
605.42	46.607
605.75	46.348
606.09	46.748
606.42	46.524
606.75	46.483
607.09	46.309
607.42	46.886
607.75	46.815
608.08	45.695
608.42	46.602
608.75	45.999
609.08	45.974
609.41	47.545
609.75	46.108
610.08	46.403
610.41	46.333
610.74	46.190
611.07	46.385
611.41	45.968
611.74	47.084
612.07	45.617
612.40	45.906
612.73	47.579
613.07	45.464
613.40	46.266
613.73	45.781
614.06	45.750
614.39	45.505
614.72	45.455
615.06	44.164
615.39	45.050
615.72	44.482
616.05	45.856
616.38	45.256
616.71	44.872
617.05	45.415
617.38	44.213
617.71	45.444
618.04	44.588
618.37	44.858
618.70	44.977
619.03	44.872
619.36	44.849
619.69	44.063
620.03	45.401
620.36	45.344
620.69	45.338
621.02	44.905
621.35	43.840
621.68	44.248
622.01	45.387
622.34	44.720
622.67	45.154
623.00	44.452
623.33	45.007
623.66	45.309
623.99	45.890
624.32	44.241
624.65	43.976
624.99	45.774
625.32	44.222
625.65	43.172
625.98	42.678
626.31	43.769
626.64	43.356
626.97	42.540
627.30	43.789
627.63	43.564
627.96	43.114
628.29	44.884
628.62	43.028
628.95	43.706
629.28	44.961
629.61	43.234
629.94	42.437
630.26	43.934
630.59	44.947
630.92	42.601
631.25	42.520
