SpectraSuite Data File
++++++++++++++++++++++++++++++++++++
Date: Tue May 12 16:35:46 PDT 2015
User: schluterlab
Dark Spectrum Present: Yes
Reference Spectrum Present: Yes
Number of Sampled Component Spectra: 1
Spectrometers: USB2E3373
Integration Time (usec): 3000 (USB2E3373)
Spectra Averaged: 3 (USB2E3373)
Boxcar Smoothing: 0 (USB2E3373)
Correct for Electrical Dark: No (USB2E3373)
Strobe/Lamp Enabled: No (USB2E3373)
Correct for Detector Non-linearity: No (USB2E3373)
Correct for Stray Light: No (USB2E3373)
Number of Pixels in Processed Spectrum: 2048
>>>>>Begin Processed Spectral Data<<<<<
178.53	0.000
178.91	-216.667
179.29	-725.000
179.67	-2900.000
180.04	-133.333
180.42	550.000
180.80	1350.000
181.18	0.000
181.56	-387.500
181.94	0.000
182.31	1133.333
182.69	-2800.000
183.07	657.143
183.45	-3200.000
183.83	-1650.000
184.20	340.000
184.58	442.857
184.96	-192.308
185.34	-175.000
185.72	1750.000
186.09	-650.000
186.47	-1800.000
186.85	1066.667
187.23	580.000
187.61	1750.000
187.98	425.000
188.36	221.429
188.74	341.667
189.12	391.667
189.49	675.000
189.87	0.000
190.25	512.500
190.63	2100.000
191.00	-216.667
191.38	-3200.000
191.76	-850.000
192.14	537.500
192.51	-2600.000
192.89	1350.000
193.27	1166.667
193.65	-733.333
194.02	-660.000
194.40	471.429
194.78	-128.571
195.15	226.667
195.53	-2800.000
195.91	-620.000
196.29	3400.000
196.66	218.750
197.04	800.000
197.42	-1500.000
197.79	575.000
198.17	283.333
198.55	0.000
198.92	542.857
199.30	933.333
199.68	1950.000
200.05	533.333
200.43	-450.000
200.81	205.556
201.18	3600.000
201.56	266.667
201.94	-700.000
202.31	-350.000
202.69	-660.000
203.07	1500.000
203.44	-366.667
203.82	258.333
204.19	640.000
204.57	-1650.000
204.95	-450.000
205.32	-700.000
205.70	600.000
206.08	950.000
206.45	-1033.333
206.83	344.444
207.20	210.526
207.58	316.667
207.96	680.000
208.33	0.000
208.71	585.714
209.08	740.000
209.46	-2900.000
209.84	-700.000
210.21	660.000
210.59	-560.000
210.96	266.667
211.34	-675.000
211.71	409.091
212.09	925.000
212.46	1900.000
212.84	-483.333
213.22	377.778
213.59	-2400.000
213.97	330.000
214.34	900.000
214.72	1400.000
215.09	1200.000
215.47	-2600.000
215.84	-370.000
216.22	-462.500
216.59	0.000
216.97	0.000
217.34	850.000
217.72	-1400.000
218.09	1000.000
218.47	375.000
218.84	725.000
219.22	800.000
219.59	766.667
219.97	557.143
220.34	433.333
220.72	1700.000
221.09	2600.000
221.47	341.667
221.84	833.333
222.22	330.000
222.59	233.333
222.97	192.857
223.34	206.250
223.72	-1550.000
224.09	1133.333
224.46	261.538
224.84	-925.000
225.21	333.333
225.59	253.333
225.96	1466.667
226.34	-840.000
226.71	-575.000
227.08	-440.000
227.46	0.000
227.83	-400.000
228.21	-1500.000
228.58	325.000
228.95	1100.000
229.33	311.111
229.70	925.000
230.08	292.308
230.45	3100.000
230.82	-825.000
231.20	-700.000
231.57	-900.000
231.95	640.000
232.32	225.000
232.69	366.667
233.07	291.667
233.44	-1450.000
233.81	213.333
234.19	133.333
234.56	168.750
234.93	188.235
235.31	215.000
235.68	200.000
236.05	135.714
236.43	125.926
236.80	228.571
237.17	151.724
237.55	100.000
237.92	102.500
238.29	118.182
238.67	143.750
239.04	100.000
239.41	56.250
239.79	87.500
240.16	95.833
240.53	57.377
240.91	63.768
241.28	69.492
241.65	66.667
242.02	73.239
242.40	51.429
242.77	46.154
243.14	51.899
243.51	49.495
243.89	43.925
244.26	42.991
244.63	52.475
245.00	44.037
245.38	38.136
245.75	39.394
246.12	42.963
246.49	36.879
246.87	39.344
247.24	44.667
247.61	41.250
247.98	41.497
248.36	26.061
248.73	34.184
249.10	31.548
249.47	32.000
249.84	29.851
250.22	32.973
250.59	31.000
250.96	31.224
251.33	27.442
251.70	32.143
252.08	30.672
252.45	25.100
252.82	30.038
253.19	26.482
253.56	28.077
253.94	28.261
254.31	28.295
254.68	29.268
255.05	28.621
255.42	27.372
255.79	28.013
256.16	24.068
256.54	27.273
256.91	25.817
257.28	25.418
257.65	24.765
258.02	24.189
258.39	25.788
258.76	29.275
259.14	24.286
259.51	28.571
259.88	21.581
260.25	22.802
260.62	25.753
260.99	22.039
261.36	25.070
261.73	26.064
262.10	21.204
262.47	24.500
262.85	25.067
263.22	23.393
263.59	24.297
263.96	24.060
264.33	23.210
264.70	26.781
265.07	21.951
265.44	25.229
265.81	24.528
266.18	24.027
266.55	23.404
266.92	23.266
267.29	23.246
267.66	21.973
268.03	21.525
268.40	23.467
268.77	23.348
269.14	23.210
269.51	20.935
269.88	23.265
270.25	20.950
270.62	20.815
270.99	23.124
271.36	23.374
271.73	20.964
272.10	21.616
272.47	21.230
272.84	20.359
273.21	22.727
273.58	26.113
273.95	19.918
274.32	24.514
274.69	25.394
275.06	20.947
275.43	21.073
275.80	23.208
276.17	22.610
276.54	23.551
276.91	21.642
277.28	19.343
277.65	22.325
278.02	21.140
278.39	21.043
278.76	20.862
279.13	21.708
279.50	21.091
279.87	21.415
280.23	20.442
280.60	22.993
280.97	22.241
281.34	21.617
281.71	20.870
282.08	21.880
282.45	20.101
282.82	21.237
283.19	19.555
283.56	20.000
283.92	20.521
284.29	19.967
284.66	21.345
285.03	19.735
285.40	20.331
285.77	18.827
286.14	19.505
286.51	21.472
286.87	18.354
287.24	17.568
287.61	20.973
287.98	20.149
288.35	19.111
288.72	20.030
289.08	19.219
289.45	19.512
289.82	20.469
290.19	18.887
290.56	20.233
290.93	19.137
291.29	19.613
291.66	19.350
292.03	18.513
292.40	17.751
292.77	17.131
293.13	19.829
293.50	17.409
293.87	16.938
294.24	18.601
294.60	17.497
294.97	18.741
295.34	16.866
295.71	17.608
296.08	18.400
296.44	17.281
296.81	16.005
297.18	15.589
297.55	17.118
297.91	15.394
298.28	17.029
298.65	17.914
299.02	16.405
299.38	16.067
299.75	15.976
300.12	17.317
300.48	18.033
300.85	17.640
301.22	16.512
301.59	16.745
301.95	16.569
302.32	16.414
302.69	17.195
303.05	17.396
303.42	15.695
303.79	17.660
304.15	17.052
304.52	15.962
304.89	16.738
305.25	17.241
305.62	17.697
305.99	16.739
306.35	14.842
306.72	16.441
307.09	16.149
307.45	17.001
307.82	15.432
308.19	16.392
308.55	15.900
308.92	16.487
309.29	17.751
309.65	16.650
310.02	17.444
310.38	16.251
310.75	16.490
311.12	16.284
311.48	18.919
311.85	17.080
312.22	17.956
312.58	16.424
312.95	17.767
313.31	18.914
313.68	16.510
314.05	17.949
314.41	18.063
314.78	16.477
315.14	19.336
315.51	19.016
315.87	18.522
316.24	19.048
316.61	19.875
316.97	16.972
317.34	19.946
317.70	21.071
318.07	20.641
318.43	20.299
318.80	21.016
319.16	20.455
319.53	21.150
319.89	19.713
320.26	22.346
320.62	21.062
320.99	21.258
321.35	23.933
321.72	23.150
322.08	23.823
322.45	23.070
322.81	24.337
323.18	24.689
323.54	24.913
323.91	25.657
324.27	25.906
324.64	25.346
325.00	25.776
325.37	25.801
325.73	27.234
326.10	27.672
326.46	26.837
326.83	27.040
327.19	29.237
327.56	29.313
327.92	29.508
328.29	29.951
328.65	30.479
329.01	30.368
329.38	30.372
329.74	30.487
330.11	29.800
330.47	31.628
330.84	30.198
331.20	31.726
331.56	32.729
331.93	31.309
332.29	31.633
332.66	31.037
333.02	31.100
333.38	31.501
333.75	32.110
334.11	32.131
334.48	33.675
334.84	32.517
335.20	32.763
335.57	31.822
335.93	31.791
336.29	32.421
336.66	33.190
337.02	32.250
337.38	32.588
337.75	33.193
338.11	33.840
338.47	32.769
338.84	32.261
339.20	31.861
339.56	32.548
339.93	32.274
340.29	30.840
340.65	33.361
341.02	31.858
341.38	32.512
341.74	33.638
342.11	32.805
342.47	31.747
342.83	33.634
343.20	33.064
343.56	31.692
343.92	33.113
344.28	33.812
344.65	33.822
345.01	32.540
345.37	32.131
345.73	32.302
346.10	32.988
346.46	33.014
346.82	31.867
347.19	31.839
347.55	32.084
347.91	32.553
348.27	33.230
348.63	32.832
349.00	32.369
349.36	32.918
349.72	33.486
350.08	33.618
350.45	33.892
350.81	33.104
351.17	33.051
351.53	31.640
351.89	32.323
352.26	32.200
352.62	33.183
352.98	32.745
353.34	32.820
353.70	32.110
354.07	32.769
354.43	32.873
354.79	33.030
355.15	33.920
355.51	32.402
355.87	32.756
356.24	33.718
356.60	32.040
356.96	32.070
357.32	32.102
357.68	32.819
358.04	33.967
358.40	33.058
358.77	33.509
359.13	32.733
359.49	33.210
359.85	33.284
360.21	32.467
360.57	32.263
360.93	32.756
361.29	32.973
361.66	34.228
362.02	33.026
362.38	33.333
362.74	33.263
363.10	32.048
363.46	32.735
363.82	33.240
364.18	32.575
364.54	33.548
364.90	32.999
365.26	34.282
365.62	33.633
365.98	32.485
366.35	33.103
366.71	32.616
367.07	32.696
367.43	32.304
367.79	33.112
368.15	32.429
368.51	33.287
368.87	32.541
369.23	33.403
369.59	32.367
369.95	33.427
370.31	33.812
370.67	34.212
371.03	33.824
371.39	34.349
371.75	33.357
372.11	33.311
372.47	33.288
372.83	35.078
373.19	34.339
373.55	33.677
373.91	32.390
374.27	33.201
374.63	32.881
374.99	33.895
375.35	33.266
375.71	33.971
376.07	34.019
376.42	32.289
376.78	33.911
377.14	33.683
377.50	33.521
377.86	33.889
378.22	34.491
378.58	33.535
378.94	34.218
379.30	33.899
379.66	34.557
380.02	34.252
380.38	32.436
380.74	33.910
381.09	33.528
381.45	34.277
381.81	33.274
382.17	34.310
382.53	33.533
382.89	33.826
383.25	32.800
383.61	33.372
383.97	32.933
384.32	34.117
384.68	34.641
385.04	34.291
385.40	34.282
385.76	33.879
386.12	33.766
386.48	33.921
386.83	34.963
387.19	33.863
387.55	33.628
387.91	34.180
388.27	34.265
388.62	34.507
388.98	33.936
389.34	32.302
389.70	33.196
390.06	33.720
390.42	33.806
390.77	33.047
391.13	33.615
391.49	32.365
391.85	33.292
392.20	33.969
392.56	33.931
392.92	34.082
393.28	32.231
393.64	33.314
393.99	34.440
394.35	32.607
394.71	32.931
395.07	32.908
395.42	33.138
395.78	33.745
396.14	33.795
396.50	32.852
396.85	33.537
397.21	33.153
397.57	33.533
397.92	31.716
398.28	32.377
398.64	33.566
399.00	31.908
399.35	32.636
399.71	33.223
400.07	33.333
400.42	33.791
400.78	32.727
401.14	32.648
401.49	32.431
401.85	32.793
402.21	31.752
402.57	32.675
402.92	31.758
403.28	32.100
403.63	32.607
403.99	32.147
404.35	32.708
404.70	32.073
405.06	31.050
405.42	31.418
405.77	31.036
406.13	31.345
406.49	31.154
406.84	31.303
407.20	32.249
407.55	32.308
407.91	32.802
408.27	31.534
408.62	31.402
408.98	31.638
409.34	31.210
409.69	30.803
410.05	30.948
410.40	31.920
410.76	31.654
411.11	31.220
411.47	31.111
411.83	30.463
412.18	30.978
412.54	30.871
412.89	30.737
413.25	30.730
413.60	30.607
413.96	30.162
414.31	30.165
414.67	31.782
415.03	30.587
415.38	30.726
415.74	31.522
416.09	30.543
416.45	31.933
416.80	32.393
417.16	30.490
417.51	31.401
417.87	31.289
418.22	31.045
418.58	31.592
418.93	31.231
419.29	30.684
419.64	31.012
420.00	31.384
420.35	31.185
420.71	31.272
421.06	31.783
421.42	31.203
421.77	30.927
422.12	31.202
422.48	30.406
422.83	31.083
423.19	31.425
423.54	30.609
423.90	31.710
424.25	31.370
424.61	30.992
424.96	30.774
425.31	31.199
425.67	32.660
426.02	31.688
426.38	31.214
426.73	33.314
427.09	32.206
427.44	32.696
427.79	31.103
428.15	32.410
428.50	32.000
428.85	32.040
429.21	32.523
429.56	32.154
429.92	32.521
430.27	31.737
430.62	30.788
430.98	32.186
431.33	30.796
431.68	30.914
432.04	31.247
432.39	32.162
432.74	33.782
433.10	32.835
433.45	33.831
433.80	33.646
434.16	32.212
434.51	32.250
434.86	33.315
435.22	32.955
435.57	33.017
435.92	33.125
436.28	33.698
436.63	33.009
436.98	33.671
437.34	33.219
437.69	32.139
438.04	32.742
438.39	33.217
438.75	33.352
439.10	33.028
439.45	33.239
439.81	34.008
440.16	34.012
440.51	32.995
440.86	33.276
441.22	32.955
441.57	32.966
441.92	33.070
442.27	33.299
442.63	32.876
442.98	32.274
443.33	33.262
443.68	34.205
444.03	33.553
444.39	32.957
444.74	33.333
445.09	34.544
445.44	32.465
445.79	33.187
446.15	33.579
446.50	33.755
446.85	32.321
447.20	33.383
447.55	33.061
447.91	34.523
448.26	33.866
448.61	33.610
448.96	33.497
449.31	33.993
449.66	33.887
450.02	33.766
450.37	34.092
450.72	34.050
451.07	34.090
451.42	34.025
451.77	34.307
452.12	33.749
452.47	34.143
452.83	34.423
453.18	34.715
453.53	34.399
453.88	34.743
454.23	34.863
454.58	34.033
454.93	33.722
455.28	34.639
455.63	34.456
455.98	34.292
456.34	35.380
456.69	35.549
457.04	34.248
457.39	33.829
457.74	35.473
458.09	33.015
458.44	34.337
458.79	34.005
459.14	33.933
459.49	33.749
459.84	33.913
460.19	34.746
460.54	33.618
460.89	34.115
461.24	33.276
461.59	35.147
461.94	33.688
462.29	35.183
462.64	34.987
462.99	34.485
463.34	34.867
463.69	35.330
464.04	34.197
464.39	35.260
464.74	33.705
465.09	33.546
465.44	33.841
465.79	33.696
466.14	33.545
466.49	34.183
466.84	33.501
467.19	33.919
467.54	34.535
467.89	35.270
468.24	33.990
468.59	33.810
468.94	34.179
469.29	34.392
469.64	34.791
469.99	34.704
470.34	34.725
470.68	35.034
471.03	35.490
471.38	35.099
471.73	34.618
472.08	35.877
472.43	35.568
472.78	35.211
473.13	34.856
473.48	34.291
473.83	35.041
474.17	35.076
474.52	33.472
474.87	33.599
475.22	34.723
475.57	34.050
475.92	33.572
476.27	34.222
476.61	35.013
476.96	34.169
477.31	35.013
477.66	35.212
478.01	35.121
478.36	34.706
478.70	33.747
479.05	33.996
479.40	33.185
479.75	35.204
480.10	34.947
480.45	33.940
480.79	33.594
481.14	33.571
481.49	33.806
481.84	33.245
482.19	33.843
482.53	35.090
482.88	34.633
483.23	33.739
483.58	34.785
483.92	34.963
484.27	34.289
484.62	35.399
484.97	34.048
485.31	32.822
485.66	32.630
486.01	32.161
486.36	31.164
486.70	30.807
487.05	31.655
487.40	31.410
487.75	31.898
488.09	32.045
488.44	32.951
488.79	32.558
489.13	34.005
489.48	33.959
489.83	33.778
490.17	33.815
490.52	34.367
490.87	34.569
491.22	34.220
491.56	34.607
491.91	34.901
492.26	34.076
492.60	34.852
492.95	34.436
493.30	34.759
493.64	33.513
493.99	34.660
494.34	33.752
494.68	33.732
495.03	34.710
495.37	35.074
495.72	34.592
496.07	34.681
496.41	34.405
496.76	33.685
497.11	34.919
497.45	34.415
497.80	34.476
498.14	33.981
498.49	34.726
498.84	35.093
499.18	33.775
499.53	34.451
499.87	33.962
500.22	34.823
500.56	34.865
500.91	34.740
501.26	34.589
501.60	34.608
501.95	33.065
502.29	34.889
502.64	33.569
502.98	33.837
503.33	34.477
503.67	34.216
504.02	33.856
504.36	34.480
504.71	35.478
505.06	34.491
505.40	34.628
505.75	33.957
506.09	34.904
506.44	34.539
506.78	35.302
507.13	35.385
507.47	35.274
507.82	35.426
508.16	35.767
508.51	35.556
508.85	34.995
509.19	35.438
509.54	34.619
509.88	35.604
510.23	35.343
510.57	33.880
510.92	35.415
511.26	35.090
511.61	34.958
511.95	34.943
512.30	35.450
512.64	35.358
512.98	35.315
513.33	34.477
513.67	35.577
514.02	35.740
514.36	35.151
514.70	35.200
515.05	35.855
515.39	36.075
515.74	36.851
516.08	36.383
516.42	36.230
516.77	35.147
517.11	35.520
517.46	35.991
517.80	35.882
518.14	36.225
518.49	35.281
518.83	34.835
519.17	35.108
519.52	36.483
519.86	36.076
520.20	36.055
520.55	36.179
520.89	37.529
521.23	36.974
521.58	36.431
521.92	36.152
522.26	36.671
522.61	36.661
522.95	37.357
523.29	38.012
523.64	36.647
523.98	37.148
524.32	36.678
524.66	36.348
525.01	36.982
525.35	36.064
525.69	37.809
526.04	36.883
526.38	36.551
526.72	35.919
527.06	36.783
527.41	37.062
527.75	37.432
528.09	36.905
528.43	37.096
528.78	36.374
529.12	37.809
529.46	35.593
529.80	37.091
530.15	37.301
530.49	35.560
530.83	36.929
531.17	37.454
531.51	36.849
531.86	35.205
532.20	35.970
532.54	35.907
532.88	36.665
533.22	35.710
533.57	37.096
533.91	36.538
534.25	35.430
534.59	36.491
534.93	36.121
535.27	34.832
535.62	36.056
535.96	36.288
536.30	36.502
536.64	36.398
536.98	36.060
537.32	37.062
537.66	35.778
538.01	35.480
538.35	36.182
538.69	35.740
539.03	36.567
539.37	35.619
539.71	35.864
540.05	35.692
540.39	36.478
540.73	37.468
541.07	35.069
541.42	36.007
541.76	35.758
542.10	35.573
542.44	35.973
542.78	36.249
543.12	35.828
543.46	35.526
543.80	36.591
544.14	37.090
544.48	36.071
544.82	35.535
545.16	35.216
545.50	37.308
545.84	35.922
546.18	36.801
546.52	37.377
546.86	36.557
547.20	36.047
547.54	36.352
547.88	36.983
548.22	36.430
548.56	35.180
548.90	35.350
549.24	36.513
549.58	35.825
549.92	35.691
550.26	37.187
550.60	35.862
550.94	36.839
551.28	37.517
551.62	37.379
551.96	37.162
552.30	35.333
552.64	36.505
552.98	36.211
553.32	36.236
553.66	36.547
554.00	35.328
554.34	36.285
554.68	36.962
555.02	37.135
555.36	36.835
555.69	36.453
556.03	35.605
556.37	36.329
556.71	37.484
557.05	35.256
557.39	36.600
557.73	36.995
558.07	37.156
558.41	36.532
558.75	37.415
559.08	39.099
559.42	38.082
559.76	38.275
560.10	37.096
560.44	36.430
560.78	36.893
561.12	35.346
561.45	36.608
561.79	36.579
562.13	36.134
562.47	35.821
562.81	37.020
563.15	36.716
563.48	34.969
563.82	36.057
564.16	37.065
564.50	35.684
564.84	35.745
565.17	35.710
565.51	37.131
565.85	36.397
566.19	36.429
566.52	36.101
566.86	36.194
567.20	35.674
567.54	35.262
567.88	36.255
568.21	35.247
568.55	34.679
568.89	35.036
569.23	33.865
569.56	34.505
569.90	33.309
570.24	33.663
570.57	32.998
570.91	32.324
571.25	32.266
571.59	31.951
571.92	31.109
572.26	30.889
572.60	31.713
572.93	32.720
573.27	31.361
573.61	31.240
573.95	31.399
574.28	32.235
574.62	31.928
574.96	30.787
575.29	30.609
575.63	30.836
575.97	30.721
576.30	30.549
576.64	30.601
576.98	30.810
577.31	31.265
577.65	30.862
577.98	30.883
578.32	30.205
578.66	29.996
578.99	30.963
579.33	31.349
579.67	30.464
580.00	30.062
580.34	30.510
580.67	31.141
581.01	31.402
581.35	30.650
581.68	30.127
582.02	30.727
582.35	30.316
582.69	30.855
583.02	30.597
583.36	30.880
583.70	31.104
584.03	31.867
584.37	30.893
584.70	31.252
585.04	30.883
585.37	30.523
585.71	31.416
586.04	30.726
586.38	31.482
586.72	31.840
587.05	31.704
587.39	31.429
587.72	31.325
588.06	31.065
588.39	31.295
588.73	31.790
589.06	32.390
589.40	32.300
589.73	32.350
590.07	33.047
590.40	33.275
590.73	33.272
591.07	34.345
591.40	32.934
591.74	33.198
592.07	32.404
592.41	33.293
592.74	32.992
593.08	31.901
593.41	31.897
593.75	32.152
594.08	32.676
594.41	32.551
594.75	32.329
595.08	32.030
595.42	32.390
595.75	32.215
596.09	32.638
596.42	32.957
596.75	33.814
597.09	33.347
597.42	32.816
597.75	33.550
598.09	32.663
598.42	33.048
598.76	33.076
599.09	33.284
599.42	32.630
599.76	32.564
600.09	32.814
600.42	32.528
600.76	32.087
601.09	32.793
601.42	32.489
601.76	32.223
602.09	33.039
602.42	31.978
602.76	32.979
603.09	32.919
603.42	33.835
603.76	33.478
604.09	32.429
604.42	32.505
604.76	33.188
605.09	33.306
605.42	32.792
605.75	32.689
606.09	33.015
606.42	32.657
606.75	33.424
607.09	32.452
607.42	33.106
607.75	33.559
608.08	33.022
608.42	33.767
608.75	33.333
609.08	33.172
609.41	34.045
609.75	34.432
610.08	32.779
610.41	33.377
610.74	33.766
611.07	33.606
611.41	34.384
611.74	34.943
612.07	34.345
612.40	34.259
612.73	34.398
613.07	34.060
613.40	34.386
613.73	34.498
614.06	33.900
614.39	34.141
614.72	34.756
615.06	33.333
615.39	33.812
615.72	32.962
616.05	34.656
616.38	33.993
616.71	34.617
617.05	33.663
617.38	33.652
617.71	34.871
618.04	35.222
618.37	33.797
618.70	35.046
619.03	35.104
619.36	36.118
619.69	36.214
620.03	35.747
620.36	36.737
620.69	36.973
621.02	36.481
621.35	36.318
621.68	36.652
622.01	37.860
622.34	35.980
622.67	36.166
623.00	36.283
623.33	35.830
623.66	35.729
623.99	36.507
624.32	35.501
624.65	34.826
624.99	36.646
625.32	36.540
625.65	35.586
625.98	36.681
626.31	37.092
626.64	36.143
626.97	35.807
627.30	37.112
627.63	37.991
627.96	37.011
628.29	38.449
628.62	37.810
628.95	37.057
629.28	39.702
629.61	37.346
629.94	38.462
630.26	38.128
630.59	37.855
630.92	37.937
631.25	38.259
