SpectraSuite Data File
++++++++++++++++++++++++++++++++++++
Date: Tue May 12 15:20:33 PDT 2015
User: schluterlab
Dark Spectrum Present: Yes
Reference Spectrum Present: Yes
Number of Sampled Component Spectra: 1
Spectrometers: USB2E3373
Integration Time (usec): 3000 (USB2E3373)
Spectra Averaged: 3 (USB2E3373)
Boxcar Smoothing: 0 (USB2E3373)
Correct for Electrical Dark: No (USB2E3373)
Strobe/Lamp Enabled: No (USB2E3373)
Correct for Detector Non-linearity: No (USB2E3373)
Correct for Stray Light: No (USB2E3373)
Number of Pixels in Processed Spectrum: 2048
>>>>>Begin Processed Spectral Data<<<<<
178.53	0.000
178.91	-266.667
179.29	-500.000
179.67	-2500.000
180.04	-153.333
180.42	875.000
180.80	1350.000
181.18	0.000
181.56	-287.500
181.94	0.000
182.31	1033.333
182.69	-2600.000
183.07	528.571
183.45	-3500.000
183.83	-1550.000
184.20	340.000
184.58	457.143
184.96	-184.615
185.34	-208.333
185.72	1650.000
186.09	-625.000
186.47	-3400.000
186.85	1300.000
187.23	600.000
187.61	1500.000
187.98	412.500
188.36	242.857
188.74	300.000
189.12	341.667
189.49	950.000
189.87	0.000
190.25	575.000
190.63	2300.000
191.00	-125.000
191.38	-3000.000
191.76	-675.000
192.14	525.000
192.51	-2600.000
192.89	1350.000
193.27	1066.667
193.65	-800.000
194.02	-660.000
194.40	485.714
194.78	-178.571
195.15	273.333
195.53	-3000.000
195.91	-440.000
196.29	3900.000
196.66	193.750
197.04	625.000
197.42	-1350.000
197.79	425.000
198.17	258.333
198.55	0.000
198.92	342.857
199.30	1033.333
199.68	2200.000
200.05	616.667
200.43	-483.333
200.81	194.444
201.18	2800.000
201.56	183.333
201.94	-725.000
202.31	-312.500
202.69	-540.000
203.07	3100.000
203.44	-500.000
203.82	325.000
204.19	640.000
204.57	-1250.000
204.95	-725.000
205.32	-640.000
205.70	450.000
206.08	725.000
206.45	-600.000
206.83	477.778
207.20	178.947
207.58	291.667
207.96	600.000
208.33	0.000
208.71	500.000
209.08	660.000
209.46	-2600.000
209.84	-750.000
210.21	800.000
210.59	-540.000
210.96	266.667
211.34	-925.000
211.71	281.818
212.09	725.000
212.46	2100.000
212.84	-400.000
213.22	411.111
213.59	-2800.000
213.97	230.000
214.34	875.000
214.72	1233.333
215.09	1166.667
215.47	-2400.000
215.84	-280.000
216.22	-237.500
216.59	0.000
216.97	0.000
217.34	1300.000
217.72	-1200.000
218.09	866.667
218.47	362.500
218.84	850.000
219.22	1000.000
219.59	1133.333
219.97	485.714
220.34	355.556
220.72	1700.000
221.09	2700.000
221.47	333.333
221.84	1200.000
222.22	270.000
222.59	227.778
222.97	171.429
223.34	193.750
223.72	-1200.000
224.09	900.000
224.46	330.769
224.84	-750.000
225.21	322.222
225.59	226.667
225.96	1166.667
226.34	-720.000
226.71	-800.000
227.08	-720.000
227.46	0.000
227.83	-483.333
228.21	-1850.000
228.58	350.000
228.95	800.000
229.33	388.889
229.70	1075.000
230.08	292.308
230.45	3300.000
230.82	-875.000
231.20	-900.000
231.57	-1166.667
231.95	560.000
232.32	250.000
232.69	533.333
233.07	275.000
233.44	-1750.000
233.81	213.333
234.19	122.222
234.56	175.000
234.93	211.765
235.31	170.000
235.68	250.000
236.05	142.857
236.43	159.259
236.80	264.286
237.17	155.172
237.55	100.000
237.92	107.500
238.29	118.182
238.67	134.375
239.04	104.878
239.41	79.167
239.79	102.500
240.16	79.167
240.53	70.492
240.91	68.116
241.28	84.746
241.65	71.212
242.02	81.690
242.40	77.143
242.77	51.648
243.14	58.228
243.51	67.677
243.89	57.944
244.26	49.533
244.63	54.455
245.00	52.294
245.38	38.983
245.75	46.212
246.12	54.074
246.49	42.553
246.87	42.623
247.24	47.333
247.61	47.500
247.98	48.980
248.36	38.788
248.73	45.408
249.10	41.071
249.47	40.000
249.84	38.806
250.22	37.838
250.59	39.000
250.96	33.333
251.33	41.860
251.70	37.054
252.08	39.076
252.45	35.857
252.82	33.080
253.19	36.759
253.56	37.308
253.94	39.493
254.31	37.984
254.68	34.495
255.05	41.034
255.42	33.942
255.79	39.414
256.16	36.271
256.54	33.766
256.91	34.314
257.28	36.455
257.65	34.483
258.02	35.693
258.39	34.097
258.76	34.783
259.14	28.571
259.51	36.735
259.88	35.562
260.25	31.044
260.62	34.247
260.99	33.058
261.36	35.376
261.73	30.851
262.10	33.246
262.47	29.250
262.85	30.133
263.22	33.419
263.59	32.737
263.96	34.336
264.33	32.593
264.70	36.364
265.07	29.756
265.44	31.881
265.81	31.840
266.18	32.037
266.55	34.515
266.92	29.306
267.29	32.895
267.66	31.390
268.03	29.821
268.40	31.712
268.77	32.379
269.14	29.284
269.51	29.176
269.88	31.224
270.25	29.158
270.62	30.258
270.99	33.874
271.36	30.894
271.73	30.818
272.10	30.505
272.47	29.762
272.84	30.539
273.21	31.612
273.58	31.579
273.95	28.337
274.32	28.210
274.69	34.843
275.06	32.240
275.43	29.693
275.80	31.887
276.17	30.331
276.54	29.907
276.91	29.851
277.28	31.204
277.65	31.365
278.02	30.147
278.39	30.216
278.76	29.655
279.13	31.139
279.50	30.727
279.87	28.678
280.23	28.729
280.60	31.934
280.97	30.517
281.34	29.208
281.71	28.870
282.08	30.940
282.45	28.378
282.82	28.930
283.19	29.094
283.56	30.083
283.92	29.479
284.29	30.449
284.66	29.748
285.03	29.353
285.40	27.438
285.77	26.852
286.14	30.186
286.51	28.834
286.87	29.272
287.24	27.628
287.61	27.964
287.98	27.910
288.35	28.296
288.72	28.225
289.08	27.177
289.45	28.354
289.82	28.281
290.19	28.404
290.56	28.530
290.93	28.201
291.29	27.486
291.66	28.531
292.03	26.227
292.40	28.320
292.77	25.766
293.13	26.961
293.50	26.856
293.87	27.100
294.24	26.993
294.60	27.052
294.97	27.972
295.34	26.162
295.71	27.201
296.08	27.333
296.44	26.302
296.81	26.675
297.18	25.095
297.55	27.709
297.91	26.601
298.28	25.121
298.65	26.503
299.02	26.779
299.38	26.978
299.75	26.341
300.12	26.032
300.48	26.815
300.85	25.387
301.22	27.209
301.59	26.533
301.95	25.788
302.32	26.193
302.69	27.149
303.05	27.834
303.42	25.673
303.79	26.544
304.15	25.413
304.52	25.053
304.89	28.252
305.25	27.809
305.62	28.678
305.99	26.196
306.35	26.632
306.72	27.055
307.09	29.400
307.45	28.194
307.82	26.852
308.19	29.381
308.55	27.900
308.92	28.067
309.29	30.375
309.65	27.354
310.02	28.803
310.38	26.520
310.75	28.544
311.12	28.161
311.48	30.792
311.85	29.580
312.22	29.990
312.58	30.029
312.95	30.777
313.31	31.086
313.68	29.362
314.05	31.227
314.41	30.261
314.78	31.155
315.14	30.995
315.51	32.640
315.87	31.022
316.24	31.373
316.61	32.766
316.97	32.936
317.34	33.333
317.70	33.626
318.07	34.431
318.43	34.359
318.80	35.464
319.16	34.790
319.53	35.398
319.89	35.573
320.26	37.523
320.62	36.630
320.99	37.464
321.35	37.384
321.72	38.710
322.08	39.982
322.45	38.420
322.81	39.982
323.18	40.231
323.54	41.115
323.91	42.611
324.27	42.263
324.64	41.176
325.00	44.914
325.37	43.339
325.73	44.013
326.10	44.739
326.46	45.252
326.83	46.160
327.19	47.470
327.56	47.923
327.92	49.918
328.29	48.609
328.65	50.171
329.01	50.470
329.38	50.931
329.74	50.640
330.11	52.389
330.47	52.344
330.84	50.820
331.20	51.354
331.56	53.541
331.93	53.208
332.29	52.296
332.66	54.167
333.02	51.804
333.38	55.497
333.75	54.295
334.11	53.356
334.48	54.872
334.84	53.294
335.20	54.234
335.57	54.744
335.93	53.406
336.29	52.239
336.66	54.631
337.02	53.721
337.38	53.826
337.75	55.828
338.11	54.768
338.47	56.224
338.84	53.937
339.20	54.719
339.56	55.004
339.93	55.936
340.29	54.706
340.65	54.736
341.02	54.385
341.38	55.090
341.74	53.156
342.11	54.758
342.47	55.373
342.83	56.112
343.20	54.568
343.56	53.773
343.92	55.656
344.28	55.263
344.65	55.257
345.01	55.317
345.37	55.128
345.73	55.873
346.10	54.104
346.46	55.502
346.82	54.167
347.19	55.410
347.55	54.098
347.91	54.607
348.27	53.757
348.63	56.566
349.00	54.684
349.36	56.498
349.72	55.734
350.08	54.891
350.45	56.055
350.81	55.199
351.17	54.777
351.53	53.888
351.89	54.934
352.26	55.253
352.62	53.771
352.98	55.215
353.34	55.085
353.70	53.823
354.07	56.077
354.43	56.452
354.79	53.759
355.15	56.355
355.51	56.722
355.87	54.895
356.24	56.428
356.60	56.317
356.96	54.284
357.32	54.861
357.68	55.140
358.04	55.775
358.40	56.747
358.77	54.996
359.13	54.880
359.49	55.745
359.85	55.845
360.21	55.646
360.57	55.182
360.93	54.329
361.29	55.772
361.66	55.556
362.02	53.054
362.38	55.195
362.74	55.626
363.10	55.119
363.46	54.627
363.82	55.049
364.18	55.121
364.54	57.725
364.90	56.493
365.26	57.113
365.62	55.801
365.98	54.370
366.35	55.103
366.71	57.183
367.07	56.041
367.43	54.265
367.79	54.322
368.15	55.020
368.51	54.859
368.87	54.823
369.23	55.787
369.59	55.496
369.95	57.063
370.31	55.305
370.67	56.627
371.03	55.252
371.39	56.440
371.75	55.548
372.11	56.832
372.47	55.616
372.83	55.812
373.19	56.614
373.55	56.014
373.91	55.663
374.27	54.696
374.63	55.661
374.99	54.582
375.35	55.847
375.71	55.805
376.07	56.034
376.42	55.371
376.78	56.969
377.14	55.505
377.50	56.492
377.86	55.669
378.22	55.149
378.58	57.143
378.94	56.126
379.30	56.337
379.66	57.556
380.02	55.543
380.38	55.269
380.74	57.209
381.09	55.666
381.45	54.451
381.81	54.787
382.17	54.945
382.53	55.129
382.89	55.766
383.25	54.766
383.61	54.640
383.97	55.129
384.32	56.480
384.68	56.031
385.04	55.627
385.40	55.753
385.76	55.413
386.12	56.710
386.48	55.805
386.83	54.768
387.19	55.713
387.55	53.946
387.91	55.947
388.27	54.551
388.62	54.988
388.98	55.627
389.34	54.015
389.70	55.307
390.06	56.159
390.42	55.213
390.77	55.344
391.13	55.341
391.49	56.080
391.85	55.815
392.20	54.827
392.56	54.480
392.92	53.958
393.28	54.765
393.64	55.218
393.99	54.653
394.35	54.149
394.71	53.800
395.07	54.623
395.42	54.508
395.78	54.411
396.14	55.783
396.50	54.332
396.85	56.463
397.21	55.475
397.57	53.915
397.92	53.553
398.28	55.709
398.64	53.869
399.00	53.875
399.35	52.925
399.71	53.753
400.07	53.082
400.42	54.866
400.78	54.663
401.14	54.433
401.49	53.859
401.85	54.229
402.21	53.251
402.57	53.740
402.92	53.515
403.28	53.699
403.63	53.973
403.99	53.559
404.35	54.338
404.70	54.223
405.06	53.509
405.42	53.381
405.77	52.977
406.13	52.603
406.49	53.155
406.84	52.341
407.20	51.884
407.55	53.969
407.91	53.606
408.27	53.851
408.62	53.223
408.98	52.277
409.34	52.776
409.69	52.582
410.05	53.071
410.40	52.768
410.76	52.261
411.11	51.955
411.47	52.284
411.83	52.255
412.18	52.838
412.54	53.213
412.89	52.035
413.25	53.193
413.60	51.811
413.96	52.962
414.31	52.125
414.67	53.818
415.03	52.235
415.38	51.987
415.74	53.127
416.09	53.716
416.45	52.877
416.80	54.009
417.16	50.732
417.51	51.847
417.87	53.004
418.22	52.187
418.58	53.312
418.93	52.290
419.29	51.633
419.64	52.211
420.00	52.148
420.35	52.323
420.71	52.334
421.06	53.384
421.42	52.044
421.77	52.027
422.12	51.213
422.48	51.361
422.83	52.790
423.19	51.890
423.54	51.509
423.90	52.378
424.25	52.614
424.61	52.234
424.96	52.400
425.31	51.341
425.67	53.030
426.02	52.608
426.38	52.684
426.73	52.689
427.09	53.203
427.44	52.279
427.79	53.288
428.15	53.212
428.50	52.857
428.85	51.969
429.21	52.296
429.56	51.097
429.92	52.909
430.27	51.282
430.62	50.661
430.98	52.345
431.33	50.504
431.68	50.864
432.04	50.543
432.39	53.293
432.74	52.459
433.10	53.433
433.45	53.418
433.80	52.896
434.16	52.654
434.51	52.374
434.86	51.932
435.22	52.512
435.57	53.349
435.92	53.671
436.28	52.823
436.63	52.620
436.98	53.941
437.34	52.169
437.69	51.288
438.04	52.688
438.39	51.897
438.75	52.283
439.10	52.402
439.45	52.798
439.81	51.417
440.16	52.669
440.51	51.577
440.86	53.333
441.22	52.056
441.57	53.123
441.92	51.530
442.27	51.443
442.63	50.508
442.98	51.185
443.33	51.955
443.68	52.414
444.03	52.592
444.39	52.213
444.74	51.967
445.09	52.554
445.44	52.125
445.79	52.193
446.15	51.947
446.50	51.846
446.85	51.295
447.20	51.393
447.55	51.278
447.91	51.412
448.26	51.331
448.61	51.575
448.96	52.070
449.31	51.595
449.66	51.717
450.02	49.919
450.37	52.804
450.72	52.231
451.07	52.531
451.42	51.986
451.77	51.375
452.12	50.425
452.47	51.944
452.83	51.718
453.18	51.952
453.53	51.451
453.88	51.943
454.23	52.121
454.58	51.865
454.93	50.644
455.28	51.897
455.63	51.950
455.98	51.438
456.34	53.374
456.69	52.805
457.04	51.014
457.39	50.743
457.74	51.745
458.09	50.814
458.44	50.876
458.79	50.451
459.14	50.846
459.49	50.396
459.84	51.304
460.19	50.678
460.54	50.883
460.89	50.426
461.24	50.401
461.59	51.531
461.94	50.059
462.29	49.714
462.64	51.633
462.99	50.928
463.34	51.523
463.69	51.422
464.04	52.216
464.39	51.002
464.74	48.828
465.09	49.507
465.44	50.326
465.79	50.136
466.14	48.861
466.49	49.539
466.84	49.443
467.19	49.443
467.54	49.730
467.89	48.826
468.24	50.666
468.59	50.298
468.94	50.121
469.29	49.420
469.64	50.611
469.99	49.100
470.34	49.779
470.68	49.655
471.03	49.033
471.38	49.934
471.73	48.988
472.08	51.598
472.43	50.403
472.78	49.872
473.13	48.999
473.48	48.961
473.83	49.882
474.17	49.605
474.52	48.934
474.87	48.266
475.22	49.914
475.57	47.901
475.92	48.697
476.27	47.933
476.61	48.579
476.96	48.537
477.31	49.820
477.66	50.242
478.01	48.840
478.36	48.558
478.70	47.742
479.05	48.379
479.40	47.619
479.75	49.057
480.10	48.209
480.45	48.366
480.79	47.788
481.14	47.313
481.49	47.530
481.84	46.614
482.19	47.336
482.53	47.826
482.88	47.401
483.23	46.955
483.58	47.397
483.92	47.898
484.27	46.832
484.62	47.284
484.97	46.474
485.31	46.460
485.66	45.888
486.01	44.866
486.36	43.545
486.70	42.134
487.05	43.411
487.40	43.519
487.75	44.372
488.09	44.489
488.44	44.105
488.79	44.950
489.13	46.659
489.48	46.584
489.83	45.663
490.17	45.871
490.52	45.909
490.87	45.733
491.22	46.454
491.56	46.377
491.91	46.281
492.26	45.969
492.60	46.743
492.95	46.307
493.30	46.224
493.64	46.092
493.99	46.199
494.34	45.585
494.68	44.489
495.03	45.936
495.37	45.295
495.72	46.434
496.07	45.238
496.41	45.222
496.76	44.196
497.11	44.730
497.45	45.463
497.80	45.829
498.14	45.585
498.49	45.497
498.84	46.262
499.18	44.470
499.53	45.797
499.87	45.193
500.22	45.279
500.56	45.079
500.91	45.223
501.26	45.659
501.60	45.765
501.95	44.086
502.29	44.756
502.64	43.670
502.98	44.687
503.33	44.811
503.67	43.444
504.02	43.842
504.36	43.756
504.71	44.749
505.06	45.002
505.40	43.472
505.75	44.668
506.09	43.630
506.44	44.925
506.78	44.707
507.13	44.838
507.47	43.668
507.82	43.990
508.16	44.782
508.51	44.638
508.85	43.827
509.19	44.444
509.54	44.629
509.88	44.903
510.23	44.167
510.57	43.002
510.92	45.554
511.26	44.629
511.61	43.870
511.95	42.409
512.30	44.100
512.64	42.835
512.98	43.567
513.33	43.391
513.67	43.604
514.02	43.844
514.36	42.991
514.70	44.267
515.05	43.101
515.39	43.914
515.74	44.068
516.08	44.281
516.42	44.754
516.77	43.467
517.11	44.053
517.46	43.265
517.80	42.163
518.14	44.394
518.49	43.550
518.83	42.033
519.17	43.372
519.52	43.965
519.86	42.834
520.20	43.452
520.55	42.679
520.89	43.276
521.23	43.750
521.58	43.373
521.92	42.624
522.26	42.121
522.61	42.900
522.95	43.844
523.29	43.041
523.64	42.312
523.98	42.840
524.32	42.907
524.66	42.783
525.01	43.373
525.35	42.428
525.69	44.250
526.04	43.664
526.38	42.496
526.72	42.184
527.06	42.815
527.41	43.410
527.75	42.422
528.09	42.384
528.43	42.526
528.78	42.755
529.12	44.070
529.46	41.788
529.80	42.056
530.15	42.428
530.49	42.298
530.83	42.108
531.17	41.943
531.51	42.551
531.86	41.123
532.20	41.409
532.54	42.938
532.88	42.349
533.22	42.596
533.57	42.892
533.91	40.793
534.25	40.796
534.59	42.339
534.93	40.501
535.27	39.784
535.62	41.715
535.96	41.135
536.30	43.144
536.64	41.366
536.98	40.340
537.32	41.688
537.66	40.370
538.01	41.053
538.35	40.549
538.69	38.592
539.03	40.485
539.37	40.109
539.71	40.247
540.05	40.554
540.39	42.138
540.73	40.696
541.07	40.025
541.42	41.915
541.76	39.519
542.10	40.444
542.44	40.586
542.78	40.969
543.12	40.307
543.46	39.411
543.80	40.664
544.14	39.381
544.48	40.207
544.82	39.327
545.16	39.526
545.50	39.889
545.84	40.657
546.18	40.897
546.52	38.426
546.86	40.232
547.20	39.664
547.54	39.519
547.88	38.990
548.22	38.555
548.56	38.244
548.90	38.731
549.24	39.545
549.58	38.660
549.92	38.965
550.26	40.500
550.60	38.989
550.94	39.077
551.28	40.345
551.62	39.517
551.96	39.662
552.30	37.904
552.64	39.676
552.98	38.724
553.32	37.260
553.66	38.697
554.00	38.095
554.34	39.680
554.68	38.172
555.02	38.968
555.36	38.630
555.69	39.071
556.03	37.707
556.37	38.432
556.71	39.961
557.05	36.959
557.39	39.133
557.73	39.016
558.07	38.565
558.41	38.245
558.75	38.782
559.08	39.314
559.42	39.728
559.76	39.843
560.10	37.233
560.44	38.421
560.78	38.619
561.12	37.889
561.45	37.672
561.79	37.828
562.13	37.650
562.47	37.768
562.81	37.671
563.15	38.397
563.48	36.149
563.82	37.804
564.16	38.433
564.50	37.071
564.84	38.237
565.17	36.185
565.51	38.547
565.85	37.940
566.19	37.440
566.52	36.883
566.86	37.245
567.20	36.629
567.54	36.790
567.88	36.307
568.21	35.746
568.55	35.457
568.89	35.630
569.23	35.418
569.56	35.383
569.90	33.992
570.24	34.821
570.57	34.718
570.91	33.853
571.25	34.134
571.59	33.531
571.92	33.208
572.26	32.911
572.60	33.185
572.93	33.266
573.27	33.343
573.61	32.648
573.95	32.669
574.28	33.107
574.62	32.417
574.96	31.533
575.29	32.465
575.63	31.708
575.97	32.327
576.30	31.941
576.64	32.474
576.98	32.064
577.31	32.721
577.65	32.486
577.98	31.845
578.32	31.256
578.66	31.532
578.99	31.949
579.33	32.206
579.67	31.687
580.00	31.782
580.34	31.962
580.67	31.879
581.01	32.214
581.35	31.902
581.68	31.519
582.02	31.827
582.35	31.320
582.69	31.621
583.02	31.285
583.36	31.871
583.70	32.004
584.03	31.941
584.37	32.509
584.70	31.774
585.04	31.668
585.37	31.605
585.71	32.315
586.04	31.223
586.38	31.602
586.72	32.046
587.05	32.295
587.39	31.606
587.72	32.179
588.06	32.133
588.39	31.807
588.73	31.299
589.06	32.594
589.40	32.520
589.73	31.891
590.07	32.601
590.40	33.136
590.73	33.309
591.07	33.359
591.40	33.014
591.74	33.523
592.07	31.739
592.41	32.334
592.74	32.552
593.08	31.934
593.41	32.136
593.75	31.654
594.08	31.999
594.41	31.867
594.75	31.678
595.08	31.653
595.42	32.028
595.75	31.655
596.09	32.395
596.42	31.464
596.75	32.812
597.09	32.728
597.42	31.429
597.75	32.170
598.09	32.294
598.42	32.925
598.76	31.650
599.09	32.181
599.42	31.038
599.76	31.309
600.09	30.983
600.42	31.457
600.76	31.305
601.09	31.343
601.42	31.292
601.76	32.009
602.09	31.347
602.42	30.943
602.76	31.537
603.09	31.561
603.42	32.734
603.76	31.309
604.09	31.379
604.42	31.299
604.76	31.015
605.09	31.061
605.42	32.507
605.75	31.702
606.09	31.714
606.42	31.492
606.75	31.558
607.09	30.872
607.42	31.016
607.75	30.971
608.08	31.072
608.42	31.921
608.75	31.194
609.08	31.588
609.41	31.682
609.75	31.227
610.08	32.194
610.41	31.752
610.74	30.519
611.07	32.287
611.41	32.206
611.74	31.883
612.07	31.358
612.40	31.823
612.73	31.203
613.07	31.526
613.40	31.930
613.73	31.653
614.06	31.050
614.39	32.374
614.72	31.291
615.06	30.712
615.39	31.733
615.72	30.833
616.05	32.295
616.38	31.101
616.71	31.091
617.05	31.576
617.38	31.966
617.71	32.452
618.04	32.361
618.37	30.739
618.70	31.351
619.03	32.295
619.36	32.475
619.69	31.662
620.03	33.138
620.36	32.691
620.69	32.759
621.02	31.861
621.35	33.309
621.68	33.112
622.01	33.948
622.34	33.139
622.67	32.725
623.00	32.471
623.33	32.254
623.66	31.870
623.99	32.671
624.32	33.130
624.65	32.126
624.99	32.522
625.32	32.866
625.65	31.724
625.98	32.078
626.31	32.418
626.64	32.802
626.97	32.747
627.30	33.152
627.63	33.987
627.96	31.690
628.29	33.003
628.62	32.592
628.95	35.638
629.28	34.706
629.61	33.128
629.94	32.757
630.26	33.362
630.59	34.840
630.92	33.453
631.25	33.726
