SpectraSuite Data File
++++++++++++++++++++++++++++++++++++
Date: Tue May 12 15:10:59 PDT 2015
User: schluterlab
Dark Spectrum Present: Yes
Reference Spectrum Present: Yes
Number of Sampled Component Spectra: 1
Spectrometers: USB2E3373
Integration Time (usec): 3000 (USB2E3373)
Spectra Averaged: 3 (USB2E3373)
Boxcar Smoothing: 0 (USB2E3373)
Correct for Electrical Dark: No (USB2E3373)
Strobe/Lamp Enabled: No (USB2E3373)
Correct for Detector Non-linearity: No (USB2E3373)
Correct for Stray Light: No (USB2E3373)
Number of Pixels in Processed Spectrum: 2048
>>>>>Begin Processed Spectral Data<<<<<
178.53	0.000
178.91	-225.000
179.29	-300.000
179.67	-2100.000
180.04	-20.000
180.42	400.000
180.80	1150.000
181.18	0.000
181.56	-212.500
181.94	0.000
182.31	766.667
182.69	-2400.000
183.07	514.286
183.45	-2300.000
183.83	-1300.000
184.20	350.000
184.58	328.571
184.96	-153.846
185.34	-125.000
185.72	750.000
186.09	-425.000
186.47	-2200.000
186.85	766.667
187.23	220.000
187.61	1350.000
187.98	325.000
188.36	121.429
188.74	283.333
189.12	250.000
189.49	725.000
189.87	0.000
190.25	350.000
190.63	1800.000
191.00	-158.333
191.38	-2100.000
191.76	-550.000
192.14	300.000
192.51	-1200.000
192.89	950.000
193.27	833.333
193.65	-500.000
194.02	-460.000
194.40	342.857
194.78	-107.143
195.15	186.667
195.53	-1800.000
195.91	-480.000
196.29	2900.000
196.66	193.750
197.04	525.000
197.42	-800.000
197.79	625.000
198.17	208.333
198.55	0.000
198.92	428.571
199.30	1066.667
199.68	1450.000
200.05	450.000
200.43	-316.667
200.81	133.333
201.18	2200.000
201.56	175.000
201.94	-175.000
202.31	-62.500
202.69	-520.000
203.07	2700.000
203.44	-433.333
203.82	258.333
204.19	380.000
204.57	-900.000
204.95	-375.000
205.32	-600.000
205.70	400.000
206.08	275.000
206.45	-266.667
206.83	311.111
207.20	100.000
207.58	133.333
207.96	340.000
208.33	0.000
208.71	357.143
209.08	520.000
209.46	-2400.000
209.84	-350.000
210.21	680.000
210.59	-340.000
210.96	200.000
211.34	-600.000
211.71	218.182
212.09	550.000
212.46	1000.000
212.84	-166.667
213.22	277.778
213.59	-1300.000
213.97	230.000
214.34	625.000
214.72	433.333
215.09	866.667
215.47	-2200.000
215.84	-170.000
216.22	-275.000
216.59	0.000
216.97	0.000
217.34	750.000
217.72	-1200.000
218.09	933.333
218.47	250.000
218.84	400.000
219.22	633.333
219.59	433.333
219.97	342.857
220.34	244.444
220.72	1150.000
221.09	1700.000
221.47	208.333
221.84	666.667
222.22	250.000
222.59	166.667
222.97	157.143
223.34	200.000
223.72	-550.000
224.09	1100.000
224.46	215.385
224.84	-275.000
225.21	255.556
225.59	206.667
225.96	1133.333
226.34	-280.000
226.71	-475.000
227.08	-220.000
227.46	0.000
227.83	-300.000
228.21	-1100.000
228.58	216.667
228.95	550.000
229.33	277.778
229.70	650.000
230.08	300.000
230.45	3000.000
230.82	-675.000
231.20	-300.000
231.57	-933.333
231.95	220.000
232.32	183.333
232.69	333.333
233.07	191.667
233.44	-1300.000
233.81	153.333
234.19	107.407
234.56	125.000
234.93	135.294
235.31	170.000
235.68	162.500
236.05	103.571
236.43	114.815
236.80	92.857
237.17	68.966
237.55	59.375
237.92	72.500
238.29	100.000
238.67	71.875
239.04	56.098
239.41	47.917
239.79	57.500
240.16	58.333
240.53	36.066
240.91	40.580
241.28	38.983
241.65	39.394
242.02	53.521
242.40	54.286
242.77	39.560
243.14	24.051
243.51	38.384
243.89	33.645
244.26	31.776
244.63	31.683
245.00	34.862
245.38	28.814
245.75	31.818
246.12	32.593
246.49	28.369
246.87	17.213
247.24	28.000
247.61	29.375
247.98	25.170
248.36	23.030
248.73	38.776
249.10	20.238
249.47	18.500
249.84	20.398
250.22	20.541
250.59	21.000
250.96	21.519
251.33	19.535
251.70	20.089
252.08	20.588
252.45	16.733
252.82	19.772
253.19	17.787
253.56	17.692
253.94	20.652
254.31	17.829
254.68	16.376
255.05	22.414
255.42	17.518
255.79	20.521
256.16	18.305
256.54	20.779
256.91	18.954
257.28	15.385
257.65	15.674
258.02	16.224
258.39	20.917
258.76	19.130
259.14	12.571
259.51	20.700
259.88	17.325
260.25	15.110
260.62	16.164
260.99	15.702
261.36	15.599
261.73	14.096
262.10	17.801
262.47	14.250
262.85	16.000
263.22	16.710
263.59	16.880
263.96	17.043
264.33	15.309
264.70	15.233
265.07	15.854
265.44	17.202
265.81	16.509
266.18	15.332
266.55	16.548
266.92	15.213
267.29	15.789
267.66	15.919
268.03	14.798
268.40	15.856
268.77	15.859
269.14	15.401
269.51	14.922
269.88	17.347
270.25	12.959
270.62	15.451
270.99	15.213
271.36	16.870
271.73	12.369
272.10	15.758
272.47	14.286
272.84	13.174
273.21	15.496
273.58	16.599
273.95	12.526
274.32	15.370
274.69	15.551
275.06	14.754
275.43	16.284
275.80	14.340
276.17	14.522
276.54	17.196
276.91	15.112
277.28	12.956
277.65	15.867
278.02	13.051
278.39	14.029
278.76	15.862
279.13	13.879
279.50	15.455
279.87	11.918
280.23	13.812
280.60	14.781
280.97	13.103
281.34	14.026
281.71	15.130
282.08	13.675
282.45	14.020
282.82	13.043
283.19	13.831
283.56	11.736
283.92	15.309
284.29	12.812
284.66	10.924
285.03	14.428
285.40	13.554
285.77	11.883
286.14	15.635
286.51	14.877
286.87	12.500
287.24	11.862
287.61	13.526
287.98	12.687
288.35	12.148
288.72	13.202
289.08	12.913
289.45	13.415
289.82	12.813
290.19	13.324
290.56	14.702
290.93	13.094
291.29	13.950
291.66	12.571
292.03	13.604
292.40	13.008
292.77	12.953
293.13	13.837
293.50	12.686
293.87	12.195
294.24	11.888
294.60	11.844
294.97	13.287
295.34	11.687
295.71	12.615
296.08	12.667
296.44	11.944
296.81	10.794
297.18	10.773
297.55	11.453
297.91	11.700
298.28	11.957
298.65	10.920
299.02	11.942
299.38	11.871
299.75	10.610
300.12	11.468
300.48	12.998
300.85	13.111
301.22	10.581
301.59	11.085
301.95	11.202
302.32	13.155
302.69	11.086
303.05	12.009
303.42	10.538
303.79	10.943
304.15	10.011
304.52	11.734
304.89	11.727
305.25	12.125
305.62	12.900
305.99	10.109
306.35	10.526
306.72	11.550
307.09	10.559
307.45	11.404
307.82	11.420
308.19	11.649
308.55	12.100
308.92	12.561
309.29	12.623
309.65	11.298
310.02	11.765
310.38	10.867
310.75	10.800
311.12	9.962
311.48	12.066
311.85	11.641
312.22	13.181
312.58	10.884
312.95	11.942
313.31	11.704
313.68	10.882
314.05	12.546
314.41	11.453
314.78	12.879
315.14	12.796
315.51	14.002
315.87	12.318
316.24	12.512
316.61	11.996
316.97	12.844
317.34	13.208
317.70	13.960
318.07	13.612
318.43	12.566
318.80	13.923
319.16	13.462
319.53	14.159
319.89	12.007
320.26	16.201
320.62	14.560
320.99	14.490
321.35	15.028
321.72	16.129
322.08	14.866
322.45	15.168
322.81	15.188
323.18	15.542
323.54	16.725
323.91	16.863
324.27	16.446
324.64	14.965
325.00	16.638
325.37	15.852
325.73	17.032
326.10	17.316
326.46	16.846
326.83	16.880
327.19	17.831
327.56	17.732
327.92	18.607
328.29	20.049
328.65	19.349
329.01	18.991
329.38	19.374
329.74	18.275
330.11	19.809
330.47	19.693
330.84	18.550
331.20	18.782
331.56	20.121
331.93	20.530
332.29	18.197
332.66	20.748
333.02	19.072
333.38	20.855
333.75	21.435
334.11	19.379
334.48	20.598
334.84	19.003
335.20	19.589
335.57	20.319
335.93	20.690
336.29	20.066
336.66	22.384
337.02	20.017
337.38	20.292
337.75	21.453
338.11	20.422
338.47	20.152
338.84	20.152
339.20	20.346
339.56	21.194
339.93	20.903
340.29	19.916
340.65	21.878
341.02	21.158
341.38	20.608
341.74	20.515
342.11	19.449
342.47	20.427
342.83	21.247
343.20	20.534
343.56	19.063
343.92	20.314
344.28	20.494
344.65	20.864
345.01	20.397
345.37	20.192
345.73	20.635
346.10	20.239
346.46	20.893
346.82	19.444
347.19	20.711
347.55	19.360
347.91	20.770
348.27	20.527
348.63	21.203
349.00	20.640
349.36	20.311
349.72	20.107
350.08	20.652
350.45	20.183
350.81	21.407
351.17	21.341
351.53	20.092
351.89	20.435
352.26	19.955
352.62	19.985
352.98	20.399
353.34	21.186
353.70	20.336
354.07	20.154
354.43	20.507
354.79	19.210
355.15	21.363
355.51	20.695
355.87	21.310
356.24	19.707
356.60	19.939
356.96	20.167
357.32	20.422
357.68	21.145
358.04	21.125
358.40	20.765
358.77	20.887
359.13	20.270
359.49	21.868
359.85	19.806
360.21	20.282
360.57	21.241
360.93	21.861
361.29	21.789
361.66	21.849
362.02	20.526
362.38	20.779
362.74	20.099
363.10	21.178
363.46	20.235
363.82	20.617
364.18	20.484
364.54	21.531
364.90	21.553
365.26	21.721
365.62	20.235
365.98	20.647
366.35	20.759
366.71	20.611
367.07	20.887
367.43	21.088
367.79	21.476
368.15	20.624
368.51	21.296
368.87	20.448
369.23	21.691
369.59	21.713
369.95	22.098
370.31	21.150
370.67	21.305
371.03	21.218
371.39	22.091
371.75	20.377
372.11	20.666
372.47	21.918
372.83	21.482
373.19	21.247
373.55	21.993
373.91	20.511
374.27	20.701
374.63	20.881
374.99	21.361
375.35	21.774
375.71	21.702
376.07	21.353
376.42	20.205
376.78	22.415
377.14	20.970
377.50	21.348
377.86	21.525
378.22	21.511
378.58	22.760
378.94	21.545
379.30	21.407
379.66	21.915
380.02	21.935
380.38	21.370
380.74	21.223
381.09	22.313
381.45	21.850
381.81	21.631
382.17	21.062
382.53	21.956
382.89	22.176
383.25	21.137
383.61	21.844
383.97	21.776
384.32	21.338
384.68	22.400
385.04	21.981
385.40	22.123
385.76	21.650
386.12	22.140
386.48	21.641
386.83	22.127
387.19	21.614
387.55	22.026
387.91	21.363
388.27	21.773
388.62	21.772
388.98	21.749
389.34	22.130
389.70	21.050
390.06	22.073
390.42	21.468
390.77	21.499
391.13	21.726
391.49	21.718
391.85	22.092
392.20	21.812
392.56	22.640
392.92	22.066
393.28	21.693
393.64	21.617
393.99	21.992
394.35	21.366
394.71	21.713
395.07	21.594
395.42	22.014
395.78	23.381
396.14	21.928
396.50	21.480
396.85	20.427
397.21	22.202
397.57	22.176
397.92	21.202
398.28	21.236
398.64	22.746
399.00	21.325
399.35	21.256
399.71	21.578
400.07	21.347
400.42	21.791
400.78	20.880
401.14	21.139
401.49	20.104
401.85	21.147
402.21	21.441
402.57	21.724
402.92	21.152
403.28	20.644
403.63	21.895
403.99	21.653
404.35	21.981
404.70	22.091
405.06	21.112
405.42	21.125
405.77	21.334
406.13	21.095
406.49	21.603
406.84	21.320
407.20	21.176
407.55	21.108
407.91	22.272
408.27	22.074
408.62	21.762
408.98	22.176
409.34	21.099
409.69	21.904
410.05	21.049
410.40	20.671
410.76	20.550
411.11	21.268
411.47	20.494
411.83	20.680
412.18	21.014
412.54	21.081
412.89	20.826
413.25	21.779
413.60	21.086
413.96	20.946
414.31	21.192
414.67	21.477
415.03	21.137
415.38	21.893
415.74	21.352
416.09	22.361
416.45	22.172
416.80	22.258
417.16	20.751
417.51	21.401
417.87	21.339
418.22	20.656
418.58	21.592
418.93	22.130
419.29	20.518
419.64	21.866
420.00	23.449
420.35	21.719
420.71	21.412
421.06	21.307
421.42	21.359
421.77	21.266
422.12	21.334
422.48	20.596
422.83	21.261
423.19	21.220
423.54	22.106
423.90	22.084
424.25	22.069
424.61	22.229
424.96	21.457
425.31	22.551
425.67	21.998
426.02	21.593
426.38	21.529
426.73	21.805
427.09	21.708
427.44	22.172
427.79	21.955
428.15	22.687
428.50	22.171
428.85	22.634
429.21	21.718
429.56	22.283
429.92	21.432
430.27	22.545
430.62	21.341
430.98	21.906
431.33	21.069
431.68	21.185
432.04	22.918
432.39	22.942
432.74	22.600
433.10	22.093
433.45	22.918
433.80	22.670
434.16	22.648
434.51	22.549
434.86	22.373
435.22	21.880
435.57	22.999
435.92	24.530
436.28	23.618
436.63	22.582
436.98	24.324
437.34	23.516
437.69	21.781
438.04	23.226
438.39	24.051
438.75	23.497
439.10	23.368
439.45	23.120
439.81	24.002
440.16	24.051
440.51	23.311
440.86	24.387
441.22	23.647
441.57	23.675
441.92	23.198
442.27	23.866
442.63	22.917
442.98	23.330
443.33	23.621
443.68	23.541
444.03	23.327
444.39	23.635
444.74	23.395
445.09	24.065
445.44	24.336
445.79	23.489
446.15	23.632
446.50	24.420
446.85	24.004
447.20	23.184
447.55	24.415
447.91	24.454
448.26	24.228
448.61	24.323
448.96	23.911
449.31	24.587
449.66	24.585
450.02	24.149
450.37	23.931
450.72	24.628
451.07	24.666
451.42	24.896
451.77	24.513
452.12	24.504
452.47	24.787
452.83	26.028
453.18	24.685
453.53	24.689
453.88	24.971
454.23	25.102
454.58	24.592
454.93	24.831
455.28	26.132
455.63	25.236
455.98	24.196
456.34	25.653
456.69	25.183
457.04	24.105
457.39	24.971
457.74	25.338
458.09	24.144
458.44	25.356
458.79	24.828
459.14	24.986
459.49	25.311
459.84	25.652
460.19	25.085
460.54	25.413
460.89	25.800
461.24	24.685
461.59	26.247
461.94	25.236
462.29	25.915
462.64	25.942
462.99	25.592
463.34	25.924
463.69	26.134
464.04	26.310
464.39	25.644
464.74	25.440
465.09	25.247
465.44	26.061
465.79	25.150
466.14	25.861
466.49	25.176
466.84	25.195
467.19	26.186
467.54	24.865
467.89	24.941
468.24	25.304
468.59	25.714
468.94	25.543
469.29	26.145
469.64	25.145
469.99	25.707
470.34	26.059
470.68	25.310
471.03	26.351
471.38	25.166
471.73	25.343
472.08	26.354
472.43	24.829
472.78	27.401
473.13	25.657
473.48	26.100
473.83	27.032
474.17	25.714
474.52	26.659
474.87	25.355
475.22	25.585
475.57	25.341
475.92	26.009
476.27	25.734
476.61	26.381
476.96	26.385
477.31	25.398
477.66	27.483
478.01	25.941
478.36	26.159
478.70	26.005
479.05	26.778
479.40	26.042
479.75	26.763
480.10	25.799
480.45	26.050
480.79	25.899
481.14	25.392
481.49	26.121
481.84	25.901
482.19	25.852
482.53	25.384
482.88	25.941
483.23	25.756
483.58	26.661
483.92	26.508
484.27	26.027
484.62	26.486
484.97	25.477
485.31	25.113
485.66	25.514
486.01	24.907
486.36	24.421
486.70	24.215
487.05	24.386
487.40	24.905
487.75	25.648
488.09	24.972
488.44	25.335
488.79	25.720
489.13	25.420
489.48	26.249
489.83	26.314
490.17	26.053
490.52	26.314
490.87	26.767
491.22	27.349
491.56	26.702
491.91	26.030
492.26	26.592
492.60	27.335
492.95	26.869
493.30	26.979
493.64	26.640
493.99	26.029
494.34	26.221
494.68	25.764
495.03	26.448
495.37	27.150
495.72	26.713
496.07	26.730
496.41	26.499
496.76	26.425
497.11	26.864
497.45	27.006
497.80	27.850
498.14	26.907
498.49	26.184
498.84	27.056
499.18	26.371
499.53	26.458
499.87	26.505
500.22	26.854
500.56	26.462
500.91	26.623
501.26	27.607
501.60	27.368
501.95	26.389
502.29	27.156
502.64	26.555
502.98	26.189
503.33	27.127
503.67	27.241
504.02	27.318
504.36	27.059
504.71	27.342
505.06	27.780
505.40	26.673
505.75	26.801
506.09	27.392
506.44	27.303
506.78	27.741
507.13	27.727
507.47	27.268
507.82	27.786
508.16	28.172
508.51	27.826
508.85	27.588
509.19	27.606
509.54	27.734
509.88	27.946
510.23	27.549
510.57	26.351
510.92	28.072
511.26	28.163
511.61	27.326
511.95	28.422
512.30	27.900
512.64	27.934
512.98	27.781
513.33	28.637
513.67	28.638
514.02	28.104
514.36	27.830
514.70	28.000
515.05	28.343
515.39	28.235
515.74	28.540
516.08	29.303
516.42	29.180
516.77	28.800
517.11	28.587
517.46	28.825
517.80	28.291
518.14	28.451
518.49	28.886
518.83	28.297
519.17	28.564
519.52	28.673
519.86	29.046
520.20	29.589
520.55	28.208
520.89	28.563
521.23	30.140
521.58	28.571
521.92	28.571
522.26	28.673
522.61	29.709
522.95	29.790
523.29	28.713
523.64	28.786
523.98	28.873
524.32	28.835
524.66	29.449
525.01	28.994
525.35	29.346
525.69	29.621
526.04	29.863
526.38	29.370
526.72	29.236
527.06	29.213
527.41	30.472
527.75	29.641
528.09	28.417
528.43	29.530
528.78	28.921
529.12	31.367
529.46	29.398
529.80	28.563
530.15	29.994
530.49	29.182
530.83	29.433
531.17	29.582
531.51	29.123
531.86	28.623
532.20	29.295
532.54	29.567
532.88	29.544
533.22	29.007
533.57	29.042
533.91	28.846
534.25	28.794
534.59	29.415
534.93	28.157
535.27	28.628
535.62	29.172
535.96	27.896
536.30	30.165
536.64	28.509
536.98	30.145
537.32	29.562
537.66	28.635
538.01	28.978
538.35	29.008
538.69	29.308
539.03	28.856
539.37	28.277
539.71	29.630
540.05	29.354
540.39	29.937
540.73	29.430
541.07	29.046
541.42	29.229
541.76	29.285
542.10	28.113
542.44	28.741
542.78	29.893
543.12	28.834
543.46	29.135
543.80	28.885
544.14	29.845
544.48	29.623
544.82	28.930
545.16	28.172
545.50	29.010
545.84	28.662
546.18	30.234
546.52	29.770
546.86	29.658
547.20	29.199
547.54	29.132
547.88	29.562
548.22	30.419
548.56	28.874
548.90	28.707
549.24	29.438
549.58	29.961
549.92	28.880
550.26	30.358
550.60	29.142
550.94	29.240
551.28	30.552
551.62	31.724
551.96	29.865
552.30	28.609
552.64	29.644
552.98	29.575
553.32	29.770
553.66	30.228
554.00	29.408
554.34	30.493
554.68	29.839
555.02	30.075
555.36	29.455
555.69	29.254
556.03	30.191
556.37	30.147
556.71	30.574
557.05	29.161
557.39	30.533
557.73	30.458
558.07	30.047
558.41	30.021
558.75	29.822
559.08	30.879
559.42	30.208
559.76	30.435
560.10	29.732
560.44	30.060
560.78	29.412
561.12	29.816
561.45	29.725
561.79	29.838
562.13	28.932
562.47	30.240
562.81	29.343
563.15	30.381
563.48	29.006
563.82	29.382
564.16	30.162
564.50	29.415
564.84	28.936
565.17	28.105
565.51	29.803
565.85	29.981
566.19	28.869
566.52	29.122
566.86	29.772
567.20	29.663
567.54	28.821
567.88	28.847
568.21	27.958
568.55	28.307
568.89	28.193
569.23	27.912
569.56	28.235
569.90	27.165
570.24	27.700
570.57	27.385
570.91	26.615
571.25	26.868
571.59	26.650
571.92	26.372
572.26	27.008
572.60	26.243
572.93	27.142
573.27	26.852
573.61	26.475
573.95	26.345
574.28	26.612
574.62	26.432
574.96	26.447
575.29	26.556
575.63	26.313
575.97	26.680
576.30	25.943
576.64	26.271
576.98	25.958
577.31	26.674
577.65	26.052
577.98	26.342
578.32	25.624
578.66	26.283
578.99	26.600
579.33	26.410
579.67	26.148
580.00	25.843
580.34	25.995
580.67	26.107
581.01	26.596
581.35	26.058
581.68	26.293
582.02	25.942
582.35	25.565
582.69	26.571
583.02	26.207
583.36	26.366
583.70	26.654
584.03	27.020
584.37	26.729
584.70	26.225
585.04	26.315
585.37	26.533
585.71	26.944
586.04	26.181
586.38	26.718
586.72	26.976
587.05	27.149
587.39	27.231
587.72	26.885
588.06	26.496
588.39	27.021
588.73	27.023
589.06	26.758
589.40	27.042
589.73	27.073
590.07	27.591
590.40	27.944
590.73	28.388
591.07	28.046
591.40	27.784
591.74	27.597
592.07	27.621
592.41	28.497
592.74	27.719
593.08	27.409
593.41	27.558
593.75	26.794
594.08	26.948
594.41	26.979
594.75	27.671
595.08	27.469
595.42	27.551
595.75	27.345
596.09	27.981
596.42	27.713
596.75	28.686
597.09	27.941
597.42	28.286
597.75	27.992
598.09	28.355
598.42	28.397
598.76	27.525
599.09	28.135
599.42	27.958
599.76	28.256
600.09	27.627
600.42	28.280
600.76	27.634
601.09	27.856
601.42	27.807
601.76	27.891
602.09	28.256
602.42	27.579
602.76	27.894
603.09	28.582
603.42	27.780
603.76	27.151
604.09	27.543
604.42	28.098
604.76	27.934
605.09	27.469
605.42	28.362
605.75	28.425
606.09	28.462
606.42	27.884
606.75	27.711
607.09	27.201
607.42	28.043
607.75	28.424
608.08	28.310
608.42	28.523
608.75	27.856
609.08	27.893
609.41	28.182
609.75	28.709
610.08	28.103
610.41	28.678
610.74	28.745
611.07	28.331
611.41	28.823
611.74	28.681
612.07	28.372
612.40	28.850
612.73	29.356
613.07	28.789
613.40	29.273
613.73	29.206
614.06	27.250
614.39	28.586
614.72	28.729
615.06	28.536
615.39	28.614
615.72	28.267
616.05	28.780
616.38	28.869
616.71	29.137
617.05	28.885
617.38	28.371
617.71	29.078
618.04	29.052
618.37	28.349
618.70	28.811
619.03	29.365
619.36	29.334
619.69	29.288
620.03	30.528
620.36	29.544
620.69	30.204
621.02	29.348
621.35	29.441
621.68	31.416
622.01	29.373
622.34	29.934
622.67	29.565
623.00	28.863
623.33	29.082
623.66	29.142
623.99	29.247
624.32	29.404
624.65	29.361
624.99	29.953
625.32	29.793
625.65	29.931
625.98	29.707
626.31	30.267
626.64	29.992
626.97	28.692
627.30	29.425
627.63	30.298
627.96	28.951
628.29	31.848
628.62	30.710
628.95	31.560
629.28	31.113
629.61	30.492
629.94	29.905
630.26	30.243
630.59	31.206
630.92	30.583
631.25	31.369
631.58	31.437
631.91	30.542
