SpectraSuite Data File
++++++++++++++++++++++++++++++++++++
Date: Tue May 12 15:34:44 PDT 2015
User: schluterlab
Dark Spectrum Present: Yes
Reference Spectrum Present: Yes
Number of Sampled Component Spectra: 1
Spectrometers: USB2E3373
Integration Time (usec): 3000 (USB2E3373)
Spectra Averaged: 3 (USB2E3373)
Boxcar Smoothing: 0 (USB2E3373)
Correct for Electrical Dark: No (USB2E3373)
Strobe/Lamp Enabled: No (USB2E3373)
Correct for Detector Non-linearity: No (USB2E3373)
Correct for Stray Light: No (USB2E3373)
Number of Pixels in Processed Spectrum: 2048
>>>>>Begin Processed Spectral Data<<<<<
178.53	0.000
178.91	-216.667
179.29	-725.000
179.67	-3800.000
180.04	-140.000
180.42	800.000
180.80	1650.000
181.18	0.000
181.56	-375.000
181.94	0.000
182.31	1133.333
182.69	-3700.000
183.07	585.714
183.45	-2800.000
183.83	-1500.000
184.20	320.000
184.58	514.286
184.96	-261.538
185.34	-166.667
185.72	2250.000
186.09	-800.000
186.47	-3500.000
186.85	866.667
187.23	560.000
187.61	1850.000
187.98	537.500
188.36	271.429
188.74	308.333
189.12	358.333
189.49	925.000
189.87	0.000
190.25	525.000
190.63	1900.000
191.00	-216.667
191.38	-3600.000
191.76	-675.000
192.14	575.000
192.51	-2600.000
192.89	1650.000
193.27	800.000
193.65	-933.333
194.02	-680.000
194.40	457.143
194.78	-171.429
195.15	273.333
195.53	-3600.000
195.91	-580.000
196.29	3800.000
196.66	243.750
197.04	900.000
197.42	-1750.000
197.79	850.000
198.17	341.667
198.55	0.000
198.92	585.714
199.30	1400.000
199.68	1850.000
200.05	650.000
200.43	-450.000
200.81	244.444
201.18	3100.000
201.56	341.667
201.94	-825.000
202.31	-387.500
202.69	-600.000
203.07	3200.000
203.44	-483.333
203.82	333.333
204.19	780.000
204.57	-1150.000
204.95	-750.000
205.32	-580.000
205.70	550.000
206.08	925.000
206.45	-733.333
206.83	444.444
207.20	189.474
207.58	316.667
207.96	720.000
208.33	0.000
208.71	528.571
209.08	700.000
209.46	-3000.000
209.84	-850.000
210.21	680.000
210.59	-500.000
210.96	258.333
211.34	-925.000
211.71	409.091
212.09	950.000
212.46	1750.000
212.84	-366.667
213.22	400.000
213.59	-2300.000
213.97	280.000
214.34	1000.000
214.72	1100.000
215.09	1233.333
215.47	-3400.000
215.84	-390.000
216.22	-300.000
216.59	0.000
216.97	0.000
217.34	1200.000
217.72	-1550.000
218.09	1166.667
218.47	550.000
218.84	850.000
219.22	1000.000
219.59	866.667
219.97	542.857
220.34	400.000
220.72	2050.000
221.09	3200.000
221.47	250.000
221.84	833.333
222.22	410.000
222.59	238.889
222.97	228.571
223.34	306.250
223.72	-1600.000
224.09	1266.667
224.46	238.462
224.84	-725.000
225.21	488.889
225.59	233.333
225.96	1300.000
226.34	-980.000
226.71	-700.000
227.08	-600.000
227.46	0.000
227.83	-533.333
228.21	-1700.000
228.58	375.000
228.95	775.000
229.33	411.111
229.70	875.000
230.08	284.615
230.45	4000.000
230.82	-925.000
231.20	-1000.000
231.57	-1000.000
231.95	440.000
232.32	241.667
232.69	550.000
233.07	266.667
233.44	-1900.000
233.81	260.000
234.19	170.370
234.56	187.500
234.93	170.588
235.31	210.000
235.68	275.000
236.05	160.714
236.43	162.963
236.80	250.000
237.17	168.966
237.55	131.250
237.92	122.500
238.29	118.182
238.67	112.500
239.04	114.634
239.41	79.167
239.79	77.500
240.16	81.250
240.53	72.131
240.91	72.464
241.28	69.492
241.65	72.727
242.02	74.648
242.40	65.714
242.77	48.352
243.14	55.696
243.51	59.596
243.89	45.794
244.26	58.879
244.63	45.545
245.00	51.376
245.38	29.661
245.75	46.212
246.12	43.704
246.49	38.298
246.87	31.967
247.24	41.333
247.61	41.250
247.98	40.136
248.36	30.303
248.73	41.837
249.10	29.762
249.47	36.500
249.84	35.323
250.22	35.135
250.59	36.000
250.96	33.333
251.33	28.372
251.70	26.786
252.08	30.252
252.45	33.466
252.82	24.335
253.19	26.482
253.56	24.231
253.94	30.435
254.31	28.682
254.68	25.436
255.05	28.276
255.42	27.007
255.79	28.339
256.16	30.169
256.54	25.649
256.91	28.758
257.28	27.759
257.65	23.197
258.02	23.599
258.39	25.788
258.76	26.377
259.14	26.571
259.51	26.822
259.88	25.228
260.25	22.527
260.62	24.658
260.99	23.967
261.36	22.841
261.73	24.202
262.10	26.963
262.47	24.500
262.85	21.600
263.22	24.936
263.59	26.343
263.96	24.311
264.33	21.481
264.70	25.307
265.07	22.927
265.44	22.018
265.81	23.349
266.18	22.426
266.55	21.986
266.92	22.148
267.29	21.272
267.66	23.991
268.03	21.749
268.40	21.987
268.77	24.670
269.14	21.909
269.51	22.494
269.88	23.878
270.25	20.734
270.62	22.103
270.99	22.515
271.36	22.561
271.73	20.755
272.10	21.818
272.47	21.429
272.84	18.762
273.21	18.595
273.58	20.850
273.95	21.355
274.32	21.790
274.69	21.850
275.06	23.315
275.43	20.307
275.80	22.075
276.17	21.324
276.54	22.243
276.91	24.254
277.28	21.168
277.65	21.587
278.02	18.566
278.39	20.144
278.76	20.690
279.13	19.217
279.50	18.727
279.87	20.298
280.23	19.705
280.60	21.533
280.97	20.172
281.34	19.637
281.71	21.043
282.08	20.684
282.45	19.088
282.82	20.569
283.19	21.304
283.56	20.992
283.92	20.358
284.29	20.466
284.66	18.655
285.03	18.574
285.40	18.182
285.77	17.901
286.14	19.969
286.51	18.712
286.87	16.772
287.24	16.366
287.61	18.541
287.98	17.463
288.35	19.111
288.72	17.906
289.08	19.520
289.45	16.463
289.82	17.500
290.19	17.130
290.56	18.341
290.93	18.993
291.29	17.265
291.66	18.785
292.03	17.111
292.40	16.125
292.77	16.992
293.13	16.405
293.50	16.599
293.87	15.041
294.24	16.643
294.60	16.285
294.97	17.063
295.34	16.866
295.71	15.769
296.08	16.400
296.44	15.629
296.81	15.012
297.18	14.702
297.55	15.394
297.91	14.901
298.28	15.338
298.65	15.583
299.02	15.440
299.38	14.988
299.75	14.146
300.12	15.138
300.48	15.691
300.85	15.733
301.22	15.465
301.59	14.033
301.95	14.936
302.32	14.785
302.69	14.593
303.05	15.039
303.42	14.462
303.79	13.868
304.15	14.191
304.52	13.742
304.89	14.925
305.25	14.349
305.62	14.072
305.99	13.587
306.35	14.526
306.72	13.215
307.09	13.665
307.45	13.094
307.82	13.477
308.19	13.918
308.55	13.400
308.92	14.426
309.29	15.779
309.65	12.785
310.02	15.010
310.38	13.260
310.75	12.729
311.12	13.410
311.48	15.058
311.85	14.695
312.22	14.231
312.58	11.856
312.95	13.495
313.31	13.951
313.68	13.790
314.05	13.919
314.41	13.128
314.78	13.447
315.14	13.270
315.51	14.002
315.87	12.500
316.24	13.259
316.61	13.697
316.97	12.752
317.34	13.297
317.70	12.818
318.07	13.256
318.43	14.060
318.80	13.748
319.16	14.336
319.53	12.743
319.89	13.530
320.26	15.084
320.62	13.095
320.99	14.395
321.35	13.173
321.72	14.231
322.08	14.497
322.45	13.079
322.81	12.168
323.18	12.966
323.54	14.373
323.91	14.234
324.27	14.943
324.64	13.322
325.00	13.793
325.37	13.069
325.73	14.250
326.10	15.244
326.46	13.212
326.83	13.280
327.19	14.056
327.56	12.460
327.92	14.180
328.29	13.830
328.65	14.640
329.01	14.371
329.38	14.213
329.74	14.176
330.11	13.814
330.47	13.981
330.84	12.252
331.20	12.860
331.56	15.630
331.93	13.687
332.29	13.180
332.66	13.861
333.02	13.746
333.38	13.438
333.75	15.430
334.11	13.339
334.48	14.444
334.84	13.007
335.20	14.542
335.57	13.938
335.93	13.204
336.29	13.101
336.66	13.551
337.02	12.575
337.38	13.414
337.75	12.247
338.11	13.924
338.47	13.548
338.84	13.124
339.20	11.948
339.56	13.120
339.93	13.629
340.29	12.521
340.65	12.741
341.02	13.998
341.38	12.479
341.74	12.458
342.11	12.104
342.47	11.895
342.83	13.700
343.20	13.581
343.56	11.994
343.92	12.304
344.28	13.078
344.65	13.284
345.01	12.381
345.37	12.580
345.73	13.413
346.10	11.952
346.46	13.716
346.82	12.114
347.19	14.529
347.55	12.100
347.91	12.236
348.27	11.077
348.63	11.867
349.00	13.252
349.36	12.529
349.72	13.073
350.08	12.112
350.45	13.024
350.81	12.997
351.17	11.325
351.53	11.701
351.89	12.277
352.26	12.850
352.62	12.293
352.98	12.577
353.34	13.251
353.70	11.391
354.07	12.077
354.43	12.903
354.79	11.390
355.15	11.715
355.51	12.009
355.87	12.726
356.24	12.625
356.60	11.948
356.96	11.751
357.32	12.434
357.68	12.408
358.04	12.234
358.40	12.219
358.77	12.697
359.13	12.538
359.49	11.119
359.85	12.658
360.21	11.218
360.57	12.263
360.93	12.266
361.29	12.554
361.66	12.155
362.02	11.009
362.38	11.400
362.74	12.385
363.10	11.641
363.46	11.948
363.82	12.412
364.18	12.945
364.54	11.946
364.90	13.119
365.26	12.700
365.62	12.086
365.98	12.044
366.35	10.138
366.71	12.283
367.07	12.491
367.43	12.424
367.79	11.769
368.15	11.398
368.51	11.992
368.87	12.092
369.23	11.019
369.59	12.205
369.95	12.098
370.31	11.431
370.67	12.491
371.03	12.745
371.39	11.219
371.75	12.491
372.11	12.373
372.47	12.329
372.83	11.965
373.19	12.474
373.55	11.890
373.91	10.843
374.27	12.500
374.63	12.136
374.99	12.129
375.35	11.492
375.71	12.599
376.07	12.069
376.42	10.870
376.78	12.267
377.14	11.992
377.50	12.422
377.86	11.851
378.22	11.578
378.58	12.772
378.94	12.010
379.30	11.340
379.66	12.222
380.02	12.551
380.38	11.066
380.74	12.572
381.09	12.091
381.45	11.329
381.81	11.643
382.17	11.050
382.53	11.698
382.89	11.827
383.25	12.078
383.61	12.161
383.97	11.638
384.32	11.392
384.68	12.953
385.04	12.075
385.40	11.566
385.76	11.527
386.12	12.369
386.48	12.462
386.83	12.225
387.19	11.661
387.55	12.603
387.91	12.471
388.27	12.255
388.62	12.265
388.98	11.778
389.34	11.779
389.70	11.675
390.06	12.195
390.42	12.153
390.77	12.285
391.13	12.251
391.49	12.462
391.85	12.615
392.20	12.217
392.56	12.246
392.92	11.454
393.28	12.220
393.64	11.812
393.99	11.381
394.35	11.772
394.71	12.244
395.07	11.496
395.42	11.417
395.78	12.523
396.14	13.313
396.50	11.913
396.85	11.890
397.21	11.733
397.57	11.835
397.92	11.381
398.28	11.748
398.64	12.565
399.00	11.652
399.35	11.057
399.71	11.479
400.07	12.043
400.42	11.522
400.78	11.613
401.14	12.507
401.49	11.866
401.85	12.399
402.21	11.658
402.57	11.730
402.92	11.273
403.28	11.337
403.63	12.125
403.99	12.002
404.35	12.603
404.70	12.522
405.06	11.286
405.42	12.089
405.77	12.404
406.13	11.876
406.49	11.654
406.84	11.788
407.20	11.758
407.55	12.185
407.91	12.189
408.27	12.614
408.62	11.768
408.98	11.709
409.34	11.280
409.69	11.699
410.05	11.091
410.40	11.896
410.76	11.048
411.11	11.078
411.47	11.914
411.83	11.072
412.18	11.775
412.54	12.252
412.89	11.209
413.25	12.429
413.60	11.449
413.96	11.490
414.31	11.629
414.67	12.353
415.03	10.792
415.38	11.924
415.74	11.560
416.09	12.617
416.45	12.411
416.80	11.802
417.16	11.203
417.51	11.847
417.87	11.076
418.22	11.665
418.58	12.038
418.93	11.541
419.29	10.906
419.64	11.932
420.00	12.291
420.35	11.266
420.71	12.019
421.06	11.477
421.42	11.399
421.77	11.383
422.12	11.521
422.48	11.299
422.83	11.942
423.19	11.447
423.54	11.739
423.90	11.608
424.25	11.833
424.61	11.956
424.96	10.672
425.31	11.275
425.67	10.887
426.02	11.834
426.38	11.027
426.73	11.510
427.09	11.210
427.44	11.649
427.79	10.692
428.15	11.903
428.50	12.114
428.85	10.700
429.21	11.615
429.56	10.668
429.92	11.636
430.27	10.547
430.62	11.062
430.98	10.978
431.33	10.635
431.68	10.667
432.04	11.330
432.39	11.361
432.74	11.593
433.10	10.576
433.45	11.775
433.80	11.418
434.16	11.035
434.51	11.042
434.86	11.595
435.22	10.859
435.57	11.381
435.92	11.838
436.28	11.924
436.63	11.291
436.98	11.374
437.34	11.644
437.69	11.086
438.04	11.075
438.39	11.734
438.75	11.414
439.10	11.279
439.45	11.588
439.81	11.452
440.16	11.943
440.51	11.824
440.86	12.137
441.22	11.418
441.57	11.706
441.92	11.106
442.27	10.928
442.63	11.535
442.98	10.991
443.33	11.784
443.68	11.821
444.03	10.980
444.39	11.488
444.74	11.232
445.09	10.479
445.44	11.583
445.79	11.160
446.15	11.316
446.50	11.023
446.85	11.504
447.20	10.945
447.55	10.658
447.91	11.987
448.26	11.555
448.61	11.664
448.96	11.438
449.31	12.046
449.66	11.185
450.02	11.237
450.37	11.049
450.72	11.956
451.07	11.751
451.42	11.855
451.77	11.798
452.12	11.798
452.47	12.333
452.83	11.549
453.18	12.492
453.53	11.664
453.88	12.171
454.23	11.621
454.58	12.179
454.93	11.159
455.28	12.546
455.63	12.293
455.98	11.788
456.34	13.313
456.69	11.585
457.04	12.053
457.39	11.600
457.74	12.331
458.09	11.791
458.44	12.103
458.79	11.512
459.14	11.238
459.49	12.514
459.84	11.250
460.19	11.751
460.54	12.080
460.89	11.834
461.24	12.257
461.59	12.188
461.94	11.939
462.29	12.757
462.64	12.688
462.99	12.860
463.34	12.249
463.69	13.249
464.04	11.572
464.39	12.250
464.74	10.492
465.09	12.478
465.44	11.970
465.79	11.541
466.14	11.341
466.49	11.069
466.84	11.037
467.19	12.127
467.54	12.132
467.89	12.207
468.24	11.986
468.59	10.952
468.94	12.017
469.29	12.523
469.64	11.961
469.99	12.404
470.34	11.891
470.68	12.414
471.03	12.742
471.38	12.185
471.73	12.345
472.08	12.720
472.43	12.539
472.78	12.804
473.13	12.203
473.48	12.164
473.83	12.839
474.17	12.401
474.52	12.559
474.87	11.995
475.22	12.279
475.57	11.700
475.92	12.264
476.27	11.262
476.61	11.260
476.96	12.539
477.31	12.185
477.66	12.024
478.01	12.378
478.36	11.946
478.70	11.414
479.05	12.238
479.40	12.004
479.75	12.512
480.10	12.149
480.45	11.765
480.79	11.935
481.14	10.937
481.49	11.619
481.84	11.873
482.19	12.489
482.53	11.506
482.88	11.290
483.23	11.367
483.58	11.670
483.92	12.294
484.27	11.515
484.62	12.054
484.97	11.297
485.31	10.603
485.66	10.807
486.01	10.305
486.36	9.632
486.70	9.535
487.05	10.071
487.40	10.043
487.75	10.451
488.09	11.193
488.44	11.058
488.79	11.732
489.13	11.012
489.48	11.466
489.83	11.593
490.17	11.189
490.52	12.102
490.87	11.767
491.22	12.012
491.56	12.253
491.91	12.410
492.26	11.893
492.60	11.982
492.95	11.509
493.30	12.102
493.64	12.668
493.99	12.388
494.34	11.475
494.68	11.819
495.03	12.124
495.37	12.067
495.72	12.914
496.07	11.680
496.41	11.859
496.76	12.199
497.11	12.425
497.45	12.582
497.80	11.956
498.14	12.020
498.49	12.953
498.84	12.336
499.18	11.700
499.53	12.035
499.87	11.995
500.22	12.114
500.56	12.210
500.91	12.523
501.26	12.219
501.60	12.477
501.95	11.828
502.29	12.533
502.64	11.866
502.98	11.961
503.33	12.428
503.67	13.333
504.02	12.360
504.36	11.719
504.71	12.441
505.06	12.670
505.40	11.839
505.75	12.208
506.09	12.552
506.44	12.547
506.78	12.665
507.13	12.118
507.47	12.712
507.82	12.749
508.16	12.886
508.51	12.802
508.85	12.773
509.19	12.628
509.54	13.623
509.88	13.277
510.23	12.990
510.57	12.017
510.92	12.887
511.26	13.504
511.61	12.949
511.95	13.141
512.30	13.350
512.64	12.721
512.98	12.814
513.33	13.064
513.67	13.206
514.02	12.883
514.36	12.150
514.70	13.600
515.05	12.733
515.39	13.158
515.74	12.739
516.08	12.582
516.42	13.661
516.77	13.653
517.11	13.227
517.46	13.793
517.80	12.561
518.14	13.690
518.49	12.789
518.83	12.637
519.17	13.699
519.52	13.162
519.86	13.733
520.20	14.630
520.55	13.171
520.89	13.161
521.23	13.259
521.58	13.138
521.92	13.819
522.26	12.915
522.61	13.488
522.95	13.934
523.29	13.626
523.64	13.642
523.98	14.202
524.32	13.841
524.66	13.797
525.01	13.491
525.35	13.789
525.69	13.365
526.04	14.456
526.38	13.596
526.72	13.902
527.06	13.838
527.41	14.450
527.75	14.242
528.09	13.606
528.43	14.216
528.78	13.894
529.12	14.148
529.46	13.442
529.80	13.668
530.15	13.612
530.49	12.936
530.83	13.102
531.17	13.715
531.51	14.040
531.86	13.889
532.20	13.473
532.54	13.308
532.88	13.179
533.22	14.199
533.57	13.423
533.91	12.704
534.25	13.041
534.59	13.450
534.93	13.652
535.27	12.920
535.62	13.594
535.96	13.121
536.30	14.442
536.64	13.727
536.98	13.719
537.32	14.500
537.66	13.457
538.01	14.118
538.35	14.410
538.69	12.803
539.03	13.495
539.37	13.835
539.71	12.778
540.05	12.800
540.39	13.522
540.73	13.544
541.07	13.237
541.42	13.619
541.76	14.427
542.10	13.933
542.44	13.716
542.78	13.593
543.12	12.945
543.46	12.719
543.80	14.098
544.14	12.879
544.48	13.443
544.82	13.150
545.16	13.358
545.50	13.153
545.84	14.015
546.18	14.694
546.52	14.951
546.86	14.571
547.20	13.760
547.54	14.060
547.88	13.869
548.22	13.175
548.56	13.789
548.90	13.464
549.24	13.329
549.58	13.724
549.92	14.342
550.26	13.590
550.60	13.839
550.94	14.518
551.28	14.276
551.62	14.207
551.96	13.446
552.30	12.722
552.64	14.369
552.98	12.822
553.32	13.252
553.66	13.876
554.00	14.286
554.34	14.514
554.68	14.382
555.02	13.442
555.36	14.162
555.69	14.332
556.03	13.885
556.37	14.022
556.71	14.993
557.05	13.630
557.39	13.667
557.73	14.151
558.07	14.353
558.41	14.256
558.75	14.364
559.08	14.653
559.42	14.030
559.76	14.683
560.10	13.145
560.44	12.674
560.78	13.747
561.12	13.605
561.45	13.079
561.79	12.921
562.13	13.076
562.47	13.043
562.81	13.923
563.15	13.769
563.48	12.981
563.82	14.286
564.16	14.241
564.50	13.382
564.84	13.617
565.17	13.607
565.51	13.732
565.85	13.510
566.19	13.571
566.52	13.418
566.86	13.368
567.20	12.978
567.54	12.828
567.88	13.302
568.21	12.332
568.55	12.403
568.89	12.682
569.23	12.166
569.56	11.661
569.90	11.319
570.24	11.312
570.57	11.162
570.91	11.326
571.25	11.121
571.59	10.462
571.92	11.033
572.26	10.243
572.60	10.414
572.93	11.242
573.27	10.339
573.61	10.666
573.95	10.732
574.28	10.397
574.62	10.550
574.96	10.285
575.29	10.165
575.63	10.224
575.97	10.127
576.30	9.972
576.64	10.606
576.98	10.425
577.31	10.638
577.65	10.329
577.98	10.140
578.32	9.855
578.66	9.759
578.99	9.922
579.33	10.397
579.67	10.108
580.00	10.250
580.34	10.058
580.67	10.000
581.01	10.643
581.35	10.197
581.68	9.638
582.02	9.570
582.35	9.620
582.69	9.855
583.02	9.983
583.36	10.399
583.70	10.791
584.03	10.490
584.37	10.449
584.70	10.575
585.04	10.064
585.37	9.941
585.71	10.562
586.04	10.287
586.38	9.959
586.72	10.193
587.05	10.834
587.39	10.190
587.72	10.393
588.06	10.156
588.39	10.415
588.73	10.488
589.06	10.622
589.40	10.861
589.73	10.947
590.07	10.913
590.40	11.463
590.73	11.091
591.07	11.499
591.40	11.537
591.74	11.364
592.07	10.732
592.41	11.751
592.74	10.875
593.08	10.449
593.41	10.383
593.75	10.161
594.08	10.471
594.41	11.046
594.75	10.753
595.08	10.631
595.42	10.764
595.75	10.990
596.09	11.053
596.42	11.180
596.75	10.978
597.09	11.886
597.42	11.306
597.75	11.034
598.09	10.997
598.42	11.628
598.76	11.527
599.09	11.217
599.42	10.104
599.76	10.787
600.09	10.847
600.42	10.601
600.76	10.367
601.09	10.942
601.42	10.700
601.76	10.992
602.09	10.706
602.42	10.573
602.76	11.082
603.09	11.275
603.42	11.413
603.76	10.774
604.09	10.785
604.42	10.923
604.76	11.379
605.09	10.776
605.42	11.296
605.75	11.212
606.09	11.285
606.42	11.199
606.75	11.310
607.09	10.778
607.42	11.290
607.75	11.146
608.08	11.210
608.42	11.451
608.75	11.211
609.08	11.087
609.41	11.955
609.75	11.722
610.08	11.691
610.41	11.375
610.74	11.299
611.07	11.232
611.41	11.770
611.74	11.472
612.07	11.272
612.40	11.452
612.73	11.982
613.07	12.063
613.40	11.629
613.73	12.781
614.06	11.850
614.39	12.071
614.72	11.552
615.06	11.968
615.39	11.881
615.72	11.520
616.05	12.205
616.38	11.872
616.71	12.371
617.05	12.081
617.38	11.798
617.71	12.205
618.04	11.890
618.37	11.729
618.70	12.298
619.03	11.905
619.36	12.249
619.69	12.599
620.03	12.785
620.36	12.139
620.69	13.282
621.02	12.228
621.35	12.106
621.68	13.717
622.01	13.358
622.34	12.309
622.67	13.904
623.00	13.479
623.33	12.955
623.66	13.240
623.99	12.671
624.32	12.940
624.65	13.232
624.99	12.914
625.32	13.627
625.65	12.483
625.98	13.319
626.31	13.131
626.64	12.756
626.97	12.854
627.30	12.966
627.63	13.736
627.96	13.537
628.29	13.201
628.62	13.516
628.95	14.539
629.28	15.513
629.61	13.796
629.94	14.693
630.26	13.518
630.59	15.160
630.92	14.529
631.25	16.228
631.58	13.983
