SpectraSuite Data File
++++++++++++++++++++++++++++++++++++
Date: Tue May 12 16:38:09 PDT 2015
User: schluterlab
Dark Spectrum Present: Yes
Reference Spectrum Present: Yes
Number of Sampled Component Spectra: 1
Spectrometers: USB2E3373
Integration Time (usec): 3000 (USB2E3373)
Spectra Averaged: 3 (USB2E3373)
Boxcar Smoothing: 0 (USB2E3373)
Correct for Electrical Dark: No (USB2E3373)
Strobe/Lamp Enabled: No (USB2E3373)
Correct for Detector Non-linearity: No (USB2E3373)
Correct for Stray Light: No (USB2E3373)
Number of Pixels in Processed Spectrum: 2048
>>>>>Begin Processed Spectral Data<<<<<
178.53	0.000
178.91	-175.000
179.29	-550.000
179.67	-3100.000
180.04	-166.667
180.42	425.000
180.80	1650.000
181.18	0.000
181.56	-225.000
181.94	0.000
182.31	933.333
182.69	-2700.000
183.07	628.571
183.45	-3600.000
183.83	-1150.000
184.20	340.000
184.58	514.286
184.96	-223.077
185.34	-100.000
185.72	1500.000
186.09	-625.000
186.47	-3800.000
186.85	900.000
187.23	700.000
187.61	1750.000
187.98	550.000
188.36	292.857
188.74	266.667
189.12	308.333
189.49	925.000
189.87	0.000
190.25	462.500
190.63	2300.000
191.00	-200.000
191.38	-3500.000
191.76	-825.000
192.14	450.000
192.51	-2300.000
192.89	1700.000
193.27	1233.333
193.65	-1066.667
194.02	-760.000
194.40	528.571
194.78	-164.286
195.15	240.000
195.53	-3100.000
195.91	-600.000
196.29	3400.000
196.66	225.000
197.04	650.000
197.42	-1550.000
197.79	375.000
198.17	325.000
198.55	0.000
198.92	571.429
199.30	1500.000
199.68	1850.000
200.05	583.333
200.43	-483.333
200.81	183.333
201.18	3100.000
201.56	250.000
201.94	-650.000
202.31	-400.000
202.69	-460.000
203.07	2100.000
203.44	-350.000
203.82	341.667
204.19	600.000
204.57	-1400.000
204.95	-775.000
205.32	-560.000
205.70	600.000
206.08	800.000
206.45	-700.000
206.83	300.000
207.20	168.421
207.58	266.667
207.96	620.000
208.33	0.000
208.71	500.000
209.08	480.000
209.46	-2900.000
209.84	-600.000
210.21	940.000
210.59	-420.000
210.96	266.667
211.34	-900.000
211.71	381.818
212.09	650.000
212.46	1450.000
212.84	-350.000
213.22	366.667
213.59	-3000.000
213.97	340.000
214.34	800.000
214.72	1066.667
215.09	1100.000
215.47	-2800.000
215.84	-260.000
216.22	-337.500
216.59	0.000
216.97	0.000
217.34	1450.000
217.72	-1150.000
218.09	1000.000
218.47	400.000
218.84	875.000
219.22	1100.000
219.59	966.667
219.97	485.714
220.34	311.111
220.72	1800.000
221.09	2700.000
221.47	325.000
221.84	1000.000
222.22	240.000
222.59	233.333
222.97	171.429
223.34	250.000
223.72	-1450.000
224.09	1033.333
224.46	161.538
224.84	-1000.000
225.21	288.889
225.59	273.333
225.96	1233.333
226.34	-460.000
226.71	-800.000
227.08	-540.000
227.46	0.000
227.83	-633.333
228.21	-1650.000
228.58	333.333
228.95	975.000
229.33	455.556
229.70	750.000
230.08	346.154
230.45	4100.000
230.82	-550.000
231.20	-833.333
231.57	-1033.333
231.95	620.000
232.32	200.000
232.69	466.667
233.07	258.333
233.44	-1350.000
233.81	273.333
234.19	140.741
234.56	156.250
234.93	211.765
235.31	215.000
235.68	231.250
236.05	160.714
236.43	133.333
236.80	221.429
237.17	110.345
237.55	106.250
237.92	107.500
238.29	96.970
238.67	118.750
239.04	82.927
239.41	70.833
239.79	100.000
240.16	87.500
240.53	54.098
240.91	60.870
241.28	67.797
241.65	63.636
242.02	76.056
242.40	62.857
242.77	52.747
243.14	35.443
243.51	55.556
243.89	45.794
244.26	47.664
244.63	45.545
245.00	40.367
245.38	45.763
245.75	40.152
246.12	48.148
246.49	33.333
246.87	31.967
247.24	39.333
247.61	42.500
247.98	40.816
248.36	36.364
248.73	41.837
249.10	32.738
249.47	35.000
249.84	40.796
250.22	35.135
250.59	35.500
250.96	29.536
251.33	33.488
251.70	33.482
252.08	35.714
252.45	30.279
252.82	27.757
253.19	32.411
253.56	30.000
253.94	27.536
254.31	29.070
254.68	30.314
255.05	32.069
255.42	28.467
255.79	29.316
256.16	28.136
256.54	33.117
256.91	25.163
257.28	25.753
257.65	26.332
258.02	26.844
258.39	32.378
258.76	31.594
259.14	27.429
259.51	28.863
259.88	33.131
260.25	27.747
260.62	26.575
260.99	24.793
261.36	27.019
261.73	25.532
262.10	29.843
262.47	27.250
262.85	25.333
263.22	27.249
263.59	26.854
263.96	26.566
264.33	26.914
264.70	29.484
265.07	25.854
265.44	27.523
265.81	28.066
266.18	27.231
266.55	25.532
266.92	26.846
267.29	26.316
267.66	24.439
268.03	24.888
268.40	26.216
268.77	25.771
269.14	24.729
269.51	23.831
269.88	28.367
270.25	21.382
270.62	24.893
270.99	24.341
271.36	26.829
271.73	24.738
272.10	23.434
272.47	24.802
272.84	23.353
273.21	25.207
273.58	26.113
273.95	25.051
274.32	24.514
274.69	25.787
275.06	24.044
275.43	23.755
275.80	24.151
276.17	24.081
276.54	26.542
276.91	26.679
277.28	22.993
277.65	23.616
278.02	23.529
278.39	23.201
278.76	25.345
279.13	22.598
279.50	24.000
279.87	24.395
280.23	23.204
280.60	23.905
280.97	23.621
281.34	21.617
281.71	25.565
282.08	24.786
282.45	22.128
282.82	23.746
283.19	23.052
283.56	22.810
283.92	22.150
284.29	23.960
284.66	22.185
285.03	23.549
285.40	21.818
285.77	22.994
286.14	24.923
286.51	22.853
286.87	19.937
287.24	21.021
287.61	22.340
287.98	23.134
288.35	21.630
288.72	20.789
289.08	21.171
289.45	23.171
289.82	24.375
290.19	22.255
290.56	22.271
290.93	21.871
291.29	21.409
291.66	20.056
292.03	20.617
292.40	20.867
292.77	20.474
293.13	20.685
293.50	20.783
293.87	17.751
294.24	21.678
294.60	19.381
294.97	21.538
295.34	20.053
295.71	21.288
296.08	21.467
296.44	21.601
296.81	18.859
297.18	20.152
297.55	19.828
297.91	18.596
298.28	19.807
298.65	19.141
299.02	19.903
299.38	18.465
299.75	19.512
300.12	19.037
300.48	19.906
300.85	19.547
301.22	19.419
301.59	18.514
301.95	18.086
302.32	20.722
302.69	21.380
303.05	20.651
303.42	19.731
303.79	20.910
304.15	21.452
304.52	20.190
304.89	20.043
305.25	20.022
305.62	19.829
305.99	20.435
306.35	19.789
306.72	19.667
307.09	21.532
307.45	19.852
307.82	20.679
308.19	21.134
308.55	19.800
308.92	22.473
309.29	22.091
309.65	21.011
310.02	21.907
310.38	21.236
310.75	20.058
311.12	20.977
311.48	22.780
311.85	21.660
312.22	21.777
312.58	22.546
312.95	21.650
313.31	23.970
313.68	22.795
314.05	23.993
314.41	23.184
314.78	25.000
315.14	24.455
315.51	25.733
315.87	25.456
316.24	24.743
316.61	23.724
316.97	25.046
317.34	24.888
317.70	26.866
318.07	27.224
318.43	27.680
318.80	26.970
319.16	27.360
319.53	26.814
319.89	26.703
320.26	28.212
320.62	27.381
320.99	27.931
321.35	29.221
321.72	29.791
322.08	28.994
322.45	29.337
322.81	29.552
323.18	29.663
323.54	30.052
323.91	31.097
324.27	32.095
324.64	31.661
325.00	32.759
325.37	31.450
325.73	30.860
326.10	32.809
326.46	31.874
326.83	31.600
327.19	32.209
327.56	32.827
327.92	33.607
328.29	33.470
328.65	33.733
329.01	34.645
329.38	33.418
329.74	33.390
330.11	35.274
330.47	33.589
330.84	34.254
331.20	32.910
331.56	34.629
331.93	34.987
332.29	33.588
332.66	34.524
333.02	34.794
333.38	34.031
333.75	35.613
334.11	34.899
334.48	35.470
334.84	33.615
335.20	34.046
335.57	34.929
335.93	34.483
336.29	33.831
336.66	35.077
337.02	34.559
337.38	35.082
337.75	34.713
338.11	34.684
338.47	35.140
338.84	33.954
339.20	33.247
339.56	34.315
339.93	34.365
340.29	33.697
340.65	34.786
341.02	33.548
341.38	33.990
341.74	33.555
342.11	33.890
342.47	33.716
342.83	35.193
343.20	33.872
343.56	31.930
343.92	34.352
344.28	33.254
344.65	33.904
345.01	32.222
345.37	32.452
345.73	32.381
346.10	32.430
346.46	33.732
346.82	32.253
347.19	33.539
347.55	32.319
347.91	31.571
348.27	30.519
348.63	32.911
349.00	32.521
349.36	32.140
349.72	32.798
350.08	33.463
350.45	32.749
350.81	32.110
351.17	31.972
351.53	32.410
351.89	32.401
352.26	32.426
352.62	33.183
352.98	31.595
353.34	32.435
353.70	31.728
354.07	32.000
354.43	31.951
354.79	31.739
355.15	31.547
355.51	31.647
355.87	31.777
356.24	31.332
356.60	31.050
356.96	30.781
357.32	31.801
357.68	31.131
358.04	31.003
358.40	31.259
358.77	31.705
359.13	31.306
359.49	31.505
359.85	31.571
360.21	30.461
360.57	32.044
360.93	30.736
361.29	31.313
361.66	32.215
362.02	29.403
362.38	30.592
362.74	30.856
363.10	32.188
363.46	31.215
363.82	31.276
364.18	30.370
364.54	31.688
364.90	30.790
365.26	31.922
365.62	31.423
365.98	30.351
366.35	30.207
366.71	32.269
367.07	31.809
367.43	30.893
367.79	30.519
368.15	30.936
368.51	31.427
368.87	30.910
369.23	30.631
369.59	30.614
369.95	31.259
370.31	31.075
370.67	30.534
371.03	30.742
371.39	31.440
371.75	30.356
372.11	30.727
372.47	31.507
372.83	29.980
373.19	30.637
373.55	30.378
373.91	29.627
374.27	29.762
374.63	30.441
374.99	31.199
375.35	29.704
375.71	30.079
376.07	30.836
376.42	30.115
376.78	30.507
377.14	30.603
377.50	30.899
377.86	30.493
378.22	30.165
378.58	30.266
378.94	30.115
379.30	29.472
379.66	29.320
380.02	30.381
380.38	28.981
380.74	29.988
381.09	29.264
381.45	28.555
381.81	29.078
382.17	29.243
382.53	28.914
382.89	30.219
383.25	29.899
383.61	28.876
383.97	29.214
384.32	30.319
384.68	30.184
385.04	29.426
385.40	29.359
385.76	29.432
386.12	30.118
386.48	29.726
386.83	29.768
387.19	29.093
387.55	29.329
387.91	29.157
388.27	29.625
388.62	29.167
388.98	29.679
389.34	29.268
389.70	28.538
390.06	29.085
390.42	28.686
390.77	28.993
391.13	28.908
391.49	28.191
391.85	29.908
392.20	29.797
392.56	29.092
392.92	28.186
393.28	28.587
393.64	28.555
393.99	28.809
394.35	29.076
394.71	28.468
395.07	29.440
395.42	28.396
395.78	28.994
396.14	28.735
396.50	28.460
396.85	28.232
397.21	29.122
397.57	28.691
397.92	28.365
398.28	28.296
398.64	28.912
399.00	27.365
399.35	28.073
399.71	28.422
400.07	27.968
400.42	28.418
400.78	28.798
401.14	28.773
401.49	27.535
401.85	28.679
402.21	27.651
402.57	28.366
402.92	28.545
403.28	27.864
403.63	28.487
403.99	28.709
404.35	29.132
404.70	28.647
405.06	27.400
405.42	28.127
405.77	27.563
406.13	28.254
406.49	27.345
406.84	28.765
407.20	28.253
407.55	29.046
407.91	28.398
408.27	28.805
408.62	27.794
408.98	27.794
409.34	27.937
409.69	27.069
410.05	27.370
410.40	27.915
410.76	27.476
411.11	27.251
411.47	27.037
411.83	27.358
412.18	27.295
412.54	28.048
412.89	26.903
413.25	28.050
413.60	28.446
413.96	28.845
414.31	27.627
414.67	27.374
415.03	27.842
415.38	28.391
415.74	27.985
416.09	27.608
416.45	28.507
416.80	28.352
417.16	27.689
417.51	28.089
417.87	28.348
418.22	29.040
418.58	27.771
418.93	27.424
419.29	27.850
419.64	27.922
420.00	27.924
420.35	27.003
420.71	27.830
421.06	27.663
421.42	27.231
421.77	27.485
422.12	27.343
422.48	27.324
422.83	27.511
423.19	27.160
423.54	27.592
423.90	27.973
424.25	27.683
424.61	28.555
424.96	26.595
425.31	26.929
425.67	26.712
426.02	27.426
426.38	26.488
426.73	27.010
427.09	27.402
427.44	27.068
427.79	27.787
428.15	27.991
428.50	27.771
428.85	27.690
429.21	27.715
429.56	27.119
429.92	27.698
430.27	27.092
430.62	26.383
430.98	26.198
431.33	27.167
431.68	26.272
432.04	27.005
432.39	27.497
432.74	28.220
433.10	27.907
433.45	27.570
433.80	28.075
434.16	26.905
434.51	27.451
434.86	27.872
435.22	26.364
435.57	26.734
435.92	27.433
436.28	28.399
436.63	27.661
436.98	27.252
437.34	27.397
437.69	27.660
438.04	26.935
438.39	28.897
438.75	27.951
439.10	26.444
439.45	26.343
439.81	27.357
440.16	28.178
440.51	26.914
440.86	28.604
441.22	27.273
441.57	27.717
441.92	27.591
442.27	27.216
442.63	27.388
442.98	26.724
443.33	27.745
443.68	27.012
444.03	26.673
444.39	26.977
444.74	27.277
445.09	26.856
445.44	27.365
445.79	27.437
446.15	27.105
446.50	26.793
446.85	27.590
447.20	27.015
447.55	26.971
447.91	27.384
448.26	27.902
448.61	27.805
448.96	26.688
449.31	27.173
449.66	27.741
450.02	26.634
450.37	27.984
450.72	27.824
451.07	28.040
451.42	27.030
451.77	27.663
452.12	27.623
452.47	27.521
452.83	27.380
453.18	27.508
453.53	26.998
453.88	27.829
454.23	28.414
454.58	27.389
454.93	27.223
455.28	27.417
455.63	28.132
455.98	26.791
456.34	28.450
456.69	27.744
457.04	26.850
457.39	26.514
457.74	28.153
458.09	26.390
458.44	27.547
458.79	26.897
459.14	26.296
459.49	27.293
459.84	27.283
460.19	27.062
460.54	27.179
460.89	28.198
461.24	26.861
461.59	27.268
461.94	28.132
462.29	27.574
462.64	27.324
462.99	28.535
463.34	28.321
463.69	28.615
464.04	27.634
464.39	26.617
464.74	26.964
465.09	27.278
465.44	26.442
465.79	26.456
466.14	26.497
466.49	26.858
466.84	26.589
467.19	27.709
467.54	26.907
467.89	27.582
468.24	27.389
468.59	26.667
468.94	26.208
469.29	28.711
469.64	27.138
469.99	27.378
470.34	26.565
470.68	27.655
471.03	27.352
471.38	27.616
471.73	27.106
472.08	27.658
472.43	27.126
472.78	27.977
473.13	26.596
473.48	26.284
473.83	27.267
474.17	27.720
474.52	26.836
474.87	26.322
475.22	27.527
475.57	26.653
475.92	26.571
476.27	25.952
476.61	26.488
476.96	26.750
477.31	26.324
477.66	27.751
478.01	26.354
478.36	26.365
478.70	26.203
479.05	26.255
479.40	26.190
479.75	26.812
480.10	26.283
480.45	26.097
480.79	26.221
481.14	26.534
481.49	25.252
481.84	26.297
482.19	25.939
482.53	25.867
482.88	25.986
483.23	25.395
483.58	26.346
483.92	26.737
484.27	26.241
484.62	26.104
484.97	25.360
485.31	24.939
485.66	23.880
486.01	22.861
486.36	22.837
486.70	22.423
487.05	23.452
487.40	23.172
487.75	24.144
488.09	23.835
488.44	24.761
488.79	24.471
489.13	25.569
489.48	25.210
489.83	25.229
490.17	25.310
490.52	26.443
490.87	25.345
491.22	26.285
491.56	26.175
491.91	25.403
492.26	25.746
492.60	26.469
492.95	26.325
493.30	26.615
493.64	26.146
493.99	25.358
494.34	25.818
494.68	25.719
495.03	25.505
495.37	26.339
495.72	25.408
496.07	25.606
496.41	25.456
496.76	25.707
497.11	25.750
497.45	25.690
497.80	26.089
498.14	25.751
498.49	25.812
498.84	26.682
499.18	25.411
499.53	25.586
499.87	25.741
500.22	25.518
500.56	24.930
500.91	26.531
501.26	25.448
501.60	25.592
501.95	25.045
502.29	25.556
502.64	25.496
502.98	24.678
503.33	25.523
503.67	24.768
504.02	24.496
504.36	25.068
504.71	26.159
505.06	25.340
505.40	25.035
505.75	25.304
506.09	25.292
506.44	25.282
506.78	25.945
507.13	25.788
507.47	25.910
507.82	26.229
508.16	26.458
508.51	25.314
508.85	25.356
509.19	26.187
509.54	25.684
509.88	26.106
510.23	25.784
510.57	25.386
510.92	26.024
511.26	26.054
511.61	25.406
511.95	25.187
512.30	25.100
512.64	25.857
512.98	26.448
513.33	26.127
513.67	26.463
514.02	26.286
514.36	26.116
514.70	26.400
515.05	25.839
515.39	25.658
515.74	26.627
516.08	26.198
516.42	26.995
516.77	25.547
517.11	25.707
517.46	25.970
517.80	26.215
518.14	27.042
518.49	25.634
518.83	25.549
519.17	25.790
519.52	25.942
519.86	25.777
520.20	26.137
520.55	25.382
520.89	26.609
521.23	26.577
521.58	26.449
521.92	26.647
522.26	25.889
522.61	25.847
522.95	26.787
523.29	26.082
523.64	25.838
523.98	27.113
524.32	25.663
524.66	25.739
525.01	25.325
525.35	25.928
525.69	26.911
526.04	27.365
526.38	25.956
526.72	25.895
527.06	25.192
527.41	26.542
527.75	25.685
528.09	25.707
528.43	26.297
528.78	25.641
529.12	26.129
529.46	26.125
529.80	25.876
530.15	25.516
530.49	24.549
530.83	25.350
531.17	25.461
531.51	25.812
531.86	25.906
532.20	26.082
532.54	25.675
532.88	25.859
533.22	26.691
533.57	25.015
533.91	25.000
534.25	24.755
534.59	24.912
534.93	24.403
535.27	24.303
535.62	24.796
535.96	24.645
536.30	25.229
536.64	24.720
536.98	25.299
537.32	24.625
537.66	24.362
538.01	25.635
538.35	25.702
538.69	24.879
539.03	24.938
539.37	24.636
539.71	24.938
540.05	25.231
540.39	25.660
540.73	26.013
541.07	24.529
541.42	24.689
541.76	24.846
542.10	24.168
542.44	24.439
542.78	24.858
543.12	25.031
543.46	24.687
543.80	26.316
544.14	24.768
544.48	24.878
544.82	24.709
545.16	24.529
545.50	24.831
545.84	25.126
546.18	26.528
546.52	24.852
546.86	25.596
547.20	24.935
547.54	24.953
547.88	23.844
548.22	24.044
548.56	23.630
548.90	24.792
549.24	23.942
549.58	23.969
549.92	25.671
550.26	25.220
550.60	25.216
550.94	25.916
551.28	25.310
551.62	25.034
551.96	24.797
552.30	24.127
552.64	25.307
552.98	23.840
553.32	24.328
553.66	25.212
554.00	24.067
554.34	25.632
554.68	24.866
555.02	24.915
555.36	24.468
555.69	25.327
556.03	25.159
556.37	24.410
556.71	25.293
557.05	23.132
557.39	24.133
557.73	25.876
558.07	25.151
558.41	24.400
558.75	24.966
559.08	25.947
559.42	25.340
559.76	25.089
560.10	24.226
560.44	24.818
560.78	25.575
561.12	24.221
561.45	23.780
561.79	23.533
562.13	23.816
562.47	24.984
562.81	24.333
563.15	24.370
563.48	21.988
563.82	23.830
564.16	24.254
564.50	23.689
564.84	23.526
565.17	24.005
565.51	24.076
565.85	24.306
566.19	23.333
566.52	22.924
566.86	23.292
567.20	23.596
567.54	23.144
567.88	23.839
568.21	22.366
568.55	22.179
568.89	22.126
569.23	21.398
569.56	21.765
569.90	20.697
570.24	20.886
570.57	20.376
570.91	19.719
571.25	19.484
571.59	19.430
571.92	19.026
572.26	18.760
572.60	19.272
572.93	20.127
573.27	19.242
573.61	18.787
573.95	19.223
574.28	19.050
574.62	18.887
574.96	18.829
575.29	18.451
575.63	18.186
575.97	18.866
576.30	18.755
576.64	19.046
576.98	18.853
577.31	18.567
577.65	18.617
577.98	18.068
578.32	17.871
578.66	18.313
578.99	18.083
579.33	18.764
579.67	18.324
580.00	18.161
580.34	18.418
580.67	18.188
581.01	18.477
581.35	18.128
581.68	17.559
582.02	17.639
582.35	17.534
582.69	17.935
583.02	18.248
583.36	18.435
583.70	18.538
584.03	19.090
584.37	19.081
584.70	18.413
585.04	17.773
585.37	17.876
585.71	18.360
586.04	17.997
586.38	18.434
586.72	18.842
587.05	18.399
587.39	19.090
587.72	18.590
588.06	18.624
588.39	18.705
588.73	18.605
589.06	19.346
589.40	19.124
589.73	19.272
590.07	19.629
590.40	20.383
590.73	20.162
591.07	20.342
591.40	20.120
591.74	20.008
592.07	19.925
592.41	20.264
592.74	19.297
593.08	18.620
593.41	18.731
593.75	18.712
594.08	19.064
594.41	19.518
594.75	19.247
595.08	19.136
595.42	19.552
595.75	19.283
596.09	19.673
596.42	19.264
596.75	20.633
597.09	19.934
597.42	19.592
597.75	19.026
598.09	19.860
598.42	19.625
598.76	19.237
599.09	19.529
599.42	18.893
599.76	19.810
600.09	19.051
600.42	19.475
600.76	18.627
601.09	19.227
601.42	19.535
601.76	18.439
602.09	19.647
602.42	19.556
602.76	19.317
603.09	20.098
603.42	19.486
603.76	19.234
604.09	19.291
604.42	19.736
604.76	19.557
605.09	19.673
605.42	20.033
605.75	19.266
606.09	19.472
606.42	19.166
606.75	18.927
607.09	19.226
607.42	19.405
607.75	19.347
608.08	19.903
608.42	19.463
608.75	19.512
609.08	19.446
609.41	19.955
609.75	20.513
610.08	20.638
610.41	19.763
610.74	19.351
611.07	20.100
611.41	20.853
611.74	19.981
612.07	19.990
612.40	20.273
612.73	20.320
613.07	20.730
613.40	20.451
613.73	20.869
614.06	20.250
614.39	20.758
614.72	20.141
615.06	20.227
615.39	20.050
615.72	20.087
616.05	20.492
616.38	20.193
616.71	20.402
617.05	20.428
617.38	21.180
617.71	20.922
618.04	20.639
618.37	20.901
618.70	21.478
619.03	20.696
619.36	22.927
619.69	21.636
620.03	23.157
620.36	21.130
620.69	22.989
621.02	22.418
621.35	21.490
621.68	22.419
622.01	23.395
622.34	22.505
622.67	23.315
623.00	23.213
623.33	22.874
623.66	21.623
623.99	22.055
624.32	21.680
624.65	22.778
624.99	22.853
625.32	22.512
625.65	21.517
625.98	21.757
626.31	23.071
626.64	21.716
626.97	22.800
627.30	23.292
627.63	22.606
627.96	22.300
628.29	23.762
628.62	23.268
628.95	24.557
629.28	25.855
629.61	24.165
629.94	23.941
630.26	25.303
630.59	24.911
630.92	22.960
631.25	25.476
