SpectraSuite Data File
++++++++++++++++++++++++++++++++++++
Date: Tue May 12 15:35:18 PDT 2015
User: schluterlab
Dark Spectrum Present: Yes
Reference Spectrum Present: Yes
Number of Sampled Component Spectra: 1
Spectrometers: USB2E3373
Integration Time (usec): 3000 (USB2E3373)
Spectra Averaged: 3 (USB2E3373)
Boxcar Smoothing: 0 (USB2E3373)
Correct for Electrical Dark: No (USB2E3373)
Strobe/Lamp Enabled: No (USB2E3373)
Correct for Detector Non-linearity: No (USB2E3373)
Correct for Stray Light: No (USB2E3373)
Number of Pixels in Processed Spectrum: 2048
>>>>>Begin Processed Spectral Data<<<<<
178.53	0.000
178.91	-241.667
179.29	-700.000
179.67	-4900.000
180.04	-146.667
180.42	625.000
180.80	1500.000
181.18	0.000
181.56	-450.000
181.94	0.000
182.31	1133.333
182.69	-3400.000
183.07	471.429
183.45	-3900.000
183.83	-1050.000
184.20	350.000
184.58	485.714
184.96	-184.615
185.34	-266.667
185.72	1450.000
186.09	-750.000
186.47	-2900.000
186.85	1266.667
187.23	680.000
187.61	1850.000
187.98	525.000
188.36	264.286
188.74	366.667
189.12	466.667
189.49	975.000
189.87	0.000
190.25	600.000
190.63	3500.000
191.00	-200.000
191.38	-4300.000
191.76	-650.000
192.14	600.000
192.51	-2700.000
192.89	2000.000
193.27	1266.667
193.65	-1000.000
194.02	-520.000
194.40	485.714
194.78	-192.857
195.15	253.333
195.53	-3300.000
195.91	-740.000
196.29	3800.000
196.66	300.000
197.04	850.000
197.42	-1700.000
197.79	650.000
198.17	316.667
198.55	0.000
198.92	414.286
199.30	1033.333
199.68	1350.000
200.05	733.333
200.43	-466.667
200.81	227.778
201.18	4200.000
201.56	258.333
201.94	-775.000
202.31	-375.000
202.69	-400.000
203.07	3200.000
203.44	-516.667
203.82	341.667
204.19	660.000
204.57	-1250.000
204.95	-825.000
205.32	-740.000
205.70	466.667
206.08	775.000
206.45	-833.333
206.83	444.444
207.20	189.474
207.58	266.667
207.96	820.000
208.33	0.000
208.71	542.857
209.08	700.000
209.46	-3100.000
209.84	-675.000
210.21	840.000
210.59	-660.000
210.96	325.000
211.34	-800.000
211.71	318.182
212.09	925.000
212.46	1700.000
212.84	-616.667
213.22	366.667
213.59	-3500.000
213.97	300.000
214.34	1050.000
214.72	1033.333
215.09	1033.333
215.47	-2700.000
215.84	-320.000
216.22	-412.500
216.59	0.000
216.97	0.000
217.34	1400.000
217.72	-1600.000
218.09	1233.333
218.47	437.500
218.84	950.000
219.22	933.333
219.59	1300.000
219.97	614.286
220.34	388.889
220.72	1700.000
221.09	3400.000
221.47	341.667
221.84	966.667
222.22	250.000
222.59	250.000
222.97	171.429
223.34	300.000
223.72	-1700.000
224.09	1433.333
224.46	323.077
224.84	-625.000
225.21	422.222
225.59	360.000
225.96	1066.667
226.34	-660.000
226.71	-750.000
227.08	-660.000
227.46	0.000
227.83	-616.667
228.21	-1350.000
228.58	291.667
228.95	1050.000
229.33	466.667
229.70	950.000
230.08	353.846
230.45	4600.000
230.82	-900.000
231.20	-1166.667
231.57	-1000.000
231.95	520.000
232.32	266.667
232.69	583.333
233.07	300.000
233.44	-2000.000
233.81	273.333
234.19	188.889
234.56	250.000
234.93	188.235
235.31	165.000
235.68	293.750
236.05	150.000
236.43	170.370
236.80	235.714
237.17	144.828
237.55	137.500
237.92	150.000
238.29	184.848
238.67	128.125
239.04	114.634
239.41	91.667
239.79	122.500
240.16	100.000
240.53	83.607
240.91	76.812
241.28	84.746
241.65	84.848
242.02	83.099
242.40	82.857
242.77	76.923
243.14	74.684
243.51	82.828
243.89	60.748
244.26	65.421
244.63	68.317
245.00	66.055
245.38	50.000
245.75	61.364
246.12	64.444
246.49	49.645
246.87	55.738
247.24	59.333
247.61	55.000
247.98	61.224
248.36	38.788
248.73	50.510
249.10	51.786
249.47	51.500
249.84	53.234
250.22	58.378
250.59	50.500
250.96	45.148
251.33	55.814
251.70	50.446
252.08	48.319
252.45	45.020
252.82	43.726
253.19	47.431
253.56	46.154
253.94	45.290
254.31	46.124
254.68	47.038
255.05	44.828
255.42	45.255
255.79	43.322
256.16	47.458
256.54	41.558
256.91	45.752
257.28	43.813
257.65	41.379
258.02	41.593
258.39	40.974
258.76	44.928
259.14	39.429
259.51	43.732
259.88	46.201
260.25	40.659
260.62	41.096
260.99	39.394
261.36	44.568
261.73	40.691
262.10	41.623
262.47	43.750
262.85	41.600
263.22	40.874
263.59	41.944
263.96	41.604
264.33	37.037
264.70	41.278
265.07	40.488
265.44	37.615
265.81	38.443
266.18	37.529
266.55	39.007
266.92	40.716
267.29	38.816
267.66	36.547
268.03	37.892
268.40	38.901
268.77	38.767
269.14	39.046
269.51	37.416
269.88	37.347
270.25	36.069
270.62	36.695
270.99	40.365
271.36	39.024
271.73	35.010
272.10	37.374
272.47	35.119
272.84	36.128
273.21	41.116
273.58	39.271
273.95	35.524
274.32	38.132
274.69	37.598
275.06	38.251
275.43	37.165
275.80	35.472
276.17	33.272
276.54	36.075
276.91	37.500
277.28	37.226
277.65	36.716
278.02	36.213
278.39	37.770
278.76	36.034
279.13	37.367
279.50	35.818
279.87	37.058
280.23	34.807
280.60	36.131
280.97	36.379
281.34	34.323
281.71	35.826
282.08	35.214
282.45	34.966
282.82	35.117
283.19	34.022
283.56	35.041
283.92	35.505
284.29	35.441
284.66	33.613
285.03	36.318
285.40	34.380
285.77	34.877
286.14	34.675
286.51	34.816
286.87	32.120
287.24	32.883
287.61	34.347
287.98	35.821
288.35	34.963
288.72	33.991
289.08	32.282
289.45	33.994
289.82	33.281
290.19	34.553
290.56	35.226
290.93	33.381
291.29	32.597
291.66	31.638
292.03	34.642
292.40	33.062
292.77	31.337
293.13	33.524
293.50	33.333
293.87	31.572
294.24	33.147
294.60	32.436
294.97	33.846
295.34	32.271
295.71	33.377
296.08	33.867
296.44	33.291
296.81	32.010
297.18	32.573
297.55	31.404
297.91	31.527
298.28	32.246
298.65	32.393
299.02	32.569
299.38	31.894
299.75	32.439
300.12	32.339
300.48	34.192
300.85	33.611
301.22	32.558
301.59	32.311
301.95	33.022
302.32	32.712
302.69	33.145
303.05	34.905
303.42	33.296
303.79	33.911
304.15	32.123
304.52	33.510
304.89	32.729
305.25	34.260
305.62	35.288
305.99	34.457
306.35	32.632
306.72	34.651
307.09	34.886
307.45	34.213
307.82	35.082
308.19	35.979
308.55	35.700
308.92	34.838
309.29	37.475
309.65	37.066
310.02	37.931
310.38	37.288
310.75	38.187
311.12	36.686
311.48	38.803
311.85	39.885
312.22	38.777
312.58	40.039
312.95	41.068
313.31	39.232
313.68	40.713
314.05	41.758
314.41	42.179
314.78	43.087
315.14	43.507
315.51	44.560
315.87	42.792
316.24	44.444
316.61	43.062
316.97	45.321
317.34	45.013
317.70	46.444
318.07	47.776
318.43	47.979
318.80	47.723
319.16	48.514
319.53	49.204
319.89	48.297
320.26	52.421
320.62	51.465
320.99	52.908
321.35	52.968
321.72	54.744
322.08	53.463
322.45	53.769
322.81	57.640
323.18	58.437
323.54	57.491
323.91	60.381
324.27	58.709
324.64	60.208
325.00	61.724
325.37	60.624
325.73	62.226
326.10	64.706
326.46	63.666
326.83	63.440
327.19	67.550
327.56	67.971
327.92	69.262
328.29	69.313
328.65	70.120
329.01	69.632
329.38	69.628
329.74	69.172
330.11	70.895
330.47	71.952
330.84	69.629
331.20	70.220
331.56	71.330
331.93	73.909
332.29	72.194
332.66	74.235
333.02	71.821
333.38	74.520
333.75	71.226
334.11	73.154
334.48	74.701
334.84	72.551
335.20	72.883
335.57	73.132
335.93	72.161
336.29	72.554
336.66	74.957
337.02	74.594
337.38	71.453
337.75	75.253
338.11	74.008
338.47	74.767
338.84	73.412
339.20	73.939
339.56	72.750
339.93	72.826
340.29	73.445
340.65	75.105
341.02	74.417
341.38	73.810
341.74	73.837
342.11	75.292
342.47	74.159
342.83	75.472
343.20	74.697
343.56	72.518
343.92	74.401
344.28	75.199
344.65	76.284
345.01	74.048
345.37	73.397
345.73	73.968
346.10	72.829
346.46	74.003
346.82	72.840
347.19	75.039
347.55	73.770
347.91	74.018
348.27	74.671
348.63	75.079
349.00	72.734
349.36	74.630
349.72	75.459
350.08	74.845
350.45	76.009
350.81	74.694
351.17	74.345
351.53	74.596
351.89	75.136
352.26	75.132
352.62	74.887
352.98	73.926
353.34	76.194
353.70	74.771
354.07	76.385
354.43	74.885
354.79	73.956
355.15	76.187
355.51	75.604
355.87	75.377
356.24	76.059
356.60	77.473
356.96	76.194
357.32	75.132
357.68	75.918
358.04	77.204
358.40	75.262
358.77	77.686
359.13	75.601
359.49	75.686
359.85	77.141
360.21	76.300
360.57	77.372
360.93	75.902
361.29	76.696
361.66	77.181
362.02	75.497
362.38	76.912
362.74	76.787
363.10	76.508
363.46	76.796
363.82	75.806
364.18	77.312
364.54	77.325
364.90	75.502
365.26	77.654
365.62	77.348
365.98	75.430
366.35	76.759
366.71	77.030
367.07	75.495
367.43	76.494
367.79	76.729
368.15	76.119
368.51	77.188
368.87	76.834
369.23	77.131
369.59	75.118
369.95	77.133
370.31	76.181
370.67	77.793
371.03	75.840
371.39	76.247
371.75	77.390
372.11	76.886
372.47	76.096
372.83	77.906
373.19	76.902
373.55	77.457
373.91	76.588
374.27	75.992
374.63	76.475
374.99	78.032
375.35	77.755
375.71	76.715
376.07	78.117
376.42	75.064
376.78	78.099
377.14	78.768
377.50	76.654
377.86	77.194
378.22	78.062
378.58	78.935
378.94	77.007
379.30	78.472
379.66	76.701
380.02	76.540
380.38	76.112
380.74	78.316
381.09	76.343
381.45	74.971
381.81	76.300
382.17	76.618
382.53	76.305
382.89	76.109
383.25	75.607
383.61	74.755
383.97	74.745
384.32	75.769
384.68	76.292
385.04	75.440
385.40	76.928
385.76	75.132
386.12	76.005
386.48	76.596
386.83	76.039
387.19	75.501
387.55	74.617
387.91	75.173
388.27	75.848
388.62	75.117
388.98	74.169
389.34	74.004
389.70	74.233
390.06	74.939
390.42	72.548
390.77	73.833
391.13	74.351
391.49	73.200
391.85	73.662
392.20	74.195
392.56	74.432
392.92	72.600
393.28	73.599
393.64	73.165
393.99	73.563
394.35	73.337
394.71	71.411
395.07	73.358
395.42	72.424
395.78	73.658
396.14	72.892
396.50	71.600
396.85	71.341
397.21	71.420
397.57	71.309
397.92	70.133
398.28	71.153
398.64	71.670
399.00	69.909
399.35	69.404
399.71	70.640
400.07	69.635
400.42	70.090
400.78	69.795
401.14	70.405
401.49	69.009
401.85	70.336
402.21	69.303
402.57	68.881
402.92	69.697
403.28	67.661
403.63	66.274
403.99	67.431
404.35	68.757
404.70	69.403
405.06	67.041
405.42	68.642
405.77	67.806
406.13	66.757
406.49	66.742
406.84	66.497
407.20	66.438
407.55	66.523
407.91	66.752
408.27	66.525
408.62	66.115
408.98	65.050
409.34	65.634
409.69	66.210
410.05	64.997
410.40	63.840
410.76	64.282
411.11	64.218
411.47	64.074
411.83	62.566
412.18	64.010
412.54	65.706
412.89	64.248
413.25	63.797
413.60	62.909
413.96	63.495
414.31	63.282
414.67	64.804
415.03	64.176
415.38	63.659
415.74	63.487
416.09	62.648
416.45	65.029
416.80	64.464
417.16	61.617
417.51	62.739
417.87	63.016
418.22	63.244
418.58	63.376
418.93	63.653
419.29	61.676
419.64	62.810
420.00	62.709
420.35	62.021
420.71	61.960
421.06	63.096
421.42	62.579
421.77	62.798
422.12	62.514
422.48	62.455
422.83	63.170
423.19	61.825
423.54	61.437
423.90	63.250
424.25	62.521
424.61	62.914
424.96	61.321
425.31	62.069
425.67	63.019
426.02	61.918
426.38	61.844
426.73	62.869
427.09	63.167
427.44	62.634
427.79	62.550
428.15	63.229
428.50	62.514
428.85	62.375
429.21	61.912
429.56	61.067
429.92	61.860
430.27	60.474
430.62	60.499
430.98	60.778
431.33	60.333
431.68	60.593
432.04	60.269
432.39	61.251
432.74	60.890
433.10	62.625
433.45	62.493
433.80	63.155
434.16	61.114
434.51	62.539
434.86	61.296
435.22	61.588
435.57	60.877
435.92	62.038
436.28	61.463
436.63	60.778
436.98	62.275
437.34	61.815
437.69	60.526
438.04	60.054
438.39	60.712
438.75	59.855
439.10	60.173
439.45	60.204
439.81	61.191
440.16	60.429
440.51	60.642
440.86	61.538
441.22	60.660
441.57	60.735
441.92	59.674
442.27	60.258
442.63	60.010
442.98	59.860
443.33	60.311
443.68	60.966
444.03	60.792
444.39	60.782
444.74	59.576
445.09	59.558
445.44	58.874
445.79	59.405
446.15	60.737
446.50	59.968
446.85	58.815
447.20	60.149
447.55	60.740
447.91	58.977
448.26	58.413
448.61	60.199
448.96	60.730
449.31	59.406
449.66	59.635
450.02	59.319
450.37	58.745
450.72	60.496
451.07	59.453
451.42	59.632
451.77	60.596
452.12	58.763
452.47	59.903
452.83	59.887
453.18	59.279
453.53	59.976
453.88	59.429
454.23	60.372
454.58	58.450
454.93	59.473
455.28	58.568
455.63	58.629
455.98	59.447
456.34	58.419
456.69	60.061
457.04	58.771
457.39	58.400
457.74	58.390
458.09	57.496
458.44	57.886
458.79	58.568
459.14	57.610
459.49	57.022
459.84	57.935
460.19	56.723
460.54	57.151
460.89	56.930
461.24	56.014
461.59	57.029
461.94	56.265
462.29	57.952
462.64	58.103
462.99	58.285
463.34	57.097
463.69	56.927
464.04	56.822
464.39	55.982
464.74	56.213
465.09	56.065
465.44	56.529
465.79	56.070
466.14	55.856
466.49	55.724
466.84	55.686
467.19	56.415
467.54	54.474
467.89	55.869
468.24	55.298
468.59	55.298
468.94	55.314
469.29	55.162
469.64	54.984
469.99	54.884
470.34	54.586
470.68	54.345
471.03	54.370
471.38	55.364
471.73	53.756
472.08	56.751
472.43	54.935
472.78	55.058
473.13	53.254
473.48	55.929
473.83	54.770
474.17	53.921
474.52	53.673
474.87	53.269
475.22	52.370
475.57	53.200
475.92	53.143
476.27	51.959
476.61	52.869
476.96	52.821
477.31	53.985
477.66	54.643
478.01	51.521
478.36	53.502
478.70	51.861
479.05	52.667
479.40	52.530
479.75	52.731
480.10	52.759
480.45	51.587
480.79	51.429
481.14	52.211
481.49	51.327
481.84	51.231
482.19	52.183
482.53	50.900
482.88	50.806
483.23	50.158
483.58	51.346
483.92	51.051
484.27	50.000
484.62	51.486
484.97	50.097
485.31	49.808
485.66	50.659
486.01	49.126
486.36	47.382
486.70	47.904
487.05	47.574
487.40	47.911
487.75	48.314
488.09	48.068
488.44	48.534
488.79	49.879
489.13	48.899
489.48	49.700
489.83	49.083
490.17	48.183
490.52	49.225
490.87	48.879
491.22	50.355
491.56	49.275
491.91	49.328
492.26	48.641
492.60	49.021
492.95	48.663
493.30	48.362
493.64	48.338
493.99	47.540
494.34	48.319
494.68	48.915
495.03	48.810
495.37	49.347
495.72	49.324
496.07	47.529
496.41	48.349
496.76	47.235
497.11	48.201
497.45	47.216
497.80	48.517
498.14	47.758
498.49	47.539
498.84	48.224
499.18	46.572
499.53	47.772
499.87	46.676
500.22	48.042
500.56	48.236
500.91	48.330
501.26	48.599
501.60	46.767
501.95	46.998
502.29	47.067
502.64	46.493
502.98	46.020
503.33	46.414
503.67	46.402
504.02	46.440
504.36	46.606
504.71	47.351
505.06	47.255
505.40	45.999
505.75	46.258
506.09	46.057
506.44	46.664
506.78	46.456
507.13	46.922
507.47	46.870
507.82	45.839
508.16	47.379
508.51	45.411
508.85	45.394
509.19	45.570
509.54	45.898
509.88	45.997
510.23	45.882
510.57	43.967
510.92	46.004
511.26	46.084
511.61	45.692
511.95	44.798
512.30	45.300
512.64	44.444
512.98	45.720
513.33	44.980
513.67	45.313
514.02	44.779
514.36	45.379
514.70	44.747
515.05	45.445
515.39	44.792
515.74	46.364
516.08	45.370
516.42	45.847
516.77	44.640
517.11	45.387
517.46	44.881
517.80	43.255
518.14	44.958
518.49	44.542
518.83	43.297
519.17	44.093
519.52	45.440
519.86	45.232
520.20	44.986
520.55	44.036
520.89	44.943
521.23	44.334
521.58	44.578
521.92	44.373
522.26	43.839
522.61	43.969
522.95	44.925
523.29	43.860
523.64	44.162
523.98	44.777
524.32	43.656
524.66	42.841
525.01	44.497
525.35	44.137
525.69	43.648
526.04	43.605
526.38	43.790
526.72	43.317
527.06	43.761
527.41	44.015
527.75	44.370
528.09	42.625
528.43	43.441
528.78	43.232
529.12	44.792
529.46	42.548
529.80	42.231
530.15	42.192
530.49	42.238
530.83	43.388
531.17	43.050
531.51	43.777
531.86	42.391
532.20	41.965
532.54	41.871
532.88	42.036
533.22	43.266
533.57	42.465
533.91	42.366
534.25	41.662
534.59	41.754
534.93	40.728
535.27	40.296
535.62	41.890
535.96	40.780
536.30	42.779
536.64	40.435
536.98	42.165
537.32	40.875
537.66	40.880
538.01	40.743
538.35	41.984
538.69	41.444
539.03	40.672
539.37	40.655
539.71	41.111
540.05	40.923
540.39	40.818
540.73	40.886
541.07	41.405
541.42	42.102
541.76	41.184
542.10	41.122
542.44	41.085
542.78	40.654
543.12	39.387
543.46	40.664
543.80	41.479
544.14	40.681
544.48	40.754
544.82	39.327
545.16	39.709
545.50	38.660
545.84	39.773
546.18	41.873
546.52	41.443
546.86	40.361
547.20	39.212
547.54	39.962
547.88	39.720
548.22	39.709
548.56	38.833
548.90	38.790
549.24	40.366
549.58	40.271
549.92	41.126
550.26	39.892
550.60	39.854
550.94	40.638
551.28	39.586
551.62	40.759
551.96	40.000
552.30	39.420
552.64	39.353
552.98	39.046
553.32	38.604
553.66	39.283
554.00	40.026
554.34	38.881
554.68	40.188
555.02	38.900
555.36	38.963
555.69	39.071
556.03	38.662
556.37	39.452
556.71	39.244
557.05	37.090
557.39	40.333
557.73	39.892
558.07	39.906
558.41	39.685
558.75	40.082
559.08	39.528
559.42	39.943
559.76	39.629
560.10	39.229
560.44	38.023
560.78	38.939
561.12	39.797
561.45	38.673
561.79	37.578
562.13	38.471
562.47	39.585
562.81	39.037
563.15	38.268
563.48	38.137
563.82	38.989
564.16	38.122
564.50	37.432
564.84	38.602
565.17	37.493
565.51	39.594
565.85	38.742
566.19	38.452
566.52	38.688
566.86	38.996
567.20	38.708
567.54	37.991
567.88	38.758
568.21	37.094
568.55	37.889
568.89	37.454
569.23	37.619
569.56	37.859
569.90	35.968
570.24	36.763
570.57	36.600
570.91	35.819
571.25	35.884
571.59	35.307
571.92	35.253
572.26	35.175
572.60	35.101
572.93	35.681
573.27	36.157
573.61	35.300
573.95	36.180
574.28	35.725
574.62	35.841
574.96	34.697
575.29	35.137
575.63	34.016
575.97	34.299
576.30	34.978
576.64	35.320
576.98	34.827
577.31	35.722
577.65	35.881
577.98	34.385
578.32	34.654
578.66	34.448
578.99	34.424
579.33	34.664
579.67	34.364
580.00	34.350
580.34	34.332
580.67	34.161
581.01	35.396
581.35	35.043
581.68	34.268
582.02	34.278
582.35	33.897
582.69	33.989
583.02	34.186
583.36	34.065
583.70	34.794
584.03	34.850
584.37	35.033
584.70	35.083
585.04	34.190
585.37	34.130
585.71	35.034
586.04	34.411
586.38	34.259
586.72	34.466
587.05	34.560
587.39	34.968
587.72	35.326
588.06	34.989
588.39	35.082
588.73	35.113
589.06	35.191
589.40	35.399
589.73	35.562
590.07	35.621
590.40	35.470
590.73	36.614
591.07	35.939
591.40	35.250
591.74	35.227
592.07	35.441
592.41	35.971
592.74	35.518
593.08	34.863
593.41	34.949
593.75	34.583
594.08	34.678
594.41	34.115
594.75	35.240
595.08	34.842
595.42	35.418
595.75	34.682
596.09	35.419
596.42	34.887
596.75	35.817
597.09	35.823
597.42	34.653
597.75	35.335
598.09	35.125
598.42	35.292
598.76	34.040
599.09	34.829
599.42	34.083
599.76	34.701
600.09	34.271
600.42	34.496
600.76	34.262
601.09	34.484
601.42	34.354
601.76	34.694
602.09	35.394
602.42	34.048
602.76	34.573
603.09	34.729
603.42	34.862
603.76	33.550
604.09	34.093
604.42	33.861
604.76	34.571
605.09	34.857
605.42	34.539
605.75	34.347
606.09	35.425
606.42	34.536
606.75	34.318
607.09	34.623
607.42	34.472
607.75	34.116
608.08	34.281
608.42	34.648
608.75	33.932
609.08	34.272
609.41	35.500
609.75	35.302
610.08	34.622
610.41	34.431
610.74	34.632
611.07	34.561
611.41	34.198
611.74	34.608
612.07	34.345
612.40	34.649
612.73	35.996
613.07	34.567
613.40	35.038
613.73	34.998
614.06	34.800
614.39	34.848
614.72	34.606
615.06	33.778
615.39	33.762
615.72	33.156
616.05	34.405
616.38	35.058
616.71	34.400
617.05	34.047
617.38	33.933
617.71	35.546
618.04	34.549
618.37	33.741
618.70	33.776
619.03	36.081
619.36	35.930
619.69	34.763
620.03	35.486
620.36	35.196
620.69	35.313
621.02	36.073
621.35	33.095
621.68	36.357
622.01	35.720
622.34	34.596
622.67	34.902
623.00	34.786
623.33	35.088
623.66	35.729
623.99	34.521
624.32	34.824
624.65	34.891
624.99	35.429
625.32	34.669
625.65	34.414
625.98	33.194
626.31	35.312
626.64	34.244
626.97	34.507
627.30	35.171
627.63	35.636
627.96	34.664
628.29	35.479
628.62	34.645
628.95	36.259
629.28	34.706
629.61	36.116
629.94	36.819
630.26	36.828
630.59	36.525
630.92	34.709
631.25	36.899
