SpectraSuite Data File
++++++++++++++++++++++++++++++++++++
Date: Tue May 12 16:50:01 PDT 2015
User: schluterlab
Dark Spectrum Present: Yes
Reference Spectrum Present: Yes
Number of Sampled Component Spectra: 1
Spectrometers: USB2E3373
Integration Time (usec): 3000 (USB2E3373)
Spectra Averaged: 3 (USB2E3373)
Boxcar Smoothing: 0 (USB2E3373)
Correct for Electrical Dark: No (USB2E3373)
Strobe/Lamp Enabled: No (USB2E3373)
Correct for Detector Non-linearity: No (USB2E3373)
Correct for Stray Light: No (USB2E3373)
Number of Pixels in Processed Spectrum: 2048
>>>>>Begin Processed Spectral Data<<<<<
178.53	0.000
178.91	-183.333
179.29	-925.000
179.67	-4200.000
180.04	-173.333
180.42	900.000
180.80	2350.000
181.18	0.000
181.56	-200.000
181.94	0.000
182.31	1266.667
182.69	-3200.000
183.07	500.000
183.45	-3000.000
183.83	-1550.000
184.20	390.000
184.58	471.429
184.96	-192.308
185.34	-200.000
185.72	1800.000
186.09	-775.000
186.47	-2900.000
186.85	1166.667
187.23	600.000
187.61	1850.000
187.98	437.500
188.36	228.571
188.74	358.333
189.12	400.000
189.49	650.000
189.87	0.000
190.25	525.000
190.63	1800.000
191.00	-191.667
191.38	-4200.000
191.76	-800.000
192.14	437.500
192.51	-3700.000
192.89	1200.000
193.27	800.000
193.65	-1133.333
194.02	-860.000
194.40	414.286
194.78	-200.000
195.15	320.000
195.53	-2600.000
195.91	-560.000
196.29	3400.000
196.66	243.750
197.04	900.000
197.42	-1450.000
197.79	575.000
198.17	366.667
198.55	0.000
198.92	514.286
199.30	1166.667
199.68	1800.000
200.05	550.000
200.43	-383.333
200.81	194.444
201.18	2200.000
201.56	291.667
201.94	-825.000
202.31	-400.000
202.69	-580.000
203.07	4300.000
203.44	-450.000
203.82	250.000
204.19	820.000
204.57	-1300.000
204.95	-975.000
205.32	-700.000
205.70	483.333
206.08	1000.000
206.45	-1000.000
206.83	355.556
207.20	231.579
207.58	325.000
207.96	640.000
208.33	0.000
208.71	557.143
209.08	680.000
209.46	-3100.000
209.84	-675.000
210.21	880.000
210.59	-700.000
210.96	333.333
211.34	-875.000
211.71	327.273
212.09	950.000
212.46	1700.000
212.84	-433.333
213.22	300.000
213.59	-3400.000
213.97	390.000
214.34	900.000
214.72	966.667
215.09	900.000
215.47	-3300.000
215.84	-310.000
216.22	-462.500
216.59	0.000
216.97	0.000
217.34	1400.000
217.72	-1500.000
218.09	1133.333
218.47	500.000
218.84	925.000
219.22	1033.333
219.59	966.667
219.97	657.143
220.34	477.778
220.72	1500.000
221.09	4200.000
221.47	291.667
221.84	1233.333
222.22	340.000
222.59	261.111
222.97	328.571
223.34	225.000
223.72	-1950.000
224.09	1100.000
224.46	323.077
224.84	-975.000
225.21	355.556
225.59	326.667
225.96	1400.000
226.34	-560.000
226.71	-575.000
227.08	-520.000
227.46	0.000
227.83	-516.667
228.21	-1150.000
228.58	375.000
228.95	850.000
229.33	400.000
229.70	950.000
230.08	292.308
230.45	3100.000
230.82	-950.000
231.20	-1300.000
231.57	-1033.333
231.95	600.000
232.32	291.667
232.69	533.333
233.07	366.667
233.44	-1650.000
233.81	246.667
234.19	137.037
234.56	187.500
234.93	135.294
235.31	215.000
235.68	300.000
236.05	153.571
236.43	129.630
236.80	214.286
237.17	158.621
237.55	143.750
237.92	120.000
238.29	154.545
238.67	128.125
239.04	112.195
239.41	83.333
239.79	100.000
240.16	100.000
240.53	63.934
240.91	75.362
241.28	69.492
241.65	80.303
242.02	76.056
242.40	70.000
242.77	60.440
243.14	70.886
243.51	56.566
243.89	50.467
244.26	52.336
244.63	51.485
245.00	66.055
245.38	38.136
245.75	50.000
246.12	48.889
246.49	51.773
246.87	49.180
247.24	46.000
247.61	47.500
247.98	50.340
248.36	36.364
248.73	41.327
249.10	40.476
249.47	45.000
249.84	45.274
250.22	46.486
250.59	29.500
250.96	38.819
251.33	42.791
251.70	42.857
252.08	36.555
252.45	34.661
252.82	32.700
253.19	34.783
253.56	36.923
253.94	36.594
254.31	35.271
254.68	34.843
255.05	35.862
255.42	38.686
255.79	34.202
256.16	33.898
256.54	36.688
256.91	34.967
257.28	34.114
257.65	29.467
258.02	31.268
258.39	34.957
258.76	31.884
259.14	29.143
259.51	34.985
259.88	35.258
260.25	33.791
260.62	32.329
260.99	27.824
261.36	29.248
261.73	28.989
262.10	31.675
262.47	31.250
262.85	28.533
263.22	30.848
263.59	32.481
263.96	30.075
264.33	29.877
264.70	30.713
265.07	29.512
265.44	30.046
265.81	31.604
266.18	29.291
266.55	29.078
266.92	26.846
267.29	31.798
267.66	25.112
268.03	26.906
268.40	26.850
268.77	30.176
269.14	27.766
269.51	27.394
269.88	30.408
270.25	26.134
270.62	28.755
270.99	32.049
271.36	30.081
271.73	29.350
272.10	27.475
272.47	27.183
272.84	26.946
273.21	28.512
273.58	26.923
273.95	24.846
274.32	29.961
274.69	30.709
275.06	28.962
275.43	27.778
275.80	27.358
276.17	29.412
276.54	29.346
276.91	27.985
277.28	25.912
277.65	26.199
278.02	28.125
278.39	25.000
278.76	28.276
279.13	25.801
279.50	26.364
279.87	24.581
280.23	25.783
280.60	27.920
280.97	27.414
281.34	25.578
281.71	28.522
282.08	25.812
282.45	24.662
282.82	27.090
283.19	24.324
283.56	26.777
283.92	26.221
284.29	26.456
284.66	24.370
285.03	27.032
285.40	27.107
285.77	25.309
286.14	26.006
286.51	25.153
286.87	23.576
287.24	24.775
287.61	23.860
287.98	25.075
288.35	23.852
288.72	23.824
289.08	22.372
289.45	25.305
289.82	23.750
290.19	22.401
290.56	25.182
290.93	22.446
291.29	22.652
291.66	22.316
292.03	23.703
292.40	22.900
292.77	23.398
293.13	24.536
293.50	22.672
293.87	20.190
294.24	22.517
294.60	23.149
294.97	21.119
295.34	22.444
295.71	22.470
296.08	22.267
296.44	21.220
296.81	21.836
297.18	21.673
297.55	21.921
297.91	19.458
298.28	21.981
298.65	20.736
299.02	18.456
299.38	21.703
299.75	20.488
300.12	20.642
300.48	21.194
300.85	21.454
301.22	20.116
301.59	18.514
301.95	20.887
302.32	20.373
302.69	20.023
303.05	20.763
303.42	19.283
303.79	20.477
304.15	19.142
304.52	18.605
304.89	19.510
305.25	19.800
305.62	20.682
305.99	18.913
306.35	19.158
306.72	20.499
307.09	19.462
307.45	17.846
307.82	20.062
308.19	20.000
308.55	18.300
308.92	19.529
309.29	19.625
309.65	19.128
310.02	19.473
310.38	18.345
310.75	19.094
311.12	18.582
311.48	20.560
311.85	18.607
312.22	18.911
312.58	19.048
312.95	19.126
313.31	19.663
313.68	18.386
314.05	19.780
314.41	18.622
314.78	19.602
315.14	20.284
315.51	18.543
315.87	18.522
316.24	18.207
316.61	19.069
316.97	18.532
317.34	19.048
317.70	18.701
318.07	19.929
318.43	19.069
318.80	18.214
319.16	18.881
319.53	18.584
319.89	18.459
320.26	20.764
320.62	19.322
320.99	18.112
321.35	19.481
321.72	20.209
322.08	19.021
322.45	19.255
322.81	18.847
323.18	19.716
323.54	19.164
323.91	21.215
324.27	19.363
324.64	18.685
325.00	19.310
325.37	19.899
325.73	18.971
326.10	19.221
326.46	19.488
326.83	18.800
327.19	19.679
327.56	18.211
327.92	19.672
328.29	19.640
328.65	19.435
329.01	20.188
329.38	19.628
329.74	19.214
330.11	18.071
330.47	20.034
330.84	18.292
331.20	19.543
331.56	18.394
331.93	19.504
332.29	17.432
332.66	19.388
333.02	19.416
333.38	19.459
333.75	19.433
334.11	17.953
334.48	18.291
334.84	17.990
335.20	18.734
335.57	18.472
335.93	18.923
336.29	18.159
336.66	18.268
337.02	18.477
337.38	18.315
337.75	19.679
338.11	18.819
338.47	18.882
338.84	18.628
339.20	17.662
339.56	18.923
339.93	18.478
340.29	17.815
340.65	18.273
341.02	18.745
341.38	18.227
341.74	17.691
342.11	17.362
342.47	18.868
342.83	19.032
343.20	17.623
343.56	17.077
343.92	17.836
344.28	18.581
344.65	18.256
345.01	17.222
345.37	16.667
345.73	18.095
346.10	17.769
346.46	17.943
346.82	16.975
347.19	17.697
347.55	16.159
347.91	16.239
348.27	15.879
348.63	16.614
349.00	17.517
349.36	17.743
349.72	17.431
350.08	17.391
350.45	18.279
350.81	17.125
351.17	16.949
351.53	16.936
351.89	17.483
352.26	16.327
352.62	16.667
352.98	17.408
353.34	17.026
353.70	16.437
354.07	17.538
354.43	16.974
354.79	16.021
355.15	17.228
355.51	16.918
355.87	17.545
356.24	17.167
356.60	16.971
356.96	16.603
357.32	16.579
357.68	16.887
358.04	16.717
358.40	17.091
358.77	17.506
359.13	16.742
359.49	16.531
359.85	16.754
360.21	16.716
360.57	16.934
360.93	16.955
361.29	15.945
361.66	17.226
362.02	15.767
362.38	16.522
362.74	17.268
363.10	17.251
363.46	17.127
363.82	16.971
364.18	16.999
364.54	17.096
364.90	17.671
365.26	17.141
365.62	16.575
365.98	16.380
366.35	16.828
366.71	15.684
367.07	16.246
367.43	16.387
367.79	17.221
368.15	15.129
368.51	15.989
368.87	16.101
369.23	15.315
369.59	16.116
369.95	16.643
370.31	15.537
370.67	16.863
371.03	16.877
371.39	15.928
371.75	15.771
372.11	16.995
372.47	16.986
372.83	15.840
373.19	16.792
373.55	15.876
373.91	16.229
374.27	16.336
374.63	15.593
374.99	16.846
375.35	16.935
375.71	16.887
376.07	16.446
376.42	15.601
376.78	17.148
377.14	16.186
377.50	15.855
377.86	15.951
378.22	15.905
378.58	16.525
378.94	16.536
379.30	15.949
379.66	16.797
380.02	16.716
380.38	15.105
380.74	16.551
381.09	15.537
381.45	15.260
381.81	16.489
382.17	15.140
382.53	15.237
382.89	16.499
383.25	15.867
383.61	15.620
383.97	15.657
384.32	15.973
384.68	17.112
385.04	15.826
385.40	15.540
385.76	16.384
386.12	15.894
386.48	15.988
386.83	16.015
387.19	15.901
387.55	15.960
387.91	16.686
388.27	15.348
388.62	15.317
388.98	15.394
389.34	14.218
389.70	14.505
390.06	15.671
390.42	15.916
390.77	15.602
391.13	15.269
391.49	16.092
391.85	16.123
392.20	16.031
392.56	15.830
392.92	15.160
393.28	14.686
393.64	14.736
393.99	15.531
394.35	15.068
394.71	15.440
395.07	15.328
395.42	15.047
395.78	15.423
396.14	16.386
396.50	15.283
396.85	15.610
397.21	16.787
397.57	15.780
397.92	15.251
398.28	15.665
398.64	15.998
399.00	15.072
399.35	14.976
399.71	15.177
400.07	15.354
400.42	14.687
400.78	14.956
401.14	15.913
401.49	15.150
401.85	14.426
402.21	15.290
402.57	15.679
402.92	15.091
403.28	15.095
403.63	15.362
403.99	16.285
404.35	16.530
404.70	15.416
405.06	15.048
405.42	14.782
405.77	15.546
406.13	14.913
406.49	15.463
406.84	15.172
407.20	15.811
407.55	14.769
407.91	15.635
408.27	15.464
408.62	15.494
408.98	14.725
409.34	15.254
409.69	15.121
410.05	15.385
410.40	15.135
410.76	14.825
411.11	14.870
411.47	15.432
411.83	15.583
412.18	14.553
412.54	15.435
412.89	14.159
413.25	15.564
413.60	15.304
413.96	15.200
414.31	14.522
414.67	15.829
415.03	15.262
415.38	15.331
415.74	15.224
416.09	15.615
416.45	16.031
416.80	15.202
417.16	14.895
417.51	15.159
417.87	14.643
418.22	15.492
418.58	15.287
418.93	15.467
419.29	14.603
419.64	15.506
420.00	16.110
420.35	14.983
420.71	14.702
421.06	15.303
421.42	14.796
421.77	15.713
422.12	15.160
422.48	14.741
422.83	15.011
423.19	15.227
423.54	15.359
423.90	15.459
424.25	14.860
424.61	15.090
424.96	15.020
425.31	14.997
425.67	15.152
426.02	14.919
426.38	13.769
426.73	15.095
427.09	15.540
427.44	15.082
427.79	15.266
428.15	15.144
428.50	15.714
428.85	15.638
429.21	15.127
429.56	14.905
429.92	14.968
430.27	15.578
430.62	14.195
430.98	15.419
431.33	14.113
431.68	14.519
432.04	15.054
432.39	15.148
432.74	14.813
433.10	15.116
433.45	15.221
433.80	15.554
434.16	14.766
434.51	15.893
434.86	15.678
435.22	14.641
435.57	15.175
435.92	15.538
436.28	14.919
436.63	14.857
436.98	14.977
437.34	15.639
437.69	13.886
438.04	15.430
438.39	15.762
438.75	15.813
439.10	15.003
439.45	14.980
439.81	16.541
440.16	15.190
440.51	14.809
440.86	15.100
441.22	15.855
441.57	15.801
441.92	15.005
442.27	15.309
442.63	14.939
442.98	14.332
443.33	15.533
443.68	15.644
444.03	15.269
444.39	15.395
444.74	15.321
445.09	14.745
445.44	14.984
445.79	14.571
446.15	14.579
446.50	15.612
446.85	15.339
447.20	14.925
447.55	15.334
447.91	15.983
448.26	15.655
448.61	15.644
448.96	15.795
449.31	16.227
449.66	15.836
450.02	15.073
450.37	15.769
450.72	15.482
451.07	16.230
451.42	15.471
451.77	15.979
452.12	15.882
452.47	15.917
452.83	15.493
453.18	16.697
453.53	16.874
453.88	15.943
454.23	15.805
454.58	15.851
454.93	15.941
455.28	15.422
455.63	16.135
455.98	16.638
456.34	17.447
456.69	15.915
457.04	16.468
457.39	15.771
457.74	16.892
458.09	15.160
458.44	15.936
458.79	16.127
459.14	15.876
459.49	16.195
459.84	16.033
460.19	16.328
460.54	16.410
460.89	16.045
461.24	15.750
461.59	16.497
461.94	16.253
462.29	16.934
462.64	16.771
462.99	15.739
463.34	17.239
463.69	16.757
464.04	16.523
464.39	16.027
464.74	15.826
465.09	16.367
465.44	15.724
465.79	15.732
466.14	15.951
466.49	15.844
466.84	15.998
467.19	16.872
467.54	16.036
467.89	17.254
468.24	15.866
468.59	16.488
468.94	17.029
469.29	17.227
469.64	16.913
469.99	17.931
470.34	17.204
470.68	17.586
471.03	16.744
471.38	16.490
471.73	16.460
472.08	16.177
472.43	16.263
472.78	17.157
473.13	16.521
473.48	16.687
473.83	16.313
474.17	16.474
474.52	17.476
474.87	16.032
475.22	16.848
475.57	16.159
475.92	16.147
476.27	15.669
476.61	15.871
476.96	16.823
477.31	15.887
477.66	17.123
478.01	15.833
478.36	16.375
478.70	15.583
479.05	16.161
479.40	16.419
479.75	16.882
480.10	16.651
480.45	15.546
480.79	16.175
481.14	15.454
481.49	15.919
481.84	16.139
482.19	15.764
482.53	15.942
482.88	16.174
483.23	15.111
483.58	15.664
483.92	15.905
484.27	15.796
484.62	16.256
484.97	15.621
485.31	14.998
485.66	13.838
486.01	14.044
486.36	13.516
486.70	13.645
487.05	13.990
487.40	14.316
487.75	14.730
488.09	15.028
488.44	15.169
488.79	15.585
489.13	16.237
489.48	16.380
489.83	15.805
490.17	15.731
490.52	15.676
490.87	15.819
491.22	16.667
491.56	16.425
491.91	16.756
492.26	16.303
492.60	16.902
492.95	16.629
493.30	16.470
493.64	16.801
493.99	16.234
494.34	15.688
494.68	15.759
495.03	16.255
495.37	16.389
495.72	17.249
496.07	15.948
496.41	16.290
496.76	16.083
497.11	16.924
497.45	16.440
497.80	16.682
498.14	16.736
498.49	16.760
498.84	17.103
499.18	15.768
499.53	16.628
499.87	16.352
500.22	17.135
500.56	16.249
500.91	16.929
501.26	16.720
501.60	15.984
501.95	15.905
502.29	16.933
502.64	16.453
502.98	15.918
503.33	16.437
503.67	16.821
504.02	16.256
504.36	16.652
504.71	16.556
505.06	16.471
505.40	16.659
505.75	16.651
506.09	16.799
506.44	17.011
506.78	17.013
507.13	16.238
507.47	16.351
507.82	17.762
508.16	16.805
508.51	16.667
508.85	16.999
509.19	17.230
509.54	16.943
509.88	17.006
510.23	17.108
510.57	17.230
510.92	17.233
511.26	16.918
511.61	16.494
511.95	17.322
512.30	17.850
512.64	16.771
512.98	17.581
513.33	17.059
513.67	16.882
514.02	18.130
514.36	17.601
514.70	17.600
515.05	17.475
515.39	18.476
515.74	17.551
516.08	18.028
516.42	19.016
516.77	17.493
517.11	18.240
517.46	18.103
517.80	17.750
518.14	17.859
518.49	17.420
518.83	17.198
519.17	17.748
519.52	17.859
519.86	17.548
520.20	18.192
520.55	17.185
520.89	18.161
521.23	18.049
521.58	17.326
521.92	18.017
522.26	17.832
522.61	18.479
522.95	18.198
523.29	17.953
523.64	17.861
523.98	18.545
524.32	17.705
524.66	17.855
525.01	18.343
525.35	17.796
525.69	18.543
526.04	18.501
526.38	18.835
526.72	17.661
527.06	18.569
527.41	19.528
527.75	18.990
528.09	18.423
528.43	18.365
528.78	18.187
529.12	17.881
529.46	18.352
529.80	18.341
530.15	17.914
530.49	17.750
530.83	17.977
531.17	18.573
531.51	18.455
531.86	17.874
532.20	18.232
532.54	17.828
532.88	18.613
533.22	18.586
533.57	17.877
533.91	16.958
534.25	17.600
534.59	17.719
534.93	18.032
535.27	16.847
535.62	17.503
535.96	17.553
536.30	19.013
536.64	17.453
536.98	18.062
537.32	18.062
537.66	17.985
538.01	18.142
538.35	18.278
538.69	17.718
539.03	17.413
539.37	17.900
539.71	18.086
540.05	18.031
540.39	17.862
540.73	18.228
541.07	17.440
541.42	17.910
541.76	18.064
542.10	17.324
542.44	18.204
542.78	18.313
543.12	17.669
543.46	17.481
543.80	18.045
544.14	18.080
544.48	17.822
544.82	17.370
545.16	16.940
545.50	18.439
545.84	18.056
546.18	19.116
546.52	18.098
546.86	17.215
547.20	17.377
547.54	17.986
547.88	17.762
548.22	17.729
548.56	18.268
548.90	17.853
549.24	19.078
549.58	18.879
549.92	18.468
550.26	18.796
550.60	17.631
550.94	18.928
551.28	18.828
551.62	19.310
551.96	17.905
552.30	17.337
552.64	17.864
552.98	17.655
553.32	17.990
553.66	18.306
554.00	17.825
554.34	18.242
554.68	18.414
555.02	17.855
555.36	18.551
555.69	18.325
556.03	17.516
556.37	18.483
556.71	18.579
557.05	16.972
557.39	17.867
557.73	18.261
558.07	17.907
558.41	17.889
558.75	18.741
559.08	19.514
559.42	18.182
559.76	17.962
560.10	18.376
560.44	18.182
560.78	18.734
561.12	17.928
561.45	17.710
561.79	17.478
562.13	16.804
562.47	18.105
562.81	17.697
563.15	17.259
563.48	16.832
563.82	17.779
564.16	17.040
564.50	17.902
564.84	16.900
565.17	16.934
565.51	17.919
565.85	17.212
566.19	17.857
566.52	17.028
566.86	18.330
567.20	17.697
567.54	16.812
567.88	17.110
568.21	16.975
568.55	16.877
568.89	16.104
569.23	16.091
569.56	15.575
569.90	15.163
570.24	15.162
570.57	14.925
570.91	14.945
571.25	14.917
571.59	14.326
571.92	14.290
572.26	14.205
572.60	13.996
572.93	14.865
573.27	14.302
573.61	14.266
573.95	14.069
574.28	14.639
574.62	13.880
574.96	13.924
575.29	13.833
575.63	13.969
575.97	13.948
576.30	13.996
576.64	14.522
576.98	13.838
577.31	13.931
577.65	13.932
577.98	13.604
578.32	13.216
578.66	13.628
578.99	14.118
579.33	13.802
579.67	13.801
580.00	13.850
580.34	14.014
580.67	13.893
581.01	13.957
581.35	13.854
581.68	13.146
582.02	13.421
582.35	13.201
582.69	13.442
583.02	13.724
583.36	13.710
583.70	14.203
584.03	14.268
584.37	14.210
584.70	13.909
585.04	13.800
585.37	13.661
585.71	14.045
586.04	13.905
586.38	13.814
586.72	14.337
587.05	13.999
587.39	14.008
587.72	13.881
588.06	14.030
588.39	14.432
588.73	14.356
589.06	14.123
589.40	14.710
589.73	14.815
590.07	14.928
590.40	15.331
590.73	15.791
591.07	15.370
591.40	15.250
591.74	15.463
592.07	15.100
592.41	14.908
592.74	14.390
593.08	13.965
593.41	14.632
593.75	13.968
594.08	14.567
594.41	14.695
594.75	14.623
595.08	14.849
595.42	15.109
595.75	14.808
596.09	14.668
596.42	14.785
596.75	15.545
597.09	15.394
597.42	14.653
597.75	15.132
598.09	15.018
598.42	14.688
598.76	15.227
599.09	15.006
599.42	14.291
599.76	14.450
600.09	14.373
600.42	15.228
600.76	13.936
601.09	14.636
601.42	14.643
601.76	14.536
602.09	15.305
602.42	14.529
602.76	14.953
603.09	15.045
603.42	15.193
603.76	15.040
604.09	14.875
604.42	14.802
604.76	14.895
605.09	15.184
605.42	14.791
605.75	15.120
606.09	15.226
606.42	14.919
606.75	14.808
607.09	14.726
607.42	14.383
607.75	15.605
608.08	15.110
608.42	15.982
608.75	14.763
609.08	15.090
609.41	15.909
609.75	15.568
610.08	15.603
610.41	14.932
610.74	15.195
611.07	15.643
611.41	15.755
611.74	15.296
612.07	15.944
612.40	15.936
612.73	15.976
613.07	15.661
613.40	15.639
613.73	15.826
614.06	15.950
614.39	16.465
614.72	15.520
615.06	15.232
615.39	15.941
615.72	14.956
616.05	16.123
616.38	15.627
616.71	16.115
617.05	16.090
617.38	15.730
617.71	16.423
618.04	16.601
618.37	16.120
618.70	15.416
619.03	16.056
619.36	16.583
619.69	15.897
620.03	17.678
620.36	17.084
620.69	17.241
621.02	17.391
621.35	17.407
621.68	17.994
622.01	17.491
622.34	16.606
622.67	17.837
623.00	17.086
623.33	17.341
623.66	17.898
623.99	16.986
624.32	17.005
624.65	16.195
624.99	16.430
625.32	16.633
625.65	16.759
625.98	17.503
626.31	17.656
626.64	16.781
626.97	17.674
627.30	17.780
627.63	17.896
627.96	16.823
628.29	18.482
628.62	17.451
628.95	18.883
629.28	18.317
629.61	18.717
629.94	18.928
630.26	19.064
630.59	19.326
630.92	18.206
631.25	18.314
