SpectraSuite Data File
++++++++++++++++++++++++++++++++++++
Date: Tue May 12 17:01:19 PDT 2015
User: schluterlab
Dark Spectrum Present: Yes
Reference Spectrum Present: Yes
Number of Sampled Component Spectra: 1
Spectrometers: USB2E3373
Integration Time (usec): 3000 (USB2E3373)
Spectra Averaged: 3 (USB2E3373)
Boxcar Smoothing: 0 (USB2E3373)
Correct for Electrical Dark: No (USB2E3373)
Strobe/Lamp Enabled: No (USB2E3373)
Correct for Detector Non-linearity: No (USB2E3373)
Correct for Stray Light: No (USB2E3373)
Number of Pixels in Processed Spectrum: 2048
>>>>>Begin Processed Spectral Data<<<<<
178.53	0.000
178.91	-241.667
179.29	-725.000
179.67	-4300.000
180.04	-213.333
180.42	650.000
180.80	1350.000
181.18	0.000
181.56	-475.000
181.94	0.000
182.31	1000.000
182.69	-2700.000
183.07	685.714
183.45	-3900.000
183.83	-1300.000
184.20	470.000
184.58	500.000
184.96	-253.846
185.34	-225.000
185.72	2000.000
186.09	-875.000
186.47	-2700.000
186.85	1266.667
187.23	740.000
187.61	1800.000
187.98	437.500
188.36	314.286
188.74	400.000
189.12	316.667
189.49	1075.000
189.87	0.000
190.25	425.000
190.63	3000.000
191.00	-208.333
191.38	-2700.000
191.76	-725.000
192.14	475.000
192.51	-3100.000
192.89	1800.000
193.27	1066.667
193.65	-1333.333
194.02	-860.000
194.40	500.000
194.78	-178.571
195.15	186.667
195.53	-2800.000
195.91	-320.000
196.29	3300.000
196.66	200.000
197.04	825.000
197.42	-1900.000
197.79	750.000
198.17	366.667
198.55	0.000
198.92	385.714
199.30	1100.000
199.68	1450.000
200.05	800.000
200.43	-350.000
200.81	172.222
201.18	2800.000
201.56	308.333
201.94	-725.000
202.31	-250.000
202.69	-480.000
203.07	3500.000
203.44	-583.333
203.82	333.333
204.19	540.000
204.57	-1350.000
204.95	-875.000
205.32	-600.000
205.70	483.333
206.08	725.000
206.45	-500.000
206.83	355.556
207.20	178.947
207.58	275.000
207.96	920.000
208.33	0.000
208.71	542.857
209.08	740.000
209.46	-3200.000
209.84	-950.000
210.21	880.000
210.59	-700.000
210.96	300.000
211.34	-875.000
211.71	427.273
212.09	825.000
212.46	1650.000
212.84	-416.667
213.22	344.444
213.59	-4000.000
213.97	360.000
214.34	1075.000
214.72	1200.000
215.09	1100.000
215.47	-3900.000
215.84	-230.000
216.22	-425.000
216.59	0.000
216.97	0.000
217.34	1600.000
217.72	-1200.000
218.09	1333.333
218.47	400.000
218.84	850.000
219.22	1133.333
219.59	1066.667
219.97	585.714
220.34	344.444
220.72	1500.000
221.09	3500.000
221.47	250.000
221.84	966.667
222.22	400.000
222.59	238.889
222.97	250.000
223.34	218.750
223.72	-1650.000
224.09	1233.333
224.46	253.846
224.84	-1000.000
225.21	400.000
225.59	340.000
225.96	966.667
226.34	-520.000
226.71	-750.000
227.08	-460.000
227.46	0.000
227.83	-600.000
228.21	-1450.000
228.58	333.333
228.95	950.000
229.33	400.000
229.70	775.000
230.08	315.385
230.45	3400.000
230.82	-1050.000
231.20	-533.333
231.57	-966.667
231.95	560.000
232.32	325.000
232.69	583.333
233.07	225.000
233.44	-1150.000
233.81	220.000
234.19	177.778
234.56	168.750
234.93	217.647
235.31	205.000
235.68	218.750
236.05	150.000
236.43	144.444
236.80	185.714
237.17	137.931
237.55	109.375
237.92	135.000
238.29	115.152
238.67	118.750
239.04	82.927
239.41	47.917
239.79	67.500
240.16	60.417
240.53	65.574
240.91	57.971
241.28	62.712
241.65	46.970
242.02	54.930
242.40	58.571
242.77	45.055
243.14	41.772
243.51	52.525
243.89	34.579
244.26	37.383
244.63	22.772
245.00	32.110
245.38	20.339
245.75	31.061
246.12	33.333
246.49	26.241
246.87	15.574
247.24	24.667
247.61	23.750
247.98	19.048
248.36	16.364
248.73	25.510
249.10	17.262
249.47	14.000
249.84	22.886
250.22	18.378
250.59	15.500
250.96	14.768
251.33	17.209
251.70	17.411
252.08	18.067
252.45	14.343
252.82	15.209
253.19	15.020
253.56	10.385
253.94	14.493
254.31	15.504
254.68	16.725
255.05	16.552
255.42	14.599
255.79	14.984
256.16	12.542
256.54	14.610
256.91	14.706
257.28	12.375
257.65	9.404
258.02	11.799
258.39	12.607
258.76	11.884
259.14	10.000
259.51	12.828
259.88	8.511
260.25	11.264
260.62	9.589
260.99	10.744
261.36	11.142
261.73	10.638
262.10	12.827
262.47	11.500
262.85	9.867
263.22	9.254
263.59	9.463
263.96	10.025
264.33	7.654
264.70	11.057
265.07	8.780
265.44	10.550
265.81	10.142
266.18	9.153
266.55	7.565
266.92	9.172
267.29	12.281
267.66	10.538
268.03	8.296
268.40	9.302
268.77	11.894
269.14	6.291
269.51	10.245
269.88	9.184
270.25	7.991
270.62	10.300
270.99	10.548
271.36	9.553
271.73	8.176
272.10	8.081
272.47	8.532
272.84	7.784
273.21	8.058
273.58	8.907
273.95	6.366
274.32	7.977
274.69	9.843
275.06	9.472
275.43	8.621
275.80	7.170
276.17	9.191
276.54	8.785
276.91	9.328
277.28	7.299
277.65	7.011
278.02	7.169
278.39	7.734
278.76	8.793
279.13	7.651
279.50	6.909
279.87	5.214
280.23	5.157
280.60	7.482
280.97	7.241
281.34	7.591
281.71	7.826
282.08	7.863
282.45	7.432
282.82	6.856
283.19	8.267
283.56	8.595
283.92	5.049
284.29	7.820
284.66	6.891
285.03	6.302
285.40	5.455
285.77	6.173
286.14	7.895
286.51	6.748
286.87	6.804
287.24	4.955
287.61	7.751
287.98	7.612
288.35	6.370
288.72	6.980
289.08	7.357
289.45	7.774
289.82	6.250
290.19	6.003
290.56	6.550
290.93	7.338
291.29	5.939
291.66	6.073
292.03	7.013
292.40	7.046
292.77	3.760
293.13	6.562
293.50	4.184
293.87	6.504
294.24	6.154
294.60	6.864
294.97	5.594
295.34	6.507
295.71	6.439
296.08	6.533
296.44	6.734
296.81	5.335
297.18	5.450
297.55	5.788
297.91	4.310
298.28	6.763
298.65	5.031
299.02	5.428
299.38	5.396
299.75	5.000
300.12	5.390
300.48	6.089
300.85	5.959
301.22	5.116
301.59	4.245
301.95	3.967
302.32	4.889
302.69	5.204
303.05	6.285
303.42	4.596
303.79	5.525
304.15	6.271
304.52	3.805
304.89	4.797
305.25	4.116
305.62	4.904
305.99	3.913
306.35	4.421
306.72	5.203
307.09	3.830
307.45	4.857
307.82	4.218
308.19	4.330
308.55	4.100
308.92	5.103
309.29	5.917
309.65	5.649
310.02	5.375
310.38	4.586
310.75	3.761
311.12	4.885
311.48	5.792
311.85	4.771
312.22	5.253
312.58	4.373
312.95	5.437
313.31	5.243
313.68	4.597
314.05	5.678
314.41	5.959
314.78	4.924
315.14	5.118
315.51	5.676
315.87	5.292
316.24	5.229
316.61	5.192
316.97	4.771
317.34	6.289
317.70	5.531
318.07	7.295
318.43	6.239
318.80	5.779
319.16	6.031
319.53	6.726
319.89	5.824
320.26	7.076
320.62	7.143
320.99	7.150
321.35	7.607
321.72	9.393
322.08	8.033
322.45	7.902
322.81	7.411
323.18	9.414
323.54	9.669
323.91	9.429
324.27	8.842
324.64	7.612
325.00	10.690
325.37	10.034
325.73	10.624
326.10	12.759
326.46	11.313
326.83	11.520
327.19	12.209
327.56	11.661
327.92	12.541
328.29	14.239
328.65	14.384
329.01	13.516
329.38	13.706
329.74	12.980
330.11	14.944
330.47	16.198
330.84	14.150
331.20	15.736
331.56	15.717
331.93	16.938
332.29	14.966
332.66	15.221
333.02	14.347
333.38	15.707
333.75	17.014
334.11	16.275
334.48	16.239
334.84	16.216
335.20	17.109
335.57	16.625
335.93	16.653
336.29	17.579
336.66	18.268
337.02	16.766
337.38	16.595
337.75	17.568
338.11	17.890
338.47	16.681
338.84	16.935
339.20	16.104
339.56	18.587
339.93	17.308
340.29	16.807
340.65	18.609
341.02	18.906
341.38	17.816
341.74	16.694
342.11	17.279
342.47	16.489
342.83	18.212
343.20	18.351
343.56	16.998
343.92	17.836
344.28	17.544
344.65	17.930
345.01	17.778
345.37	17.308
345.73	16.905
346.10	17.450
346.46	17.943
346.82	17.670
347.19	18.006
347.55	17.330
347.91	17.749
348.27	16.731
348.63	18.196
349.00	17.822
349.36	17.977
349.72	18.272
350.08	18.401
350.45	18.812
350.81	18.349
351.17	17.720
351.53	18.553
351.89	17.483
352.26	18.972
352.62	17.647
352.98	18.558
353.34	18.413
353.70	17.431
354.07	19.308
354.43	18.203
354.79	18.147
355.15	18.989
355.51	17.900
355.87	18.825
356.24	17.783
356.60	17.884
356.96	18.347
357.32	18.011
357.68	18.429
358.04	18.693
358.40	18.966
358.77	17.656
359.13	18.018
359.49	18.384
359.85	18.764
360.21	17.533
360.57	19.051
360.93	17.677
361.29	17.821
361.66	19.761
362.02	18.395
362.38	17.460
362.74	18.754
363.10	18.654
363.46	18.508
363.82	18.724
364.18	19.630
364.54	18.598
364.90	17.938
365.26	18.529
365.62	17.196
365.98	17.756
366.35	18.207
366.71	19.292
367.07	19.044
367.43	17.797
367.79	18.684
368.15	18.453
368.51	18.746
368.87	19.022
369.23	17.602
369.59	18.543
369.95	17.972
370.31	18.275
370.67	18.945
371.03	19.678
371.39	18.075
371.75	18.981
372.11	19.239
372.47	19.863
372.83	18.287
373.19	19.602
373.55	19.588
373.91	17.610
374.27	19.246
374.63	18.576
374.99	19.137
375.35	18.750
375.71	19.921
376.07	19.562
376.42	18.478
376.78	19.717
377.14	18.938
377.50	18.789
377.86	18.962
378.22	19.317
378.58	20.157
378.94	19.312
379.30	19.224
379.66	19.326
380.02	19.003
380.38	18.852
380.74	19.089
381.09	19.801
381.45	18.613
381.81	19.385
382.17	19.353
382.53	19.016
382.89	19.397
383.25	18.946
383.61	19.424
383.97	18.296
384.32	19.650
384.68	21.093
385.04	19.930
385.40	19.810
385.76	19.427
386.12	19.171
386.48	20.304
386.83	18.826
387.19	18.610
387.55	19.729
387.91	19.169
388.27	19.393
388.62	19.542
388.98	18.834
389.34	18.858
389.70	19.929
390.06	19.268
390.42	19.186
390.77	20.209
391.13	19.916
391.49	19.782
391.85	19.138
392.20	20.203
392.56	20.072
392.92	19.427
393.28	19.787
393.64	18.865
393.99	19.443
394.35	19.717
394.71	19.059
395.07	18.735
395.42	19.614
395.78	20.111
396.14	20.843
396.50	19.194
396.85	19.756
397.21	20.277
397.57	19.486
397.92	18.544
398.28	19.360
398.64	20.303
399.00	19.188
399.35	18.304
399.71	19.371
400.07	20.148
400.42	19.164
400.78	20.117
401.14	19.025
401.49	19.585
401.85	19.757
402.21	19.684
402.57	19.868
402.92	20.061
403.28	18.437
403.63	19.070
403.99	20.145
404.35	19.812
404.70	19.669
405.06	18.866
405.42	19.031
405.77	19.184
406.13	19.143
406.49	18.874
406.84	19.120
407.20	19.406
407.55	19.877
407.91	19.911
408.27	20.073
408.62	19.811
408.98	19.338
409.34	19.287
409.69	19.602
410.05	20.274
410.40	19.140
410.76	18.603
411.11	18.602
411.47	18.951
411.83	18.864
412.18	18.901
412.54	19.159
412.89	19.705
413.25	19.954
413.60	19.159
413.96	19.928
414.31	19.421
414.67	20.298
415.03	19.285
415.38	20.189
415.74	19.773
416.09	20.237
416.45	20.168
416.80	20.783
417.16	19.987
417.51	19.236
417.87	19.086
418.22	19.320
418.58	21.401
418.93	18.977
419.29	18.546
419.64	19.867
420.00	19.928
420.35	18.990
420.71	19.837
421.06	19.364
421.42	19.689
421.77	19.767
422.12	19.846
422.48	18.952
422.83	20.926
423.19	19.114
423.54	19.748
423.90	20.215
424.25	20.088
424.61	19.907
424.96	19.198
425.31	19.540
425.67	19.529
426.02	19.237
426.38	19.020
426.73	19.896
427.09	20.344
427.44	20.597
427.79	19.897
428.15	21.450
428.50	19.486
428.85	20.047
429.21	19.665
429.56	19.840
429.92	19.891
430.27	19.545
430.62	19.285
430.98	19.711
431.33	19.405
431.68	18.519
432.04	19.555
432.39	19.978
432.74	20.258
433.10	19.491
433.45	20.333
433.80	20.518
434.16	19.968
434.51	19.711
434.86	20.686
435.22	19.773
435.57	20.451
435.92	20.034
436.28	20.565
436.63	21.124
436.98	20.270
437.34	21.062
437.69	19.933
438.04	20.215
438.39	19.848
438.75	20.100
439.10	20.345
439.45	20.124
439.81	21.805
440.16	20.308
440.51	20.214
440.86	21.937
441.22	20.887
441.57	21.312
441.92	20.039
442.27	19.742
442.63	20.122
442.98	19.774
443.33	21.157
443.68	20.121
444.03	20.500
444.39	20.198
444.74	20.238
445.09	20.484
445.44	20.085
445.79	19.883
446.15	20.105
446.50	20.200
446.85	20.568
447.20	19.900
447.55	20.827
447.91	21.257
448.26	21.459
448.61	20.896
448.96	21.024
449.31	20.902
449.66	20.875
450.02	19.665
450.37	21.155
450.72	21.267
451.07	21.350
451.42	20.865
451.77	20.848
452.12	20.533
452.47	21.446
452.83	21.352
453.18	21.261
453.53	20.485
453.88	21.771
454.23	21.267
454.58	20.921
454.93	21.091
455.28	21.359
455.63	20.981
455.98	21.151
456.34	22.128
456.69	21.768
457.04	20.943
457.39	20.229
457.74	21.622
458.09	20.326
458.44	20.756
458.79	20.955
459.14	20.185
459.49	20.498
459.84	21.630
460.19	20.904
460.54	20.912
460.89	21.482
461.24	20.561
461.59	20.805
461.94	21.040
462.29	21.167
462.64	21.796
462.99	20.537
463.34	21.841
463.69	21.174
464.04	21.474
464.39	21.694
464.74	20.106
465.09	20.836
465.44	21.110
465.79	20.523
466.14	20.509
466.49	21.053
466.84	20.847
467.19	21.031
467.54	21.141
467.89	20.833
468.24	21.193
468.59	20.357
468.94	21.075
469.29	21.503
469.64	22.186
469.99	21.465
470.34	21.252
470.68	21.931
471.03	21.281
471.38	22.119
471.73	20.836
472.08	21.983
472.43	20.795
472.78	21.127
473.13	21.652
473.48	21.027
473.83	21.260
474.17	21.641
474.52	21.564
474.87	20.694
475.22	21.302
475.57	20.147
475.92	19.315
476.27	20.457
476.61	20.214
476.96	20.690
477.31	21.080
477.66	21.524
478.01	21.042
478.36	21.164
478.70	20.893
479.05	20.502
479.40	21.379
479.75	21.797
480.10	21.249
480.45	20.868
480.79	20.783
481.14	20.685
481.49	20.677
481.84	20.493
482.19	20.306
482.53	20.246
482.88	20.609
483.23	20.568
483.58	20.467
483.92	21.344
484.27	20.077
484.62	21.010
484.97	20.179
485.31	19.428
485.66	18.766
486.01	18.843
486.36	18.596
486.70	18.774
487.05	19.371
487.40	18.970
487.75	19.528
488.09	19.148
488.44	19.375
488.79	20.062
489.13	19.895
489.48	20.216
489.83	20.267
490.17	20.396
490.52	20.370
490.87	20.431
491.22	21.055
491.56	20.553
491.91	20.609
492.26	20.713
492.60	21.093
492.95	20.480
493.30	21.110
493.64	20.440
493.99	20.751
494.34	20.305
494.68	20.407
495.03	21.374
495.37	21.612
495.72	20.886
496.07	20.934
496.41	20.721
496.76	20.177
497.11	20.608
497.45	20.649
497.80	20.806
498.14	20.712
498.49	21.031
498.84	20.561
499.18	20.704
499.53	20.946
499.87	20.440
500.22	20.912
500.56	21.077
500.91	21.011
501.26	21.176
501.60	20.811
501.95	20.341
502.29	20.356
502.64	20.291
502.98	20.320
503.33	20.445
503.67	21.192
504.02	20.197
504.36	20.633
504.71	20.435
505.06	21.211
505.40	21.151
505.75	20.346
506.09	21.092
506.44	20.677
506.78	21.030
507.13	20.795
507.47	20.912
507.82	21.703
508.16	21.264
508.51	21.159
508.85	21.035
509.19	21.047
509.54	21.338
509.88	21.233
510.23	20.735
510.57	19.836
510.92	21.728
511.26	21.235
511.61	21.221
511.95	20.707
512.30	21.150
512.64	20.976
512.98	21.117
513.33	21.773
513.67	21.077
514.02	21.195
514.36	20.613
514.70	21.280
515.05	21.257
515.39	22.039
515.74	22.034
516.08	21.296
516.42	22.186
516.77	21.600
517.11	21.280
517.46	22.091
517.80	22.174
518.14	22.648
518.49	21.334
518.83	21.264
519.17	20.965
519.52	21.300
519.86	21.580
520.20	22.301
520.55	21.255
520.89	22.126
521.23	21.904
521.58	20.654
521.92	21.050
522.26	22.453
522.61	21.687
522.95	22.342
523.29	21.696
523.64	21.387
523.98	21.890
524.32	22.145
524.66	22.435
525.01	21.361
525.35	21.509
525.69	22.396
526.04	22.725
526.38	22.072
526.72	21.360
527.06	21.467
527.41	23.096
527.75	22.763
528.09	21.011
528.43	22.758
528.78	21.944
529.12	23.058
529.46	21.742
529.80	21.787
530.15	21.803
530.49	21.540
530.83	21.755
531.17	21.894
531.51	22.011
531.86	21.618
532.20	21.137
532.54	21.720
532.88	22.174
533.22	21.999
533.57	21.843
533.91	21.270
534.25	21.466
534.59	22.398
534.93	21.274
535.27	21.229
535.62	21.879
535.96	21.277
536.30	22.243
536.64	22.174
536.98	22.215
537.32	23.063
537.66	21.875
538.01	21.858
538.35	21.397
538.69	21.420
539.03	21.642
539.37	22.209
539.71	21.790
540.05	21.354
540.39	21.887
540.73	22.025
541.07	21.769
541.42	21.642
541.76	21.578
542.10	21.270
542.44	21.633
542.78	22.404
543.12	21.718
543.46	22.243
543.80	22.180
544.14	21.300
544.48	22.202
544.82	22.141
545.16	21.372
545.50	21.696
545.84	21.717
546.18	22.562
546.52	22.426
546.86	22.566
547.20	21.705
547.54	21.786
547.88	22.080
548.22	22.283
548.56	21.273
548.90	21.945
549.24	21.920
549.58	21.714
549.92	22.397
550.26	22.921
550.60	21.956
550.94	23.677
551.28	23.034
551.62	23.586
551.96	22.365
552.30	21.688
552.64	21.748
552.98	21.134
553.32	21.511
553.66	21.498
554.00	22.008
554.34	23.635
554.68	22.849
555.02	21.996
555.36	22.141
555.69	22.382
556.03	22.229
556.37	21.670
556.71	22.555
557.05	22.018
557.39	22.333
557.73	22.439
558.07	22.871
558.41	22.344
558.75	22.161
559.08	23.588
559.42	23.980
559.76	23.806
560.10	22.987
560.44	21.831
560.78	22.123
561.12	21.742
561.45	21.151
561.79	21.099
562.13	21.162
562.47	21.544
562.81	21.861
563.15	22.172
563.48	21.491
563.82	21.647
564.16	22.015
564.50	21.338
564.84	21.702
565.17	21.509
565.51	21.798
565.85	22.394
566.19	21.786
566.52	21.480
566.86	21.775
567.20	22.247
567.54	21.234
567.88	21.753
568.21	21.268
568.55	20.331
568.89	20.757
569.23	20.406
569.56	20.567
569.90	20.050
570.24	20.681
570.57	19.630
570.91	19.501
571.25	19.603
571.59	19.064
571.92	18.757
572.26	18.922
572.60	18.828
572.93	19.810
573.27	19.472
573.61	19.193
573.95	18.625
574.28	19.583
574.62	18.840
574.96	18.671
575.29	18.814
575.63	18.563
575.97	18.525
576.30	18.957
576.64	19.168
576.98	19.341
577.31	18.925
577.65	18.638
577.98	18.318
578.32	18.509
578.66	18.507
578.99	19.278
579.33	18.832
579.67	18.901
580.00	18.620
580.34	18.552
580.67	18.837
581.01	19.157
581.35	18.744
581.68	18.535
582.02	18.389
582.35	18.220
582.69	18.753
583.02	18.458
583.36	18.983
583.70	19.299
584.03	19.165
584.37	19.182
584.70	19.234
585.04	19.058
585.37	18.733
585.71	19.281
586.04	18.630
586.38	19.009
586.72	19.022
587.05	19.171
587.39	19.039
587.72	19.102
588.06	19.121
588.39	19.371
588.73	19.423
589.06	18.879
589.40	19.562
589.73	19.502
590.07	20.007
590.40	19.930
590.73	21.043
591.07	21.063
591.40	20.040
591.74	20.657
592.07	20.258
592.41	20.264
592.74	20.322
593.08	18.913
593.41	19.270
593.75	19.063
594.08	20.018
594.41	19.746
594.75	19.315
595.08	19.822
595.42	19.980
595.75	20.039
596.09	20.021
596.42	20.029
596.75	20.713
597.09	20.429
597.42	20.327
597.75	20.041
598.09	20.107
598.42	20.481
598.76	19.892
599.09	20.191
599.42	19.827
599.76	20.014
600.09	19.288
600.42	19.820
600.76	19.782
601.09	19.503
601.42	19.711
601.76	20.086
602.09	20.052
602.42	20.148
602.76	19.734
603.09	20.023
603.42	19.890
603.76	19.776
604.09	19.182
604.42	20.226
604.76	20.229
605.09	20.857
605.42	20.601
605.75	20.292
606.09	19.778
606.42	20.594
606.75	20.599
607.09	19.818
607.42	20.731
607.75	20.183
608.08	20.024
608.42	20.889
608.75	20.240
609.08	20.678
609.41	21.409
609.75	21.108
610.08	20.638
610.41	20.993
610.74	20.390
611.07	20.828
611.41	21.084
611.74	20.841
612.07	21.195
612.40	21.979
612.73	21.717
613.07	21.541
613.40	20.852
613.73	20.769
614.06	20.800
614.39	21.465
614.72	21.296
615.06	20.722
615.39	21.188
615.72	20.862
616.05	21.497
616.38	20.649
616.71	21.324
617.05	21.691
617.38	21.180
617.71	21.485
618.04	21.761
618.37	21.012
618.70	21.247
619.03	21.856
619.36	22.927
619.69	22.098
620.03	22.831
620.36	22.993
620.69	23.308
621.02	24.049
621.35	22.350
621.68	22.861
622.01	23.247
622.34	22.505
622.67	23.034
623.00	23.145
623.33	23.347
623.66	22.355
623.99	22.945
624.32	23.306
624.65	22.646
624.99	23.124
625.32	22.512
625.65	22.138
625.98	22.664
626.31	23.516
626.64	22.703
626.97	23.336
627.30	23.913
627.63	23.862
627.96	24.335
628.29	23.927
628.62	24.209
628.95	24.911
629.28	25.855
629.61	23.111
629.94	24.287
630.26	23.484
630.59	25.177
630.92	24.753
631.25	24.660
631.58	25.265
631.91	25.404
632.24	24.198
632.57	23.477
632.90	25.880
633.23	25.603
633.56	25.817
633.89	26.259
634.22	27.126
634.55	24.946
634.88	27.163
