SpectraSuite Data File
++++++++++++++++++++++++++++++++++++
Date: Tue May 12 16:55:07 PDT 2015
User: schluterlab
Dark Spectrum Present: Yes
Reference Spectrum Present: Yes
Number of Sampled Component Spectra: 1
Spectrometers: USB2E3373
Integration Time (usec): 3000 (USB2E3373)
Spectra Averaged: 3 (USB2E3373)
Boxcar Smoothing: 0 (USB2E3373)
Correct for Electrical Dark: No (USB2E3373)
Strobe/Lamp Enabled: No (USB2E3373)
Correct for Detector Non-linearity: No (USB2E3373)
Correct for Stray Light: No (USB2E3373)
Number of Pixels in Processed Spectrum: 2048
>>>>>Begin Processed Spectral Data<<<<<
178.53	0.000
178.91	-191.667
179.29	-650.000
179.67	-3500.000
180.04	-113.333
180.42	625.000
180.80	1450.000
181.18	0.000
181.56	-362.500
181.94	0.000
182.31	1166.667
182.69	-2800.000
183.07	514.286
183.45	-4600.000
183.83	-1650.000
184.20	380.000
184.58	414.286
184.96	-230.769
185.34	-241.667
185.72	1550.000
186.09	-700.000
186.47	-3100.000
186.85	1033.333
187.23	640.000
187.61	1950.000
187.98	500.000
188.36	292.857
188.74	341.667
189.12	333.333
189.49	875.000
189.87	0.000
190.25	450.000
190.63	2400.000
191.00	-208.333
191.38	-3100.000
191.76	-850.000
192.14	437.500
192.51	-1700.000
192.89	1500.000
193.27	1200.000
193.65	-1100.000
194.02	-760.000
194.40	514.286
194.78	-121.429
195.15	226.667
195.53	-2800.000
195.91	-420.000
196.29	3600.000
196.66	268.750
197.04	675.000
197.42	-1450.000
197.79	650.000
198.17	325.000
198.55	0.000
198.92	442.857
199.30	1466.667
199.68	1650.000
200.05	666.667
200.43	-450.000
200.81	161.111
201.18	3400.000
201.56	308.333
201.94	-750.000
202.31	-325.000
202.69	-320.000
203.07	2800.000
203.44	-483.333
203.82	266.667
204.19	640.000
204.57	-1300.000
204.95	-800.000
205.32	-880.000
205.70	450.000
206.08	750.000
206.45	-600.000
206.83	366.667
207.20	157.895
207.58	283.333
207.96	720.000
208.33	0.000
208.71	557.143
209.08	920.000
209.46	-2300.000
209.84	-800.000
210.21	640.000
210.59	-480.000
210.96	291.667
211.34	-775.000
211.71	354.545
212.09	800.000
212.46	1600.000
212.84	-533.333
213.22	388.889
213.59	-2000.000
213.97	280.000
214.34	700.000
214.72	800.000
215.09	1066.667
215.47	-3800.000
215.84	-330.000
216.22	-425.000
216.59	0.000
216.97	0.000
217.34	1300.000
217.72	-900.000
218.09	900.000
218.47	562.500
218.84	700.000
219.22	1200.000
219.59	833.333
219.97	414.286
220.34	300.000
220.72	1650.000
221.09	3600.000
221.47	300.000
221.84	1133.333
222.22	380.000
222.59	222.222
222.97	150.000
223.34	243.750
223.72	-1600.000
224.09	1200.000
224.46	300.000
224.84	-750.000
225.21	466.667
225.59	273.333
225.96	1366.667
226.34	-480.000
226.71	-750.000
227.08	-460.000
227.46	0.000
227.83	-533.333
228.21	-1600.000
228.58	325.000
228.95	900.000
229.33	322.222
229.70	1225.000
230.08	292.308
230.45	2800.000
230.82	-775.000
231.20	-766.667
231.57	-866.667
231.95	460.000
232.32	250.000
232.69	483.333
233.07	275.000
233.44	-1500.000
233.81	233.333
234.19	151.852
234.56	162.500
234.93	205.882
235.31	150.000
235.68	300.000
236.05	139.286
236.43	140.741
236.80	228.571
237.17	124.138
237.55	146.875
237.92	107.500
238.29	103.030
238.67	109.375
239.04	85.366
239.41	70.833
239.79	80.000
240.16	81.250
240.53	52.459
240.91	50.725
241.28	61.017
241.65	46.970
242.02	67.606
242.40	44.286
242.77	31.868
243.14	29.114
243.51	52.525
243.89	35.514
244.26	33.645
244.63	38.614
245.00	34.862
245.38	26.271
245.75	32.576
246.12	37.037
246.49	28.369
246.87	21.311
247.24	26.000
247.61	34.375
247.98	25.850
248.36	26.061
248.73	34.184
249.10	20.238
249.47	21.500
249.84	22.886
250.22	23.243
250.59	22.000
250.96	24.895
251.33	21.395
251.70	20.536
252.08	17.227
252.45	19.124
252.82	16.350
253.19	16.206
253.56	17.692
253.94	18.116
254.31	18.605
254.68	17.422
255.05	21.034
255.42	13.869
255.79	17.590
256.16	15.593
256.54	22.078
256.91	16.340
257.28	15.385
257.65	12.226
258.02	14.159
258.39	14.900
258.76	16.232
259.14	12.000
259.51	17.493
259.88	18.541
260.25	12.912
260.62	15.616
260.99	11.019
261.36	15.042
261.73	11.436
262.10	15.445
262.47	14.500
262.85	14.133
263.22	11.054
263.59	14.322
263.96	16.291
264.33	11.358
264.70	14.005
265.07	12.927
265.44	13.303
265.81	11.557
266.18	11.899
266.55	10.165
266.92	10.962
267.29	11.623
267.66	12.556
268.03	10.090
268.40	13.531
268.77	12.775
269.14	9.978
269.51	13.140
269.88	13.265
270.25	8.207
270.62	10.944
270.99	12.373
271.36	13.211
271.73	10.692
272.10	9.899
272.47	11.508
272.84	11.377
273.21	12.397
273.58	12.955
273.95	10.883
274.32	10.506
274.69	11.024
275.06	10.565
275.43	11.494
275.80	8.302
276.17	9.191
276.54	12.336
276.91	13.060
277.28	8.759
277.65	11.993
278.02	11.213
278.39	10.252
278.76	12.069
279.13	10.498
279.50	10.909
279.87	8.939
280.23	8.656
280.60	8.759
280.97	9.828
281.34	10.726
281.71	10.261
282.08	11.111
282.45	9.291
282.82	9.365
283.19	9.857
283.56	9.256
283.92	7.492
284.29	8.486
284.66	7.563
285.03	11.443
285.40	10.413
285.77	9.414
286.14	10.836
286.51	9.969
286.87	9.019
287.24	10.060
287.61	11.094
287.98	11.194
288.35	10.370
288.72	8.953
289.08	11.111
289.45	10.213
289.82	10.312
290.19	10.542
290.56	10.771
290.93	9.496
291.29	9.530
291.66	9.322
292.03	11.641
292.40	9.756
292.77	10.446
293.13	10.414
293.50	10.661
293.87	9.892
294.24	12.867
294.60	11.306
294.97	10.629
295.34	10.226
295.71	11.564
296.08	10.800
296.44	10.546
296.81	9.305
297.18	9.125
297.55	10.345
297.91	9.360
298.28	10.749
298.65	10.429
299.02	10.736
299.38	11.151
299.75	10.610
300.12	11.124
300.48	12.763
300.85	10.727
301.22	10.465
301.59	10.967
301.95	10.152
302.32	11.874
302.69	10.973
303.05	12.009
303.42	10.426
303.79	11.701
304.15	10.231
304.52	12.896
304.89	11.194
305.25	11.457
305.62	13.113
305.99	11.087
306.35	11.579
306.72	12.591
307.09	11.905
307.45	12.566
307.82	11.831
308.19	12.474
308.55	12.200
308.92	12.758
309.29	14.990
309.65	13.280
310.02	11.968
310.38	12.961
310.75	13.018
311.12	12.644
311.48	14.768
311.85	14.313
312.22	15.664
312.58	13.800
312.95	14.369
313.31	14.981
313.68	14.071
314.05	15.751
314.41	14.804
314.78	15.246
315.14	15.829
315.51	16.462
315.87	15.785
316.24	16.620
316.61	16.473
316.97	16.697
317.34	17.430
317.70	16.594
318.07	18.327
318.43	18.190
318.80	19.615
319.16	17.745
319.53	18.496
319.89	18.280
320.26	20.764
320.62	20.513
320.99	20.210
321.35	20.037
321.72	21.537
322.08	19.668
322.45	20.345
322.81	20.769
323.18	22.469
323.54	21.690
323.91	21.396
324.27	22.546
324.64	22.491
325.00	23.017
325.37	23.524
325.73	22.344
326.10	24.441
326.46	25.103
326.83	23.520
327.19	24.980
327.56	25.559
327.92	25.000
328.29	27.005
328.65	26.712
329.01	25.749
329.38	26.396
329.74	26.729
330.11	25.456
330.47	25.831
330.84	25.022
331.20	26.819
331.56	28.152
331.93	26.518
332.29	26.276
332.66	27.636
333.02	26.632
333.38	26.963
333.75	27.273
334.11	26.594
334.48	27.778
334.84	26.605
335.20	26.946
335.57	26.364
335.93	28.007
336.29	27.197
336.66	27.273
337.02	25.663
337.38	26.741
337.75	26.267
338.11	27.004
338.47	26.080
338.84	26.334
339.20	25.108
339.56	26.913
339.93	26.338
340.29	27.227
340.65	27.410
341.02	27.514
341.38	26.355
341.74	26.993
342.11	26.878
342.47	26.169
342.83	26.497
343.20	25.707
343.56	25.258
343.92	26.755
344.28	26.635
344.65	27.302
345.01	25.556
345.37	25.321
345.73	25.873
346.10	26.454
346.46	25.837
346.82	26.620
347.19	25.502
347.55	25.917
347.91	25.831
348.27	25.329
348.63	26.187
349.00	25.666
349.36	27.782
349.72	26.376
350.08	26.863
350.45	26.580
350.81	26.453
351.17	25.347
351.53	27.406
351.89	26.496
352.26	26.002
352.62	26.244
352.98	25.767
353.34	27.504
353.70	25.688
354.07	26.846
354.43	25.576
354.79	26.879
355.15	26.570
355.51	26.284
355.87	26.581
356.24	26.482
356.60	26.484
356.96	26.611
357.32	26.601
357.68	26.946
358.04	27.432
358.40	27.511
358.77	26.521
359.13	26.577
359.49	26.612
359.85	26.433
360.21	26.077
360.57	26.131
360.93	26.551
361.29	26.840
361.66	26.174
362.02	26.136
362.38	26.623
362.74	26.681
363.10	26.157
363.46	25.898
363.82	27.209
364.18	26.814
364.54	27.325
364.90	27.108
365.26	26.232
365.62	26.934
365.98	27.323
366.35	26.000
366.71	27.620
367.07	26.280
367.43	26.595
367.79	26.596
368.15	26.866
368.51	27.292
368.87	26.359
369.23	27.651
369.59	27.377
369.95	27.692
370.31	26.352
370.67	26.440
371.03	27.591
371.39	26.939
371.75	27.565
372.11	27.124
372.47	27.808
372.83	27.124
373.19	28.650
373.55	27.973
373.91	27.210
374.27	27.976
374.63	26.034
374.99	28.841
375.35	27.352
375.71	28.298
376.07	27.255
376.42	27.941
376.78	26.397
377.14	28.506
377.50	27.091
377.86	27.098
378.22	28.702
378.58	27.421
378.94	27.339
379.30	27.532
379.66	28.838
380.02	28.563
380.38	27.108
380.74	28.085
381.09	28.738
381.45	27.688
381.81	27.187
382.17	27.411
382.53	28.734
382.89	28.208
383.25	27.590
383.61	28.473
383.97	28.014
384.32	28.451
384.68	29.649
385.04	29.484
385.40	29.537
385.76	29.374
386.12	28.942
386.48	28.511
386.83	28.362
387.19	28.210
387.55	28.504
387.91	29.677
388.27	29.090
388.62	28.873
388.98	28.338
389.34	28.733
389.70	28.656
390.06	28.598
390.42	28.809
390.77	28.194
391.13	29.209
391.49	27.707
391.85	28.985
392.20	29.201
392.56	27.838
392.92	27.793
393.28	27.074
393.64	28.326
393.99	29.105
394.35	28.016
394.71	27.503
395.07	28.710
395.42	28.279
395.78	29.550
396.14	29.157
396.50	28.339
396.85	27.744
397.21	29.061
397.57	28.990
397.92	27.441
398.28	27.854
398.64	28.098
399.00	27.686
399.35	27.322
399.71	27.815
400.07	27.968
400.42	27.940
400.78	28.270
401.14	28.420
401.49	27.592
401.85	27.578
402.21	28.002
402.57	28.187
402.92	28.242
403.28	27.924
403.63	27.958
403.99	28.106
404.35	27.315
404.70	28.706
405.06	26.839
405.42	27.469
405.77	26.847
406.13	26.790
406.49	26.833
406.84	27.637
407.20	27.968
407.55	28.000
407.91	28.271
408.27	27.592
408.62	27.321
408.98	26.730
409.34	26.242
409.69	27.131
410.05	26.476
410.40	26.620
410.76	26.674
411.11	26.481
411.47	26.667
411.83	26.889
412.18	26.510
412.54	27.147
412.89	26.903
413.25	27.252
413.60	27.336
413.96	27.648
414.31	27.037
414.67	27.064
415.03	27.458
415.38	27.697
415.74	27.416
416.09	27.171
416.45	28.313
416.80	28.416
417.16	26.098
417.51	27.834
417.87	26.846
418.22	27.339
418.58	26.943
418.93	27.365
419.29	26.371
419.64	28.225
420.00	27.208
420.35	27.468
420.71	27.655
421.06	27.663
421.42	27.864
421.77	27.596
422.12	27.178
422.48	28.403
422.83	27.958
423.19	27.754
423.54	27.976
423.90	29.219
424.25	28.398
424.61	29.425
424.96	28.233
425.31	28.188
425.67	28.844
426.02	28.603
426.38	28.238
426.73	29.092
427.09	29.004
427.44	28.475
427.79	29.560
428.15	29.817
428.50	29.714
428.85	30.276
429.21	29.984
429.56	29.462
429.92	30.283
430.27	29.221
430.62	29.026
430.98	28.743
431.33	29.788
431.68	27.951
432.04	29.798
432.39	30.571
432.74	30.152
433.10	30.233
433.45	30.729
433.80	30.171
434.16	29.743
434.51	29.773
434.86	30.593
435.22	30.686
435.57	30.528
435.92	31.588
436.28	29.954
436.63	30.254
436.98	31.757
437.34	30.993
437.69	30.011
438.04	30.860
438.39	30.648
438.75	30.791
439.10	31.301
439.45	31.600
439.81	31.348
440.16	31.150
440.51	30.631
440.86	31.738
441.22	30.195
441.57	31.444
441.92	30.701
442.27	31.134
442.63	31.504
442.98	31.088
443.33	30.852
443.68	31.087
444.03	31.056
444.39	32.062
444.74	30.849
445.09	31.438
445.44	31.828
445.79	32.602
446.15	31.895
446.50	31.857
446.85	32.072
447.20	31.542
447.55	31.539
447.91	32.552
448.26	31.576
448.61	32.615
448.96	32.244
449.31	31.738
449.66	32.337
450.02	31.659
450.37	32.537
450.72	32.176
451.07	32.170
451.42	32.424
451.77	32.532
452.12	33.296
452.47	32.868
452.83	33.070
453.18	33.033
453.53	32.860
453.88	33.143
454.23	33.353
454.58	32.401
454.93	32.557
455.28	33.843
455.63	33.688
455.98	32.205
456.34	33.495
456.69	33.659
457.04	32.816
457.39	32.800
457.74	33.502
458.09	32.229
458.44	32.530
458.79	33.263
459.14	32.897
459.49	31.993
459.84	32.120
460.19	32.429
460.54	32.934
460.89	32.356
461.24	31.558
461.59	32.880
461.94	32.624
462.29	32.952
462.64	33.103
462.99	33.653
463.34	33.830
463.69	33.212
464.04	32.873
464.39	32.685
464.74	31.770
465.09	32.676
465.44	31.991
465.79	32.444
466.14	31.955
466.49	32.122
466.84	32.497
467.19	32.572
467.54	31.592
467.89	32.805
468.24	32.600
468.59	32.738
468.94	32.609
469.29	32.560
469.64	33.826
469.99	33.419
470.34	32.827
470.68	33.103
471.03	32.955
471.38	32.781
471.73	33.769
472.08	34.573
472.43	33.892
472.78	33.035
473.13	32.040
473.48	33.496
473.83	33.098
474.17	33.860
474.52	32.701
474.87	32.973
475.22	33.010
475.57	33.054
475.92	33.010
476.27	32.263
476.61	32.225
476.96	32.602
477.31	31.979
477.66	33.816
478.01	32.646
478.36	33.162
478.70	32.109
479.05	33.368
479.40	32.837
479.75	33.118
480.10	33.640
480.45	33.147
480.79	32.581
481.14	33.476
481.49	32.754
481.84	32.190
482.19	32.183
482.53	33.070
482.88	32.348
483.23	32.341
483.58	33.079
483.92	33.318
484.27	32.748
484.62	32.810
484.97	31.788
485.31	32.054
485.66	31.260
486.01	30.562
486.36	30.185
486.70	29.887
487.05	30.457
487.40	30.722
487.75	30.472
488.09	30.653
488.44	30.975
488.79	31.656
489.13	31.579
489.48	32.761
489.83	32.235
490.17	31.462
490.52	32.127
490.87	32.759
491.22	32.580
491.56	32.631
491.91	32.213
492.26	32.027
492.60	32.346
492.95	32.578
493.30	31.938
493.64	32.659
493.99	32.513
494.34	32.586
494.68	32.227
495.03	32.735
495.37	33.183
495.72	32.960
496.07	32.749
496.41	32.493
496.76	32.334
497.11	32.262
497.45	32.091
497.80	33.179
498.14	32.917
498.49	32.683
498.84	32.850
499.18	32.313
499.53	33.303
499.87	33.109
500.22	33.072
500.56	32.358
500.91	32.792
501.26	32.889
501.60	32.240
501.95	32.706
502.29	33.111
502.64	32.245
502.98	32.237
503.33	32.517
503.67	32.494
504.02	32.109
504.36	33.213
504.71	33.254
505.06	32.708
505.40	33.318
505.75	31.899
506.09	33.458
506.44	33.036
506.78	33.129
507.13	33.398
507.47	32.848
507.82	34.355
508.16	34.199
508.51	33.237
508.85	33.143
509.19	33.333
509.54	33.545
509.88	34.361
510.23	33.971
510.57	32.674
510.92	34.366
511.26	33.986
511.61	33.038
511.95	33.449
512.30	33.450
512.64	34.320
512.98	33.470
513.33	33.350
513.67	33.092
514.02	34.338
514.36	34.112
514.70	33.280
515.05	33.724
515.39	33.882
515.74	35.046
516.08	34.314
516.42	36.448
516.77	34.240
517.11	34.133
517.46	35.075
517.80	33.534
518.14	34.873
518.49	33.903
518.83	33.846
519.17	33.888
519.52	34.899
519.86	35.204
520.20	34.685
520.55	34.709
520.89	35.460
521.23	36.157
521.58	35.513
521.92	34.636
522.26	34.360
522.61	35.472
522.95	35.556
523.29	35.029
523.64	33.873
523.98	35.153
524.32	35.121
524.66	34.377
525.01	34.438
525.35	34.885
525.69	35.581
526.04	35.693
526.38	35.668
526.72	35.859
527.06	35.186
527.41	35.429
527.75	35.666
528.09	34.136
528.43	35.509
528.78	35.659
529.12	36.484
529.46	35.418
529.80	35.280
530.15	34.767
530.49	34.777
530.83	34.430
531.17	34.994
531.51	34.028
531.86	35.205
532.20	34.858
532.54	35.468
532.88	34.478
533.22	35.893
533.57	35.265
533.91	34.732
534.25	33.699
534.59	35.146
534.93	33.902
535.27	33.921
535.62	34.014
535.96	34.693
536.30	35.466
536.64	34.161
536.98	34.110
537.32	34.188
537.66	34.375
538.01	34.799
538.35	33.749
538.69	33.677
539.03	34.701
539.37	33.313
539.71	35.000
540.05	33.846
540.39	34.528
540.73	33.797
541.07	33.814
541.42	34.639
541.76	34.217
542.10	34.340
542.44	34.414
542.78	33.417
543.12	33.926
543.46	33.772
543.80	35.150
544.14	33.746
544.48	34.063
544.82	34.740
545.16	34.366
545.50	34.911
545.84	34.659
546.18	35.241
546.52	34.557
546.86	33.978
547.20	34.044
547.54	34.579
547.88	34.124
548.22	34.183
548.56	33.294
548.90	32.859
549.24	33.607
549.58	33.312
549.92	33.595
550.26	34.550
550.60	34.731
550.94	35.482
551.28	35.517
551.62	35.517
551.96	34.730
552.30	33.685
552.64	34.822
552.98	34.149
553.32	33.675
553.66	33.876
554.00	33.205
554.34	34.621
554.68	34.207
555.02	35.302
555.36	34.043
555.69	34.882
556.03	34.076
556.37	33.907
556.71	34.941
557.05	33.748
557.39	33.733
557.73	34.569
558.07	34.272
558.41	34.613
558.75	33.995
559.08	35.025
559.42	35.290
559.76	34.569
560.10	33.448
560.44	33.842
560.78	34.207
561.12	34.329
561.45	33.229
561.79	34.020
562.13	33.039
562.47	33.095
562.81	33.832
563.15	33.549
563.48	32.609
563.82	33.999
564.16	34.204
564.50	32.369
564.84	33.252
565.17	32.501
565.51	33.990
565.85	33.004
566.19	33.571
566.52	33.032
566.86	33.333
567.20	32.584
567.54	33.079
567.88	32.812
568.21	32.202
568.55	31.809
568.89	32.026
569.23	31.622
569.56	31.749
569.90	30.543
570.24	30.971
570.57	30.402
570.91	29.641
571.25	29.982
571.59	29.272
571.92	28.956
572.26	28.598
572.60	29.658
572.93	29.672
573.27	29.322
573.61	29.155
573.95	29.208
574.28	29.035
574.62	28.738
574.96	28.232
575.29	28.526
575.63	28.386
575.97	28.067
576.30	28.474
576.64	28.363
576.98	28.442
577.31	28.869
577.65	28.072
577.98	28.112
578.32	28.252
578.66	28.558
578.99	28.257
579.33	28.620
579.67	28.087
580.00	28.113
580.34	28.587
580.67	28.680
581.01	28.484
581.35	28.046
581.68	27.703
582.02	27.926
582.35	27.556
582.69	28.330
583.02	28.173
583.36	28.538
583.70	28.384
584.03	29.132
584.37	28.496
584.70	28.863
585.04	28.480
585.37	28.066
585.71	28.809
586.04	28.329
586.38	28.298
586.72	28.906
587.05	28.976
587.39	28.748
587.72	28.592
588.06	28.632
588.39	28.762
588.73	28.739
589.06	29.122
589.40	29.484
589.73	29.335
590.07	29.410
590.40	30.000
590.73	30.775
591.07	30.247
591.40	30.020
591.74	29.748
592.07	29.908
592.41	30.376
592.74	29.367
593.08	29.199
593.41	28.695
593.75	28.960
594.08	28.241
594.41	28.674
594.75	29.384
595.08	29.012
595.42	28.308
595.75	28.792
596.09	29.267
596.42	29.934
596.75	30.008
597.09	30.169
597.42	29.469
597.75	29.736
598.09	29.545
598.42	29.825
598.76	28.874
599.09	29.827
599.42	28.547
599.76	29.376
600.09	28.847
600.42	29.316
600.76	29.504
601.09	28.271
601.42	29.074
601.76	29.108
602.09	29.286
602.42	29.131
602.76	29.450
603.09	29.563
603.42	29.541
603.76	28.670
604.09	28.628
604.42	28.851
604.76	29.237
605.09	29.306
605.42	29.378
605.75	29.214
606.09	29.112
606.42	28.974
606.75	28.760
607.09	28.504
607.42	29.450
607.75	28.543
608.08	29.163
608.42	29.698
608.75	29.653
609.08	29.520
609.41	29.909
609.75	30.449
610.08	29.362
610.41	29.117
610.74	29.567
611.07	29.650
611.41	29.657
611.74	29.876
612.07	29.094
612.40	29.094
612.73	30.055
613.07	30.512
613.40	30.576
613.73	30.404
614.06	29.000
614.39	30.152
614.72	29.684
615.06	29.624
615.39	29.010
615.72	28.945
616.05	29.784
616.38	30.238
616.71	29.951
617.05	30.148
617.38	29.326
617.71	30.540
618.04	30.230
618.37	30.517
618.70	29.965
619.03	29.670
619.36	30.905
619.69	30.475
620.03	32.681
620.36	30.379
620.69	32.120
621.02	31.454
621.35	31.160
621.68	30.457
622.01	31.956
622.34	31.610
622.67	32.584
623.00	31.518
623.33	30.769
623.66	30.872
623.99	31.918
624.32	31.436
624.65	31.929
624.99	31.575
625.32	31.329
625.65	31.241
625.98	30.544
626.31	32.047
626.64	31.207
626.97	31.676
627.30	30.823
627.63	31.947
627.96	31.534
628.29	33.251
628.62	31.480
628.95	31.472
629.28	32.866
629.61	31.547
629.94	32.757
630.26	32.236
630.59	33.245
630.92	32.556
631.25	32.185
631.58	33.173
631.91	32.826
