SpectraSuite Data File
++++++++++++++++++++++++++++++++++++
Date: Tue May 12 16:38:20 PDT 2015
User: schluterlab
Dark Spectrum Present: Yes
Reference Spectrum Present: Yes
Number of Sampled Component Spectra: 1
Spectrometers: USB2E3373
Integration Time (usec): 3000 (USB2E3373)
Spectra Averaged: 3 (USB2E3373)
Boxcar Smoothing: 0 (USB2E3373)
Correct for Electrical Dark: No (USB2E3373)
Strobe/Lamp Enabled: No (USB2E3373)
Correct for Detector Non-linearity: No (USB2E3373)
Correct for Stray Light: No (USB2E3373)
Number of Pixels in Processed Spectrum: 2048
>>>>>Begin Processed Spectral Data<<<<<
178.53	0.000
178.91	-233.333
179.29	-800.000
179.67	-3100.000
180.04	-100.000
180.42	700.000
180.80	1350.000
181.18	0.000
181.56	-362.500
181.94	0.000
182.31	1100.000
182.69	-2400.000
183.07	571.429
183.45	-3500.000
183.83	-1200.000
184.20	400.000
184.58	371.429
184.96	-123.077
185.34	-175.000
185.72	1750.000
186.09	-850.000
186.47	-3900.000
186.85	1166.667
187.23	520.000
187.61	1450.000
187.98	475.000
188.36	257.143
188.74	300.000
189.12	383.333
189.49	675.000
189.87	0.000
190.25	475.000
190.63	3100.000
191.00	-233.333
191.38	-3300.000
191.76	-775.000
192.14	462.500
192.51	-1700.000
192.89	1600.000
193.27	1066.667
193.65	-1066.667
194.02	-680.000
194.40	400.000
194.78	-171.429
195.15	200.000
195.53	-4400.000
195.91	-420.000
196.29	4300.000
196.66	268.750
197.04	675.000
197.42	-1650.000
197.79	625.000
198.17	250.000
198.55	0.000
198.92	571.429
199.30	833.333
199.68	1650.000
200.05	666.667
200.43	-550.000
200.81	188.889
201.18	3500.000
201.56	266.667
201.94	-750.000
202.31	-337.500
202.69	-420.000
203.07	3300.000
203.44	-483.333
203.82	300.000
204.19	620.000
204.57	-1700.000
204.95	-900.000
205.32	-600.000
205.70	566.667
206.08	550.000
206.45	-966.667
206.83	444.444
207.20	189.474
207.58	175.000
207.96	640.000
208.33	0.000
208.71	328.571
209.08	720.000
209.46	-3700.000
209.84	-725.000
210.21	580.000
210.59	-580.000
210.96	258.333
211.34	-925.000
211.71	409.091
212.09	700.000
212.46	1600.000
212.84	-316.667
213.22	355.556
213.59	-2900.000
213.97	360.000
214.34	850.000
214.72	1300.000
215.09	866.667
215.47	-2900.000
215.84	-230.000
216.22	-425.000
216.59	0.000
216.97	0.000
217.34	950.000
217.72	-1500.000
218.09	1100.000
218.47	537.500
218.84	800.000
219.22	866.667
219.59	866.667
219.97	400.000
220.34	211.111
220.72	1450.000
221.09	3600.000
221.47	241.667
221.84	1233.333
222.22	350.000
222.59	216.667
222.97	164.286
223.34	218.750
223.72	-1700.000
224.09	1300.000
224.46	276.923
224.84	-750.000
225.21	500.000
225.59	240.000
225.96	1033.333
226.34	-520.000
226.71	-625.000
227.08	-360.000
227.46	0.000
227.83	-550.000
228.21	-1450.000
228.58	400.000
228.95	900.000
229.33	388.889
229.70	1150.000
230.08	323.077
230.45	3200.000
230.82	-1100.000
231.20	-600.000
231.57	-1033.333
231.95	600.000
232.32	308.333
232.69	416.667
233.07	266.667
233.44	-1300.000
233.81	300.000
234.19	148.148
234.56	225.000
234.93	217.647
235.31	205.000
235.68	300.000
236.05	196.429
236.43	129.630
236.80	228.571
237.17	137.931
237.55	150.000
237.92	132.500
238.29	148.485
238.67	146.875
239.04	112.195
239.41	102.083
239.79	110.000
240.16	102.083
240.53	81.967
240.91	84.058
241.28	94.915
241.65	89.394
242.02	84.507
242.40	102.857
242.77	80.220
243.14	67.089
243.51	84.848
243.89	76.636
244.26	83.178
244.63	81.188
245.00	75.229
245.38	59.322
245.75	68.182
246.12	73.333
246.49	63.121
246.87	66.393
247.24	67.333
247.61	66.875
247.98	74.150
248.36	61.212
248.73	65.816
249.10	63.095
249.47	64.000
249.84	51.741
250.22	64.324
250.59	68.000
250.96	58.650
251.33	57.674
251.70	61.161
252.08	60.924
252.45	59.363
252.82	59.696
253.19	56.522
253.56	56.538
253.94	56.522
254.31	62.403
254.68	59.930
255.05	54.138
255.42	58.029
255.79	56.352
256.16	60.339
256.54	60.065
256.91	57.516
257.28	57.191
257.65	52.351
258.02	55.457
258.39	59.312
258.76	55.652
259.14	50.571
259.51	54.519
259.88	57.143
260.25	49.451
260.62	55.342
260.99	51.515
261.36	53.760
261.73	54.787
262.10	57.068
262.47	52.500
262.85	56.533
263.22	56.041
263.59	54.476
263.96	57.393
264.33	53.333
264.70	57.494
265.07	55.610
265.44	52.982
265.81	54.953
266.18	56.522
266.55	54.846
266.92	54.810
267.29	56.360
267.66	52.915
268.03	53.363
268.40	52.220
268.77	53.084
269.14	53.579
269.51	54.120
269.88	53.469
270.25	49.676
270.62	53.648
270.99	53.144
271.36	54.268
271.73	53.249
272.10	51.515
272.47	50.992
272.84	49.900
273.21	52.893
273.58	52.227
273.95	49.897
274.32	52.724
274.69	55.118
275.06	50.091
275.43	50.000
275.80	49.623
276.17	51.838
276.54	51.402
276.91	54.291
277.28	52.737
277.65	51.661
278.02	50.184
278.39	51.799
278.76	50.172
279.13	50.000
279.50	49.818
279.87	49.162
280.23	50.645
280.60	52.920
280.97	50.517
281.34	49.670
281.71	47.304
282.08	48.718
282.45	48.311
282.82	50.836
283.19	48.490
283.56	47.438
283.92	49.349
284.29	48.586
284.66	47.563
285.03	47.761
285.40	44.959
285.77	45.062
286.14	46.904
286.51	46.166
286.87	47.152
287.24	44.895
287.61	46.049
287.98	45.075
288.35	45.926
288.72	45.524
289.08	44.745
289.45	45.122
289.82	44.531
290.19	43.485
290.56	45.997
290.93	44.029
291.29	41.989
291.66	43.927
292.03	43.478
292.40	42.005
292.77	40.669
293.13	42.939
293.50	42.240
293.87	38.618
294.24	42.797
294.60	42.799
294.97	41.259
295.34	40.505
295.71	41.524
296.08	42.400
296.44	40.788
296.81	39.206
297.18	38.530
297.55	39.286
297.91	37.808
298.28	38.043
298.65	39.877
299.02	37.636
299.38	38.249
299.75	37.805
300.12	39.220
300.48	40.398
300.85	38.975
301.22	37.093
301.59	36.439
301.95	38.040
302.32	39.115
302.69	39.932
303.05	38.833
303.42	38.341
303.79	40.087
304.15	36.194
304.52	37.844
304.89	38.273
305.25	38.376
305.62	37.207
305.99	37.609
306.35	38.842
306.72	37.981
307.09	37.992
307.45	38.965
307.82	36.626
308.19	37.938
308.55	38.700
308.92	38.960
309.29	38.659
309.65	38.850
310.02	39.249
310.38	37.886
310.75	37.705
311.12	38.889
311.48	38.610
311.85	39.408
312.22	40.401
312.58	39.650
312.95	39.223
313.31	40.356
313.68	39.493
314.05	39.835
314.41	40.130
314.78	41.667
315.14	41.232
315.51	41.911
315.87	41.606
316.24	40.803
316.61	41.003
316.97	40.092
317.34	41.509
317.70	42.581
318.07	42.794
318.43	42.707
318.80	42.732
319.16	42.657
319.53	42.743
319.89	43.100
320.26	44.320
320.62	43.315
320.99	44.328
321.35	43.135
321.72	45.825
322.08	43.675
322.45	44.233
322.81	44.648
323.18	44.139
323.54	43.554
323.91	44.968
324.27	44.651
324.64	44.204
325.00	44.741
325.37	43.761
325.73	43.929
326.10	45.485
326.46	45.417
326.83	44.320
327.19	46.185
327.56	43.850
327.92	45.492
328.29	44.354
328.65	45.205
329.01	43.798
329.38	45.431
329.74	44.065
330.11	45.004
330.47	45.780
330.84	42.623
331.20	45.262
331.56	45.769
331.93	45.851
332.29	43.707
332.66	45.153
333.02	42.698
333.38	44.328
333.75	44.037
334.11	44.295
334.48	43.162
334.84	43.497
335.20	43.285
335.57	43.325
335.93	42.809
336.29	43.118
336.66	44.511
337.02	42.344
337.38	43.938
337.75	43.074
338.11	42.869
338.47	43.353
338.84	42.083
339.20	42.771
339.56	42.389
339.93	42.559
340.29	42.269
340.65	43.336
341.02	43.363
341.38	42.447
341.74	42.359
342.11	42.237
342.47	41.427
342.83	43.232
343.20	42.361
343.56	41.064
343.92	42.362
344.28	42.424
344.65	40.831
345.01	41.905
345.37	41.346
345.73	41.111
346.10	40.398
346.46	41.467
346.82	40.586
347.19	40.726
347.55	39.969
347.91	40.634
348.27	40.124
348.63	42.089
349.00	40.594
349.36	40.389
349.72	40.367
350.08	41.693
350.45	40.594
350.81	41.514
351.17	38.521
351.53	41.493
351.89	40.559
352.26	40.438
352.62	39.216
352.98	40.874
353.34	39.368
353.70	39.908
354.07	39.846
354.43	40.937
354.79	38.800
355.15	39.510
355.51	39.955
355.87	39.533
356.24	39.030
356.60	39.269
356.96	38.893
357.32	38.659
357.68	39.427
358.04	39.286
358.40	39.055
358.77	39.219
359.13	39.790
359.49	37.954
359.85	38.347
360.21	38.262
360.57	38.467
360.93	38.600
361.29	38.817
361.66	38.926
362.02	37.642
362.38	38.023
362.74	40.623
363.10	37.658
363.46	36.671
363.82	38.008
364.18	38.051
364.54	37.840
364.90	38.220
365.26	38.723
365.62	37.914
365.98	37.784
366.35	38.276
366.71	38.237
367.07	36.724
367.43	37.139
367.79	37.367
368.15	36.771
368.51	37.078
368.87	37.908
369.23	37.561
369.59	36.885
369.95	36.783
370.31	37.235
370.67	36.572
371.03	36.134
371.39	38.019
371.75	36.706
372.11	36.846
372.47	37.329
372.83	35.758
373.19	36.121
373.55	37.388
373.91	35.221
374.27	35.780
374.63	35.729
374.99	36.119
375.35	36.962
375.71	37.071
376.07	35.610
376.42	36.701
376.78	36.802
377.14	36.370
377.50	35.768
377.86	36.003
378.22	36.441
378.58	35.956
378.94	36.693
379.30	36.446
379.66	36.303
380.02	35.777
380.38	35.656
380.74	36.505
381.09	34.988
381.45	34.740
381.81	34.929
382.17	34.860
382.53	34.913
382.89	35.186
383.25	35.346
383.61	35.677
383.97	35.033
384.32	35.202
384.68	35.888
385.04	34.584
385.40	33.808
385.76	35.108
386.12	35.498
386.48	34.347
386.83	35.697
387.19	34.040
387.55	35.100
387.91	34.931
388.27	35.396
388.62	34.155
388.98	34.694
389.34	33.670
389.70	33.903
390.06	34.695
390.42	33.683
390.77	34.214
391.13	33.856
391.49	33.938
391.85	35.446
392.20	35.280
392.56	33.990
392.92	33.577
393.28	33.913
393.64	33.945
393.99	34.025
394.35	33.431
394.71	32.630
395.07	33.333
395.42	33.021
395.78	33.868
396.14	33.434
396.50	33.755
396.85	33.720
397.21	32.611
397.57	32.995
397.92	32.293
398.28	32.488
398.64	34.148
399.00	32.389
399.35	32.958
399.71	32.340
400.07	32.477
400.42	32.657
400.78	32.786
401.14	32.472
401.49	32.604
401.85	32.677
402.21	31.927
402.57	32.974
402.92	33.030
403.28	31.742
403.63	32.313
403.99	32.509
404.35	33.587
404.70	33.550
405.06	32.229
405.42	32.675
405.77	31.367
406.13	31.562
406.49	31.836
406.84	32.713
407.20	32.363
407.55	31.877
407.91	32.482
408.27	31.777
408.62	31.520
408.98	32.289
409.34	32.145
409.69	30.865
410.05	30.769
410.40	31.920
410.76	30.395
411.11	31.813
411.47	31.975
411.83	31.049
412.18	30.978
412.54	31.772
412.89	31.209
413.25	31.756
413.60	31.308
413.96	31.837
414.31	31.582
414.67	31.161
415.03	31.481
415.38	31.230
415.74	31.522
416.09	31.855
416.45	31.545
416.80	32.264
417.16	30.681
417.51	30.955
417.87	31.227
418.22	30.802
418.58	31.146
418.93	30.934
419.29	31.115
419.64	31.254
420.00	32.816
420.35	30.952
420.71	31.272
421.06	31.136
421.42	31.779
421.77	30.372
422.12	30.540
422.48	30.714
422.83	30.413
423.19	30.994
423.54	30.335
423.90	31.484
424.25	31.205
424.61	31.805
424.96	30.322
425.31	30.597
425.67	31.425
426.02	31.408
426.38	30.397
426.73	31.174
427.09	31.079
427.44	29.432
427.79	30.703
428.15	32.233
428.50	30.800
428.85	30.982
429.21	30.956
429.56	30.010
429.92	31.328
430.27	30.479
430.62	30.250
430.98	30.389
431.33	29.788
431.68	29.975
432.04	29.695
432.39	30.241
432.74	31.265
433.10	30.786
433.45	31.189
433.80	31.164
434.16	31.266
434.51	30.237
434.86	30.539
435.22	30.686
435.57	31.239
435.92	30.791
436.28	32.200
436.63	31.118
436.98	30.912
437.34	31.050
437.69	30.067
438.04	31.344
438.39	30.998
438.75	30.512
439.10	31.301
439.45	30.752
439.81	30.538
440.16	30.600
440.51	29.617
440.86	31.738
441.22	29.816
441.57	31.496
441.92	29.961
442.27	30.928
442.63	30.996
442.98	30.011
443.33	31.119
443.68	30.231
444.03	30.160
444.39	30.979
444.74	30.072
445.09	30.490
445.44	29.543
445.79	29.825
446.15	30.737
446.50	30.063
446.85	30.578
447.20	29.652
447.55	31.158
447.91	31.007
448.26	30.298
448.61	30.956
448.96	31.155
449.31	30.638
449.66	31.672
450.02	30.902
450.37	31.038
450.72	30.854
451.07	31.297
451.42	31.535
451.77	31.100
452.12	30.573
452.47	31.166
452.83	30.817
453.18	30.511
453.53	31.024
453.88	30.457
454.23	30.273
454.58	31.643
454.93	31.821
455.28	30.661
455.63	31.206
455.98	30.908
456.34	32.036
456.69	30.793
457.04	31.623
457.39	30.629
457.74	31.306
458.09	30.264
458.44	29.518
458.79	31.247
459.14	30.115
459.49	31.257
459.84	31.087
460.19	30.056
460.54	30.370
460.89	30.597
461.24	29.782
461.59	31.406
461.94	30.792
462.29	31.178
462.64	31.093
462.99	30.198
463.34	31.043
463.69	31.518
464.04	31.318
464.39	30.853
464.74	30.481
465.09	29.774
465.44	31.066
465.79	31.355
466.14	29.518
466.49	29.951
466.84	30.100
467.19	29.877
467.54	30.691
467.89	30.223
468.24	30.747
468.59	30.476
468.94	30.797
469.29	29.994
469.64	31.254
469.99	30.141
470.34	29.791
470.68	29.793
471.03	31.354
471.38	30.397
471.73	30.176
472.08	31.246
472.43	30.354
472.78	31.754
473.13	29.725
473.48	30.379
473.83	30.330
474.17	30.517
474.52	30.628
474.87	29.221
475.22	29.355
475.57	29.853
475.92	29.790
476.27	29.597
476.61	29.223
476.96	29.781
477.31	29.923
477.66	30.327
478.01	29.190
478.36	29.609
478.70	29.529
479.05	29.812
479.40	28.274
479.75	29.643
480.10	30.445
480.45	29.412
480.79	29.263
481.14	29.387
481.49	29.186
481.84	29.639
482.19	30.349
482.53	28.634
482.88	29.615
483.23	29.635
483.58	28.995
483.92	30.804
484.27	29.024
484.62	29.202
484.97	29.373
485.31	29.194
485.66	29.283
486.01	29.129
486.36	28.911
486.70	28.226
487.05	28.406
487.40	28.181
487.75	28.527
488.09	28.437
488.44	28.999
488.79	28.358
489.13	29.153
489.48	28.566
489.83	28.565
490.17	28.282
490.52	29.759
490.87	29.009
491.22	29.211
491.56	28.854
491.91	28.719
492.26	28.731
492.60	28.929
492.95	28.681
493.30	28.753
493.64	28.571
493.99	28.533
494.34	28.463
494.68	29.084
495.03	29.142
495.37	29.041
495.72	28.345
496.07	27.853
496.41	28.844
496.76	28.029
497.11	29.006
497.45	28.935
497.80	29.194
498.14	28.479
498.49	28.273
498.84	29.065
499.18	28.245
499.53	28.204
499.87	29.155
500.22	28.420
500.56	28.552
500.91	29.035
501.26	29.215
501.60	28.689
501.95	28.450
502.29	28.578
502.64	27.966
502.98	28.101
503.33	27.840
503.67	28.168
504.02	28.168
504.36	28.054
504.71	28.335
505.06	27.827
505.40	28.825
505.75	28.064
506.09	28.698
506.44	28.195
506.78	28.828
507.13	28.066
507.47	28.481
507.82	29.197
508.16	28.907
508.51	28.116
508.85	27.873
509.19	28.536
509.54	27.637
509.88	28.543
510.23	28.971
510.57	27.799
510.92	27.722
511.26	28.213
511.61	27.277
511.95	27.974
512.30	28.050
512.64	27.414
512.98	27.832
513.33	28.689
513.67	28.120
514.02	27.221
514.36	28.037
514.70	28.000
515.05	28.183
515.39	28.454
515.74	28.376
516.08	27.614
516.42	28.579
516.77	27.680
517.11	27.893
517.46	27.856
517.80	27.854
518.14	28.282
518.49	27.233
518.83	26.538
519.17	28.064
519.52	28.127
519.86	27.629
520.20	28.384
520.55	27.360
520.89	27.299
521.23	27.395
521.58	27.768
521.92	26.880
522.26	27.310
522.61	27.867
522.95	28.589
523.29	27.602
523.64	26.705
523.98	27.934
524.32	27.105
524.66	27.420
525.01	27.219
525.35	27.755
525.69	27.694
526.04	27.246
526.38	27.251
526.72	26.671
527.06	27.380
527.41	27.690
527.75	27.450
528.09	26.851
528.43	27.334
528.78	26.953
529.12	27.634
529.46	27.995
529.80	27.395
530.15	27.048
530.49	27.016
530.83	28.275
531.17	26.876
531.51	27.836
531.86	26.812
532.20	26.823
532.54	27.056
532.88	27.420
533.22	28.397
533.57	27.639
533.91	26.399
534.25	26.601
534.59	27.076
534.93	26.166
535.27	26.409
535.62	26.429
535.96	27.069
536.30	28.215
536.64	27.019
536.98	26.683
537.32	27.375
537.66	27.168
538.01	26.873
538.35	27.885
538.69	27.124
539.03	26.617
539.37	26.032
539.71	27.099
540.05	26.523
540.39	26.541
540.73	26.013
541.07	26.788
541.42	27.052
541.76	26.572
542.10	26.634
542.44	26.870
542.78	27.124
543.12	26.994
543.46	26.253
543.80	27.005
544.14	27.183
544.48	25.487
544.82	27.401
545.16	26.351
545.50	26.613
545.84	27.399
546.18	27.763
546.52	26.820
546.86	26.306
547.20	25.840
547.54	26.029
547.88	26.582
548.22	26.655
548.56	26.400
548.90	26.690
549.24	26.469
549.58	26.546
549.92	26.392
550.26	27.045
550.60	26.480
550.94	26.934
551.28	26.345
551.62	28.345
551.96	25.676
552.30	24.720
552.64	27.443
552.98	26.804
553.32	26.248
553.66	26.775
554.00	27.284
554.34	27.097
554.68	26.277
555.02	26.680
555.36	25.931
555.69	26.505
556.03	26.943
556.37	25.813
556.71	26.988
557.05	25.426
557.39	26.133
557.73	26.482
558.07	26.090
558.41	27.073
558.75	27.018
559.08	27.305
559.42	26.843
559.76	26.942
560.10	25.327
560.44	26.476
560.78	27.174
561.12	26.319
561.45	25.657
561.79	26.342
562.13	25.963
562.47	26.217
562.81	26.675
563.15	26.050
563.48	25.031
563.82	27.386
564.16	26.617
564.50	26.040
564.84	26.018
565.17	25.966
565.51	26.601
565.85	26.774
566.19	25.833
566.52	26.414
566.86	27.262
567.20	26.910
567.54	25.491
567.88	26.082
568.21	26.111
568.55	27.043
568.89	26.277
569.23	25.496
569.56	26.597
569.90	26.015
570.24	26.371
570.57	26.801
570.91	25.772
571.25	25.830
571.59	25.578
571.92	25.646
572.26	25.768
572.60	25.410
572.93	25.302
573.27	25.962
573.61	25.609
573.95	25.822
574.28	26.394
574.62	25.664
574.96	25.701
575.29	25.402
575.63	25.630
575.97	24.976
576.30	24.601
576.64	25.371
576.98	25.354
577.31	25.913
577.65	25.531
577.98	25.553
578.32	25.361
578.66	25.564
578.99	25.551
579.33	25.620
579.67	24.440
580.00	24.971
580.34	25.011
580.67	25.369
581.01	26.004
581.35	25.562
581.68	25.335
582.02	25.342
582.35	25.732
582.69	25.683
583.02	25.329
583.36	25.227
583.70	25.386
584.03	25.876
584.37	25.644
584.70	25.454
585.04	25.339
585.37	25.113
585.71	25.775
586.04	25.752
586.38	25.808
586.72	25.457
587.05	25.605
587.39	25.487
587.72	26.128
588.06	25.702
588.39	25.563
588.73	25.524
589.06	25.970
589.40	26.072
589.73	25.238
590.07	25.841
590.40	26.063
590.73	26.405
591.07	25.996
591.40	26.108
591.74	25.893
592.07	24.792
592.41	26.059
592.74	25.741
593.08	26.204
593.41	25.554
593.75	25.564
594.08	25.316
594.41	25.709
594.75	25.377
595.08	25.926
595.42	25.839
595.75	25.107
596.09	25.547
596.42	25.747
596.75	25.841
597.09	26.125
597.42	25.510
597.75	25.314
598.09	25.400
598.42	25.745
598.76	25.482
599.09	25.598
599.42	25.779
599.76	25.373
600.09	25.661
600.42	26.485
600.76	25.051
601.09	24.888
601.42	24.991
601.76	24.740
602.09	25.754
602.42	24.732
602.76	24.972
603.09	25.603
603.42	25.284
603.76	24.765
604.09	25.335
604.42	25.461
604.76	25.444
605.09	25.306
605.42	25.030
605.75	25.188
606.09	25.440
606.42	25.442
606.75	24.990
607.09	25.306
607.42	25.392
607.75	25.239
608.08	25.670
608.42	25.965
608.75	24.861
609.08	25.121
609.41	25.364
609.75	25.916
610.08	25.764
610.41	24.638
610.74	25.411
611.07	26.057
611.41	25.718
611.74	25.430
612.07	25.723
612.40	25.097
612.73	26.061
613.07	25.849
613.40	25.714
613.73	25.012
614.06	24.800
614.39	26.566
614.72	25.816
615.06	24.184
615.39	26.188
615.72	24.879
616.05	25.665
616.38	24.505
616.71	25.014
617.05	25.371
617.38	24.607
617.71	25.759
618.04	25.407
618.37	24.903
618.70	25.058
619.03	25.763
619.36	25.565
619.69	25.000
620.03	25.897
620.36	25.112
620.69	25.479
621.02	26.427
621.35	24.928
621.68	25.369
622.01	26.273
622.34	24.982
622.67	25.913
623.00	25.323
623.33	26.316
623.66	25.216
623.99	25.890
624.32	25.881
624.65	25.346
624.99	26.031
625.32	26.453
625.65	24.828
625.98	25.523
626.31	24.852
626.64	25.588
626.97	25.861
627.30	25.000
627.63	25.667
627.96	24.570
628.29	25.083
628.62	24.380
628.95	26.684
629.28	27.169
629.61	25.132
629.94	25.411
630.26	25.823
630.59	27.305
630.92	25.650
631.25	25.295
