SpectraSuite Data File
++++++++++++++++++++++++++++++++++++
Date: Tue May 12 16:39:51 PDT 2015
User: schluterlab
Dark Spectrum Present: Yes
Reference Spectrum Present: Yes
Number of Sampled Component Spectra: 1
Spectrometers: USB2E3373
Integration Time (usec): 3000 (USB2E3373)
Spectra Averaged: 3 (USB2E3373)
Boxcar Smoothing: 0 (USB2E3373)
Correct for Electrical Dark: No (USB2E3373)
Strobe/Lamp Enabled: No (USB2E3373)
Correct for Detector Non-linearity: No (USB2E3373)
Correct for Stray Light: No (USB2E3373)
Number of Pixels in Processed Spectrum: 2048
>>>>>Begin Processed Spectral Data<<<<<
178.53	0.000
178.91	-183.333
179.29	-600.000
179.67	-4500.000
180.04	-140.000
180.42	475.000
180.80	800.000
181.18	0.000
181.56	-375.000
181.94	0.000
182.31	1133.333
182.69	-3000.000
183.07	600.000
183.45	-3400.000
183.83	-1550.000
184.20	430.000
184.58	385.714
184.96	-215.385
185.34	-141.667
185.72	1450.000
186.09	-725.000
186.47	-2400.000
186.85	1000.000
187.23	700.000
187.61	1600.000
187.98	550.000
188.36	257.143
188.74	258.333
189.12	333.333
189.49	775.000
189.87	0.000
190.25	462.500
190.63	2600.000
191.00	-233.333
191.38	-2900.000
191.76	-625.000
192.14	437.500
192.51	-3200.000
192.89	1550.000
193.27	666.667
193.65	-1133.333
194.02	-560.000
194.40	571.429
194.78	-121.429
195.15	260.000
195.53	-3800.000
195.91	-540.000
196.29	3100.000
196.66	218.750
197.04	775.000
197.42	-1550.000
197.79	725.000
198.17	258.333
198.55	0.000
198.92	385.714
199.30	1266.667
199.68	1850.000
200.05	516.667
200.43	-416.667
200.81	183.333
201.18	2300.000
201.56	291.667
201.94	-650.000
202.31	-325.000
202.69	-500.000
203.07	2800.000
203.44	-233.333
203.82	325.000
204.19	500.000
204.57	-1550.000
204.95	-700.000
205.32	-640.000
205.70	516.667
206.08	675.000
206.45	-733.333
206.83	255.556
207.20	163.158
207.58	225.000
207.96	720.000
208.33	0.000
208.71	557.143
209.08	660.000
209.46	-3900.000
209.84	-800.000
210.21	860.000
210.59	-460.000
210.96	316.667
211.34	-850.000
211.71	381.818
212.09	925.000
212.46	2150.000
212.84	-383.333
213.22	522.222
213.59	-1900.000
213.97	270.000
214.34	825.000
214.72	1133.333
215.09	900.000
215.47	-2700.000
215.84	-290.000
216.22	-375.000
216.59	0.000
216.97	0.000
217.34	1900.000
217.72	-1550.000
218.09	1133.333
218.47	362.500
218.84	925.000
219.22	1166.667
219.59	833.333
219.97	414.286
220.34	400.000
220.72	1850.000
221.09	3500.000
221.47	200.000
221.84	933.333
222.22	330.000
222.59	222.222
222.97	171.429
223.34	218.750
223.72	-1800.000
224.09	1033.333
224.46	253.846
224.84	-825.000
225.21	388.889
225.59	313.333
225.96	1533.333
226.34	-580.000
226.71	-650.000
227.08	-440.000
227.46	0.000
227.83	-416.667
228.21	-1800.000
228.58	358.333
228.95	850.000
229.33	433.333
229.70	1175.000
230.08	261.538
230.45	2400.000
230.82	-775.000
231.20	-700.000
231.57	-733.333
231.95	500.000
232.32	308.333
232.69	483.333
233.07	250.000
233.44	-1250.000
233.81	253.333
234.19	159.259
234.56	187.500
234.93	182.353
235.31	200.000
235.68	262.500
236.05	139.286
236.43	162.963
236.80	250.000
237.17	158.621
237.55	121.875
237.92	117.500
238.29	136.364
238.67	156.250
239.04	124.390
239.41	75.000
239.79	100.000
240.16	85.417
240.53	72.131
240.91	66.667
241.28	86.441
241.65	83.333
242.02	81.690
242.40	74.286
242.77	76.923
243.14	50.633
243.51	64.646
243.89	64.486
244.26	65.421
244.63	66.337
245.00	54.128
245.38	51.695
245.75	50.758
246.12	63.704
246.49	53.191
246.87	45.082
247.24	55.333
247.61	50.625
247.98	53.061
248.36	44.242
248.73	49.490
249.10	52.381
249.47	50.000
249.84	45.771
250.22	50.270
250.59	47.000
250.96	46.835
251.33	45.116
251.70	50.000
252.08	44.538
252.45	40.239
252.82	39.163
253.19	43.083
253.56	44.231
253.94	43.116
254.31	39.535
254.68	44.599
255.05	45.517
255.42	39.416
255.79	46.254
256.16	43.051
256.54	43.506
256.91	46.405
257.28	42.809
257.65	35.423
258.02	41.593
258.39	44.126
258.76	42.609
259.14	39.714
259.51	43.440
259.88	42.857
260.25	40.934
260.62	39.452
260.99	38.017
261.36	41.226
261.73	38.032
262.10	44.764
262.47	37.750
262.85	41.867
263.22	38.560
263.59	39.130
263.96	40.100
264.33	35.802
264.70	39.312
265.07	38.537
265.44	41.055
265.81	41.274
266.18	40.275
266.55	37.352
266.92	38.255
267.29	39.254
267.66	37.444
268.03	35.426
268.40	38.055
268.77	38.987
269.14	37.961
269.51	36.748
269.88	41.020
270.25	35.205
270.62	36.481
270.99	36.714
271.36	38.415
271.73	37.945
272.10	35.758
272.47	37.500
272.84	34.132
273.21	36.364
273.58	37.045
273.95	37.988
274.32	38.327
274.69	37.205
275.06	36.066
275.43	36.782
275.80	36.226
276.17	36.397
276.54	37.757
276.91	38.433
277.28	35.401
277.65	37.638
278.02	36.765
278.39	35.072
278.76	35.172
279.13	35.943
279.50	36.182
279.87	35.009
280.23	35.175
280.60	37.044
280.97	35.345
281.34	34.818
281.71	34.435
282.08	36.923
282.45	34.628
282.82	32.274
283.19	34.976
283.56	35.702
283.92	33.388
284.29	33.777
284.66	33.782
285.03	32.836
285.40	31.901
285.77	34.568
286.14	33.901
286.51	32.822
286.87	31.646
287.24	30.781
287.61	32.523
287.98	32.687
288.35	31.704
288.72	30.804
289.08	32.583
289.45	31.555
289.82	32.500
290.19	31.186
290.56	32.460
290.93	30.504
291.29	30.387
291.66	31.356
292.03	30.856
292.40	29.268
292.77	30.084
293.13	31.098
293.50	27.395
293.87	26.965
294.24	28.671
294.60	29.610
294.97	29.371
295.34	29.084
295.71	26.938
296.08	28.800
296.44	26.429
296.81	27.419
297.18	27.883
297.55	27.463
297.91	25.123
298.28	25.966
298.65	26.503
299.02	24.970
299.38	28.417
299.75	25.610
300.12	25.688
300.48	27.049
300.85	26.579
301.22	25.581
301.59	26.179
301.95	25.671
302.32	25.262
302.69	25.792
303.05	25.028
303.42	23.879
303.79	26.111
304.15	26.073
304.52	25.899
304.89	24.094
305.25	25.806
305.62	24.947
305.99	24.565
306.35	23.053
306.72	25.182
307.09	23.499
307.45	23.337
307.82	23.663
308.19	23.711
308.55	23.400
308.92	23.847
309.29	25.247
309.65	22.597
310.02	23.327
310.38	21.635
310.75	23.240
311.12	23.563
311.48	24.421
311.85	22.615
312.22	22.923
312.58	22.935
312.95	23.107
313.31	23.596
313.68	22.889
314.05	22.894
314.41	23.277
314.78	24.621
315.14	23.602
315.51	24.314
315.87	22.354
316.24	23.716
316.61	23.187
316.97	23.028
317.34	23.450
317.70	23.354
318.07	24.199
318.43	23.462
318.80	23.468
319.16	23.514
319.53	21.681
319.89	21.326
320.26	23.464
320.62	23.901
320.99	23.451
321.35	24.212
321.72	24.004
322.08	23.361
322.45	22.252
322.81	23.513
323.18	23.446
323.54	23.780
323.91	23.391
324.27	22.281
324.64	23.097
325.00	23.707
325.37	24.199
325.73	23.103
326.10	24.689
326.46	22.626
326.83	22.640
327.19	23.454
327.56	22.923
327.92	23.361
328.29	24.386
328.65	25.000
329.01	23.268
329.38	22.927
329.74	22.545
330.11	22.850
330.47	23.188
330.84	22.519
331.20	23.942
331.56	23.834
331.93	22.156
332.29	21.769
332.66	23.469
333.02	22.251
333.38	23.473
333.75	22.852
334.11	23.070
334.48	22.650
334.84	21.875
335.20	23.695
335.57	23.426
335.93	22.372
336.29	22.139
336.66	23.413
337.02	22.926
337.38	23.044
337.75	21.875
338.11	22.785
338.47	21.761
338.84	22.947
339.20	20.779
339.56	22.288
339.93	21.656
340.29	22.017
340.65	22.716
341.02	22.928
341.38	21.593
341.74	21.512
342.11	21.619
342.47	21.083
342.83	22.231
343.20	22.474
343.56	20.016
343.92	21.387
344.28	21.372
344.65	21.516
345.01	21.905
345.37	20.673
345.73	20.635
346.10	21.355
346.46	22.488
346.82	20.448
347.19	22.102
347.55	22.170
347.91	20.242
348.27	20.294
348.63	21.835
349.00	20.640
349.36	20.311
349.72	21.101
350.08	21.118
350.45	21.554
350.81	21.636
351.17	20.493
351.53	20.631
351.89	20.047
352.26	19.577
352.62	21.116
352.98	20.629
353.34	21.495
353.70	20.336
354.07	20.077
354.43	21.198
354.79	19.058
355.15	21.133
355.51	20.015
355.87	21.386
356.24	20.785
356.60	20.396
356.96	20.773
357.32	20.045
357.68	20.044
358.04	20.821
358.40	20.465
358.77	21.187
359.13	20.345
359.49	19.348
359.85	20.179
360.21	20.431
360.57	20.438
360.93	20.274
361.29	20.346
361.66	19.687
362.02	19.744
362.38	20.779
362.74	20.028
363.10	20.477
363.46	19.890
363.82	20.196
364.18	20.626
364.54	21.245
364.90	19.946
365.26	20.541
365.62	20.649
365.98	19.270
366.35	19.379
366.71	20.680
367.07	20.683
367.43	20.215
367.79	20.080
368.15	17.978
368.51	20.400
368.87	19.497
369.23	19.196
369.59	19.353
369.95	19.371
370.31	19.507
370.67	19.500
371.03	20.238
371.39	19.391
371.75	19.191
372.11	19.850
372.47	21.027
372.83	19.850
373.19	20.356
373.55	19.656
373.91	18.785
374.27	18.849
374.63	20.407
374.99	18.733
375.35	19.960
375.71	19.591
376.07	20.093
376.42	18.990
376.78	19.653
377.14	19.987
377.50	18.914
377.86	18.962
378.22	19.439
378.58	18.947
378.94	20.217
379.30	19.406
379.66	18.724
380.02	20.293
380.38	18.852
380.74	20.069
381.09	18.984
381.45	18.497
381.81	18.913
382.17	19.475
382.53	18.776
382.89	19.338
383.25	18.769
383.61	19.424
383.97	19.076
384.32	18.987
384.68	19.964
385.04	18.406
385.40	18.743
385.76	18.666
386.12	19.666
386.48	18.541
386.83	19.682
387.19	18.846
387.55	19.199
387.91	19.053
388.27	19.393
388.62	19.131
388.98	19.184
389.34	19.096
389.70	18.219
390.06	19.634
390.42	19.186
390.77	18.735
391.13	18.890
391.49	18.391
391.85	19.569
392.20	18.415
392.56	19.415
392.92	18.360
393.28	18.498
393.64	17.603
393.99	18.198
394.35	18.481
394.71	18.999
395.07	18.735
395.42	18.618
395.78	18.939
396.14	19.518
396.50	18.291
396.85	18.902
397.21	18.712
397.57	19.068
397.92	18.255
398.28	17.871
398.64	19.779
399.00	18.439
399.35	18.196
399.71	18.653
400.07	19.235
400.42	19.045
400.78	18.710
401.14	18.908
401.49	18.664
401.85	19.119
402.21	17.926
402.57	19.330
402.92	19.394
403.28	18.377
403.63	17.893
403.99	18.215
404.35	19.695
404.70	19.079
405.06	18.922
405.42	18.731
405.77	17.861
406.13	18.438
406.49	18.022
406.84	18.556
407.20	19.863
407.55	18.400
407.91	19.400
408.27	18.739
408.62	19.101
408.98	18.510
409.34	18.527
409.69	18.108
410.05	17.352
410.40	18.080
410.76	18.145
411.11	18.780
411.47	17.901
411.83	18.219
412.18	18.478
412.54	18.679
412.89	17.935
413.25	19.156
413.60	18.633
413.96	18.492
414.31	18.064
414.67	18.063
415.03	18.327
415.38	18.927
415.74	18.509
416.09	19.613
416.45	19.910
416.80	19.628
417.16	18.269
417.51	18.599
417.87	18.148
418.22	18.104
418.58	17.771
418.93	18.144
419.29	17.745
419.64	18.716
420.00	18.795
420.35	18.525
420.71	17.503
421.06	17.481
421.42	18.135
421.77	19.045
422.12	18.357
422.48	18.233
422.83	17.634
423.19	18.467
423.54	17.883
423.90	18.460
424.25	18.657
424.61	18.572
424.96	18.690
425.31	18.008
425.67	18.013
426.02	18.789
426.38	18.261
426.73	17.235
427.09	18.505
427.44	18.233
427.79	18.411
428.15	19.093
428.50	19.543
428.85	18.401
429.21	18.476
429.56	17.797
429.92	18.449
430.27	17.852
430.62	18.111
430.98	18.263
431.33	18.044
431.68	17.630
432.04	17.900
432.39	18.551
432.74	18.618
433.10	18.328
433.45	18.438
433.80	18.367
434.16	17.604
434.51	18.369
434.86	18.835
435.22	17.396
435.57	18.020
435.92	18.384
436.28	19.124
436.63	18.422
436.98	18.581
437.34	18.493
437.69	18.029
438.04	18.925
438.39	18.914
438.75	17.539
439.10	18.187
439.45	18.542
439.81	18.392
440.16	18.162
440.51	17.455
440.86	18.462
441.22	18.561
441.57	18.688
441.92	18.411
442.27	17.577
442.63	18.648
442.98	17.834
443.33	18.640
443.68	17.857
444.03	18.285
444.39	18.738
444.74	18.375
445.09	18.536
445.44	18.650
445.79	18.372
446.15	17.947
446.50	17.932
446.85	18.177
447.20	17.562
447.55	17.727
447.91	18.700
448.26	18.477
448.61	18.076
448.96	18.137
449.31	18.372
449.66	18.162
450.02	17.936
450.37	19.267
450.72	19.063
451.07	19.023
451.42	18.731
451.77	18.213
452.12	18.945
452.47	18.469
452.83	19.155
453.18	19.039
453.53	19.538
453.88	18.400
454.23	19.175
454.58	18.590
454.93	18.884
455.28	19.094
455.63	18.440
455.98	18.331
456.34	18.663
456.69	17.744
457.04	17.959
457.39	18.914
457.74	19.200
458.09	17.855
458.44	19.222
458.79	18.143
459.14	17.294
459.49	19.083
459.84	18.587
460.19	18.927
460.54	18.291
460.89	18.337
461.24	17.812
461.59	17.800
461.94	18.853
462.29	19.451
462.64	19.347
462.99	18.106
463.34	19.313
463.69	19.540
464.04	18.365
464.39	18.260
464.74	18.581
465.09	18.108
465.44	18.444
465.79	18.454
466.14	18.018
466.49	17.851
466.84	18.506
467.19	18.512
467.54	18.919
467.89	18.369
468.24	18.413
468.59	18.333
468.94	19.022
469.29	19.243
469.64	18.778
469.99	19.409
470.34	19.102
470.68	18.138
471.03	19.280
471.38	19.205
471.73	18.354
472.08	19.113
472.43	18.994
472.78	19.014
473.13	19.024
473.48	18.765
473.83	17.845
474.17	18.480
474.52	18.780
474.87	17.908
475.22	19.417
475.57	18.363
475.92	18.293
476.27	17.356
476.61	17.962
476.96	18.339
477.31	18.098
477.66	18.733
478.01	18.102
478.36	18.280
478.70	17.866
479.05	17.573
479.40	17.510
479.75	19.414
480.10	19.022
480.45	18.114
480.79	18.203
481.14	18.069
481.49	18.115
481.84	18.162
482.19	18.646
482.53	18.401
482.88	18.235
483.23	17.546
483.58	17.953
483.92	18.327
484.27	17.851
484.62	18.591
484.97	18.076
485.31	16.882
485.66	17.211
486.01	16.667
486.36	16.467
486.70	16.242
487.05	16.873
487.40	17.593
487.75	17.583
488.09	17.557
488.44	17.941
488.79	17.667
489.13	17.842
489.48	18.418
489.83	18.307
490.17	18.208
490.52	18.174
490.87	18.017
491.22	18.218
491.56	18.050
491.91	18.593
492.26	18.352
492.60	18.132
492.95	18.215
493.30	18.699
493.64	17.835
493.99	18.336
494.34	18.243
494.68	17.840
495.03	18.366
495.37	18.550
495.72	18.135
496.07	17.610
496.41	17.897
496.76	18.067
497.11	18.081
497.45	17.229
497.80	18.304
498.14	18.354
498.49	18.384
498.84	18.925
499.18	18.144
499.53	18.098
499.87	17.925
500.22	17.734
500.56	17.874
500.91	19.063
501.26	18.833
501.60	18.124
501.95	17.384
502.29	18.400
502.64	18.527
502.98	18.008
503.33	17.951
503.67	18.411
504.02	17.644
504.36	17.647
504.71	18.780
505.06	18.020
505.40	18.156
505.75	17.633
506.09	18.665
506.44	18.280
506.78	17.864
507.13	18.274
507.47	18.049
507.82	18.054
508.16	17.932
508.51	17.923
508.85	18.044
509.19	17.768
509.54	18.848
509.88	19.244
510.23	18.284
510.57	17.423
510.92	18.132
511.26	19.327
511.61	18.759
511.95	17.870
512.30	19.050
512.64	17.705
512.98	17.632
513.33	18.955
513.67	18.436
514.02	18.494
514.36	18.744
514.70	18.027
515.05	18.167
515.39	18.640
515.74	19.574
516.08	18.192
516.42	19.290
516.77	18.240
517.11	18.933
517.46	18.373
517.80	18.405
518.14	19.380
518.49	18.412
518.83	17.692
519.17	18.358
519.52	19.170
519.86	18.256
520.20	19.342
520.55	18.655
520.89	18.563
521.23	19.276
521.58	18.072
521.92	18.776
522.26	18.483
522.61	18.598
522.95	19.159
523.29	19.357
523.64	18.960
523.98	18.369
524.32	18.800
524.66	18.725
525.01	18.580
525.35	18.385
525.69	19.928
526.04	19.453
526.38	19.070
526.72	18.556
527.06	18.865
527.41	20.133
527.75	18.503
528.09	18.784
528.43	19.158
528.78	19.201
529.12	19.326
529.46	17.767
529.80	18.984
530.15	18.621
530.49	18.532
530.83	19.013
531.17	18.819
531.51	18.210
531.86	18.720
532.20	18.480
532.54	18.770
532.88	18.426
533.22	18.464
533.57	18.304
533.91	17.832
534.25	18.638
534.59	18.947
534.93	17.975
535.27	17.644
535.62	18.145
535.96	17.849
536.30	19.257
536.64	18.758
536.98	18.691
537.32	18.750
537.66	18.176
538.01	19.381
538.35	19.401
538.69	18.811
539.03	17.600
539.37	17.961
539.71	18.457
540.05	18.400
540.39	18.931
540.73	19.620
541.07	18.632
541.42	18.657
541.76	18.372
542.10	18.126
542.44	19.202
542.78	18.691
543.12	17.914
543.46	17.481
543.80	18.296
544.14	18.452
544.48	18.431
544.82	18.777
545.16	18.094
545.50	18.316
545.84	19.066
546.18	20.026
546.52	18.098
546.86	19.407
547.20	18.411
547.54	18.619
547.88	18.066
548.22	18.094
548.56	18.503
548.90	18.743
549.24	17.941
549.58	17.912
549.92	18.468
550.26	19.202
550.60	19.494
550.94	18.996
551.28	20.207
551.62	18.690
551.96	18.649
552.30	18.128
552.64	19.288
552.98	18.686
553.32	18.630
553.66	18.241
554.00	18.790
554.34	19.241
554.68	19.086
555.02	18.534
555.36	19.348
555.69	19.764
556.03	18.344
556.37	19.184
556.71	18.905
557.05	18.021
557.39	19.133
557.73	18.464
558.07	18.377
558.41	18.711
558.75	18.605
559.08	19.585
559.42	18.969
559.76	18.603
560.10	18.513
560.44	18.713
560.78	18.798
561.12	17.546
561.45	18.085
561.79	18.352
562.13	17.941
562.47	18.494
562.81	18.608
563.15	18.358
563.48	17.081
563.82	18.029
564.16	19.092
564.50	17.842
564.84	18.663
565.17	17.469
565.51	18.781
565.85	18.630
566.19	17.976
566.52	17.690
566.86	17.805
567.20	18.539
567.54	17.959
567.88	18.310
568.21	16.875
568.55	17.169
568.89	17.929
569.23	17.213
569.56	17.133
569.90	17.176
570.24	17.138
570.57	17.229
570.91	16.037
571.25	16.192
571.59	16.695
571.92	16.389
572.26	15.876
572.60	16.634
572.93	16.532
573.27	16.686
573.61	16.486
573.95	16.534
574.28	16.384
574.62	15.813
574.96	15.936
575.29	16.233
575.63	15.830
575.97	15.847
576.30	15.844
576.64	16.225
576.98	15.742
577.31	16.349
577.65	16.306
577.98	15.740
578.32	15.825
578.66	16.038
578.99	16.111
579.33	16.328
579.67	16.063
580.00	16.028
580.34	16.048
580.67	15.973
581.01	15.932
581.35	15.842
581.68	15.515
582.02	15.839
582.35	15.744
582.69	15.967
583.02	15.766
583.36	16.051
583.70	16.440
584.03	16.629
584.37	16.431
584.70	16.472
585.04	16.036
585.37	15.419
585.71	16.202
586.04	16.120
586.38	15.753
586.72	16.139
587.05	16.521
587.39	16.258
587.72	16.004
588.06	16.116
588.39	16.121
588.73	16.862
589.06	16.370
589.40	16.620
589.73	16.978
590.07	17.124
590.40	16.620
590.73	17.297
591.07	17.381
591.40	16.846
591.74	16.802
592.07	16.764
592.41	16.067
592.74	16.734
593.08	16.081
593.41	16.278
593.75	16.018
594.08	16.600
594.41	16.585
594.75	16.712
595.08	16.975
595.42	16.754
595.75	16.683
596.09	16.719
596.42	16.570
596.75	16.506
597.09	17.334
597.42	16.571
597.75	16.268
598.09	16.865
598.42	16.524
598.76	16.461
599.09	16.771
599.42	16.194
599.76	16.248
600.09	16.339
600.42	16.851
600.76	16.417
601.09	16.258
601.42	16.403
601.76	16.434
602.09	16.446
602.42	16.340
602.76	16.509
603.09	16.252
603.42	16.954
603.76	16.088
604.09	16.757
604.42	16.234
604.76	17.384
605.09	16.776
605.42	16.782
605.75	16.542
606.09	17.062
606.42	16.498
606.75	16.984
607.09	16.305
607.42	16.312
607.75	16.799
608.08	16.369
608.42	16.988
608.75	16.217
609.08	17.114
609.41	16.636
609.75	17.033
610.08	17.266
610.41	16.733
610.74	17.229
611.07	17.099
611.41	16.960
611.74	17.304
612.07	16.859
612.40	17.300
612.73	17.624
613.07	17.182
613.40	17.594
613.73	17.224
614.06	16.450
614.39	17.677
614.72	17.177
615.06	16.617
615.39	17.030
615.72	17.038
616.05	16.976
616.38	17.707
616.71	16.441
617.05	17.738
617.38	16.124
617.71	16.873
618.04	17.162
618.37	17.065
618.70	17.206
619.03	16.972
619.36	17.839
619.69	18.206
620.03	17.939
620.36	18.048
620.69	18.455
621.02	17.731
621.35	17.049
621.68	17.625
622.01	19.262
622.34	18.281
622.67	17.978
623.00	17.086
623.33	17.611
623.66	17.232
623.99	17.466
624.32	17.412
624.65	17.577
624.99	18.526
625.32	17.969
625.65	18.000
625.98	17.434
626.31	18.027
626.64	18.223
626.97	17.674
627.30	18.711
627.63	19.074
627.96	18.545
628.29	18.234
628.62	18.135
628.95	18.972
629.28	18.668
629.61	17.926
629.94	17.978
630.26	19.237
630.59	18.972
630.92	17.489
631.25	19.583
