SpectraSuite Data File
++++++++++++++++++++++++++++++++++++
Date: Tue May 12 16:47:55 PDT 2015
User: schluterlab
Dark Spectrum Present: Yes
Reference Spectrum Present: Yes
Number of Sampled Component Spectra: 1
Spectrometers: USB2E3373
Integration Time (usec): 3000 (USB2E3373)
Spectra Averaged: 3 (USB2E3373)
Boxcar Smoothing: 0 (USB2E3373)
Correct for Electrical Dark: No (USB2E3373)
Strobe/Lamp Enabled: No (USB2E3373)
Correct for Detector Non-linearity: No (USB2E3373)
Correct for Stray Light: No (USB2E3373)
Number of Pixels in Processed Spectrum: 2048
>>>>>Begin Processed Spectral Data<<<<<
178.53	0.000
178.91	-258.333
179.29	-575.000
179.67	-2600.000
180.04	-146.667
180.42	625.000
180.80	2300.000
181.18	0.000
181.56	-375.000
181.94	0.000
182.31	1300.000
182.69	-2700.000
183.07	400.000
183.45	-3800.000
183.83	-1900.000
184.20	320.000
184.58	428.571
184.96	-300.000
185.34	-191.667
185.72	1350.000
186.09	-825.000
186.47	-3700.000
186.85	933.333
187.23	500.000
187.61	1800.000
187.98	625.000
188.36	264.286
188.74	383.333
189.12	391.667
189.49	900.000
189.87	0.000
190.25	450.000
190.63	3500.000
191.00	-241.667
191.38	-2400.000
191.76	-625.000
192.14	487.500
192.51	-3100.000
192.89	1750.000
193.27	1033.333
193.65	-1000.000
194.02	-860.000
194.40	485.714
194.78	-178.571
195.15	226.667
195.53	-3000.000
195.91	-500.000
196.29	3200.000
196.66	275.000
197.04	725.000
197.42	-650.000
197.79	650.000
198.17	316.667
198.55	0.000
198.92	485.714
199.30	1233.333
199.68	2300.000
200.05	633.333
200.43	-350.000
200.81	177.778
201.18	2300.000
201.56	241.667
201.94	-750.000
202.31	-350.000
202.69	-440.000
203.07	2700.000
203.44	-366.667
203.82	400.000
204.19	640.000
204.57	-1500.000
204.95	-650.000
205.32	-660.000
205.70	583.333
206.08	675.000
206.45	-833.333
206.83	411.111
207.20	157.895
207.58	358.333
207.96	500.000
208.33	0.000
208.71	471.429
209.08	560.000
209.46	-2700.000
209.84	-700.000
210.21	840.000
210.59	-740.000
210.96	308.333
211.34	-925.000
211.71	445.455
212.09	850.000
212.46	1850.000
212.84	-483.333
213.22	411.111
213.59	-3300.000
213.97	340.000
214.34	1050.000
214.72	1200.000
215.09	1000.000
215.47	-3600.000
215.84	-250.000
216.22	-450.000
216.59	0.000
216.97	0.000
217.34	1850.000
217.72	-1400.000
218.09	1366.667
218.47	500.000
218.84	925.000
219.22	1100.000
219.59	833.333
219.97	528.571
220.34	277.778
220.72	1750.000
221.09	3600.000
221.47	275.000
221.84	1000.000
222.22	390.000
222.59	238.889
222.97	285.714
223.34	218.750
223.72	-1500.000
224.09	1100.000
224.46	315.385
224.84	-825.000
225.21	411.111
225.59	213.333
225.96	1233.333
226.34	-560.000
226.71	-750.000
227.08	-700.000
227.46	0.000
227.83	-666.667
228.21	-1750.000
228.58	383.333
228.95	1050.000
229.33	422.222
229.70	1150.000
230.08	338.462
230.45	3200.000
230.82	-800.000
231.20	-833.333
231.57	-1200.000
231.95	640.000
232.32	325.000
232.69	500.000
233.07	275.000
233.44	-1150.000
233.81	253.333
234.19	188.889
234.56	225.000
234.93	170.588
235.31	190.000
235.68	300.000
236.05	142.857
236.43	118.519
236.80	228.571
237.17	113.793
237.55	106.250
237.92	115.000
238.29	136.364
238.67	115.625
239.04	90.244
239.41	66.667
239.79	100.000
240.16	75.000
240.53	72.131
240.91	55.072
241.28	67.797
241.65	54.545
242.02	60.563
242.40	58.571
242.77	47.253
243.14	48.101
243.51	64.646
243.89	39.252
244.26	44.860
244.63	39.604
245.00	46.789
245.38	33.898
245.75	37.879
246.12	48.889
246.49	35.461
246.87	33.607
247.24	34.667
247.61	35.625
247.98	30.612
248.36	29.091
248.73	35.204
249.10	22.024
249.47	31.500
249.84	26.368
250.22	30.811
250.59	25.500
250.96	25.738
251.33	26.047
251.70	27.679
252.08	29.412
252.45	22.709
252.82	26.996
253.19	24.111
253.56	27.692
253.94	25.000
254.31	24.419
254.68	22.300
255.05	23.448
255.42	25.912
255.79	23.453
256.16	25.763
256.54	25.000
256.91	23.529
257.28	24.415
257.65	15.047
258.02	23.009
258.39	23.209
258.76	22.319
259.14	16.857
259.51	24.198
259.88	22.796
260.25	18.681
260.62	20.274
260.99	17.355
261.36	20.056
261.73	19.681
262.10	20.681
262.47	20.000
262.85	19.733
263.22	21.594
263.59	18.414
263.96	21.303
264.33	21.975
264.70	22.604
265.07	19.512
265.44	21.789
265.81	19.575
266.18	21.739
266.55	17.021
266.92	19.463
267.29	20.614
267.66	21.749
268.03	18.610
268.40	22.622
268.77	19.383
269.14	19.740
269.51	17.372
269.88	19.796
270.25	18.359
270.62	15.451
270.99	21.298
271.36	19.715
271.73	16.771
272.10	20.000
272.47	18.849
272.84	15.968
273.21	16.529
273.58	21.255
273.95	17.659
274.32	18.093
274.69	20.669
275.06	16.940
275.43	18.774
275.80	15.849
276.17	19.853
276.54	18.318
276.91	19.030
277.28	17.336
277.65	15.867
278.02	16.912
278.39	17.086
278.76	16.207
279.13	15.658
279.50	17.273
279.87	14.898
280.23	17.680
280.60	18.613
280.97	16.897
281.34	16.337
281.71	18.609
282.08	19.829
282.45	15.034
282.82	18.227
283.19	16.534
283.56	16.860
283.92	18.730
284.29	17.304
284.66	15.798
285.03	17.413
285.40	16.529
285.77	16.512
286.14	17.028
286.51	15.951
286.87	14.873
287.24	15.315
287.61	17.325
287.98	15.224
288.35	16.296
288.72	16.388
289.08	16.817
289.45	15.549
289.82	18.438
290.19	15.373
290.56	16.594
290.93	15.540
291.29	17.265
291.66	15.395
292.03	15.428
292.40	16.667
292.77	15.042
293.13	16.690
293.50	15.385
293.87	14.499
294.24	17.483
294.60	15.747
294.97	17.203
295.34	14.475
295.71	15.506
296.08	16.533
296.44	17.027
296.81	15.509
297.18	13.942
297.55	16.379
297.91	15.148
298.28	16.425
298.65	14.724
299.02	15.923
299.38	15.707
299.75	14.634
300.12	14.908
300.48	16.393
300.85	16.329
301.22	14.651
301.59	14.505
301.95	15.753
302.32	16.298
302.69	16.403
303.05	17.172
303.42	16.143
303.79	15.276
304.15	17.382
304.52	16.596
304.89	16.631
305.25	16.352
305.62	17.271
305.99	16.957
306.35	16.316
306.72	17.170
307.09	16.460
307.45	16.895
307.82	15.947
308.19	16.804
308.55	17.300
308.92	18.351
309.29	18.836
309.65	16.749
310.02	18.966
310.38	17.348
310.75	17.743
311.12	18.008
311.48	18.726
311.85	19.561
312.22	20.153
312.58	19.534
312.95	19.126
313.31	20.131
313.68	19.606
314.05	20.604
314.41	19.832
314.78	20.265
315.14	21.801
315.51	20.624
315.87	21.077
316.24	21.755
316.61	22.023
316.97	21.376
317.34	22.192
317.70	22.739
318.07	22.865
318.43	22.320
318.80	23.643
319.16	23.601
319.53	22.389
319.89	23.656
320.26	25.698
320.62	24.725
320.99	25.357
321.35	25.417
321.72	26.281
322.08	27.978
322.45	26.521
322.81	26.441
323.18	28.153
323.54	28.484
323.91	28.558
324.27	28.382
324.64	28.893
325.00	30.603
325.37	29.764
325.73	30.944
326.10	32.394
326.46	31.462
326.83	32.000
327.19	32.691
327.56	32.188
327.92	34.016
328.29	34.124
328.65	33.219
329.01	33.362
329.38	34.264
329.74	33.049
330.11	35.969
330.47	35.976
330.84	34.081
331.20	35.110
331.56	36.701
331.93	36.185
332.29	33.929
332.66	36.395
333.02	35.825
333.38	34.991
333.75	35.029
334.11	36.242
334.48	37.009
334.84	35.473
335.20	35.329
335.57	35.768
335.93	36.333
336.29	34.992
336.66	36.621
337.02	34.645
337.38	36.199
337.75	35.811
338.11	35.359
338.47	35.732
338.84	34.970
339.20	35.325
339.56	35.240
339.93	35.284
340.29	33.697
340.65	36.295
341.02	35.640
341.38	35.550
341.74	36.213
342.11	36.060
342.47	34.865
342.83	36.013
343.20	35.570
343.56	35.266
343.92	35.921
344.28	35.167
344.65	36.023
345.01	33.968
345.37	33.734
345.73	34.444
346.10	34.980
346.46	35.167
346.82	33.796
347.19	35.162
347.55	34.348
347.91	34.894
348.27	34.469
348.63	35.759
349.00	34.425
349.36	34.786
349.72	35.398
350.08	35.326
350.45	35.644
350.81	34.862
351.17	34.206
351.53	33.718
351.89	34.033
352.26	34.316
352.62	34.917
352.98	34.663
353.34	34.977
353.70	34.786
354.07	36.000
354.43	34.101
354.79	34.320
355.15	34.303
355.51	33.535
355.87	34.337
356.24	32.871
356.60	34.323
356.96	34.117
357.32	34.062
357.68	34.435
358.04	34.271
358.40	33.358
358.77	35.462
359.13	33.483
359.49	33.358
359.85	33.954
360.21	33.210
360.57	33.577
360.93	33.405
361.29	34.488
361.66	32.737
362.02	32.386
362.38	34.271
362.74	33.900
363.10	34.011
363.46	33.494
363.82	34.712
364.18	34.780
364.54	35.265
364.90	34.203
365.26	34.004
365.62	34.047
365.98	33.723
366.35	34.759
366.71	34.143
367.07	33.447
367.43	33.915
367.79	33.777
368.15	33.582
368.51	34.390
368.87	33.220
369.23	33.680
369.59	34.053
369.95	34.476
370.31	33.128
370.67	33.727
371.03	34.244
371.39	33.518
371.75	33.496
372.11	34.126
372.47	35.411
372.83	34.330
373.19	33.653
373.55	32.990
373.91	32.666
374.27	34.259
374.63	33.831
374.99	33.827
375.35	34.140
375.71	34.631
376.07	34.085
376.42	32.417
376.78	33.976
377.14	33.159
377.50	33.583
377.86	34.529
378.22	33.333
378.58	33.051
378.94	33.675
379.30	34.081
379.66	33.895
380.02	33.372
380.38	33.489
380.74	33.968
381.09	33.703
381.45	33.410
381.81	34.220
382.17	33.700
382.53	34.193
382.89	33.412
383.25	33.393
383.61	33.602
383.97	33.293
384.32	33.153
384.68	35.116
385.04	33.353
385.40	33.571
385.76	33.879
386.12	34.632
386.48	33.799
386.83	34.230
387.19	33.863
387.55	33.569
387.91	33.718
388.27	34.979
388.62	32.981
388.98	32.245
389.34	33.254
389.70	33.137
390.06	33.963
390.42	32.696
390.77	33.784
391.13	33.977
391.49	33.575
391.85	33.662
392.20	33.969
392.56	33.931
392.92	32.510
393.28	32.623
393.64	32.683
393.99	33.729
394.35	32.607
394.71	32.871
395.07	33.455
395.42	33.431
395.78	33.498
396.14	34.217
396.50	33.935
396.85	33.415
397.21	34.116
397.57	31.799
397.92	33.449
398.28	33.315
398.64	33.799
399.00	32.870
399.35	32.636
399.71	32.781
400.07	32.477
400.42	33.194
400.78	33.021
401.14	33.999
401.49	33.065
401.85	33.951
402.21	32.748
402.57	33.214
402.92	34.061
403.28	32.279
403.63	32.607
403.99	33.353
404.35	32.532
404.70	34.495
405.06	33.015
405.42	33.453
405.77	33.682
406.13	32.701
406.49	32.348
406.84	33.164
407.20	33.219
407.55	32.677
407.91	34.014
408.27	33.839
408.62	33.057
408.98	33.294
409.34	32.671
409.69	32.296
410.05	32.737
410.40	33.392
410.76	32.169
411.11	32.761
411.47	32.716
411.83	32.396
412.18	33.454
412.54	33.453
412.89	32.330
413.25	32.497
413.60	33.411
413.96	32.795
414.31	33.058
414.67	34.451
415.03	32.375
415.38	33.880
415.74	33.733
416.09	33.791
416.45	34.131
416.80	33.226
417.16	33.609
417.51	33.631
417.87	33.229
418.22	33.050
418.58	33.885
418.93	32.838
419.29	33.087
419.64	33.979
420.00	34.427
420.35	32.985
420.71	33.489
421.06	32.961
421.42	33.218
421.77	32.926
422.12	33.903
422.48	32.717
422.83	33.259
423.19	32.667
423.54	33.187
423.90	33.012
424.25	33.957
424.61	33.256
424.96	33.427
425.31	33.224
425.67	33.614
426.02	33.146
426.38	32.730
426.73	34.124
427.09	34.460
427.44	33.934
427.79	33.676
428.15	34.532
428.50	34.343
428.85	33.510
429.21	34.252
429.56	32.851
429.92	34.560
430.27	32.753
430.62	32.550
430.98	32.884
431.33	32.308
431.68	32.296
432.04	33.161
432.39	33.754
432.74	33.665
433.10	34.109
433.45	34.463
433.80	35.025
434.16	33.158
434.51	33.695
434.86	34.404
435.22	34.630
435.57	35.033
435.92	34.889
436.28	34.447
436.63	34.522
436.98	34.797
437.34	35.046
437.69	33.427
438.04	33.925
438.39	34.267
438.75	35.245
439.10	34.431
439.45	33.296
439.81	34.876
440.16	34.067
440.51	33.896
440.86	34.758
441.22	33.604
441.57	34.173
441.92	34.255
442.27	33.299
442.63	34.553
442.98	33.675
443.33	33.851
443.68	33.350
444.03	34.119
444.39	34.557
444.74	33.437
445.09	34.281
445.44	35.282
445.79	34.454
446.15	35.579
446.50	34.388
446.85	34.363
447.20	33.881
447.55	34.856
447.91	35.109
448.26	34.452
448.61	34.384
448.96	34.858
449.31	34.708
449.66	34.884
450.02	33.603
450.37	35.314
450.72	35.482
451.07	35.253
451.42	35.862
451.77	35.452
452.12	35.167
452.47	35.541
452.83	35.155
453.18	35.616
453.53	35.465
453.88	35.371
454.23	35.212
454.58	34.207
454.93	34.825
455.28	35.863
455.63	35.757
455.98	35.589
456.34	36.292
456.69	34.878
457.04	35.621
457.39	34.914
457.74	35.811
458.09	34.531
458.44	35.597
458.79	35.438
459.14	34.534
459.49	35.447
459.84	35.598
460.19	35.593
460.54	35.499
460.89	35.821
461.24	34.822
461.59	36.224
461.94	35.697
462.29	34.954
462.64	36.118
462.99	36.724
463.34	36.747
463.69	36.540
464.04	35.866
464.39	35.661
464.74	35.991
465.09	34.939
465.44	35.147
465.79	34.676
466.14	34.658
466.49	33.478
466.84	35.452
467.19	35.501
467.54	34.354
467.89	36.033
468.24	35.437
468.59	35.714
468.94	35.990
469.29	35.247
469.64	35.434
469.99	36.054
470.34	35.863
470.68	36.414
471.03	38.025
471.38	37.285
471.73	37.231
472.08	37.378
472.43	35.940
472.78	36.236
473.13	36.233
473.48	36.064
473.83	37.044
474.17	36.109
474.52	36.256
474.87	35.532
475.22	35.751
475.57	35.782
475.92	35.156
476.27	35.419
476.61	34.424
476.96	35.841
477.31	36.401
477.66	36.715
478.01	36.514
478.36	36.560
478.70	36.278
479.05	36.088
479.40	36.458
479.75	35.799
480.10	36.302
480.45	35.107
480.79	35.899
481.14	35.426
481.49	34.767
481.84	34.960
482.19	35.677
482.53	35.002
482.88	35.618
483.23	35.273
483.58	36.625
483.92	36.517
484.27	35.659
484.62	35.441
484.97	34.866
485.31	34.531
485.66	33.553
486.01	33.278
486.36	32.484
486.70	32.106
487.05	32.426
487.40	32.716
487.75	33.662
488.09	33.750
488.44	33.461
488.79	34.537
489.13	34.864
489.48	34.998
489.83	36.072
490.17	35.384
490.52	35.530
490.87	35.862
491.22	35.993
491.56	36.408
491.91	36.783
492.26	35.768
492.60	36.173
492.95	36.475
493.30	35.942
493.64	36.298
493.99	35.912
494.34	35.948
494.68	35.989
495.03	36.192
495.37	36.740
495.72	36.690
496.07	36.298
496.41	35.361
496.76	36.218
497.11	36.161
497.45	35.993
497.80	36.979
498.14	37.078
498.49	36.537
498.84	36.682
499.18	35.832
499.53	36.380
499.87	35.849
500.22	36.343
500.56	35.283
500.91	36.364
501.26	36.380
501.60	36.202
501.95	36.156
502.29	36.622
502.64	35.862
502.98	36.639
503.33	35.768
503.67	36.203
504.02	35.155
504.36	36.063
504.71	36.802
505.06	37.072
505.40	36.547
505.75	36.670
506.09	37.051
506.44	36.842
506.78	37.287
507.13	37.130
507.47	36.439
507.82	37.178
508.16	37.972
508.51	37.440
508.85	36.942
509.19	37.053
509.54	36.914
509.88	37.593
510.23	36.912
510.57	36.245
510.92	36.913
511.26	38.002
511.61	35.844
511.95	37.631
512.30	37.350
512.64	37.175
512.98	36.648
513.33	37.039
513.67	37.494
514.02	37.455
514.36	37.227
514.70	36.747
515.05	37.294
515.39	37.719
515.74	38.600
516.08	38.126
516.42	39.617
516.77	37.813
517.11	38.880
517.46	37.877
517.80	37.794
518.14	38.028
518.49	37.541
518.83	36.868
519.17	37.049
519.52	38.449
519.86	37.221
520.20	38.740
520.55	38.214
520.89	38.333
521.23	38.610
521.58	37.177
521.92	37.784
522.26	37.796
522.61	38.740
522.95	38.498
523.29	38.187
523.64	37.861
523.98	38.146
524.32	38.293
524.66	39.768
525.01	38.343
525.35	38.656
525.69	38.832
526.04	39.143
526.38	38.493
526.72	38.007
527.06	37.374
527.41	40.206
527.75	39.257
528.09	37.387
528.43	38.377
528.78	38.104
529.12	39.856
529.46	38.282
529.80	37.383
530.15	38.539
530.49	36.643
530.83	38.391
531.17	38.438
531.51	37.523
531.86	37.802
532.20	37.886
532.54	38.732
532.88	38.413
533.22	38.330
533.57	37.767
533.91	37.471
534.25	38.257
534.59	37.310
534.93	37.884
535.27	36.710
535.62	36.639
535.96	37.116
536.30	38.513
536.64	37.950
536.98	37.697
537.32	37.875
537.66	37.691
538.01	37.523
538.35	37.991
538.69	36.711
539.03	37.438
539.37	36.893
539.71	38.086
540.05	37.231
540.39	37.547
540.73	37.342
541.07	37.265
541.42	38.060
541.76	37.423
542.10	36.930
542.44	37.781
542.78	37.445
543.12	37.669
543.46	37.030
543.80	37.594
544.14	37.337
544.48	37.226
544.82	37.248
545.16	36.612
545.50	37.124
545.84	37.753
546.18	39.337
546.52	37.967
546.86	37.847
547.20	37.855
547.54	37.555
547.88	37.226
548.22	36.430
548.56	36.240
548.90	37.129
549.24	37.524
549.58	36.469
549.92	37.983
550.26	37.728
550.60	38.789
550.94	39.009
551.28	38.207
551.62	38.207
551.96	38.243
552.30	37.179
552.64	37.411
552.98	36.469
553.32	35.531
553.66	37.003
554.00	37.323
554.34	37.750
554.68	38.239
555.02	36.796
555.36	36.902
555.69	36.715
556.03	36.497
556.37	37.604
556.71	37.484
557.05	36.501
557.39	37.133
557.73	37.129
558.07	37.022
558.41	37.491
558.75	38.235
559.08	38.385
559.42	38.726
559.76	38.061
560.10	35.857
560.44	37.226
560.78	37.404
561.12	37.127
561.45	35.795
561.79	36.080
562.13	36.008
562.47	37.573
562.81	36.304
563.15	37.104
563.48	36.087
563.82	38.490
564.16	36.754
564.50	35.383
564.84	36.717
565.17	36.067
565.51	36.946
565.85	36.952
566.19	36.667
566.52	36.101
566.86	36.135
567.20	35.393
567.54	35.098
567.88	35.629
568.21	34.698
568.55	33.512
568.89	33.212
569.23	32.916
569.56	34.105
569.90	32.770
570.24	32.402
570.57	31.960
570.91	31.638
571.25	31.495
571.59	30.739
571.92	30.409
572.26	30.943
572.60	31.241
572.93	31.455
573.27	31.447
573.61	30.563
573.95	29.856
574.28	30.780
574.62	29.669
574.96	29.566
575.29	29.568
575.63	29.965
575.97	29.455
576.30	29.537
576.64	29.822
576.98	29.464
577.31	29.675
577.65	29.571
577.98	29.363
578.32	28.384
578.66	29.160
578.99	29.432
579.33	29.477
579.67	29.264
580.00	29.535
580.34	29.459
580.67	29.128
581.01	29.581
581.35	29.338
581.68	28.644
582.02	28.409
582.35	28.526
582.69	29.253
583.02	28.765
583.36	29.424
583.70	29.398
584.03	29.630
584.37	29.430
584.70	29.560
585.04	29.003
585.37	29.080
585.71	29.371
586.04	28.781
586.38	29.495
586.72	29.369
587.05	29.722
587.39	29.178
587.72	29.422
588.06	29.774
588.39	28.813
588.73	29.284
589.06	29.618
589.40	29.640
589.73	30.023
590.07	30.679
590.40	31.010
590.73	32.207
591.07	32.144
591.40	30.778
591.74	31.209
592.07	30.740
592.41	30.336
592.74	30.355
593.08	29.688
593.41	28.935
593.75	29.370
594.08	29.412
594.41	29.293
594.75	29.932
595.08	29.630
595.42	30.217
595.75	30.438
596.09	30.344
596.42	30.117
596.75	30.729
597.09	30.912
597.42	30.449
597.75	30.101
598.09	30.447
598.42	29.825
598.76	29.607
599.09	30.563
599.42	29.308
599.76	29.512
600.09	28.949
600.42	29.558
600.76	28.280
601.09	29.928
601.42	29.708
601.76	29.574
602.09	30.280
602.42	29.279
602.76	29.639
603.09	29.977
603.42	29.615
603.76	29.610
604.09	29.280
604.42	29.416
604.76	29.712
605.09	30.000
605.42	29.581
605.75	29.728
606.09	29.457
606.42	29.651
606.75	29.576
607.09	28.859
607.42	30.454
607.75	29.379
608.08	28.554
608.42	29.488
608.75	29.696
609.08	28.949
609.41	30.500
609.75	30.311
610.08	29.721
610.41	30.215
610.74	29.091
611.07	29.877
611.41	30.213
611.74	29.685
612.07	30.973
612.40	30.409
612.73	30.454
613.07	30.208
613.40	30.276
613.73	30.205
614.06	29.700
614.39	30.253
614.72	30.688
615.06	29.674
615.39	30.248
615.72	29.429
616.05	29.935
616.38	29.833
616.71	29.951
617.05	30.203
617.38	31.348
617.71	30.877
618.04	30.903
618.37	31.462
618.70	30.543
619.03	31.197
619.36	32.224
619.69	32.190
620.03	32.224
620.36	31.599
620.69	31.354
621.02	31.997
621.35	31.519
621.68	31.711
622.01	33.358
622.34	31.391
622.67	31.882
623.00	31.518
623.33	32.389
623.66	31.204
623.99	32.260
624.32	31.436
624.65	31.139
624.99	31.913
625.32	31.196
625.65	30.828
625.98	31.590
626.31	32.567
626.64	31.891
626.97	32.135
627.30	32.065
627.63	32.889
627.96	30.986
628.29	32.673
628.62	32.934
628.95	34.663
629.28	33.392
629.61	33.040
629.94	33.621
630.26	33.882
630.59	35.816
630.92	33.812
631.25	34.542
