SpectraSuite Data File
++++++++++++++++++++++++++++++++++++
Date: Tue May 12 15:11:03 PDT 2015
User: schluterlab
Dark Spectrum Present: Yes
Reference Spectrum Present: Yes
Number of Sampled Component Spectra: 1
Spectrometers: USB2E3373
Integration Time (usec): 3000 (USB2E3373)
Spectra Averaged: 3 (USB2E3373)
Boxcar Smoothing: 0 (USB2E3373)
Correct for Electrical Dark: No (USB2E3373)
Strobe/Lamp Enabled: No (USB2E3373)
Correct for Detector Non-linearity: No (USB2E3373)
Correct for Stray Light: No (USB2E3373)
Number of Pixels in Processed Spectrum: 2048
>>>>>Begin Processed Spectral Data<<<<<
178.53	0.000
178.91	-108.333
179.29	-575.000
179.67	-1500.000
180.04	-60.000
180.42	600.000
180.80	600.000
181.18	0.000
181.56	-175.000
181.94	0.000
182.31	366.667
182.69	-1300.000
183.07	385.714
183.45	-2300.000
183.83	-850.000
184.20	220.000
184.58	185.714
184.96	-123.077
185.34	-150.000
185.72	1400.000
186.09	-175.000
186.47	-500.000
186.85	433.333
187.23	360.000
187.61	1250.000
187.98	287.500
188.36	171.429
188.74	208.333
189.12	208.333
189.49	650.000
189.87	0.000
190.25	337.500
190.63	1000.000
191.00	-83.333
191.38	-1800.000
191.76	-375.000
192.14	375.000
192.51	-1300.000
192.89	1400.000
193.27	300.000
193.65	-466.667
194.02	-460.000
194.40	414.286
194.78	-107.143
195.15	120.000
195.53	-2500.000
195.91	-300.000
196.29	3400.000
196.66	162.500
197.04	550.000
197.42	-1250.000
197.79	500.000
198.17	191.667
198.55	0.000
198.92	400.000
199.30	500.000
199.68	1500.000
200.05	300.000
200.43	-316.667
200.81	155.556
201.18	2600.000
201.56	158.333
201.94	-475.000
202.31	-125.000
202.69	-280.000
203.07	2200.000
203.44	-250.000
203.82	225.000
204.19	480.000
204.57	-850.000
204.95	-375.000
205.32	-360.000
205.70	300.000
206.08	625.000
206.45	-566.667
206.83	288.889
207.20	142.105
207.58	141.667
207.96	480.000
208.33	0.000
208.71	342.857
209.08	400.000
209.46	-1700.000
209.84	-500.000
210.21	660.000
210.59	-320.000
210.96	216.667
211.34	-600.000
211.71	372.727
212.09	525.000
212.46	850.000
212.84	-200.000
213.22	222.222
213.59	-1800.000
213.97	170.000
214.34	450.000
214.72	800.000
215.09	733.333
215.47	-1100.000
215.84	-190.000
216.22	-312.500
216.59	0.000
216.97	0.000
217.34	650.000
217.72	-1000.000
218.09	733.333
218.47	337.500
218.84	450.000
219.22	866.667
219.59	233.333
219.97	371.429
220.34	355.556
220.72	1200.000
221.09	2000.000
221.47	241.667
221.84	533.333
222.22	180.000
222.59	172.222
222.97	178.571
223.34	206.250
223.72	-1050.000
224.09	600.000
224.46	207.692
224.84	-500.000
225.21	288.889
225.59	186.667
225.96	633.333
226.34	-380.000
226.71	-300.000
227.08	-460.000
227.46	0.000
227.83	-266.667
228.21	-950.000
228.58	291.667
228.95	400.000
229.33	277.778
229.70	750.000
230.08	169.231
230.45	1300.000
230.82	-450.000
231.20	-566.667
231.57	-566.667
231.95	320.000
232.32	191.667
232.69	250.000
233.07	158.333
233.44	-1200.000
233.81	166.667
234.19	107.407
234.56	143.750
234.93	58.824
235.31	70.000
235.68	162.500
236.05	89.286
236.43	92.593
236.80	100.000
237.17	100.000
237.55	46.875
237.92	60.000
238.29	78.788
238.67	75.000
239.04	51.220
239.41	10.417
239.79	47.500
240.16	43.750
240.53	16.393
240.91	24.638
241.28	44.068
241.65	40.909
242.02	45.070
242.40	32.857
242.77	21.978
243.14	15.190
243.51	22.222
243.89	22.430
244.26	26.168
244.63	20.792
245.00	25.688
245.38	16.102
245.75	19.697
246.12	25.185
246.49	17.730
246.87	14.754
247.24	16.000
247.61	12.500
247.98	13.605
248.36	4.848
248.73	15.816
249.10	4.167
249.47	12.000
249.84	14.925
250.22	9.189
250.59	2.000
250.96	10.970
251.33	9.302
251.70	11.161
252.08	10.084
252.45	7.171
252.82	7.985
253.19	6.324
253.56	3.077
253.94	4.348
254.31	5.039
254.68	6.969
255.05	6.207
255.42	9.489
255.79	8.143
256.16	9.831
256.54	8.442
256.91	6.863
257.28	5.686
257.65	1.567
258.02	4.720
258.39	9.169
258.76	8.116
259.14	6.286
259.51	5.539
259.88	6.687
260.25	6.319
260.62	6.027
260.99	1.377
261.36	6.407
261.73	4.521
262.10	4.974
262.47	5.000
262.85	5.600
263.22	5.398
263.59	2.813
263.96	8.020
264.33	4.691
264.70	6.143
265.07	4.390
265.44	4.128
265.81	5.896
266.18	6.178
266.55	3.783
266.92	2.013
267.29	4.386
267.66	5.605
268.03	4.036
268.40	5.708
268.77	3.744
269.14	1.952
269.51	3.118
269.88	5.918
270.25	3.456
270.62	4.292
270.99	5.071
271.36	6.301
271.73	1.887
272.10	4.646
272.47	3.770
272.84	4.192
273.21	4.752
273.58	5.668
273.95	3.696
274.32	5.253
274.69	6.890
275.06	6.011
275.43	4.215
275.80	3.396
276.17	4.228
276.54	4.860
276.91	5.970
277.28	5.109
277.65	3.506
278.02	3.125
278.39	3.957
278.76	3.966
279.13	4.626
279.50	4.000
279.87	2.980
280.23	4.052
280.60	4.197
280.97	2.759
281.34	4.125
281.71	4.348
282.08	4.103
282.45	3.378
282.82	4.682
283.19	3.975
283.56	4.628
283.92	4.560
284.29	0.998
284.66	3.193
285.03	4.478
285.40	3.140
285.77	2.932
286.14	4.644
286.51	4.448
286.87	1.741
287.24	2.703
287.61	3.495
287.98	4.179
288.35	3.407
288.72	4.097
289.08	4.955
289.45	4.573
289.82	3.281
290.19	4.100
290.56	3.493
290.93	3.165
291.29	3.729
291.66	3.814
292.03	3.506
292.40	4.607
292.77	3.064
293.13	5.136
293.50	2.969
293.87	3.388
294.24	3.357
294.60	4.307
294.97	4.755
295.34	4.515
295.71	5.125
296.08	4.000
296.44	4.956
296.81	3.350
297.18	3.422
297.55	4.433
297.91	2.463
298.28	3.623
298.65	2.822
299.02	2.895
299.38	3.957
299.75	2.439
300.12	4.014
300.48	4.333
300.85	4.529
301.22	3.372
301.59	3.066
301.95	3.617
302.32	3.842
302.69	5.543
303.05	5.387
303.42	3.363
303.79	4.334
304.15	3.960
304.52	3.911
304.89	4.051
305.25	4.116
305.62	6.077
305.99	4.022
306.35	3.579
306.72	4.162
307.09	3.934
307.45	4.118
307.82	3.807
308.19	4.021
308.55	3.300
308.92	4.318
309.29	6.016
309.65	5.253
310.02	5.172
310.38	4.287
310.75	5.786
311.12	5.556
311.48	6.371
311.85	5.439
312.22	6.017
312.58	5.539
312.95	5.243
313.31	5.243
313.68	6.379
314.05	7.509
314.41	6.052
314.78	6.723
315.14	6.635
315.51	7.096
315.87	8.212
316.24	7.470
316.61	6.714
316.97	7.431
317.34	7.547
317.70	7.989
318.07	8.808
318.43	9.315
318.80	9.282
319.16	9.266
319.53	10.000
319.89	8.513
320.26	10.335
320.62	11.081
320.99	10.105
321.35	9.926
321.72	12.049
322.08	11.080
322.45	11.626
322.81	10.156
323.18	11.190
323.54	13.240
323.91	13.599
324.27	12.644
324.64	12.284
325.00	13.190
325.37	14.418
325.73	14.755
326.10	14.499
326.46	15.277
326.83	14.880
327.19	14.859
327.56	14.617
327.92	16.885
328.29	17.267
328.65	16.096
329.01	16.766
329.38	17.428
329.74	16.823
330.11	17.897
330.47	17.136
330.84	17.256
331.20	18.020
331.56	19.344
331.93	18.050
332.29	16.752
332.66	18.793
333.02	17.612
333.38	17.627
333.75	19.433
334.11	18.037
334.48	18.632
334.84	18.581
335.20	17.536
335.57	19.060
335.93	19.765
336.29	17.745
336.66	19.811
337.02	17.879
337.38	18.745
337.75	20.355
338.11	19.578
338.47	19.475
338.84	19.052
339.20	17.662
339.56	18.923
339.93	19.816
340.29	18.571
340.65	20.034
341.02	21.561
341.38	18.637
341.74	19.352
342.11	18.948
342.47	18.868
342.83	19.852
343.20	21.180
343.56	18.189
343.92	19.983
344.28	19.617
344.65	20.049
345.01	19.524
345.37	19.151
345.73	20.714
346.10	18.884
346.46	19.537
346.82	19.136
347.19	20.170
347.55	19.360
347.91	19.335
348.27	18.590
348.63	19.778
349.00	19.802
349.36	20.467
349.72	19.725
350.08	19.565
350.45	20.259
350.81	20.260
351.17	19.337
351.53	18.630
351.89	20.901
352.26	19.426
352.62	19.155
352.98	20.092
353.34	20.570
353.70	18.731
354.07	19.385
354.43	19.739
354.79	19.210
355.15	19.908
355.51	19.184
355.87	20.783
356.24	19.938
356.60	19.482
356.96	19.484
357.32	20.045
357.68	21.072
358.04	19.149
358.40	19.790
358.77	21.112
359.13	18.694
359.49	20.534
359.85	19.583
360.21	19.688
360.57	18.686
360.93	19.841
361.29	19.986
361.66	21.327
362.02	19.460
362.38	19.841
362.74	19.887
363.10	20.056
363.46	18.508
363.82	19.705
364.18	20.626
364.54	19.027
364.90	19.746
365.26	19.639
365.62	19.820
365.98	19.752
366.35	18.828
366.71	19.570
367.07	19.795
367.43	19.543
367.79	19.149
368.15	19.607
368.51	19.366
368.87	19.293
369.23	19.404
369.59	18.341
369.95	18.881
370.31	18.754
370.67	19.639
371.03	19.958
371.39	19.044
371.75	18.842
372.11	19.579
372.47	21.027
372.83	19.714
373.19	20.082
373.55	18.076
373.91	18.785
374.27	19.643
374.63	18.373
374.99	19.272
375.35	20.161
375.71	18.997
376.07	19.562
376.42	18.670
376.78	19.204
377.14	19.397
377.50	19.538
377.86	19.026
378.22	19.013
378.58	19.492
378.94	19.191
379.30	19.163
379.66	18.844
380.02	19.296
380.38	18.267
380.74	19.896
381.09	18.808
381.45	18.324
381.81	18.085
382.17	18.803
382.53	18.596
382.89	18.391
383.25	18.709
383.61	18.444
383.97	18.416
384.32	18.324
384.68	19.311
385.04	18.699
385.40	19.098
385.76	18.724
386.12	18.800
386.48	17.386
386.83	18.337
387.19	19.081
387.55	18.551
387.91	18.476
388.27	18.501
388.62	18.310
388.98	17.551
389.34	17.549
389.70	18.396
390.06	18.171
390.42	17.952
390.77	18.612
391.13	18.346
391.49	17.786
391.85	17.723
392.20	18.296
392.56	16.786
392.92	17.687
393.28	17.545
393.64	17.431
393.99	17.368
394.35	16.951
394.71	16.888
395.07	16.849
395.42	17.799
395.78	17.643
396.14	17.590
396.50	16.606
396.85	16.707
397.21	16.606
397.57	16.497
397.92	16.176
398.28	16.382
398.64	17.917
399.00	16.569
399.35	16.855
399.71	16.998
400.07	16.039
400.42	16.776
400.78	15.894
401.14	16.383
401.49	16.532
401.85	16.744
402.21	15.700
402.57	15.859
402.92	16.606
403.28	15.692
403.63	16.068
403.99	15.621
404.35	16.999
404.70	16.952
405.06	15.553
405.42	15.679
405.77	15.877
406.13	14.696
406.49	15.350
406.84	14.946
407.20	15.868
407.55	15.569
407.91	15.699
408.27	15.039
408.62	14.902
408.98	14.902
409.34	15.079
409.69	14.686
410.05	15.146
410.40	14.605
410.76	14.024
411.11	14.633
411.47	14.198
411.83	14.704
412.18	14.915
412.54	14.835
412.89	14.100
413.25	15.222
413.60	14.778
413.96	14.363
414.31	14.581
414.67	14.587
415.03	14.304
415.38	14.890
415.74	14.024
416.09	14.553
416.45	14.415
416.80	14.753
417.16	14.004
417.51	14.459
417.87	14.643
418.22	14.095
418.58	13.949
418.93	14.396
419.29	12.939
419.64	14.839
420.00	15.036
420.35	13.995
420.71	13.652
421.06	14.479
421.42	13.702
421.77	14.381
422.12	13.837
422.48	13.713
422.83	14.286
423.19	13.715
423.54	13.330
423.90	15.006
424.25	13.154
424.61	13.523
424.96	13.269
425.31	13.903
425.67	13.187
426.02	12.787
426.38	13.302
426.73	14.112
427.09	13.642
427.44	12.662
427.79	12.922
428.15	13.259
428.50	14.114
428.85	14.521
429.21	13.290
429.56	13.310
429.92	13.277
430.27	13.449
430.62	12.922
430.98	13.323
431.33	12.601
431.68	12.444
432.04	12.778
432.39	13.392
432.74	13.876
433.10	12.680
433.45	12.981
433.80	13.569
434.16	13.768
434.51	12.693
434.86	13.500
435.22	12.642
435.57	12.863
435.92	13.261
436.28	12.788
436.63	12.966
436.98	13.570
437.34	13.527
437.69	11.702
438.04	13.333
438.39	12.843
438.75	13.641
439.10	12.412
439.45	13.171
439.81	13.823
440.16	13.594
440.51	12.613
440.86	13.105
441.22	13.149
441.57	13.123
441.92	13.277
442.27	13.196
442.63	12.602
442.98	11.907
443.33	12.801
443.68	12.978
444.03	11.970
444.39	13.230
444.74	12.629
445.09	13.428
445.44	12.965
445.79	12.476
446.15	12.579
446.50	13.238
446.85	12.600
447.20	12.040
447.55	12.452
447.91	13.106
448.26	13.419
448.61	13.378
448.96	12.364
449.31	12.376
449.66	14.120
450.02	12.966
450.37	12.493
450.72	13.058
451.07	13.147
451.42	12.330
451.77	12.658
452.12	12.819
452.47	12.637
452.83	13.070
453.18	12.853
453.53	13.203
453.88	13.200
454.23	13.132
454.58	13.112
454.93	12.692
455.28	13.647
455.63	12.530
455.98	13.536
456.34	13.678
456.69	12.683
457.04	13.305
457.39	12.057
457.74	12.950
458.09	12.577
458.44	13.308
458.79	12.732
459.14	12.220
459.49	13.250
459.84	12.772
460.19	12.655
460.54	13.789
460.89	12.527
461.24	11.798
461.59	13.039
461.94	13.180
462.29	13.158
462.64	13.128
462.99	12.732
463.34	12.897
463.69	13.249
464.04	13.529
464.39	12.250
464.74	12.016
465.09	13.059
465.44	12.350
465.79	12.793
466.14	12.401
466.49	12.371
466.84	12.821
467.19	13.005
467.54	12.252
467.89	12.852
468.24	11.986
468.59	12.083
468.94	12.862
469.29	12.951
469.64	12.476
469.99	12.018
470.34	11.512
470.68	12.069
471.03	13.075
471.38	12.318
471.73	12.737
472.08	13.177
472.43	12.601
472.78	12.100
473.13	10.763
473.48	12.714
473.83	11.543
474.17	11.854
474.52	12.441
474.87	11.029
475.22	11.593
475.57	11.647
475.92	11.191
476.27	11.045
476.61	11.475
476.96	11.651
477.31	12.134
477.66	11.541
478.01	11.398
478.36	11.998
478.70	11.315
479.05	12.134
479.40	11.458
479.75	12.016
480.10	11.665
480.45	11.391
480.79	11.567
481.14	10.794
481.49	11.253
481.84	11.697
482.19	11.266
482.53	11.199
482.88	11.783
483.23	10.871
483.58	11.490
483.92	12.112
484.27	11.644
484.62	11.121
484.97	11.258
485.31	11.161
485.66	11.281
486.01	10.584
486.36	10.533
486.70	10.340
487.05	10.538
487.40	10.684
487.75	10.944
488.09	10.795
488.44	11.663
488.79	10.725
489.13	11.497
489.48	11.266
489.83	10.759
490.17	11.396
490.52	11.154
490.87	11.379
491.22	11.303
491.56	10.804
491.91	10.484
492.26	10.824
492.60	10.934
492.95	11.056
493.30	10.965
493.64	10.782
493.99	9.973
494.34	10.444
494.68	11.111
495.03	11.405
495.37	11.526
495.72	11.422
496.07	10.916
496.41	11.077
496.76	10.131
497.11	11.140
497.45	10.916
497.80	10.843
498.14	10.911
498.49	11.235
498.84	11.075
499.18	10.512
499.53	11.070
499.87	10.198
500.22	10.594
500.56	9.749
500.91	11.688
501.26	10.841
501.60	10.838
501.95	10.081
502.29	10.667
502.64	10.763
502.98	10.449
503.33	10.824
503.67	10.552
504.02	10.210
504.36	10.769
504.71	10.691
505.06	10.418
505.40	10.529
505.75	10.056
506.09	11.293
506.44	11.043
506.78	10.775
507.13	10.373
507.47	10.141
507.82	10.706
508.16	11.024
508.51	10.676
508.85	10.446
509.19	9.838
509.54	10.449
509.88	10.741
510.23	10.098
510.57	10.811
510.92	9.990
511.26	10.843
511.61	10.389
511.95	10.005
512.30	10.600
512.64	10.125
512.98	9.995
513.33	10.400
513.67	10.720
514.02	10.286
514.36	10.280
514.70	10.880
515.05	9.643
515.39	10.417
515.74	10.662
516.08	10.076
516.42	10.328
516.77	9.653
517.11	10.027
517.46	10.237
517.80	10.268
518.14	10.197
518.49	9.978
518.83	9.066
519.17	10.261
519.52	10.322
519.86	10.409
520.20	10.466
520.55	9.553
520.89	9.713
521.23	9.988
521.58	9.581
521.92	9.679
522.26	9.360
522.61	10.636
522.95	9.429
523.29	9.766
523.64	9.422
523.98	10.094
524.32	9.689
524.66	10.203
525.01	8.876
525.35	10.371
525.69	10.536
526.04	10.946
526.38	9.241
526.72	9.785
527.06	9.462
527.41	10.097
527.75	10.043
528.09	9.934
528.43	9.579
528.78	9.481
529.12	10.476
529.46	9.643
529.80	9.579
530.15	10.018
530.49	9.507
530.83	9.750
531.17	9.410
531.51	9.810
531.86	9.481
532.20	9.642
532.54	9.416
532.88	10.056
533.22	10.055
533.57	9.701
533.91	9.324
534.25	9.752
534.59	9.357
534.93	9.215
535.27	9.334
535.62	9.568
535.96	9.102
536.30	10.299
536.64	9.006
536.98	9.062
537.32	10.063
537.66	8.992
538.01	10.217
538.35	9.233
538.69	9.648
539.03	9.080
539.37	8.738
539.71	9.815
540.05	9.415
540.39	9.560
540.73	8.861
541.07	8.971
541.42	10.137
541.76	9.309
542.10	9.433
542.44	10.100
542.78	8.433
543.12	9.877
543.46	8.584
543.80	9.211
544.14	8.916
544.48	8.942
544.82	9.419
545.16	8.804
545.50	9.957
545.84	10.290
546.18	10.273
546.52	10.164
546.86	10.509
547.20	8.979
547.54	10.133
547.88	8.759
548.22	9.168
548.56	9.487
548.90	9.490
549.24	9.602
549.58	9.278
549.92	9.889
550.26	9.398
550.60	9.049
550.94	9.159
551.28	10.345
551.62	8.828
551.96	9.189
552.30	9.295
552.64	9.256
552.98	8.634
553.32	9.219
553.66	9.121
554.00	9.524
554.34	9.920
554.68	8.669
555.02	9.097
555.36	8.910
555.69	10.733
556.03	9.299
556.37	10.006
556.71	10.235
557.05	8.519
557.39	8.933
557.73	9.299
558.07	9.859
558.41	9.321
558.75	9.508
559.08	10.079
559.42	8.375
559.76	8.838
560.10	8.121
560.44	8.958
560.78	9.335
561.12	9.472
561.45	8.448
561.79	8.365
562.13	8.023
562.47	7.917
562.81	9.174
563.15	8.274
563.48	8.323
563.82	9.233
564.16	9.639
564.50	8.620
564.84	8.267
565.17	8.853
565.51	9.421
565.85	8.575
566.19	8.690
566.52	7.280
566.86	8.990
567.20	8.652
567.54	8.788
567.88	8.503
568.21	8.937
568.55	8.366
568.89	8.349
569.23	7.981
569.56	8.466
569.90	8.660
570.24	8.416
570.57	8.339
570.91	7.925
571.25	8.274
571.59	7.727
571.92	7.966
572.26	7.925
572.60	7.776
572.93	8.166
573.27	7.869
573.61	8.148
573.95	7.570
574.28	8.047
574.62	7.406
574.96	7.595
575.29	7.992
575.63	7.633
575.97	7.595
576.30	7.770
576.64	7.735
576.98	7.453
577.31	7.996
577.65	7.768
577.98	7.447
578.32	7.659
578.66	7.679
578.99	7.992
579.33	7.984
579.67	7.501
580.00	7.682
580.34	7.756
580.67	7.785
581.01	8.492
581.35	8.070
581.68	7.468
582.02	7.736
582.35	7.462
582.69	7.592
583.02	7.826
583.36	7.825
583.70	8.070
584.03	8.103
584.37	7.976
584.70	7.838
585.04	7.733
585.37	7.597
585.71	7.978
586.04	7.800
586.38	8.283
586.72	8.185
587.05	8.260
587.39	7.813
587.72	8.026
588.06	8.095
588.39	7.958
588.73	7.736
589.06	7.674
589.40	8.013
589.73	7.735
590.07	8.099
590.40	8.641
590.73	8.483
591.07	8.425
591.40	8.383
591.74	8.076
592.07	8.569
592.41	8.313
592.74	7.763
593.08	7.617
593.41	7.899
593.75	7.672
594.08	8.038
594.41	7.983
594.75	8.219
595.08	8.471
595.42	8.295
595.75	8.128
596.09	8.273
596.42	7.830
596.75	8.774
597.09	8.584
597.42	8.122
597.75	7.870
598.09	8.289
598.42	8.038
598.76	8.057
599.09	8.753
599.42	8.339
599.76	8.548
600.09	8.271
600.42	8.633
600.76	7.886
601.09	8.353
601.42	8.413
601.76	7.948
602.09	8.572
602.42	8.318
602.76	8.121
603.09	7.541
603.42	8.110
603.76	8.062
604.09	7.528
604.42	7.834
604.76	8.060
605.09	8.245
605.42	8.574
605.75	8.370
606.09	8.225
606.42	8.268
606.75	8.822
607.09	8.093
607.42	8.477
607.75	8.320
608.08	8.123
608.42	8.473
608.75	7.745
609.08	8.051
609.41	8.182
609.75	8.929
610.08	8.363
610.41	8.344
610.74	8.442
611.07	8.231
611.41	8.202
611.74	7.600
612.07	7.996
612.40	8.138
612.73	8.887
613.07	8.211
613.40	8.471
613.73	8.487
614.06	7.650
614.39	8.434
614.72	8.287
615.06	7.369
615.39	9.257
615.72	8.616
616.05	8.739
616.38	7.915
616.71	8.356
617.05	8.127
617.38	8.146
617.71	9.224
618.04	9.198
618.37	8.616
618.70	7.852
619.03	7.753
619.36	8.982
619.69	8.047
620.03	9.589
620.36	7.707
620.69	9.132
621.02	8.764
621.35	8.739
621.68	9.071
622.01	9.151
622.34	8.084
622.67	9.480
623.00	8.713
623.33	8.839
623.66	8.051
623.99	8.288
624.32	9.350
624.65	8.032
624.99	8.384
625.32	8.550
625.65	7.517
625.98	8.298
626.31	8.309
626.64	7.593
626.97	7.728
627.30	8.773
627.63	8.791
627.96	8.216
628.29	8.251
628.62	8.298
628.95	9.486
629.28	9.553
629.61	8.612
629.94	8.124
630.26	8.319
630.59	9.486
630.92	9.417
631.25	9.248
631.58	9.450
631.91	7.707
632.24	8.358
632.57	7.760
632.90	9.006
633.23	9.969
633.56	8.851
633.89	8.574
634.22	8.827
634.55	8.817
634.88	8.105
635.20	9.417
635.53	8.595
635.86	10.403
636.19	8.979
636.52	8.324
636.85	8.306
637.18	9.101
637.51	9.162
637.83	7.666
638.16	9.613
638.49	9.102
638.82	9.390
639.15	7.873
639.48	9.005
639.81	8.791
640.13	9.448
640.46	9.608
640.79	9.363
641.12	8.793
641.45	9.961
641.77	10.040
642.10	9.237
642.43	9.531
642.76	8.239
643.09	9.798
643.41	9.677
643.74	11.223
