SpectraSuite Data File
++++++++++++++++++++++++++++++++++++
Date: Tue May 12 16:03:21 PDT 2015
User: schluterlab
Dark Spectrum Present: Yes
Reference Spectrum Present: Yes
Number of Sampled Component Spectra: 1
Spectrometers: USB2E3373
Integration Time (usec): 3000 (USB2E3373)
Spectra Averaged: 3 (USB2E3373)
Boxcar Smoothing: 0 (USB2E3373)
Correct for Electrical Dark: No (USB2E3373)
Strobe/Lamp Enabled: No (USB2E3373)
Correct for Detector Non-linearity: No (USB2E3373)
Correct for Stray Light: No (USB2E3373)
Number of Pixels in Processed Spectrum: 2048
>>>>>Begin Processed Spectral Data<<<<<
178.53	0.000
178.91	-291.667
179.29	-700.000
179.67	-4700.000
180.04	-160.000
180.42	925.000
180.80	1400.000
181.18	0.000
181.56	-412.500
181.94	0.000
182.31	1366.667
182.69	-3200.000
183.07	642.857
183.45	-3500.000
183.83	-1800.000
184.20	410.000
184.58	528.571
184.96	-284.615
185.34	-283.333
185.72	2100.000
186.09	-775.000
186.47	-3600.000
186.85	1233.333
187.23	820.000
187.61	1450.000
187.98	487.500
188.36	278.571
188.74	366.667
189.12	408.333
189.49	875.000
189.87	0.000
190.25	475.000
190.63	3100.000
191.00	-258.333
191.38	-4600.000
191.76	-500.000
192.14	562.500
192.51	-3100.000
192.89	2150.000
193.27	1233.333
193.65	-1066.667
194.02	-780.000
194.40	657.143
194.78	-250.000
195.15	240.000
195.53	-3300.000
195.91	-600.000
196.29	3800.000
196.66	243.750
197.04	650.000
197.42	-1650.000
197.79	675.000
198.17	300.000
198.55	0.000
198.92	700.000
199.30	1433.333
199.68	2400.000
200.05	750.000
200.43	-483.333
200.81	200.000
201.18	3500.000
201.56	316.667
201.94	-875.000
202.31	-400.000
202.69	-400.000
203.07	3300.000
203.44	-533.333
203.82	416.667
204.19	640.000
204.57	-1600.000
204.95	-775.000
205.32	-800.000
205.70	566.667
206.08	800.000
206.45	-933.333
206.83	355.556
207.20	205.263
207.58	283.333
207.96	840.000
208.33	0.000
208.71	514.286
209.08	940.000
209.46	-3900.000
209.84	-1025.000
210.21	740.000
210.59	-660.000
210.96	341.667
211.34	-975.000
211.71	418.182
212.09	925.000
212.46	1900.000
212.84	-500.000
213.22	488.889
213.59	-3800.000
213.97	350.000
214.34	1000.000
214.72	1433.333
215.09	1000.000
215.47	-2900.000
215.84	-360.000
216.22	-450.000
216.59	0.000
216.97	0.000
217.34	1400.000
217.72	-1550.000
218.09	1400.000
218.47	512.500
218.84	750.000
219.22	1333.333
219.59	1333.333
219.97	500.000
220.34	400.000
220.72	1800.000
221.09	3000.000
221.47	325.000
221.84	1100.000
222.22	360.000
222.59	255.556
222.97	271.429
223.34	250.000
223.72	-2200.000
224.09	1200.000
224.46	323.077
224.84	-800.000
225.21	511.111
225.59	286.667
225.96	966.667
226.34	-700.000
226.71	-825.000
227.08	-620.000
227.46	0.000
227.83	-683.333
228.21	-2100.000
228.58	366.667
228.95	800.000
229.33	344.444
229.70	1050.000
230.08	392.308
230.45	3600.000
230.82	-975.000
231.20	-866.667
231.57	-1000.000
231.95	760.000
232.32	300.000
232.69	666.667
233.07	308.333
233.44	-1600.000
233.81	306.667
234.19	192.593
234.56	243.750
234.93	247.059
235.31	200.000
235.68	306.250
236.05	182.143
236.43	159.259
236.80	321.429
237.17	165.517
237.55	150.000
237.92	132.500
238.29	136.364
238.67	131.250
239.04	117.073
239.41	85.417
239.79	105.000
240.16	110.417
240.53	67.213
240.91	81.159
241.28	81.356
241.65	66.667
242.02	77.465
242.40	60.000
242.77	63.736
243.14	70.886
243.51	72.727
243.89	47.664
244.26	57.944
244.63	57.426
245.00	53.211
245.38	44.915
245.75	59.091
246.12	50.370
246.49	47.518
246.87	46.721
247.24	49.333
247.61	46.875
247.98	46.939
248.36	42.424
248.73	46.429
249.10	41.667
249.47	39.500
249.84	39.303
250.22	40.000
250.59	41.500
250.96	39.241
251.33	38.140
251.70	36.607
252.08	36.134
252.45	33.865
252.82	33.080
253.19	36.364
253.56	34.231
253.94	36.957
254.31	37.209
254.68	36.585
255.05	37.931
255.42	35.036
255.79	32.899
256.16	33.898
256.54	35.065
256.91	33.007
257.28	36.789
257.65	31.975
258.02	31.563
258.39	32.951
258.76	35.652
259.14	28.000
259.51	35.277
259.88	34.650
260.25	30.769
260.62	32.603
260.99	29.201
261.36	32.312
261.73	32.713
262.10	34.555
262.47	28.500
262.85	31.733
263.22	32.905
263.59	31.714
263.96	34.085
264.33	32.346
264.70	34.152
265.07	29.756
265.44	34.174
265.81	29.009
266.18	32.723
266.55	31.206
266.92	29.306
267.29	32.018
267.66	30.045
268.03	32.960
268.40	31.501
268.77	33.260
269.14	29.718
269.51	29.399
269.88	29.592
270.25	25.702
270.62	30.687
270.99	29.412
271.36	30.691
271.73	29.560
272.10	30.505
272.47	27.976
272.84	26.547
273.21	31.612
273.58	31.174
273.95	27.926
274.32	29.572
274.69	30.709
275.06	30.055
275.43	27.586
275.80	27.925
276.17	26.471
276.54	28.785
276.91	30.410
277.28	29.380
277.65	28.782
278.02	28.125
278.39	27.698
278.76	27.759
279.13	28.648
279.50	29.091
279.87	28.492
280.23	26.519
280.60	26.460
280.97	27.586
281.34	26.898
281.71	26.957
282.08	28.547
282.45	26.689
282.82	28.428
283.19	27.186
283.56	27.273
283.92	26.384
284.29	27.454
284.66	26.891
285.03	29.519
285.40	26.281
285.77	25.463
286.14	26.935
286.51	25.767
286.87	24.209
287.24	23.874
287.61	26.596
287.98	25.224
288.35	25.778
288.72	23.976
289.08	24.024
289.45	24.238
289.82	25.156
290.19	25.476
290.56	24.454
290.93	23.885
291.29	24.586
291.66	22.740
292.03	24.404
292.40	25.068
292.77	22.702
293.13	24.108
293.50	22.402
293.87	22.900
294.24	24.755
294.60	23.822
294.97	23.357
295.34	24.303
295.71	23.127
296.08	22.667
296.44	24.015
296.81	22.829
297.18	22.307
297.55	22.537
297.91	21.182
298.28	22.222
298.65	21.840
299.02	23.402
299.38	21.103
299.75	21.829
300.12	23.280
300.48	23.302
300.85	24.076
301.22	21.744
301.59	22.288
301.95	21.937
302.32	21.420
302.69	22.285
303.05	23.345
303.42	21.300
303.79	20.802
304.15	22.552
304.52	23.150
304.89	23.241
305.25	21.357
305.62	22.708
305.99	21.087
306.35	20.316
306.72	22.893
307.09	22.050
307.45	20.591
307.82	21.708
308.19	21.959
308.55	22.100
308.92	23.945
309.29	23.373
309.65	22.398
310.02	21.907
310.38	23.430
310.75	22.372
311.12	22.222
311.48	23.263
311.85	23.760
312.22	24.833
312.58	23.518
312.95	23.010
313.31	24.813
313.68	23.734
314.05	25.183
314.41	24.488
314.78	24.716
315.14	25.024
315.51	24.314
315.87	24.909
316.24	25.023
316.61	23.456
316.97	24.954
317.34	25.876
317.70	25.988
318.07	26.423
318.43	27.944
318.80	27.145
319.16	27.098
319.53	26.991
319.89	27.509
320.26	28.119
320.62	28.938
320.99	28.503
321.35	28.757
321.72	31.499
322.08	29.178
322.45	29.246
322.81	30.284
323.18	30.906
323.54	30.226
323.91	32.366
324.27	32.449
324.64	30.969
325.00	32.845
325.37	32.462
325.73	33.052
326.10	34.466
326.46	34.434
326.83	35.200
327.19	35.422
327.56	34.904
327.92	37.541
328.29	37.725
328.65	38.099
329.01	36.955
329.38	38.409
329.74	37.575
330.11	37.619
330.47	38.704
330.84	37.619
331.20	38.579
331.56	38.601
331.93	39.350
332.29	37.415
332.66	39.711
333.02	38.660
333.38	38.831
333.75	39.283
334.11	39.346
334.48	40.769
334.84	40.541
335.20	38.067
335.57	38.791
335.93	38.772
336.29	39.055
336.66	41.166
337.02	40.547
337.38	40.069
337.75	41.385
338.11	40.928
338.47	39.712
338.84	40.644
339.20	39.913
339.56	39.865
339.93	40.635
340.29	40.756
340.65	39.648
341.02	41.191
341.38	40.722
341.74	41.030
342.11	41.569
342.47	39.048
342.83	40.443
343.20	40.340
343.56	37.887
343.92	40.462
344.28	40.032
344.65	40.994
345.01	39.206
345.37	40.705
345.73	39.841
346.10	38.964
346.46	39.713
346.82	38.503
347.19	39.335
347.55	39.266
347.91	38.520
348.27	38.342
348.63	38.212
349.00	39.528
349.36	39.144
349.72	40.061
350.08	40.994
350.45	39.528
350.81	39.297
351.17	38.675
351.53	38.799
351.89	38.539
352.26	39.078
352.62	39.970
352.98	39.724
353.34	40.216
353.70	39.067
354.07	40.077
354.43	40.323
354.79	37.509
355.15	39.816
355.51	39.502
355.87	38.931
356.24	40.262
356.60	38.889
356.96	39.575
357.32	38.056
357.68	38.546
358.04	39.970
358.40	39.130
358.77	39.820
359.13	39.339
359.49	38.251
359.85	38.943
360.21	38.707
360.57	39.124
360.93	39.250
361.29	39.250
361.66	39.150
362.02	37.997
362.38	38.240
362.74	38.924
363.10	39.201
363.46	38.260
363.82	39.130
364.18	38.905
364.54	40.200
364.90	38.822
365.26	39.417
365.62	39.088
365.98	37.302
366.35	38.000
366.71	38.793
367.07	39.386
367.43	38.751
367.79	38.830
368.15	38.602
368.51	38.387
368.87	38.043
369.23	38.877
369.59	39.649
369.95	39.790
370.31	37.509
370.67	39.209
371.03	38.655
371.39	38.573
371.75	39.009
372.11	38.613
372.47	39.041
372.83	38.341
373.19	38.314
373.55	39.588
373.91	37.638
374.27	39.021
374.63	38.983
374.99	38.275
375.35	38.642
375.71	39.050
376.07	38.196
376.42	37.724
376.78	39.884
377.14	38.663
377.50	38.327
377.86	38.437
378.22	39.366
378.58	39.528
378.94	38.202
379.30	38.448
379.66	38.712
380.02	39.472
380.38	37.881
380.74	39.331
381.09	39.077
381.45	37.630
381.81	39.716
382.17	38.156
382.53	37.912
382.89	39.385
383.25	37.182
383.61	37.522
383.97	37.493
384.32	37.975
384.68	39.275
385.04	38.804
385.40	38.731
385.76	38.034
386.12	37.972
386.48	37.629
386.83	38.570
387.19	38.516
387.55	37.868
387.91	38.684
388.27	37.894
388.62	38.674
388.98	38.076
389.34	38.132
389.70	37.972
390.06	37.561
390.42	37.323
390.77	38.391
391.13	38.262
391.49	37.992
391.85	37.600
392.20	37.426
392.56	37.993
392.92	37.507
393.28	38.285
393.64	36.927
393.99	37.226
394.35	36.904
394.71	36.671
395.07	37.287
395.42	36.417
395.78	38.865
396.14	38.072
396.50	36.582
396.85	37.805
397.21	38.147
397.57	37.179
397.92	36.222
398.28	37.010
398.64	38.511
399.00	36.505
399.35	36.715
399.71	37.638
400.07	36.644
400.42	36.597
400.78	36.950
401.14	37.581
401.49	36.694
401.85	38.065
402.21	37.200
402.57	36.565
402.92	36.303
403.28	36.695
403.63	38.258
403.99	36.610
404.35	37.339
404.70	37.153
405.06	36.833
405.42	36.685
405.77	37.321
406.13	36.226
406.49	36.271
406.84	36.548
407.20	37.900
407.55	37.108
407.91	37.524
408.27	37.780
408.62	36.132
408.98	36.783
409.34	36.937
409.69	37.648
410.05	36.911
410.40	35.571
410.76	36.463
411.11	36.374
411.47	36.049
411.83	35.149
412.18	36.413
412.54	36.096
412.89	35.339
413.25	37.628
413.60	36.741
413.96	36.625
414.31	36.777
414.67	36.623
415.03	37.037
415.38	37.035
415.74	36.387
416.09	37.477
416.45	37.621
416.80	38.037
417.16	36.537
417.51	35.796
417.87	36.358
418.22	36.574
418.58	37.452
418.93	36.407
419.29	35.613
419.64	36.826
420.00	36.993
420.35	36.005
420.71	36.289
421.06	36.610
421.42	36.269
421.77	36.924
422.12	35.391
422.48	35.901
422.83	36.551
423.19	36.447
423.54	35.491
423.90	36.806
424.25	37.094
424.61	36.506
424.96	35.347
425.31	37.055
425.67	37.486
426.02	36.231
426.38	35.589
426.73	36.264
427.09	36.655
427.44	37.198
427.79	36.878
428.15	36.830
428.50	37.314
428.85	36.449
429.21	36.845
429.56	35.992
429.92	36.052
430.27	35.897
430.62	35.536
430.98	36.377
431.33	36.139
431.68	35.951
432.04	36.368
432.39	36.059
432.74	37.295
433.10	36.545
433.45	36.933
433.80	37.507
434.16	36.626
434.51	36.791
434.86	37.071
435.22	35.656
435.57	37.641
435.92	36.540
436.28	36.694
436.63	36.953
436.98	38.345
437.34	37.272
437.69	35.722
438.04	37.581
438.39	36.661
438.75	36.693
439.10	37.237
439.45	36.235
439.81	38.519
440.16	36.324
440.51	36.430
440.86	37.949
441.22	36.526
441.57	37.218
441.92	37.562
442.27	36.598
442.63	36.636
442.98	36.099
443.33	36.743
443.68	36.670
444.03	36.616
444.39	36.441
444.74	36.387
445.09	37.283
445.44	37.726
445.79	37.183
446.15	37.105
446.50	37.131
446.85	36.753
447.20	36.716
447.55	36.813
447.91	37.027
448.26	36.848
448.61	38.032
448.96	37.745
449.31	37.129
449.66	37.320
450.02	37.115
450.37	36.979
450.72	38.017
451.07	38.627
451.42	37.463
451.77	36.942
452.12	37.833
452.47	37.363
452.83	37.577
453.18	37.718
453.53	38.780
453.88	37.600
454.23	38.931
454.58	37.354
454.93	37.646
455.28	38.250
455.63	36.820
455.98	36.999
456.34	38.541
456.69	39.207
457.04	37.530
457.39	37.886
457.74	37.725
458.09	37.058
458.44	37.788
458.79	37.347
459.14	37.752
459.49	37.316
459.84	37.337
460.19	36.554
460.54	37.322
460.89	36.780
461.24	38.030
461.59	38.776
461.94	37.825
462.29	37.357
462.64	38.191
462.99	38.004
463.34	39.080
463.69	37.871
464.04	38.515
464.39	38.237
464.74	37.749
465.09	36.912
465.44	38.357
465.79	37.507
466.14	36.831
466.49	37.873
466.84	38.071
467.19	37.434
467.54	37.477
467.89	39.026
468.24	38.217
468.59	38.095
468.94	37.500
469.29	37.630
469.64	39.100
469.99	38.946
470.34	39.089
470.68	39.034
471.03	39.960
471.38	39.470
471.73	38.994
472.08	39.596
472.43	39.044
472.78	40.397
473.13	37.735
473.48	37.897
473.83	37.515
474.17	38.480
474.52	38.922
474.87	38.147
475.22	38.207
475.57	37.251
475.92	37.609
476.27	37.758
476.61	37.105
476.96	38.401
477.31	38.663
477.66	39.238
478.01	38.680
478.36	38.311
478.70	37.370
479.05	38.128
479.40	38.194
479.75	38.630
480.10	37.803
480.45	38.189
480.79	37.834
481.14	38.802
481.49	37.603
481.84	37.335
482.19	37.293
482.53	37.769
482.88	37.590
483.23	38.566
483.58	38.151
483.92	39.031
484.27	37.072
484.62	38.370
484.97	37.320
485.31	35.682
485.66	34.897
486.01	33.966
486.36	33.059
486.70	32.895
487.05	33.604
487.40	34.069
487.75	35.581
488.09	35.767
488.44	35.851
488.79	36.758
489.13	37.215
489.48	37.675
489.83	38.157
490.17	37.118
490.52	37.683
490.87	37.586
491.22	38.697
491.56	38.428
491.91	37.814
492.26	38.040
492.60	38.542
492.95	38.242
493.30	37.989
493.64	38.140
493.99	37.835
494.34	37.831
494.68	37.494
495.03	39.380
495.37	38.991
495.72	38.368
496.07	38.320
496.41	38.054
496.76	38.033
497.11	38.389
497.45	38.141
497.80	39.018
498.14	38.003
498.49	38.254
498.84	38.925
499.18	37.523
499.53	39.136
499.87	38.724
500.22	38.508
500.56	38.394
500.91	38.961
501.26	39.228
501.60	38.980
501.95	37.590
502.29	37.867
502.64	36.877
502.98	37.483
503.33	37.996
503.67	37.837
504.02	38.155
504.36	38.326
504.71	38.647
505.06	38.104
505.40	37.763
505.75	38.354
506.09	38.357
506.44	39.286
506.78	38.374
507.13	39.215
507.47	38.428
507.82	39.903
508.16	39.294
508.51	39.082
508.85	39.316
509.19	39.256
509.54	38.867
509.88	39.234
510.23	37.892
510.57	38.562
510.92	39.311
511.26	39.508
511.61	38.109
511.95	39.024
512.30	39.500
512.64	39.252
512.98	39.416
513.33	40.676
513.67	38.685
514.02	39.169
514.36	39.200
514.70	40.320
515.05	39.744
515.39	41.447
515.74	40.459
516.08	40.741
516.42	40.164
516.77	39.733
517.11	39.147
517.46	39.494
517.80	38.777
518.14	40.282
518.49	40.739
518.83	40.220
519.17	40.266
519.52	40.470
519.86	40.436
520.20	41.096
520.55	39.740
520.89	41.092
521.23	41.355
521.58	40.218
521.92	40.466
522.26	39.692
522.61	40.998
522.95	41.622
523.29	40.526
523.64	39.769
523.98	40.669
524.32	41.580
524.66	41.275
525.01	40.000
525.35	41.190
525.69	40.277
526.04	41.106
526.38	41.495
526.72	40.871
527.06	40.095
527.41	41.838
527.75	41.023
528.09	39.193
528.43	40.940
528.78	41.324
529.12	40.819
529.46	39.977
529.80	40.362
530.15	40.837
530.49	39.531
530.83	41.073
531.17	40.529
531.51	40.650
531.86	39.553
532.20	40.173
532.54	40.176
532.88	40.600
533.22	39.610
533.57	39.719
533.91	39.685
534.25	38.604
534.59	40.643
534.93	39.135
535.27	38.190
535.62	39.032
535.96	39.598
536.30	41.012
536.64	40.373
536.98	39.018
537.32	40.625
537.66	40.306
538.01	39.814
538.35	39.925
538.69	38.714
539.03	39.117
539.37	38.956
539.71	39.753
540.05	39.508
540.39	39.874
540.73	40.253
541.07	39.210
541.42	39.801
541.76	40.074
542.10	39.519
542.44	39.214
542.78	40.277
543.12	39.018
543.46	38.596
543.80	38.910
544.14	41.486
544.48	39.051
544.82	39.878
545.16	38.980
545.50	39.705
545.84	40.530
546.18	41.287
546.52	40.262
546.86	40.361
547.20	38.760
547.54	38.759
547.88	38.321
548.22	39.405
548.56	37.714
548.90	39.087
549.24	39.482
549.58	39.497
549.92	38.441
550.26	40.771
550.60	40.253
550.94	40.570
551.28	41.034
551.62	41.448
551.96	39.865
552.30	38.233
552.64	40.259
552.98	38.466
553.32	38.604
553.66	39.023
554.00	39.897
554.34	40.613
554.68	39.919
555.02	39.986
555.36	39.362
555.69	39.005
556.03	38.981
556.37	39.069
556.71	39.831
557.05	38.991
557.39	39.267
557.73	40.633
558.07	39.370
558.41	40.439
558.75	40.766
559.08	40.815
559.42	40.730
559.76	40.699
560.10	39.367
560.44	39.549
560.78	39.514
561.12	38.271
561.45	37.860
561.79	38.015
562.13	38.787
562.47	39.650
562.81	39.558
563.15	38.914
563.48	36.708
563.82	38.553
564.16	39.241
564.50	37.794
564.84	37.751
565.17	37.968
565.51	38.424
565.85	39.420
566.19	37.500
566.52	37.605
566.86	37.945
567.20	37.921
567.54	36.681
567.88	37.194
568.21	36.495
568.55	36.041
568.89	35.493
569.23	34.814
569.56	35.064
569.90	33.202
570.24	33.663
570.57	33.063
570.91	32.480
571.25	31.524
571.59	31.641
571.92	31.674
572.26	31.779
572.60	31.880
572.93	32.202
573.27	32.424
573.61	31.402
573.95	31.375
574.28	31.604
574.62	30.927
574.96	30.764
575.29	30.677
575.63	30.554
575.97	30.696
576.30	31.258
576.64	30.795
576.98	30.741
577.31	30.638
577.65	30.654
577.98	29.883
578.32	29.810
578.66	30.016
578.99	29.683
579.33	30.559
579.67	30.279
580.00	30.727
580.34	30.599
580.67	30.470
581.01	30.832
581.35	29.895
581.68	29.349
582.02	29.026
582.35	29.379
582.69	29.462
583.02	29.700
583.36	29.867
583.70	30.344
584.03	31.892
584.37	31.625
584.70	30.928
585.04	30.478
585.37	30.162
585.71	30.921
586.04	29.369
586.38	30.405
586.72	30.528
587.05	30.751
587.39	30.847
587.72	30.715
588.06	30.196
588.39	30.502
588.73	31.299
589.06	30.960
589.40	31.581
589.73	31.826
590.07	31.984
590.40	32.439
590.73	33.382
591.07	33.169
591.40	33.174
591.74	33.523
592.07	32.820
592.41	32.934
592.74	31.234
593.08	31.283
593.41	30.760
593.75	30.776
594.08	30.705
594.41	31.150
594.75	31.233
595.08	31.619
595.42	31.797
595.75	31.162
596.09	32.777
596.42	32.010
596.75	33.373
597.09	32.769
597.42	32.531
597.75	32.982
598.09	32.007
598.42	31.946
598.76	32.113
599.09	32.144
599.42	30.830
599.76	30.970
600.09	31.186
600.42	31.423
600.76	31.067
601.09	31.688
601.42	31.292
601.76	31.758
602.09	32.230
602.42	31.312
602.76	32.486
603.09	32.202
603.42	32.220
603.76	31.996
604.09	31.270
604.42	31.902
604.76	32.043
605.09	32.163
605.42	32.588
605.75	32.373
606.09	32.249
606.42	32.018
606.75	31.986
607.09	31.188
607.42	32.463
607.75	31.529
608.08	31.885
608.42	32.215
608.75	31.665
609.08	32.160
609.41	33.091
609.75	32.647
610.08	32.554
610.41	32.367
610.74	33.117
611.07	33.697
611.41	32.530
611.74	33.174
612.07	33.285
612.40	33.090
612.73	34.398
613.07	33.604
613.40	33.835
613.73	33.350
614.06	33.650
614.39	33.687
614.72	32.747
615.06	33.037
615.39	32.772
615.72	33.011
616.05	33.049
616.38	33.486
616.71	33.315
617.05	33.663
617.38	33.652
617.71	34.083
618.04	33.763
618.37	33.963
618.70	34.238
619.03	34.310
619.36	35.239
619.69	35.290
620.03	35.225
620.36	36.416
620.69	35.951
621.02	36.549
621.35	36.676
621.68	36.062
622.01	37.122
622.34	35.907
622.67	36.096
623.00	35.943
623.33	36.707
623.66	35.063
623.99	36.438
624.32	35.095
624.65	34.957
624.99	36.308
625.32	35.337
625.65	34.897
625.98	35.635
626.31	37.463
626.64	36.750
626.97	37.261
627.30	36.568
627.63	38.305
627.96	36.228
628.29	36.881
628.62	36.955
628.95	39.184
629.28	39.965
629.61	37.873
629.94	38.548
630.26	38.128
630.59	40.248
630.92	38.117
631.25	39.347
