SpectraSuite Data File
++++++++++++++++++++++++++++++++++++
Date: Tue May 12 16:47:36 PDT 2015
User: schluterlab
Dark Spectrum Present: Yes
Reference Spectrum Present: Yes
Number of Sampled Component Spectra: 1
Spectrometers: USB2E3373
Integration Time (usec): 3000 (USB2E3373)
Spectra Averaged: 3 (USB2E3373)
Boxcar Smoothing: 0 (USB2E3373)
Correct for Electrical Dark: No (USB2E3373)
Strobe/Lamp Enabled: No (USB2E3373)
Correct for Detector Non-linearity: No (USB2E3373)
Correct for Stray Light: No (USB2E3373)
Number of Pixels in Processed Spectrum: 2048
>>>>>Begin Processed Spectral Data<<<<<
178.53	0.000
178.91	-225.000
179.29	-800.000
179.67	-4100.000
180.04	-180.000
180.42	750.000
180.80	1700.000
181.18	0.000
181.56	-337.500
181.94	0.000
182.31	1166.667
182.69	-3600.000
183.07	685.714
183.45	-3100.000
183.83	-1550.000
184.20	350.000
184.58	457.143
184.96	-246.154
185.34	-275.000
185.72	1700.000
186.09	-775.000
186.47	-2800.000
186.85	1300.000
187.23	580.000
187.61	1900.000
187.98	550.000
188.36	271.429
188.74	316.667
189.12	325.000
189.49	825.000
189.87	0.000
190.25	550.000
190.63	3400.000
191.00	-241.667
191.38	-4000.000
191.76	-775.000
192.14	462.500
192.51	-2800.000
192.89	1950.000
193.27	1066.667
193.65	-1166.667
194.02	-920.000
194.40	542.857
194.78	-185.714
195.15	240.000
195.53	-4400.000
195.91	-600.000
196.29	4000.000
196.66	262.500
197.04	850.000
197.42	-1600.000
197.79	750.000
198.17	325.000
198.55	0.000
198.92	414.286
199.30	1700.000
199.68	1750.000
200.05	516.667
200.43	-566.667
200.81	238.889
201.18	3500.000
201.56	258.333
201.94	-700.000
202.31	-262.500
202.69	-600.000
203.07	3000.000
203.44	-550.000
203.82	333.333
204.19	720.000
204.57	-1400.000
204.95	-950.000
205.32	-500.000
205.70	633.333
206.08	725.000
206.45	-1166.667
206.83	466.667
207.20	236.842
207.58	275.000
207.96	800.000
208.33	0.000
208.71	428.571
209.08	740.000
209.46	-2900.000
209.84	-625.000
210.21	840.000
210.59	-740.000
210.96	366.667
211.34	-1000.000
211.71	345.455
212.09	700.000
212.46	2150.000
212.84	-466.667
213.22	455.556
213.59	-2300.000
213.97	310.000
214.34	975.000
214.72	1233.333
215.09	766.667
215.47	-2100.000
215.84	-350.000
216.22	-325.000
216.59	0.000
216.97	0.000
217.34	1650.000
217.72	-1600.000
218.09	1000.000
218.47	550.000
218.84	975.000
219.22	1133.333
219.59	866.667
219.97	514.286
220.34	300.000
220.72	1550.000
221.09	2900.000
221.47	275.000
221.84	933.333
222.22	380.000
222.59	194.444
222.97	178.571
223.34	193.750
223.72	-1450.000
224.09	833.333
224.46	315.385
224.84	-825.000
225.21	411.111
225.59	260.000
225.96	1300.000
226.34	-540.000
226.71	-650.000
227.08	-620.000
227.46	0.000
227.83	-516.667
228.21	-1250.000
228.58	300.000
228.95	1050.000
229.33	366.667
229.70	975.000
230.08	376.923
230.45	3100.000
230.82	-850.000
231.20	-833.333
231.57	-933.333
231.95	720.000
232.32	283.333
232.69	450.000
233.07	241.667
233.44	-1350.000
233.81	206.667
234.19	151.852
234.56	181.250
234.93	176.471
235.31	155.000
235.68	225.000
236.05	164.286
236.43	133.333
236.80	164.286
237.17	151.724
237.55	125.000
237.92	105.000
238.29	121.212
238.67	93.750
239.04	102.439
239.41	79.167
239.79	50.000
240.16	68.750
240.53	57.377
240.91	50.725
241.28	57.627
241.65	51.515
242.02	66.197
242.40	42.857
242.77	38.462
243.14	44.304
243.51	48.485
243.89	35.514
244.26	29.907
244.63	34.653
245.00	33.028
245.38	20.339
245.75	36.364
246.12	40.741
246.49	29.078
246.87	13.115
247.24	22.667
247.61	21.250
247.98	23.129
248.36	19.394
248.73	26.531
249.10	22.024
249.47	24.000
249.84	18.408
250.22	20.541
250.59	18.500
250.96	17.300
251.33	14.884
251.70	24.107
252.08	20.168
252.45	17.928
252.82	16.730
253.19	11.067
253.56	13.462
253.94	19.203
254.31	15.891
254.68	16.028
255.05	18.621
255.42	15.328
255.79	15.961
256.16	15.254
256.54	15.584
256.91	15.686
257.28	13.378
257.65	9.091
258.02	13.569
258.39	13.181
258.76	14.783
259.14	12.571
259.51	17.493
259.88	10.942
260.25	9.066
260.62	12.603
260.99	9.091
261.36	13.649
261.73	10.638
262.10	11.780
262.47	12.750
262.85	10.133
263.22	15.424
263.59	11.509
263.96	12.281
264.33	9.630
264.70	13.759
265.07	10.244
265.44	12.615
265.81	11.792
266.18	10.069
266.55	10.165
266.92	9.396
267.29	9.868
267.66	10.314
268.03	8.969
268.40	10.148
268.77	12.335
269.14	7.375
269.51	11.581
269.88	11.837
270.25	7.775
270.62	9.657
270.99	14.402
271.36	10.772
271.73	10.692
272.10	7.273
272.47	8.333
272.84	9.182
273.21	8.058
273.58	11.538
273.95	7.187
274.32	10.895
274.69	11.220
275.06	8.925
275.43	9.579
275.80	11.509
276.17	9.926
276.54	9.346
276.91	8.955
277.28	8.942
277.65	10.886
278.02	10.662
278.39	8.813
278.76	10.517
279.13	8.363
279.50	10.182
279.87	8.752
280.23	8.103
280.60	9.854
280.97	11.034
281.34	8.416
281.71	10.087
282.08	9.915
282.45	9.628
282.82	8.361
283.19	8.108
283.56	8.430
283.92	8.632
284.29	9.318
284.66	7.899
285.03	9.287
285.40	7.769
285.77	7.870
286.14	8.359
286.51	9.049
286.87	7.120
287.24	6.456
287.61	8.967
287.98	8.507
288.35	8.148
288.72	7.284
289.08	7.508
289.45	8.384
289.82	7.969
290.19	6.442
290.56	9.461
290.93	9.353
291.29	8.425
291.66	7.203
292.03	7.574
292.40	7.995
292.77	7.799
293.13	7.418
293.50	7.018
293.87	6.911
294.24	6.573
294.60	9.152
294.97	7.133
295.34	7.437
295.71	7.884
296.08	7.733
296.44	8.259
296.81	7.320
297.18	5.450
297.55	6.404
297.91	5.911
298.28	7.609
298.65	7.485
299.02	6.393
299.38	7.074
299.75	7.073
300.12	6.995
300.48	7.377
300.85	7.151
301.22	6.628
301.59	5.896
301.95	6.068
302.32	7.451
302.69	6.109
303.05	6.734
303.42	5.942
303.79	5.742
304.15	6.381
304.52	6.765
304.89	6.930
305.25	5.562
305.62	7.143
305.99	7.174
306.35	5.684
306.72	6.452
307.09	6.315
307.45	5.385
307.82	6.790
308.19	7.010
308.55	5.900
308.92	6.771
309.29	7.594
309.65	6.442
310.02	5.781
310.38	4.985
310.75	5.014
311.12	5.172
311.48	7.432
311.85	6.966
312.22	7.068
312.58	6.317
312.95	5.825
313.31	6.461
313.68	5.910
314.05	7.326
314.41	6.518
314.78	6.345
315.14	6.351
315.51	6.244
315.87	5.839
316.24	7.003
316.61	6.446
316.97	5.780
317.34	6.469
317.70	6.760
318.07	7.028
318.43	6.151
318.80	6.918
319.16	7.343
319.53	5.752
319.89	5.018
320.26	6.983
320.62	5.861
320.99	6.101
321.35	6.308
321.72	7.306
322.08	6.371
322.45	7.266
322.81	6.313
323.18	6.838
323.54	8.101
323.91	7.253
324.27	6.808
324.64	5.623
325.00	6.638
325.37	7.083
325.73	6.577
326.10	7.374
326.46	7.019
326.83	5.440
327.19	7.229
327.56	6.390
327.92	6.475
328.29	7.201
328.65	8.048
329.01	6.929
329.38	7.191
329.74	6.149
330.11	7.124
330.47	7.246
330.84	6.299
331.20	7.022
331.56	8.290
331.93	7.528
332.29	7.143
332.66	6.293
333.02	6.529
333.38	7.068
333.75	7.506
334.11	6.544
334.48	5.983
334.84	6.926
335.20	7.186
335.57	6.381
335.93	7.401
336.29	7.214
336.66	6.346
337.02	5.988
337.38	7.137
337.75	7.432
338.11	7.257
338.47	6.689
338.84	6.774
339.20	6.320
339.56	7.906
339.93	7.023
340.29	5.546
340.65	6.873
341.02	7.482
341.38	5.911
341.74	7.475
342.11	6.010
342.47	6.563
342.83	6.891
343.20	6.952
343.56	6.037
343.92	7.102
344.28	6.459
344.65	7.172
345.01	6.032
345.37	5.849
345.73	6.825
346.10	6.454
346.46	6.778
346.82	5.170
347.19	6.337
347.55	4.996
347.91	5.816
348.27	5.422
348.63	6.566
349.00	6.321
349.36	6.381
349.72	7.034
350.08	5.901
350.45	6.321
350.81	7.187
351.17	6.317
351.53	6.236
351.89	6.682
352.26	5.291
352.62	6.637
352.98	6.442
353.34	6.626
353.70	5.352
354.07	6.769
354.43	6.452
354.79	5.543
355.15	6.049
355.51	5.891
355.87	7.831
356.24	6.082
356.60	6.849
356.96	6.141
357.32	6.707
357.68	7.195
358.04	6.383
358.40	6.147
358.77	6.311
359.13	5.856
359.49	5.708
359.85	5.659
360.21	5.349
360.57	6.277
360.93	5.988
361.29	5.916
361.66	6.189
362.02	5.469
362.38	6.854
362.74	5.520
363.10	6.452
363.46	5.594
363.82	6.101
364.18	5.832
364.54	6.080
364.90	6.760
365.26	5.968
365.62	5.041
365.98	5.919
366.35	5.793
366.71	6.454
367.07	5.392
367.43	6.917
367.79	5.918
368.15	5.631
368.51	5.582
368.87	4.755
369.23	4.920
369.59	6.339
369.95	6.084
370.31	5.407
370.67	5.829
371.03	6.583
371.39	6.579
371.75	5.652
372.11	6.390
372.47	6.781
372.83	5.846
373.19	6.580
373.55	5.567
373.91	4.972
374.27	5.886
374.63	5.627
374.99	5.593
375.35	4.839
375.71	5.805
376.07	5.968
376.42	5.243
376.78	6.358
377.14	5.767
377.50	5.493
377.86	5.637
378.22	5.363
378.58	5.993
378.94	6.095
379.30	5.155
379.66	5.298
380.02	5.572
380.38	4.918
380.74	5.306
381.09	5.783
381.45	5.202
381.81	5.024
382.17	4.884
382.53	5.099
382.89	5.027
383.25	4.973
383.61	5.937
383.97	4.079
384.32	5.003
384.68	6.061
385.04	5.510
385.40	5.516
385.76	5.559
386.12	5.813
386.48	5.957
386.83	5.562
387.19	5.713
387.55	5.595
387.91	5.774
388.27	5.473
388.62	5.516
388.98	5.015
389.34	5.473
389.70	5.071
390.06	5.305
390.42	5.676
390.77	5.037
391.13	5.371
391.49	5.505
391.85	5.846
392.20	6.317
392.56	5.795
392.92	4.885
393.28	5.269
393.64	5.218
393.99	4.742
394.35	4.297
394.71	4.946
395.07	4.988
395.42	5.445
395.78	4.935
396.14	5.964
396.50	5.235
396.85	5.183
397.21	5.174
397.57	5.559
397.92	4.564
398.28	4.523
398.64	5.177
399.00	5.024
399.35	5.260
399.71	5.353
400.07	4.966
400.42	4.657
400.78	5.103
401.14	4.463
401.49	4.896
401.85	5.156
402.21	4.628
402.57	5.027
402.92	4.788
403.28	4.236
403.63	4.650
403.99	5.127
404.35	5.158
404.70	4.903
405.06	4.716
405.42	4.428
405.77	4.631
406.13	5.098
406.49	4.434
406.84	4.963
407.20	4.795
407.55	4.492
407.91	5.169
408.27	5.276
408.62	4.021
408.98	5.263
409.34	5.085
409.69	5.040
410.05	4.592
410.40	4.947
410.76	3.778
411.11	4.976
411.47	5.000
411.83	4.628
412.18	4.771
412.54	5.045
412.89	4.602
413.25	5.473
413.60	5.140
413.96	5.147
414.31	5.313
414.67	5.152
415.03	5.045
415.38	5.426
415.74	4.548
416.09	5.746
416.45	4.977
416.80	5.324
417.16	5.220
417.51	5.414
417.87	4.443
418.22	4.800
418.58	4.268
418.93	4.819
419.29	4.621
419.64	4.785
420.00	5.489
420.35	4.588
420.71	4.551
421.06	4.591
421.42	5.009
421.77	4.831
422.12	4.576
422.48	4.982
422.83	4.967
423.19	4.482
423.54	4.443
423.90	4.813
424.25	4.733
424.61	4.817
424.96	3.727
425.31	4.707
425.67	4.489
426.02	4.879
426.38	3.909
426.73	4.569
427.09	5.101
427.44	3.658
427.79	4.860
428.15	5.480
428.50	5.657
428.85	5.409
429.21	5.024
429.56	4.487
429.92	4.525
430.27	4.451
430.62	4.552
430.98	4.940
431.33	4.385
431.68	3.951
432.04	4.397
432.39	4.940
432.74	4.918
433.10	5.039
433.45	4.940
433.80	5.571
434.16	4.572
434.51	4.799
434.86	5.716
435.22	4.052
435.57	4.801
435.92	5.065
436.28	5.530
436.63	4.970
436.98	4.673
437.34	4.680
437.69	4.311
438.04	5.054
438.39	5.896
438.75	5.345
439.10	4.803
439.45	5.709
439.81	6.189
440.16	5.118
440.51	4.955
440.86	5.356
441.22	4.383
441.57	4.987
441.92	4.886
442.27	4.536
442.63	4.573
442.98	5.334
443.33	5.088
443.68	5.533
444.03	4.854
444.39	5.320
444.74	5.745
445.09	4.845
445.44	5.048
445.79	4.727
446.15	4.579
446.50	5.432
446.85	4.731
447.20	4.826
447.55	4.405
447.91	5.487
448.26	5.059
448.61	4.699
448.96	5.065
449.31	4.510
449.66	5.592
450.02	4.862
450.37	5.608
450.72	5.179
451.07	6.108
451.42	4.979
451.77	5.269
452.12	5.672
452.47	5.650
452.83	5.127
453.18	6.006
453.53	6.157
453.88	5.771
454.23	5.811
454.58	5.536
454.93	5.150
455.28	6.059
455.63	5.496
455.98	5.866
456.34	5.289
456.69	5.305
457.04	5.310
457.39	5.200
457.74	5.800
458.09	5.053
458.44	5.203
458.79	4.668
459.14	5.128
459.49	5.493
459.84	5.326
460.19	5.085
460.54	5.869
460.89	5.597
461.24	6.128
461.59	6.066
461.94	5.910
462.29	6.064
462.64	5.905
462.99	5.054
463.34	5.833
463.69	6.594
464.04	6.160
464.39	5.438
464.74	4.865
465.09	6.036
465.44	5.604
465.79	5.661
466.14	5.193
466.49	5.155
466.84	5.518
467.19	6.385
467.54	5.405
467.89	5.810
468.24	5.559
468.59	6.012
468.94	6.039
469.29	5.559
469.64	5.852
469.99	5.848
470.34	5.946
470.68	5.655
471.03	5.604
471.38	5.497
471.73	5.421
472.08	6.197
472.43	6.207
472.78	6.018
473.13	5.569
473.48	5.929
473.83	5.006
474.17	5.289
474.52	6.102
474.87	5.287
475.22	5.768
475.57	5.404
475.92	5.672
476.27	5.005
476.61	4.879
476.96	5.852
477.31	5.450
477.66	5.743
478.01	5.570
478.36	5.355
478.70	5.112
479.05	4.916
479.40	5.456
479.75	5.561
480.10	4.937
480.45	4.902
480.79	5.438
481.14	4.708
481.49	5.261
481.84	5.629
482.19	5.284
482.53	5.226
482.88	4.659
483.23	4.601
483.58	4.578
483.92	5.576
484.27	5.351
484.62	4.881
484.97	5.649
485.31	4.395
485.66	3.954
486.01	4.520
486.36	4.008
486.70	3.962
487.05	4.183
487.40	4.226
487.75	4.694
488.09	4.773
488.44	4.812
488.79	4.790
489.13	5.114
489.48	4.594
489.83	5.296
490.17	4.996
490.52	5.297
490.87	5.259
491.22	5.363
491.56	5.534
491.91	4.749
492.26	5.212
492.60	5.376
492.95	5.165
493.30	5.096
493.64	4.987
493.99	5.322
494.34	4.931
494.68	4.648
495.03	5.119
495.37	5.943
495.72	5.874
496.07	4.942
496.41	4.909
496.76	5.530
497.11	5.356
497.45	5.217
497.80	5.653
498.14	5.548
498.49	5.850
498.84	5.701
499.18	5.165
499.53	5.788
499.87	5.211
500.22	5.666
500.56	4.968
500.91	6.447
501.26	5.880
501.60	5.282
501.95	5.287
502.29	5.822
502.64	5.293
502.98	5.024
503.33	5.479
503.67	5.784
504.02	5.419
504.36	5.520
504.71	5.487
505.06	5.537
505.40	5.475
505.75	5.940
506.09	5.740
506.44	5.498
506.78	5.860
507.13	5.429
507.47	5.386
507.82	5.742
508.16	6.516
508.51	5.942
508.85	5.840
509.19	5.433
509.54	5.566
509.88	6.514
510.23	5.980
510.57	5.936
510.92	5.794
511.26	6.225
511.61	5.958
511.95	6.122
512.30	6.200
512.64	6.075
512.98	5.741
513.33	6.711
513.67	6.214
514.02	5.870
514.36	5.971
514.70	5.227
515.05	5.061
515.39	5.866
515.74	6.124
516.08	5.828
516.42	6.011
516.77	6.080
517.11	6.080
517.46	6.250
517.80	6.827
518.14	5.972
518.49	5.623
518.83	5.879
519.17	6.545
519.52	6.445
519.86	6.158
520.20	6.247
520.55	5.936
520.89	6.609
521.23	6.250
521.58	6.426
521.92	6.181
522.26	5.628
522.61	6.298
522.95	6.366
523.29	5.965
523.64	5.318
523.98	6.045
524.32	6.228
524.66	5.913
525.01	5.385
525.35	6.128
525.69	6.924
526.04	6.365
526.38	6.062
526.72	6.265
527.06	6.091
527.41	6.832
527.75	5.721
528.09	6.081
528.43	6.040
528.78	6.202
529.12	6.683
529.46	6.020
529.80	5.783
530.15	6.777
530.49	5.535
530.83	6.338
531.17	6.212
531.51	6.438
531.86	6.703
532.20	5.501
532.54	5.964
532.88	6.746
533.22	7.130
533.57	5.491
533.91	6.061
534.25	5.828
534.59	6.959
534.93	6.200
535.27	5.692
535.62	5.893
535.96	5.733
536.30	5.789
536.64	5.217
536.98	5.727
537.32	7.375
537.66	5.995
538.01	6.873
538.35	5.926
538.69	6.493
539.03	6.032
539.37	6.371
539.71	6.420
540.05	6.708
540.39	6.038
540.73	6.772
541.07	5.709
541.42	6.281
541.76	6.227
542.10	6.165
542.44	6.608
542.78	6.482
543.12	5.460
543.46	5.764
543.80	6.203
544.14	6.006
544.48	5.596
544.82	6.239
545.16	5.100
545.50	6.638
545.84	6.818
546.18	6.632
546.52	6.230
546.86	7.092
547.20	5.879
547.54	6.713
547.88	5.535
548.22	6.315
548.56	6.777
548.90	6.465
549.24	6.759
549.58	5.992
549.92	6.352
550.26	6.626
550.60	6.454
550.94	6.377
551.28	7.448
551.62	7.379
551.96	6.216
552.30	5.471
552.64	6.472
552.98	5.541
553.32	6.018
553.66	6.124
554.00	6.113
554.34	6.791
554.68	7.056
555.02	6.382
555.36	6.782
555.69	6.741
556.03	5.987
556.37	6.565
556.71	7.106
557.05	6.029
557.39	6.333
557.73	6.671
558.07	6.304
558.41	6.785
558.75	6.566
559.08	7.362
559.42	6.943
559.76	7.341
560.10	6.401
560.44	5.773
560.78	6.841
561.12	6.103
561.45	5.569
561.79	6.554
562.13	6.128
562.47	6.360
562.81	5.856
563.15	6.399
563.48	5.155
563.82	6.862
564.16	6.779
564.50	5.967
564.84	6.565
565.17	5.526
565.51	5.727
565.85	6.663
566.19	6.250
566.52	5.776
566.86	6.597
567.20	6.348
567.54	5.895
567.88	6.208
568.21	5.392
568.55	5.982
568.89	5.885
569.23	5.047
569.56	5.791
569.90	5.498
570.24	5.043
570.57	5.062
570.91	4.805
571.25	4.626
571.59	4.428
571.92	4.682
572.26	4.232
572.60	4.554
572.93	4.888
573.27	4.854
573.61	4.440
573.95	4.283
574.28	4.702
574.62	4.378
574.96	4.363
575.29	4.324
575.63	4.452
575.97	4.576
576.30	4.353
576.64	4.378
576.98	4.597
577.31	4.457
577.65	4.561
577.98	4.060
578.32	4.299
578.66	4.238
578.99	4.573
579.33	4.623
579.67	4.362
580.00	4.288
580.34	4.448
580.67	4.362
581.01	4.937
581.35	4.572
581.68	4.014
582.02	4.351
582.35	4.116
582.69	4.458
583.02	4.314
583.36	4.366
583.70	4.635
584.03	4.773
584.37	4.770
584.70	4.877
585.04	4.782
585.37	4.351
585.71	4.944
586.04	4.341
586.38	4.477
586.72	4.427
587.05	4.735
587.39	4.981
587.72	4.538
588.06	4.321
588.39	4.862
588.73	4.713
589.06	4.844
589.40	5.321
589.73	4.884
590.07	5.319
590.40	5.714
590.73	5.729
591.07	6.148
591.40	5.150
591.74	5.682
592.07	5.408
592.41	5.675
592.74	5.200
593.08	4.785
593.41	4.907
593.75	5.095
594.08	5.143
594.41	4.888
594.75	5.308
595.08	5.213
595.42	5.431
595.75	5.298
596.09	5.561
596.42	5.317
596.75	6.210
597.09	6.026
597.42	5.429
597.75	5.517
598.09	5.416
598.42	5.263
598.76	5.667
599.09	5.774
599.42	5.017
599.76	5.326
600.09	5.017
600.42	5.110
600.76	5.201
601.09	5.350
601.42	5.280
601.76	4.941
602.09	5.445
602.42	5.323
602.76	5.769
603.09	5.392
603.42	5.541
603.76	5.134
604.09	5.429
604.42	5.273
604.76	5.097
605.09	5.878
605.42	5.689
605.75	5.803
606.09	5.662
606.42	5.073
606.75	5.208
607.09	5.685
607.42	5.143
607.75	6.011
608.08	5.321
608.42	5.495
608.75	5.220
609.08	5.543
609.41	5.182
609.75	5.495
610.08	5.845
610.41	5.490
610.74	5.931
611.07	6.412
611.41	6.163
611.74	5.067
612.07	5.877
612.40	5.556
612.73	5.392
613.07	6.183
613.40	6.266
613.73	6.091
614.06	5.600
614.39	5.758
614.72	5.927
615.06	6.281
615.39	6.139
615.72	5.954
616.05	6.278
616.38	6.240
616.71	5.372
617.05	5.986
617.38	5.787
617.71	6.468
618.04	6.450
618.37	5.392
618.70	6.351
619.03	6.410
619.36	6.847
619.69	6.266
620.03	7.371
620.36	6.744
620.69	6.833
621.02	5.910
621.35	5.802
621.68	7.227
622.01	6.790
622.34	5.681
622.67	6.742
623.00	6.467
623.33	7.085
623.66	6.587
623.99	7.192
624.32	7.249
624.65	6.188
624.99	6.897
625.32	6.546
625.65	5.172
625.98	6.555
626.31	7.344
626.64	5.543
626.97	6.580
627.30	6.134
627.63	6.829
627.96	5.947
628.29	6.683
628.62	6.501
628.95	6.915
629.28	7.537
629.61	6.503
629.94	6.223
630.26	7.539
630.59	8.865
630.92	6.637
631.25	8.794
631.58	7.618
631.91	7.231
632.24	7.386
632.57	7.564
632.90	8.385
633.23	8.395
633.56	8.746
633.89	7.395
634.22	7.750
634.55	7.097
634.88	7.886
635.20	10.650
635.53	7.201
635.86	8.949
636.19	7.520
636.52	7.459
636.85	7.335
637.18	7.801
637.51	7.374
637.83	7.780
638.16	9.261
638.49	7.904
638.82	8.920
639.15	8.461
639.48	10.071
639.81	8.547
640.13	9.693
640.46	9.229
640.79	7.932
641.12	8.136
641.45	10.091
641.77	8.851
642.10	8.701
642.43	8.393
642.76	8.097
643.09	9.078
643.41	9.677
643.74	10.791
644.07	7.227
644.40	8.136
644.73	10.060
645.05	11.590
645.38	9.342
645.71	8.498
646.04	10.534
646.36	8.607
646.69	8.480
647.02	9.440
647.35	8.976
647.67	10.535
648.00	9.772
648.33	10.526
648.66	10.152
648.98	10.290
649.31	9.717
649.64	7.331
649.96	7.539
650.29	9.143
650.62	10.457
650.94	11.145
651.27	9.888
651.60	8.138
651.92	9.985
652.25	8.976
652.58	10.922
652.90	8.683
653.23	8.567
653.56	8.605
653.88	8.811
654.21	9.971
654.54	9.224
654.86	8.997
