SpectraSuite Data File
++++++++++++++++++++++++++++++++++++
Date: Tue May 12 16:40:18 PDT 2015
User: schluterlab
Dark Spectrum Present: Yes
Reference Spectrum Present: Yes
Number of Sampled Component Spectra: 1
Spectrometers: USB2E3373
Integration Time (usec): 3000 (USB2E3373)
Spectra Averaged: 3 (USB2E3373)
Boxcar Smoothing: 0 (USB2E3373)
Correct for Electrical Dark: No (USB2E3373)
Strobe/Lamp Enabled: No (USB2E3373)
Correct for Detector Non-linearity: No (USB2E3373)
Correct for Stray Light: No (USB2E3373)
Number of Pixels in Processed Spectrum: 2048
>>>>>Begin Processed Spectral Data<<<<<
178.53	0.000
178.91	-225.000
179.29	-625.000
179.67	-2800.000
180.04	-120.000
180.42	575.000
180.80	1850.000
181.18	0.000
181.56	-312.500
181.94	0.000
182.31	966.667
182.69	-2000.000
183.07	642.857
183.45	-3300.000
183.83	-1350.000
184.20	360.000
184.58	328.571
184.96	-192.308
185.34	-158.333
185.72	1400.000
186.09	-900.000
186.47	-2900.000
186.85	966.667
187.23	580.000
187.61	1700.000
187.98	462.500
188.36	207.143
188.74	258.333
189.12	341.667
189.49	875.000
189.87	0.000
190.25	387.500
190.63	2600.000
191.00	-166.667
191.38	-3100.000
191.76	-800.000
192.14	475.000
192.51	-2400.000
192.89	1800.000
193.27	966.667
193.65	-1033.333
194.02	-560.000
194.40	442.857
194.78	-178.571
195.15	173.333
195.53	-2500.000
195.91	-380.000
196.29	4000.000
196.66	237.500
197.04	775.000
197.42	-1500.000
197.79	575.000
198.17	341.667
198.55	0.000
198.92	400.000
199.30	1300.000
199.68	1600.000
200.05	500.000
200.43	-383.333
200.81	216.667
201.18	3300.000
201.56	308.333
201.94	-675.000
202.31	-312.500
202.69	-380.000
203.07	2600.000
203.44	-400.000
203.82	316.667
204.19	480.000
204.57	-1200.000
204.95	-550.000
205.32	-500.000
205.70	566.667
206.08	925.000
206.45	-700.000
206.83	322.222
207.20	205.263
207.58	300.000
207.96	620.000
208.33	0.000
208.71	557.143
209.08	660.000
209.46	-2800.000
209.84	-700.000
210.21	760.000
210.59	-520.000
210.96	341.667
211.34	-1000.000
211.71	372.727
212.09	975.000
212.46	1400.000
212.84	-316.667
213.22	388.889
213.59	-2500.000
213.97	410.000
214.34	875.000
214.72	933.333
215.09	900.000
215.47	-2800.000
215.84	-300.000
216.22	-437.500
216.59	0.000
216.97	0.000
217.34	1100.000
217.72	-1150.000
218.09	1066.667
218.47	487.500
218.84	700.000
219.22	966.667
219.59	700.000
219.97	557.143
220.34	400.000
220.72	1650.000
221.09	3200.000
221.47	208.333
221.84	1033.333
222.22	320.000
222.59	261.111
222.97	207.143
223.34	237.500
223.72	-1400.000
224.09	966.667
224.46	246.154
224.84	-875.000
225.21	422.222
225.59	273.333
225.96	1266.667
226.34	-440.000
226.71	-700.000
227.08	-540.000
227.46	0.000
227.83	-366.667
228.21	-1650.000
228.58	375.000
228.95	950.000
229.33	455.556
229.70	1000.000
230.08	300.000
230.45	2700.000
230.82	-700.000
231.20	-833.333
231.57	-1166.667
231.95	540.000
232.32	200.000
232.69	466.667
233.07	258.333
233.44	-1350.000
233.81	206.667
234.19	125.926
234.56	168.750
234.93	205.882
235.31	190.000
235.68	231.250
236.05	142.857
236.43	155.556
236.80	321.429
237.17	134.483
237.55	106.250
237.92	120.000
238.29	133.333
238.67	121.875
239.04	109.756
239.41	81.250
239.79	97.500
240.16	100.000
240.53	83.607
240.91	85.507
241.28	81.356
241.65	86.364
242.02	105.634
242.40	87.143
242.77	59.341
243.14	74.684
243.51	73.737
243.89	58.879
244.26	51.402
244.63	56.436
245.00	55.963
245.38	43.220
245.75	50.758
246.12	59.259
246.49	43.972
246.87	44.262
247.24	48.000
247.61	43.750
247.98	49.660
248.36	45.455
248.73	50.510
249.10	44.643
249.47	45.000
249.84	42.289
250.22	44.324
250.59	42.000
250.96	45.148
251.33	44.186
251.70	42.411
252.08	44.958
252.45	39.044
252.82	40.684
253.19	40.711
253.56	41.923
253.94	42.391
254.31	44.574
254.68	39.373
255.05	43.793
255.42	41.606
255.79	39.414
256.16	41.017
256.54	40.260
256.91	38.235
257.28	39.130
257.65	36.677
258.02	39.233
258.39	37.536
258.76	40.870
259.14	38.000
259.51	35.860
259.88	37.082
260.25	37.912
260.62	36.712
260.99	35.537
261.36	37.047
261.73	36.436
262.10	36.649
262.47	39.500
262.85	38.133
263.22	40.103
263.59	36.061
263.96	36.090
264.33	38.765
264.70	39.803
265.07	36.341
265.44	34.174
265.81	37.264
266.18	37.529
266.55	37.589
266.92	36.689
267.29	37.061
267.66	38.341
268.03	34.305
268.40	34.672
268.77	36.344
269.14	34.924
269.51	36.971
269.88	37.755
270.25	33.045
270.62	34.335
270.99	37.728
271.36	34.756
271.73	37.945
272.10	33.737
272.47	36.706
272.84	33.134
273.21	34.917
273.58	36.640
273.95	32.854
274.32	38.132
274.69	36.614
275.06	37.158
275.43	36.398
275.80	33.208
276.17	33.640
276.54	35.327
276.91	35.075
277.28	34.672
277.65	35.240
278.02	34.743
278.39	32.014
278.76	33.793
279.13	34.520
279.50	34.727
279.87	32.402
280.23	34.254
280.60	35.219
280.97	35.517
281.34	33.828
281.71	32.870
282.08	33.675
282.45	34.966
282.82	32.943
283.19	34.340
283.56	32.893
283.92	34.039
284.29	32.113
284.66	33.445
285.03	34.494
285.40	33.223
285.77	32.253
286.14	33.437
286.51	35.276
286.87	31.171
287.24	29.580
287.61	31.155
287.98	31.940
288.35	33.481
288.72	30.653
289.08	31.832
289.45	33.384
289.82	32.344
290.19	29.429
290.56	32.023
290.93	31.799
291.29	31.354
291.66	29.520
292.03	31.837
292.40	30.488
292.77	27.159
293.13	31.669
293.50	30.769
293.87	28.726
294.24	30.769
294.60	31.225
294.97	32.867
295.34	29.615
295.71	30.355
296.08	31.467
296.44	29.098
296.81	29.777
297.18	30.418
297.55	30.542
297.91	28.941
298.28	30.193
298.65	28.098
299.02	31.001
299.38	28.297
299.75	28.415
300.12	28.555
300.48	29.977
300.85	30.989
301.22	29.186
301.59	29.953
301.95	29.172
302.32	30.151
302.69	31.335
303.05	30.976
303.42	29.036
303.79	29.686
304.15	31.353
304.52	29.810
304.89	29.851
305.25	30.812
305.62	31.023
305.99	30.652
306.35	30.421
306.72	30.593
307.09	30.745
307.45	30.306
307.82	29.218
308.19	31.237
308.55	31.400
308.92	30.324
309.29	32.840
309.65	31.615
310.02	33.266
310.38	31.406
310.75	32.401
311.12	31.705
311.48	33.880
311.85	31.489
312.22	33.620
312.58	33.236
312.95	33.204
313.31	33.801
313.68	31.707
314.05	34.432
314.41	33.147
314.78	35.038
315.14	35.640
315.51	35.289
315.87	34.580
316.24	35.854
316.61	35.094
316.97	34.771
317.34	35.759
317.70	37.577
318.07	37.544
318.43	37.346
318.80	36.953
319.16	36.713
319.53	36.903
319.89	37.634
320.26	39.479
320.62	38.278
320.99	38.418
321.35	38.219
321.72	39.753
322.08	38.596
322.45	39.055
322.81	41.080
323.18	39.698
323.54	41.812
323.91	41.886
324.27	42.263
324.64	41.176
325.00	42.069
325.37	40.894
325.73	41.231
326.10	42.585
326.46	42.609
326.83	42.000
327.19	43.373
327.56	42.252
327.92	44.508
328.29	43.290
328.65	44.606
329.01	44.226
329.38	45.008
329.74	44.236
330.11	45.265
330.47	45.439
330.84	42.968
331.20	44.416
331.56	45.423
331.93	45.766
332.29	43.452
332.66	46.599
333.02	43.643
333.38	45.201
333.75	44.621
334.11	44.128
334.48	44.444
334.84	44.088
335.20	44.654
335.57	44.165
335.93	43.902
336.29	44.113
336.66	46.827
337.02	43.456
337.38	43.766
337.75	44.341
338.11	44.557
338.47	43.776
338.84	43.438
339.20	43.636
339.56	44.071
339.93	44.482
340.29	42.857
340.65	44.761
341.02	43.604
341.38	43.760
341.74	44.020
342.11	42.321
342.47	43.314
342.83	44.381
343.20	43.977
343.56	42.653
343.92	43.600
344.28	41.627
344.65	43.032
345.01	41.587
345.37	42.308
345.73	41.984
346.10	40.478
346.46	42.663
346.82	41.281
347.19	43.045
347.55	41.452
347.91	41.541
348.27	41.053
348.63	41.614
349.00	43.488
349.36	42.568
349.72	43.502
350.08	41.149
350.45	42.193
350.81	42.890
351.17	40.909
351.53	41.339
351.89	41.259
352.26	41.648
352.62	40.196
352.98	41.411
353.34	42.450
353.70	40.826
354.07	41.154
354.43	41.014
354.79	40.623
355.15	41.654
355.51	41.465
355.87	41.792
356.24	42.186
356.60	40.411
356.96	42.229
357.32	40.769
357.68	41.116
358.04	40.957
358.40	40.780
358.77	41.322
359.13	41.667
359.49	40.697
359.85	39.762
360.21	40.713
360.57	40.365
360.93	40.548
361.29	39.033
361.66	42.282
362.02	40.057
362.38	40.620
362.74	40.410
363.10	40.813
363.46	39.848
363.82	40.533
364.18	39.758
364.54	39.628
364.90	40.495
365.26	40.597
365.62	40.055
365.98	40.881
366.35	39.517
366.71	40.597
367.07	40.000
367.43	39.490
367.79	39.561
368.15	38.738
368.51	39.559
368.87	40.353
369.23	38.669
369.59	39.110
369.95	39.860
370.31	39.425
370.67	39.348
371.03	39.636
371.39	39.474
371.75	39.358
372.11	39.361
372.47	39.795
372.83	39.837
373.19	39.890
373.55	39.244
373.91	39.019
374.27	39.220
374.63	39.593
374.99	39.420
375.35	39.449
375.71	38.588
376.07	39.987
376.42	37.724
376.78	39.820
377.14	39.908
377.50	38.140
377.86	37.732
378.22	39.793
378.58	40.194
378.94	38.684
379.30	39.539
379.66	39.133
380.02	38.944
380.38	39.110
380.74	38.985
381.09	37.967
381.45	37.052
381.81	38.121
382.17	37.973
382.53	37.493
382.89	38.084
383.25	37.419
383.61	37.752
383.97	38.812
384.32	37.673
384.68	38.800
385.04	38.921
385.40	38.138
385.76	37.566
386.12	37.724
386.48	38.480
386.83	37.653
387.19	38.457
387.55	37.220
387.91	37.875
388.27	38.786
388.62	37.383
388.98	37.551
389.34	36.883
389.70	36.969
390.06	37.317
390.42	36.397
390.77	37.224
391.13	38.141
391.49	37.387
391.85	37.538
392.20	37.306
392.56	36.619
392.92	36.721
393.28	36.603
393.64	36.411
393.99	37.167
394.35	37.257
394.71	37.033
395.07	36.314
395.42	36.300
395.78	36.336
396.14	37.289
396.50	36.402
396.85	36.707
397.21	36.522
397.57	37.059
397.92	35.586
398.28	35.687
398.64	36.998
399.00	35.970
399.35	35.051
399.71	36.203
400.07	35.788
400.42	36.239
400.78	36.481
401.14	35.643
401.49	36.290
401.85	36.211
402.21	36.087
402.57	37.044
402.92	36.182
403.28	35.919
403.63	35.138
403.99	35.645
404.35	35.404
404.70	36.680
405.06	35.598
405.42	35.548
405.77	36.053
406.13	35.358
406.49	35.190
406.84	35.364
407.20	35.445
407.55	35.323
407.91	35.609
408.27	36.143
408.62	35.778
408.98	35.245
409.34	35.652
409.69	34.287
410.05	34.645
410.40	34.217
410.76	34.688
411.11	34.538
411.47	34.259
411.83	34.505
412.18	34.179
412.54	34.955
412.89	33.510
413.25	34.379
413.60	34.521
413.96	34.470
414.31	35.242
414.67	35.009
415.03	34.291
415.38	35.773
415.74	34.934
416.09	35.978
416.45	35.359
416.80	35.856
417.16	33.991
417.51	35.541
417.87	34.418
418.22	35.419
418.58	35.605
418.93	34.087
419.29	33.703
419.64	33.555
420.00	35.203
420.35	33.914
420.71	34.597
421.06	33.785
421.42	34.542
421.77	34.148
422.12	34.289
422.48	33.641
422.83	34.319
423.19	34.395
423.54	33.681
423.90	35.447
424.25	35.498
424.61	34.359
424.96	34.444
425.31	34.264
425.67	34.680
426.02	33.988
426.38	33.839
426.73	34.991
427.09	35.053
427.44	34.721
427.79	34.648
428.15	36.181
428.50	35.314
428.85	34.921
429.21	35.062
429.56	34.447
429.92	34.013
430.27	34.494
430.62	34.116
430.98	33.982
431.33	33.417
431.68	33.679
432.04	34.196
432.39	34.687
432.74	34.660
433.10	34.275
433.45	34.635
433.80	34.639
434.16	33.684
434.51	35.036
434.86	34.241
435.22	34.198
435.57	34.736
435.92	34.548
436.28	35.484
436.63	34.684
436.98	34.741
437.34	34.646
437.69	33.539
438.04	35.269
438.39	34.968
438.75	34.744
439.10	34.700
439.45	34.257
439.81	34.933
440.16	35.058
440.51	34.178
440.86	34.587
441.22	34.470
441.57	34.541
441.92	34.057
442.27	34.691
442.63	33.892
442.98	33.567
443.33	34.012
443.68	34.306
444.03	34.307
444.39	34.087
444.74	34.938
445.09	33.965
445.44	34.166
445.79	34.503
446.15	33.158
446.50	34.283
446.85	34.412
447.20	33.930
447.55	34.203
447.91	34.896
448.26	34.665
448.61	34.715
448.96	34.641
449.31	34.543
449.66	34.330
450.02	33.549
450.37	33.815
450.72	34.876
451.07	34.729
451.42	34.618
451.77	34.651
452.12	34.090
452.47	34.690
452.83	34.310
453.18	35.015
453.53	34.399
453.88	33.771
454.23	35.328
454.58	33.566
454.93	34.212
455.28	34.088
455.63	33.983
455.98	34.969
456.34	35.319
456.69	34.329
457.04	34.308
457.39	34.686
457.74	34.910
458.09	33.914
458.44	33.735
458.79	32.467
459.14	33.170
459.49	33.012
459.84	33.478
460.19	34.350
460.54	34.872
460.89	34.542
461.24	33.162
461.59	34.580
461.94	33.333
462.29	33.696
462.64	35.364
462.99	34.613
463.34	35.062
463.69	33.696
464.04	34.427
464.39	33.715
464.74	32.825
465.09	34.649
465.44	33.188
465.79	33.261
466.14	32.591
466.49	33.207
466.84	34.225
467.19	33.392
467.54	33.093
467.89	33.451
468.24	33.063
468.59	33.095
468.94	34.481
469.29	34.209
469.64	33.441
469.99	33.869
470.34	33.586
470.68	33.724
471.03	34.490
471.38	33.576
471.73	33.703
472.08	34.116
472.43	33.954
472.78	34.251
473.13	33.479
473.48	32.763
473.83	34.099
474.17	32.948
474.52	33.353
474.87	32.064
475.22	33.067
475.57	32.634
475.92	32.652
476.27	32.427
476.61	32.011
476.96	33.124
477.31	34.242
477.66	33.280
478.01	31.821
478.36	33.007
478.70	32.208
479.05	32.845
479.40	32.589
479.75	33.615
480.10	32.865
480.45	32.726
480.79	31.797
481.14	32.620
481.49	32.113
481.84	31.179
482.19	32.576
482.53	32.235
482.88	32.706
483.23	32.386
483.58	31.912
483.92	32.770
484.27	31.721
484.62	32.131
484.97	31.827
485.31	31.078
485.66	30.891
486.01	30.506
486.36	30.294
486.70	29.558
487.05	30.173
487.40	30.579
487.75	29.694
488.09	30.653
488.44	30.720
488.79	30.580
489.13	31.467
489.48	31.322
489.83	31.693
490.17	30.801
490.52	31.654
490.87	31.767
491.22	31.959
491.56	31.357
491.91	30.690
492.26	31.314
492.60	32.210
492.95	31.717
493.30	31.301
493.64	32.031
493.99	31.172
494.34	31.959
494.68	30.500
495.03	31.298
495.37	31.607
495.72	31.702
496.07	30.683
496.41	30.539
496.76	30.350
497.11	31.791
497.45	31.083
497.80	31.650
498.14	30.975
498.49	31.430
498.84	31.682
499.18	30.530
499.53	31.419
499.87	31.267
500.22	31.322
500.56	30.641
500.91	31.586
501.26	30.501
501.60	31.011
501.95	30.287
502.29	30.800
502.64	29.863
502.98	30.013
503.33	30.156
503.67	29.801
504.02	30.631
504.36	30.724
504.71	30.180
505.06	30.643
505.40	30.416
505.75	29.935
506.09	31.078
506.44	30.404
506.78	30.198
507.13	30.005
507.47	30.277
507.82	31.436
508.16	31.112
508.51	30.338
508.85	30.389
509.19	30.739
509.54	30.371
509.88	30.035
510.23	29.608
510.57	29.440
510.92	30.969
511.26	31.024
511.61	29.641
511.95	30.214
512.30	29.550
512.64	29.803
512.98	30.138
513.33	29.867
513.67	30.243
514.02	29.870
514.36	29.751
514.70	29.973
515.05	29.995
515.39	30.921
515.74	30.891
516.08	30.065
516.42	31.694
516.77	30.240
517.11	30.507
517.46	30.226
517.80	30.584
518.14	30.085
518.49	29.603
518.83	29.176
519.17	30.671
519.52	30.257
519.86	30.409
520.20	30.027
520.55	30.017
520.89	30.057
521.23	30.724
521.58	30.006
521.92	29.913
522.26	29.147
522.61	30.065
522.95	30.450
523.29	29.883
523.64	29.538
523.98	30.751
524.32	30.334
524.66	30.435
525.01	29.882
525.35	30.230
525.69	30.223
526.04	30.220
526.38	30.312
526.72	30.191
527.06	29.273
527.41	29.867
527.75	29.702
528.09	29.019
528.43	30.079
528.78	29.100
529.12	29.320
529.46	29.398
529.80	28.563
530.15	29.169
530.49	29.122
530.83	29.677
531.17	30.012
531.51	29.246
531.86	28.502
532.20	29.357
532.54	29.504
532.88	28.607
533.22	28.641
533.57	28.859
533.91	29.079
534.25	28.044
534.59	28.655
534.93	28.498
535.27	26.978
535.62	27.771
535.96	28.310
536.30	29.860
536.64	28.199
536.98	28.949
537.32	29.187
537.66	28.061
538.01	29.102
538.35	28.696
538.69	28.641
539.03	28.607
539.37	27.731
539.71	28.148
540.05	28.492
540.39	28.176
540.73	28.165
541.07	28.419
541.42	27.612
541.76	28.853
542.10	28.113
542.44	28.865
542.78	28.383
543.12	27.730
543.46	28.697
543.80	28.822
544.14	28.297
544.48	29.075
544.82	28.563
545.16	26.776
545.50	27.781
545.84	28.788
546.18	28.869
546.52	28.918
546.86	28.240
547.20	27.649
547.54	28.562
547.88	27.676
548.22	28.537
548.56	27.696
548.90	27.224
549.24	28.427
549.58	27.448
549.92	27.963
550.26	27.992
550.60	27.745
550.94	28.630
551.28	29.586
551.62	28.897
551.96	27.635
552.30	27.159
552.64	28.350
552.98	26.546
553.32	26.761
553.66	28.208
554.00	26.898
554.34	27.031
554.68	27.419
555.02	27.970
555.36	27.194
555.69	26.898
556.03	28.025
556.37	27.279
556.71	28.096
557.05	26.671
557.39	28.267
557.73	27.291
558.07	26.962
558.41	27.279
558.75	28.181
559.08	28.806
559.42	27.487
559.76	27.370
560.10	27.116
560.44	27.206
560.78	27.494
561.12	26.510
561.45	25.845
561.79	26.592
562.13	26.532
562.47	26.866
562.81	27.912
563.15	27.473
563.48	26.460
563.82	26.513
564.16	26.119
564.50	26.703
564.84	26.383
565.17	26.322
565.51	26.786
565.85	27.884
566.19	26.429
566.52	26.113
566.86	27.262
567.20	27.135
567.54	25.983
567.88	26.813
568.21	25.362
568.55	25.924
568.89	26.597
569.23	25.496
569.56	26.478
569.90	24.865
570.24	25.281
570.57	24.886
570.91	24.524
571.25	24.911
571.59	24.027
571.92	24.569
572.26	23.962
572.60	24.327
572.93	24.899
573.27	24.785
573.61	24.228
573.95	24.353
574.28	24.770
574.62	24.336
574.96	23.666
575.29	23.817
575.63	23.604
575.97	23.442
576.30	23.589
576.64	23.668
576.98	23.636
577.31	24.569
577.65	23.990
577.98	24.014
578.32	23.672
578.66	23.445
578.99	23.914
579.33	23.342
579.67	23.471
580.00	23.917
580.34	23.715
580.67	23.400
581.01	23.678
581.35	23.216
581.68	23.020
582.02	23.625
582.35	23.423
582.69	23.455
583.02	23.459
583.36	23.497
583.70	23.426
584.03	24.136
584.37	23.978
584.70	23.712
585.04	23.222
585.37	23.242
585.71	24.202
586.04	23.491
586.38	23.462
586.72	23.681
587.05	24.241
587.39	23.489
587.72	23.664
588.06	23.442
588.39	23.465
588.73	23.236
589.06	24.132
589.40	24.507
589.73	24.123
590.07	24.708
590.40	24.774
590.73	24.862
591.07	24.592
591.40	25.030
591.74	23.985
592.07	23.752
592.41	24.420
592.74	24.130
593.08	23.470
593.41	23.639
593.75	23.455
594.08	23.991
594.41	23.591
594.75	23.801
595.08	23.731
595.42	24.128
595.75	23.955
596.09	24.018
596.42	24.399
596.75	24.439
597.09	24.020
597.42	23.959
597.75	23.448
598.09	23.964
598.42	23.419
598.76	23.824
599.09	23.796
599.42	23.599
599.76	23.643
600.09	23.559
600.42	24.240
600.76	23.249
601.09	23.334
601.42	23.372
601.76	23.666
602.09	23.289
602.42	23.364
602.76	23.491
603.09	23.982
603.42	23.780
603.76	23.355
604.09	23.489
604.42	23.465
604.76	22.797
605.09	24.163
605.42	23.161
605.75	23.293
606.09	23.871
606.42	23.262
606.75	23.241
607.09	23.332
607.42	23.303
607.75	22.811
608.08	23.152
608.42	23.029
608.75	23.235
609.08	22.833
609.41	23.455
609.75	24.496
610.08	24.011
610.41	23.408
610.74	23.593
611.07	23.738
611.41	23.077
611.74	24.426
612.07	22.832
612.40	23.538
612.73	24.613
613.07	24.531
613.40	23.759
613.73	24.314
614.06	23.700
614.39	24.192
614.72	23.556
615.06	22.849
615.39	23.911
615.72	23.088
616.05	23.908
616.38	24.607
616.71	23.549
617.05	23.833
617.38	23.090
617.71	24.297
618.04	24.453
618.37	24.125
618.70	24.076
619.03	24.115
619.36	25.440
619.69	24.538
620.03	24.788
620.36	24.277
620.69	25.160
621.02	24.592
621.35	24.284
621.68	24.410
622.01	24.797
622.34	23.889
622.67	25.281
623.00	24.098
623.33	24.426
623.66	23.752
623.99	24.658
624.32	24.458
624.65	24.621
624.99	24.679
625.32	24.382
625.65	24.483
625.98	24.268
626.31	25.297
626.64	23.386
626.97	23.489
627.30	24.845
627.63	24.411
627.96	24.804
628.29	26.238
628.62	23.439
628.95	26.241
629.28	26.030
629.61	25.308
629.94	24.287
630.26	25.997
630.59	25.975
630.92	24.664
631.25	26.473
