SpectraSuite Data File
++++++++++++++++++++++++++++++++++++
Date: Tue May 12 16:55:54 PDT 2015
User: schluterlab
Dark Spectrum Present: Yes
Reference Spectrum Present: Yes
Number of Sampled Component Spectra: 1
Spectrometers: USB2E3373
Integration Time (usec): 3000 (USB2E3373)
Spectra Averaged: 3 (USB2E3373)
Boxcar Smoothing: 0 (USB2E3373)
Correct for Electrical Dark: No (USB2E3373)
Strobe/Lamp Enabled: No (USB2E3373)
Correct for Detector Non-linearity: No (USB2E3373)
Correct for Stray Light: No (USB2E3373)
Number of Pixels in Processed Spectrum: 2048
>>>>>Begin Processed Spectral Data<<<<<
178.53	0.000
178.91	-200.000
179.29	-575.000
179.67	-3200.000
180.04	-113.333
180.42	575.000
180.80	1550.000
181.18	0.000
181.56	-275.000
181.94	0.000
182.31	1200.000
182.69	-3300.000
183.07	614.286
183.45	-3000.000
183.83	-1650.000
184.20	400.000
184.58	357.143
184.96	-246.154
185.34	-216.667
185.72	1500.000
186.09	-700.000
186.47	-3400.000
186.85	766.667
187.23	740.000
187.61	1950.000
187.98	437.500
188.36	228.571
188.74	250.000
189.12	383.333
189.49	1000.000
189.87	0.000
190.25	487.500
190.63	1700.000
191.00	-216.667
191.38	-3200.000
191.76	-775.000
192.14	575.000
192.51	-2700.000
192.89	1700.000
193.27	900.000
193.65	-966.667
194.02	-740.000
194.40	542.857
194.78	-214.286
195.15	246.667
195.53	-2900.000
195.91	-600.000
196.29	2500.000
196.66	250.000
197.04	750.000
197.42	-2000.000
197.79	600.000
198.17	258.333
198.55	0.000
198.92	457.143
199.30	1233.333
199.68	2000.000
200.05	566.667
200.43	-416.667
200.81	166.667
201.18	4000.000
201.56	300.000
201.94	-925.000
202.31	-387.500
202.69	-300.000
203.07	2900.000
203.44	-533.333
203.82	266.667
204.19	860.000
204.57	-1500.000
204.95	-725.000
205.32	-560.000
205.70	483.333
206.08	800.000
206.45	-1066.667
206.83	388.889
207.20	163.158
207.58	275.000
207.96	580.000
208.33	0.000
208.71	571.429
209.08	760.000
209.46	-3700.000
209.84	-625.000
210.21	860.000
210.59	-500.000
210.96	283.333
211.34	-700.000
211.71	418.182
212.09	775.000
212.46	2100.000
212.84	-500.000
213.22	433.333
213.59	-2900.000
213.97	290.000
214.34	1025.000
214.72	1200.000
215.09	1133.333
215.47	-2800.000
215.84	-330.000
216.22	-350.000
216.59	0.000
216.97	0.000
217.34	1650.000
217.72	-1750.000
218.09	1266.667
218.47	400.000
218.84	1025.000
219.22	1166.667
219.59	700.000
219.97	485.714
220.34	344.444
220.72	1800.000
221.09	4200.000
221.47	225.000
221.84	1166.667
222.22	300.000
222.59	200.000
222.97	178.571
223.34	268.750
223.72	-1400.000
224.09	833.333
224.46	246.154
224.84	-675.000
225.21	422.222
225.59	246.667
225.96	1266.667
226.34	-760.000
226.71	-800.000
227.08	-620.000
227.46	0.000
227.83	-666.667
228.21	-1750.000
228.58	316.667
228.95	875.000
229.33	277.778
229.70	1025.000
230.08	323.077
230.45	3000.000
230.82	-825.000
231.20	-1033.333
231.57	-1433.333
231.95	620.000
232.32	258.333
232.69	566.667
233.07	300.000
233.44	-1650.000
233.81	280.000
234.19	144.444
234.56	218.750
234.93	164.706
235.31	205.000
235.68	268.750
236.05	114.286
236.43	148.148
236.80	314.286
237.17	131.034
237.55	103.125
237.92	122.500
238.29	124.242
238.67	140.625
239.04	121.951
239.41	91.667
239.79	102.500
240.16	102.083
240.53	83.607
240.91	78.261
241.28	86.441
241.65	81.818
242.02	104.225
242.40	75.714
242.77	65.934
243.14	67.089
243.51	68.687
243.89	57.944
244.26	60.748
244.63	67.327
245.00	58.716
245.38	55.085
245.75	56.818
246.12	65.185
246.49	55.319
246.87	41.803
247.24	56.000
247.61	55.625
247.98	55.102
248.36	50.303
248.73	59.694
249.10	52.976
249.47	50.500
249.84	44.776
250.22	50.270
250.59	47.000
250.96	46.414
251.33	48.372
251.70	52.232
252.08	48.319
252.45	43.825
252.82	45.247
253.19	45.059
253.56	40.769
253.94	44.928
254.31	44.186
254.68	47.387
255.05	42.759
255.42	41.606
255.79	42.997
256.16	43.729
256.54	45.130
256.91	46.078
257.28	44.816
257.65	40.439
258.02	44.838
258.39	41.834
258.76	41.739
259.14	39.714
259.51	44.898
259.88	40.426
260.25	38.462
260.62	39.452
260.99	37.741
261.36	44.011
261.73	40.691
262.10	40.838
262.47	42.250
262.85	39.200
263.22	43.959
263.59	37.852
263.96	40.100
264.33	41.235
264.70	40.541
265.07	41.463
265.44	39.908
265.81	41.038
266.18	40.732
266.55	39.716
266.92	38.702
267.29	42.325
267.66	39.686
268.03	40.359
268.40	38.478
268.77	40.088
269.14	37.744
269.51	38.307
269.88	40.408
270.25	38.445
270.62	39.485
270.99	40.568
271.36	41.260
271.73	38.365
272.10	37.980
272.47	40.278
272.84	34.731
273.21	38.636
273.58	40.486
273.95	41.068
274.32	38.521
274.69	39.567
275.06	40.437
275.43	36.782
275.80	37.736
276.17	39.154
276.54	38.131
276.91	39.739
277.28	37.409
277.65	37.823
278.02	36.581
278.39	37.950
278.76	38.448
279.13	37.722
279.50	35.818
279.87	36.127
280.23	39.227
280.60	39.234
280.97	36.897
281.34	36.469
281.71	37.391
282.08	36.068
282.45	36.149
282.82	37.960
283.19	36.566
283.56	37.190
283.92	36.971
284.29	38.769
284.66	36.471
285.03	38.143
285.40	39.008
285.77	36.728
286.14	37.771
286.51	36.196
286.87	34.019
287.24	36.036
287.61	36.626
287.98	35.672
288.35	35.259
288.72	32.929
289.08	36.787
289.45	37.348
289.82	39.062
290.19	34.993
290.56	37.263
290.93	36.835
291.29	34.669
291.66	35.169
292.03	35.344
292.40	35.501
292.77	35.376
293.13	35.806
293.50	35.358
293.87	33.062
294.24	37.203
294.60	36.743
294.97	36.084
295.34	35.857
295.71	34.034
296.08	34.133
296.44	34.435
296.81	34.491
297.18	35.995
297.55	34.236
297.91	33.251
298.28	34.541
298.65	36.319
299.02	34.620
299.38	35.372
299.75	33.659
300.12	33.716
300.48	37.354
300.85	36.234
301.22	33.953
301.59	34.906
301.95	33.956
302.32	35.739
302.69	35.633
303.05	35.354
303.42	33.520
303.79	34.345
304.15	33.773
304.52	35.412
304.89	34.328
305.25	36.485
305.62	34.328
305.99	34.891
306.35	35.684
306.72	35.380
307.09	34.990
307.45	34.319
307.82	35.494
308.19	36.495
308.55	35.500
308.92	36.506
309.29	37.574
309.65	36.472
310.02	37.830
310.38	36.889
310.75	35.680
311.12	36.111
311.48	37.838
311.85	35.210
312.22	37.631
312.58	37.901
312.95	37.379
313.31	39.045
313.68	36.585
314.05	38.828
314.41	37.989
314.78	38.447
315.14	40.758
315.51	40.208
315.87	39.142
316.24	40.149
316.61	38.854
316.97	39.266
317.34	40.162
317.70	39.684
318.07	41.459
318.43	43.146
318.80	41.681
319.16	42.133
319.53	41.770
319.89	41.398
320.26	42.831
320.62	44.048
320.99	43.947
321.35	42.672
321.72	45.351
322.08	45.337
322.45	44.323
322.81	44.556
323.18	45.382
323.54	45.819
323.91	46.872
324.27	45.447
324.64	45.069
325.00	46.207
325.37	45.616
325.73	45.868
326.10	46.810
326.46	47.564
326.83	47.360
327.19	48.193
327.56	49.361
327.92	48.934
328.29	49.836
328.65	49.572
329.01	50.214
329.38	49.069
329.74	48.249
330.11	49.348
330.47	49.190
330.84	47.886
331.20	48.308
331.56	50.259
331.93	49.187
332.29	47.534
332.66	51.361
333.02	49.055
333.38	48.429
333.75	48.207
334.11	48.909
334.48	49.145
334.84	48.733
335.20	49.102
335.57	49.454
335.93	48.696
336.29	47.678
336.66	49.228
337.02	48.246
337.38	48.839
337.75	49.240
338.11	47.679
338.47	49.026
338.84	48.180
339.20	49.264
339.56	48.192
339.93	47.575
340.29	47.983
340.65	48.114
341.02	48.109
341.38	48.276
341.74	48.754
342.11	48.247
342.47	47.580
342.83	49.631
343.20	48.504
343.56	47.657
343.92	48.472
344.28	48.963
344.65	49.226
345.01	49.127
345.37	47.115
345.73	47.698
346.10	47.490
346.46	49.282
346.82	46.682
347.19	47.836
347.55	48.712
347.91	47.054
348.27	47.483
348.63	48.101
349.00	47.601
349.36	47.626
349.72	48.547
350.08	48.214
350.45	47.449
350.81	48.089
351.17	47.535
351.53	48.884
351.89	46.542
352.26	47.468
352.62	47.360
352.98	48.236
353.34	48.074
353.70	46.942
354.07	48.923
354.43	47.158
354.79	47.304
355.15	48.698
355.51	48.112
355.87	47.440
356.24	47.806
356.60	46.956
356.96	46.929
357.32	46.797
357.68	47.210
358.04	48.480
358.40	48.201
358.77	48.835
359.13	48.198
359.49	48.036
359.85	48.027
360.21	48.217
360.57	46.934
360.93	48.701
361.29	47.619
361.66	50.410
362.02	47.372
362.38	48.196
362.74	47.629
363.10	47.686
363.46	47.307
363.82	48.317
364.18	48.080
364.54	48.069
364.90	48.193
365.26	48.161
365.62	47.790
365.98	47.419
366.35	47.103
366.71	47.883
367.07	48.055
367.43	48.556
367.79	47.673
368.15	47.558
368.51	48.243
368.87	48.030
369.23	47.886
369.59	46.730
369.95	49.441
370.31	48.118
370.67	48.022
371.03	48.389
371.39	48.130
371.75	47.104
372.11	48.946
372.47	49.041
372.83	48.878
373.19	48.389
373.55	47.766
373.91	49.448
374.27	48.280
374.63	48.407
374.99	48.652
375.35	48.992
375.71	48.549
376.07	47.812
376.42	48.338
376.78	49.326
377.14	49.279
377.50	47.878
377.86	48.687
378.22	48.324
378.58	49.334
378.94	48.582
379.30	48.878
379.66	48.645
380.02	48.387
380.38	47.775
380.74	50.231
381.09	49.065
381.45	48.208
381.81	48.877
382.17	48.657
382.53	49.790
382.89	47.664
383.25	48.609
383.61	48.357
383.97	47.810
384.32	49.367
384.68	48.841
385.04	49.531
385.40	49.288
385.76	48.098
386.12	48.980
386.48	49.119
386.83	50.122
387.19	48.999
387.55	48.940
387.91	49.596
388.27	49.554
388.62	47.711
388.98	48.805
389.34	48.364
389.70	48.585
390.06	50.061
390.42	48.304
390.77	48.771
391.13	48.823
391.49	48.578
391.85	50.154
392.20	50.179
392.56	49.104
392.92	48.119
393.28	48.823
393.64	48.796
393.99	48.607
394.35	47.440
394.71	48.552
395.07	48.236
395.42	47.892
395.78	49.661
396.14	49.036
396.50	48.797
396.85	48.110
397.21	48.255
397.57	48.655
397.92	48.354
398.28	48.318
398.64	49.331
399.00	47.354
399.35	48.094
399.71	48.455
400.07	48.916
400.42	48.179
400.78	47.977
401.14	47.387
401.49	47.408
401.85	47.798
402.21	47.159
402.57	47.756
402.92	48.303
403.28	46.897
403.63	47.499
403.99	46.924
404.35	47.714
404.70	49.793
405.06	46.378
405.42	46.619
405.77	47.354
406.13	46.638
406.49	46.163
406.84	46.418
407.20	47.489
407.55	46.338
407.91	47.352
408.27	46.270
408.62	47.250
408.98	46.363
409.34	46.756
409.69	46.484
410.05	46.094
410.40	45.701
410.76	46.823
411.11	46.623
411.47	46.049
411.83	45.343
412.18	45.592
412.54	45.405
412.89	46.136
413.25	46.123
413.60	46.379
413.96	46.200
414.31	47.166
414.67	48.355
415.03	47.893
415.38	45.931
415.74	46.747
416.09	45.597
416.45	47.899
416.80	46.697
417.16	45.831
417.51	46.815
417.87	45.369
418.22	45.626
418.58	46.752
418.93	46.579
419.29	44.732
419.64	46.336
420.00	45.943
420.35	45.993
420.71	46.324
421.06	46.557
421.42	46.229
421.77	46.363
422.12	46.527
422.48	45.968
422.83	46.373
423.19	45.140
423.54	45.968
423.90	46.772
424.25	47.111
424.61	46.547
424.96	45.059
425.31	47.181
425.67	46.633
426.02	46.158
426.38	45.624
426.73	46.501
427.09	47.865
427.44	44.513
427.79	46.827
428.15	47.378
428.50	46.514
428.85	47.737
429.21	46.029
429.56	46.361
429.92	46.047
430.27	45.960
430.62	44.934
430.98	45.858
431.33	46.018
431.68	44.395
432.04	45.525
432.39	47.036
432.74	47.541
433.10	46.456
433.45	47.444
433.80	47.766
434.16	46.611
434.51	46.285
434.86	46.326
435.22	47.164
435.57	45.643
435.92	46.898
436.28	47.811
436.63	45.381
436.98	46.284
437.34	47.089
437.69	46.417
438.04	46.828
438.39	46.351
438.75	46.269
439.10	46.519
439.45	46.128
439.81	46.501
440.16	45.790
440.51	46.340
440.86	47.635
441.22	45.887
441.57	47.139
441.92	46.545
442.27	46.598
442.63	46.799
442.98	45.097
443.33	46.545
443.68	45.825
444.03	45.947
444.39	46.375
444.74	46.118
445.09	46.761
445.44	46.068
445.79	46.101
446.15	46.158
446.50	46.941
446.85	46.912
447.20	46.020
447.55	46.928
447.91	47.043
448.26	46.645
448.61	46.379
448.96	47.059
449.31	46.315
449.66	47.342
450.02	46.461
450.37	46.807
450.72	47.328
451.07	46.481
451.42	46.592
451.77	47.423
452.12	46.739
452.47	47.448
452.83	46.704
453.18	46.967
453.53	47.543
453.88	46.914
454.23	47.240
454.58	46.737
454.93	47.088
455.28	46.879
455.63	45.863
455.98	46.249
456.34	46.809
456.69	46.280
457.04	46.301
457.39	45.314
457.74	47.860
458.09	46.098
458.44	46.166
458.79	45.676
459.14	45.390
459.49	46.659
459.84	47.011
460.19	46.215
460.54	45.641
460.89	46.695
461.24	45.304
461.59	46.429
461.94	45.804
462.29	46.110
462.64	46.420
462.99	46.001
463.34	45.755
463.69	45.191
464.04	45.884
464.39	44.877
464.74	44.666
465.09	45.096
465.44	45.647
465.79	44.638
466.14	45.098
466.49	44.764
466.84	44.259
467.19	44.991
467.54	44.084
467.89	43.838
468.24	44.644
468.59	44.107
468.94	45.109
469.29	44.411
469.64	45.145
469.99	44.859
470.34	45.225
470.68	43.724
471.03	44.229
471.38	44.901
471.73	44.481
472.08	45.988
472.43	45.003
472.78	44.942
473.13	43.116
473.48	45.232
473.83	44.876
474.17	44.802
474.52	44.787
474.87	43.718
475.22	43.632
475.57	44.071
475.92	42.923
476.27	42.818
476.61	43.968
476.96	42.842
477.31	44.781
477.66	44.069
478.01	44.095
478.36	44.078
478.70	42.779
479.05	43.149
479.40	43.552
479.75	44.042
480.10	43.659
480.45	43.417
480.79	42.903
481.14	42.320
481.49	41.903
481.84	42.568
482.19	42.707
482.53	42.644
482.88	43.459
483.23	42.400
483.58	42.819
483.92	43.144
484.27	42.080
484.62	42.699
484.97	41.099
485.31	41.786
485.66	41.645
486.01	41.481
486.36	41.261
486.70	41.000
487.05	41.218
487.40	39.791
487.75	40.067
488.09	40.170
488.44	41.268
488.79	39.882
489.13	41.209
489.48	41.270
489.83	40.617
490.17	40.462
490.52	40.655
490.87	40.948
491.22	42.642
491.56	40.580
491.91	40.233
492.26	41.514
492.60	41.777
492.95	41.640
493.30	40.810
493.64	40.386
493.99	40.742
494.34	41.641
494.68	40.505
495.03	40.997
495.37	42.188
495.72	41.166
496.07	40.117
496.41	40.487
496.76	40.397
497.11	40.831
497.45	40.552
497.80	40.222
498.14	39.991
498.49	39.926
498.84	40.748
499.18	39.854
499.53	39.596
499.87	40.162
500.22	40.857
500.56	40.529
500.91	40.213
501.26	40.423
501.60	40.301
501.95	39.740
502.29	39.600
502.64	39.259
502.98	39.973
503.33	39.911
503.67	38.985
504.02	38.424
504.36	39.864
504.71	40.492
505.06	39.606
505.40	39.401
505.75	39.149
506.09	39.617
506.44	40.132
506.78	39.036
507.13	39.699
507.47	40.223
507.82	39.221
508.16	39.735
508.51	38.986
508.85	39.174
509.19	39.305
509.54	39.990
509.88	39.881
510.23	39.657
510.57	38.079
510.92	39.411
511.26	38.705
511.61	39.242
511.95	38.925
512.30	38.350
512.64	38.837
512.98	38.339
513.33	38.371
513.67	38.477
514.02	39.065
514.36	38.474
514.70	38.293
515.05	38.093
515.39	39.419
515.74	39.366
516.08	39.216
516.42	39.945
516.77	37.813
517.11	37.973
517.46	38.685
517.80	37.411
518.14	39.042
518.49	38.479
518.83	37.473
519.17	38.935
519.52	38.940
519.86	38.692
520.20	38.685
520.55	37.931
520.89	38.161
521.23	38.201
521.58	37.005
521.92	38.892
522.26	37.678
522.61	37.908
522.95	37.838
523.29	37.953
523.64	37.861
523.98	37.207
524.32	36.678
524.66	37.449
525.01	37.337
525.35	36.712
525.69	37.628
526.04	37.597
526.38	38.199
526.72	36.874
527.06	36.606
527.41	37.485
527.75	36.153
528.09	36.845
528.43	36.181
528.78	37.209
529.12	37.267
529.46	35.652
529.80	36.390
530.15	36.240
530.49	36.883
530.83	36.807
531.17	36.777
531.51	36.235
531.86	35.930
532.20	35.414
532.54	35.844
532.88	36.852
533.22	36.563
533.57	36.913
533.91	35.548
534.25	35.661
534.59	36.316
534.93	35.040
535.27	34.320
535.62	36.056
535.96	35.934
536.30	37.172
536.64	35.031
536.98	35.809
537.32	35.875
537.66	35.587
538.01	36.409
538.35	35.558
538.69	35.012
539.03	34.639
539.37	35.376
539.71	36.173
540.05	35.262
540.39	35.597
540.73	35.316
541.07	33.877
541.42	36.318
541.76	35.327
542.10	35.327
542.44	35.100
542.78	34.550
543.12	34.724
543.46	34.336
543.80	34.837
544.14	34.551
544.48	34.854
544.82	35.780
545.16	34.183
545.50	35.648
545.84	35.101
546.18	35.956
546.52	34.098
546.86	35.525
547.20	34.625
547.54	33.186
547.88	34.002
548.22	34.548
548.56	34.826
548.90	33.393
549.24	34.997
549.58	34.794
549.92	35.298
550.26	34.145
550.60	33.999
550.94	34.939
551.28	34.276
551.62	34.207
551.96	34.459
552.30	33.685
552.64	34.822
552.98	34.794
553.32	33.355
553.66	33.876
554.00	33.269
554.34	34.820
554.68	34.140
555.02	33.537
555.36	33.511
555.69	34.490
556.03	34.268
556.37	33.588
556.71	34.941
557.05	33.224
557.39	32.933
557.73	32.884
558.07	33.602
558.41	34.064
558.75	33.105
559.08	33.667
559.42	34.646
559.76	34.426
560.10	32.622
560.44	33.179
560.78	33.376
561.12	33.630
561.45	33.041
561.79	32.709
562.13	32.217
562.47	32.966
562.81	33.247
563.15	33.743
563.48	30.435
563.82	33.125
564.16	34.391
564.50	32.309
564.84	33.313
565.17	32.739
565.51	32.943
565.85	33.436
566.19	32.738
566.52	32.551
566.86	33.742
567.20	33.764
567.54	33.406
567.88	32.916
568.21	31.802
568.55	32.150
568.89	32.391
569.23	32.399
569.56	32.867
569.90	32.627
570.24	32.368
570.57	32.479
570.91	31.763
571.25	31.406
571.59	30.795
571.92	30.732
572.26	30.755
572.60	30.964
572.93	31.139
573.27	31.246
573.61	30.969
573.95	31.399
574.28	31.386
574.62	31.532
574.96	30.696
575.29	30.337
575.63	30.742
575.97	30.599
576.30	30.195
576.64	30.406
576.98	30.485
577.31	30.773
577.65	31.362
577.98	30.595
578.32	30.430
578.66	30.638
578.99	31.194
579.33	30.582
579.67	30.210
580.00	29.856
580.34	30.264
580.67	30.380
581.01	30.788
581.35	30.431
581.68	30.506
582.02	30.627
582.35	30.634
582.69	30.542
583.02	29.910
583.36	30.226
583.70	30.159
584.03	30.872
584.37	30.490
584.70	30.157
585.04	29.812
585.37	29.734
585.71	30.787
586.04	30.545
586.38	30.788
586.72	30.347
587.05	30.160
587.39	30.190
587.72	30.349
588.06	30.271
588.39	30.885
588.73	30.537
589.06	30.260
589.40	30.516
589.73	30.744
590.07	30.542
590.40	31.289
590.73	31.252
591.07	31.727
591.40	30.299
591.74	30.154
592.07	29.700
592.41	30.496
592.74	30.648
593.08	30.046
593.41	30.640
593.75	29.810
594.08	31.044
594.41	30.205
594.75	30.000
595.08	29.287
595.42	30.151
595.75	29.780
596.09	30.448
596.42	29.898
596.75	31.170
597.09	30.004
597.42	29.714
597.75	29.331
598.09	29.421
598.42	29.906
598.76	28.951
599.09	30.085
599.42	29.446
599.76	30.224
600.09	29.186
600.42	29.558
600.76	29.674
601.09	29.203
601.42	29.532
601.76	29.968
602.09	29.617
602.42	29.575
602.76	29.981
603.09	29.600
603.42	29.835
603.76	29.284
604.09	29.352
604.42	29.379
604.76	29.751
605.09	29.592
605.42	29.744
605.75	29.728
606.09	29.495
606.42	29.801
606.75	29.576
607.09	29.017
607.42	29.128
607.75	29.260
608.08	29.569
608.42	29.027
608.75	28.755
609.08	28.773
609.41	28.864
609.75	29.625
610.08	28.732
610.41	29.556
610.74	29.697
611.07	29.786
611.41	28.545
611.74	29.159
612.07	29.143
612.40	29.727
612.73	29.506
613.07	29.346
613.40	29.023
613.73	30.005
614.06	28.500
614.39	30.202
614.72	29.181
615.06	28.289
615.39	30.396
615.72	28.412
616.05	28.980
616.38	29.224
616.71	28.378
617.05	28.556
617.38	28.146
617.71	28.290
618.04	28.547
618.37	29.850
618.70	29.446
619.03	28.816
619.36	29.146
619.69	27.704
620.03	30.072
620.36	28.388
620.69	29.055
621.02	29.755
621.35	28.510
621.68	28.540
622.01	29.373
622.34	27.895
622.67	29.003
623.00	28.863
623.33	29.150
623.66	28.942
623.99	29.589
624.32	29.607
624.65	27.650
624.99	28.871
625.32	28.791
625.65	27.793
625.98	27.476
626.31	29.451
626.64	28.246
626.97	28.386
627.30	28.261
627.63	29.278
627.96	28.873
628.29	28.465
628.62	27.802
628.95	28.369
629.28	29.448
629.61	29.262
629.94	29.213
630.26	29.029
630.59	29.344
630.92	27.892
631.25	28.740
