SpectraSuite Data File
++++++++++++++++++++++++++++++++++++
Date: Tue May 12 16:31:53 PDT 2015
User: schluterlab
Dark Spectrum Present: Yes
Reference Spectrum Present: Yes
Number of Sampled Component Spectra: 1
Spectrometers: USB2E3373
Integration Time (usec): 3000 (USB2E3373)
Spectra Averaged: 3 (USB2E3373)
Boxcar Smoothing: 0 (USB2E3373)
Correct for Electrical Dark: No (USB2E3373)
Strobe/Lamp Enabled: No (USB2E3373)
Correct for Detector Non-linearity: No (USB2E3373)
Correct for Stray Light: No (USB2E3373)
Number of Pixels in Processed Spectrum: 2048
>>>>>Begin Processed Spectral Data<<<<<
178.53	0.000
178.91	-200.000
179.29	-525.000
179.67	-3600.000
180.04	-146.667
180.42	475.000
180.80	1550.000
181.18	0.000
181.56	-337.500
181.94	0.000
182.31	966.667
182.69	-3500.000
183.07	557.143
183.45	-3300.000
183.83	-1250.000
184.20	420.000
184.58	557.143
184.96	-253.846
185.34	-233.333
185.72	1300.000
186.09	-925.000
186.47	-3100.000
186.85	966.667
187.23	620.000
187.61	1500.000
187.98	425.000
188.36	271.429
188.74	316.667
189.12	308.333
189.49	725.000
189.87	0.000
190.25	562.500
190.63	2500.000
191.00	-225.000
191.38	-3200.000
191.76	-625.000
192.14	512.500
192.51	-2600.000
192.89	1200.000
193.27	533.333
193.65	-1066.667
194.02	-580.000
194.40	528.571
194.78	-185.714
195.15	186.667
195.53	-2400.000
195.91	-580.000
196.29	4300.000
196.66	225.000
197.04	650.000
197.42	-1600.000
197.79	475.000
198.17	300.000
198.55	0.000
198.92	442.857
199.30	1266.667
199.68	2050.000
200.05	616.667
200.43	-300.000
200.81	172.222
201.18	3500.000
201.56	258.333
201.94	-550.000
202.31	-300.000
202.69	-500.000
203.07	2700.000
203.44	-550.000
203.82	333.333
204.19	740.000
204.57	-1050.000
204.95	-750.000
205.32	-700.000
205.70	333.333
206.08	750.000
206.45	-933.333
206.83	311.111
207.20	189.474
207.58	233.333
207.96	760.000
208.33	0.000
208.71	471.429
209.08	720.000
209.46	-2500.000
209.84	-800.000
210.21	620.000
210.59	-480.000
210.96	291.667
211.34	-850.000
211.71	400.000
212.09	750.000
212.46	1400.000
212.84	-366.667
213.22	411.111
213.59	-2700.000
213.97	360.000
214.34	800.000
214.72	1100.000
215.09	966.667
215.47	-2500.000
215.84	-260.000
216.22	-350.000
216.59	0.000
216.97	0.000
217.34	900.000
217.72	-1250.000
218.09	1100.000
218.47	425.000
218.84	825.000
219.22	1266.667
219.59	900.000
219.97	385.714
220.34	344.444
220.72	1450.000
221.09	3300.000
221.47	316.667
221.84	833.333
222.22	320.000
222.59	172.222
222.97	200.000
223.34	181.250
223.72	-1100.000
224.09	933.333
224.46	261.538
224.84	-575.000
225.21	377.778
225.59	186.667
225.96	800.000
226.34	-580.000
226.71	-550.000
227.08	-420.000
227.46	0.000
227.83	-400.000
228.21	-1450.000
228.58	316.667
228.95	850.000
229.33	344.444
229.70	750.000
230.08	261.538
230.45	4200.000
230.82	-900.000
231.20	-900.000
231.57	-766.667
231.95	380.000
232.32	216.667
232.69	283.333
233.07	233.333
233.44	-850.000
233.81	220.000
234.19	148.148
234.56	206.250
234.93	176.471
235.31	200.000
235.68	225.000
236.05	142.857
236.43	125.926
236.80	257.143
237.17	134.483
237.55	118.750
237.92	122.500
238.29	103.030
238.67	125.000
239.04	73.171
239.41	58.333
239.79	50.000
240.16	64.583
240.53	49.180
240.91	62.319
241.28	62.712
241.65	50.000
242.02	52.113
242.40	57.143
242.77	43.956
243.14	41.772
243.51	46.465
243.89	43.925
244.26	42.056
244.63	35.644
245.00	43.119
245.38	37.288
245.75	40.152
246.12	35.556
246.49	24.823
246.87	30.328
247.24	30.000
247.61	33.750
247.98	29.252
248.36	24.242
248.73	30.102
249.10	25.595
249.47	27.000
249.84	22.886
250.22	28.108
250.59	23.500
250.96	24.051
251.33	22.326
251.70	24.107
252.08	28.571
252.45	24.701
252.82	22.053
253.19	23.320
253.56	23.846
253.94	22.464
254.31	18.605
254.68	21.254
255.05	21.724
255.42	18.613
255.79	22.801
256.16	20.678
256.54	21.104
256.91	22.549
257.28	19.064
257.65	14.107
258.02	18.879
258.39	20.344
258.76	22.899
259.14	16.857
259.51	20.700
259.88	17.933
260.25	18.407
260.62	18.904
260.99	15.702
261.36	19.220
261.73	19.415
262.10	19.895
262.47	17.250
262.85	15.733
263.22	16.452
263.59	17.391
263.96	18.045
264.33	16.296
264.70	19.410
265.07	16.585
265.44	16.514
265.81	16.745
266.18	19.451
266.55	16.076
266.92	14.765
267.29	17.982
267.66	15.695
268.03	15.695
268.40	13.319
268.77	17.621
269.14	16.486
269.51	14.254
269.88	16.735
270.25	14.903
270.62	15.665
270.99	18.661
271.36	16.667
271.73	14.675
272.10	14.747
272.47	14.484
272.84	15.170
273.21	13.843
273.58	15.587
273.95	13.963
274.32	15.953
274.69	16.339
275.06	18.579
275.43	13.218
275.80	15.283
276.17	14.706
276.54	14.393
276.91	15.299
277.28	13.869
277.65	15.314
278.02	14.522
278.39	12.770
278.76	15.172
279.13	12.456
279.50	14.545
279.87	13.594
280.23	12.707
280.60	14.599
280.97	14.483
281.34	13.861
281.71	15.826
282.08	16.410
282.45	13.176
282.82	13.378
283.19	15.898
283.56	13.058
283.92	14.169
284.29	13.810
284.66	12.941
285.03	12.604
285.40	12.727
285.77	12.963
286.14	13.467
286.51	13.650
286.87	13.766
287.24	12.012
287.61	11.854
287.98	14.478
288.35	12.296
288.72	13.202
289.08	12.312
289.45	14.787
289.82	13.281
290.19	12.445
290.56	14.410
290.93	13.813
291.29	12.983
291.66	11.158
292.03	13.184
292.40	14.634
292.77	13.092
293.13	12.411
293.50	11.876
293.87	12.060
294.24	13.007
294.60	12.651
294.97	12.867
295.34	13.413
295.71	13.535
296.08	12.400
296.44	12.452
296.81	12.407
297.18	10.266
297.55	12.438
297.91	11.576
298.28	12.319
298.65	11.534
299.02	12.786
299.38	12.350
299.75	12.683
300.12	12.041
300.48	12.646
300.85	13.111
301.22	12.326
301.59	11.203
301.95	11.669
302.32	13.155
302.69	11.991
303.05	13.468
303.42	10.538
303.79	12.026
304.15	12.871
304.52	13.319
304.89	13.220
305.25	14.016
305.62	13.433
305.99	12.391
306.35	12.316
306.72	12.279
307.09	12.836
307.45	12.883
307.82	12.860
308.19	12.371
308.55	13.700
308.92	14.230
309.29	14.694
309.65	14.272
310.02	14.503
310.38	14.257
310.75	13.018
311.12	14.559
311.48	15.927
311.85	13.359
312.22	15.377
312.58	14.383
312.95	15.340
313.31	14.700
313.68	15.291
314.05	15.934
314.41	14.991
314.78	15.814
315.14	15.545
315.51	18.165
315.87	16.880
316.24	16.433
316.61	17.010
316.97	16.789
317.34	16.801
317.70	19.052
318.07	17.616
318.43	18.366
318.80	18.914
319.16	18.182
319.53	17.876
319.89	19.355
320.26	20.950
320.62	19.872
320.99	19.733
321.35	20.223
321.72	21.632
322.08	19.575
322.45	21.344
322.81	21.134
323.18	21.403
323.54	21.777
323.91	22.665
324.27	22.812
324.64	22.491
325.00	24.569
325.37	22.766
325.73	24.199
326.10	24.358
326.46	24.608
326.83	23.680
327.19	25.783
327.56	25.240
327.92	26.803
328.29	27.660
328.65	27.483
329.01	27.288
329.38	26.650
329.74	27.412
330.11	28.584
330.47	28.389
330.84	26.833
331.20	28.257
331.56	30.311
331.93	28.229
332.29	28.316
332.66	29.847
333.02	29.124
333.38	29.930
333.75	30.442
334.11	30.621
334.48	30.000
334.84	29.814
335.20	30.710
335.57	28.967
335.93	29.689
336.29	29.851
336.66	30.789
337.02	30.624
337.38	31.212
337.75	30.321
338.11	32.068
338.47	30.737
338.84	31.075
339.20	30.563
339.56	31.371
339.93	31.773
340.29	29.748
340.65	30.511
341.02	30.973
341.38	31.034
341.74	30.233
342.11	30.551
342.47	30.599
342.83	31.829
343.20	29.830
343.56	29.944
343.92	29.893
344.28	31.260
344.65	31.051
345.01	30.238
345.37	30.769
345.73	30.159
346.10	30.518
346.46	30.303
346.82	29.475
347.19	30.526
347.55	28.884
347.91	29.607
348.27	29.744
348.63	29.826
349.00	30.845
349.36	30.039
349.72	30.046
350.08	30.357
350.45	31.226
350.81	31.957
351.17	28.968
351.53	30.639
351.89	30.458
352.26	28.647
352.62	29.864
352.98	30.982
353.34	30.123
353.70	29.893
354.07	30.308
354.43	29.493
354.79	29.992
355.15	29.786
355.51	29.532
355.87	30.196
356.24	29.792
356.60	29.604
356.96	29.265
357.32	30.369
357.68	29.662
358.04	29.939
358.40	29.535
358.77	29.527
359.13	29.429
359.49	28.910
359.85	29.039
360.21	28.975
360.57	29.343
360.93	29.582
361.29	29.365
361.66	29.679
362.02	28.906
362.38	29.942
362.74	28.733
363.10	30.084
363.46	27.970
363.82	28.471
364.18	30.014
364.54	29.328
364.90	29.116
365.26	29.355
365.62	28.867
365.98	27.667
366.35	28.759
366.71	29.285
367.07	29.078
367.43	28.744
367.79	28.125
368.15	28.019
368.51	29.704
368.87	27.989
369.23	29.245
369.59	28.388
369.95	29.441
370.31	27.515
370.67	27.828
371.03	28.641
371.39	27.701
371.75	28.611
372.11	28.824
372.47	29.178
372.83	28.280
373.19	29.335
373.55	28.316
373.91	28.384
374.27	28.175
374.63	28.339
374.99	27.965
375.35	28.024
375.71	28.298
376.07	27.387
376.42	27.430
376.78	27.746
377.14	29.292
377.50	27.903
377.86	28.187
378.22	27.849
378.58	28.814
378.94	28.727
379.30	28.017
379.66	27.875
380.02	28.035
380.38	27.108
380.74	27.855
381.09	27.745
381.45	26.821
381.81	27.423
382.17	27.473
382.53	27.175
382.89	27.972
383.25	26.939
383.61	27.262
383.97	27.415
384.32	27.547
384.68	27.570
385.04	27.843
385.40	26.868
385.76	27.560
386.12	26.964
386.48	26.626
386.83	26.528
387.19	26.737
387.55	27.208
387.91	27.079
388.27	27.543
388.62	26.702
388.98	26.822
389.34	26.234
389.70	26.297
390.06	27.439
390.42	25.910
390.77	26.413
391.13	27.580
391.49	26.860
391.85	27.508
392.20	26.698
392.56	26.762
392.92	25.660
393.28	25.897
393.64	25.172
393.99	26.200
394.35	25.780
394.71	25.332
395.07	25.730
395.42	26.230
395.78	26.959
396.14	27.169
396.50	25.572
396.85	26.159
397.21	25.933
397.57	26.778
397.92	25.188
398.28	24.986
398.64	26.760
399.00	26.136
399.35	24.691
399.71	26.214
400.07	25.400
400.42	25.731
400.78	25.279
401.14	24.897
401.49	24.366
401.85	25.435
402.21	25.190
402.57	25.913
402.92	25.333
403.28	24.582
403.63	25.250
403.99	24.729
404.35	24.736
404.70	25.989
405.06	24.761
405.42	23.519
405.77	24.476
406.13	24.295
406.49	23.764
406.84	24.817
407.20	23.744
407.55	24.308
407.91	24.442
408.27	24.560
408.62	23.832
408.98	23.950
409.34	24.079
409.69	24.207
410.05	24.031
410.40	23.322
410.76	23.755
411.11	23.519
411.47	24.938
411.83	23.257
412.18	23.551
412.54	24.925
412.89	24.071
413.25	24.059
413.60	24.474
413.96	23.938
414.31	24.675
414.67	24.395
415.03	24.010
415.38	24.732
415.74	24.068
416.09	23.798
416.45	24.499
416.80	23.669
417.16	23.997
417.51	23.885
417.87	24.155
418.22	24.484
418.58	24.140
418.93	23.438
419.29	23.413
419.64	24.167
420.00	24.821
420.35	22.822
420.71	24.679
421.06	23.484
421.42	23.719
421.77	23.542
422.12	24.862
422.48	23.369
422.83	24.498
423.19	23.110
423.54	23.862
423.90	23.783
424.25	24.326
424.61	23.564
424.96	24.054
425.31	23.591
425.67	23.850
426.02	24.117
426.38	23.512
426.73	24.002
427.09	24.733
427.44	23.073
427.79	24.242
428.15	24.750
428.50	24.514
428.85	23.986
429.21	23.825
429.56	23.679
429.92	24.117
430.27	23.996
430.62	23.005
430.98	23.253
431.33	23.538
431.68	23.210
432.04	24.418
432.39	25.027
432.74	23.419
433.10	24.031
433.45	23.779
433.80	24.876
434.16	23.279
434.51	24.252
434.86	25.259
435.22	23.987
435.57	24.244
435.92	25.270
436.28	23.963
436.63	23.987
436.98	24.944
437.34	24.201
437.69	23.628
438.04	24.516
438.39	24.227
438.75	24.053
439.10	24.177
439.45	23.968
439.81	23.771
440.16	23.720
440.51	23.874
440.86	24.786
441.22	24.242
441.57	23.517
441.92	24.087
442.27	23.454
442.63	24.187
442.98	24.084
443.33	23.728
443.68	24.296
444.03	23.374
444.39	24.153
444.74	23.602
445.09	23.223
445.44	24.283
445.79	22.953
446.15	24.158
446.50	23.734
446.85	24.253
447.20	22.886
447.55	24.307
447.91	23.761
448.26	24.068
448.61	23.715
448.96	23.693
449.31	23.927
449.66	24.640
450.02	23.663
450.37	23.820
450.72	23.581
451.07	23.618
451.42	24.363
451.77	23.368
452.12	23.710
452.47	24.362
452.83	24.732
453.18	24.505
453.53	24.393
453.88	23.886
454.23	24.521
454.58	25.000
454.93	24.464
455.28	24.602
455.63	23.522
455.98	23.294
456.34	24.742
456.69	24.390
457.04	23.986
457.39	23.771
457.74	24.437
458.09	23.021
458.44	23.165
458.79	23.820
459.14	23.513
459.49	22.877
459.84	24.185
460.19	23.446
460.54	24.843
460.89	24.307
461.24	23.826
461.59	24.093
461.94	23.995
462.29	23.856
462.64	24.246
462.99	23.992
463.34	24.238
463.69	23.351
464.04	24.352
464.39	23.469
464.74	22.860
465.09	23.796
465.44	23.558
465.79	23.136
466.14	23.476
466.49	23.060
466.84	23.634
467.19	24.722
467.54	23.183
467.89	24.237
468.24	23.741
468.59	23.631
468.94	24.275
469.29	23.641
469.64	23.473
469.99	23.779
470.34	23.529
470.68	23.724
471.03	24.083
471.38	23.709
471.73	24.167
472.08	24.658
472.43	24.084
472.78	24.200
473.13	22.841
473.48	23.778
473.83	24.499
474.17	24.438
474.52	23.578
474.87	23.366
475.22	23.644
475.57	23.295
475.92	23.045
476.27	22.361
476.61	22.842
476.96	23.406
477.31	24.319
477.66	23.349
478.01	23.259
478.36	21.936
478.70	22.829
479.05	22.594
479.40	22.371
479.75	22.790
480.10	23.136
480.45	22.876
480.79	22.811
481.14	22.301
481.49	21.775
481.84	22.779
482.19	22.009
482.53	22.530
482.88	22.446
483.23	22.418
483.58	22.487
483.92	22.806
484.27	21.789
484.62	22.496
484.97	21.426
485.31	21.311
485.66	20.374
486.01	19.940
486.36	19.838
486.70	19.464
487.05	20.061
487.40	21.035
487.75	21.266
488.09	21.364
488.44	21.511
488.79	20.896
489.13	21.650
489.48	21.774
489.83	22.269
490.17	22.378
490.52	22.567
490.87	21.983
491.22	22.518
491.56	22.266
491.91	22.267
492.26	22.494
492.60	22.460
492.95	21.976
493.30	22.748
493.64	22.417
493.99	23.301
494.34	22.098
494.68	22.089
495.03	22.362
495.37	23.053
495.72	22.517
496.07	22.327
496.41	23.067
496.76	22.246
497.11	22.279
497.45	21.920
497.80	23.262
498.14	22.977
498.49	22.331
498.84	22.710
499.18	21.892
499.53	22.416
499.87	22.282
500.22	22.064
500.56	22.563
500.91	21.985
501.26	22.921
501.60	22.450
501.95	21.774
502.29	22.178
502.64	22.144
502.98	20.765
503.33	22.049
503.67	22.208
504.02	21.854
504.36	22.579
504.71	22.564
505.06	22.055
505.40	21.853
505.75	21.656
506.09	22.165
506.44	22.227
506.78	22.164
507.13	21.716
507.47	22.125
507.82	22.336
508.16	22.930
508.51	21.401
508.85	22.080
509.19	22.369
509.54	22.168
509.88	21.979
510.23	22.255
510.57	21.380
510.92	22.777
511.26	21.436
511.61	21.320
511.95	22.499
512.30	22.500
512.64	22.482
512.98	22.142
513.33	22.182
513.67	22.165
514.02	22.182
514.36	22.378
514.70	22.027
515.05	22.163
515.39	22.752
515.74	23.346
516.08	22.495
516.42	23.115
516.77	22.400
517.11	22.293
517.46	23.006
517.80	21.300
518.14	23.380
518.49	22.712
518.83	21.593
519.17	23.017
519.52	22.938
519.86	22.234
520.20	22.521
520.55	22.725
520.89	23.448
521.23	23.364
521.58	21.801
521.92	22.915
522.26	22.927
522.61	22.698
522.95	21.982
523.29	22.632
523.64	22.197
523.98	22.653
524.32	22.145
524.66	23.304
525.01	22.308
525.35	22.687
525.69	23.600
526.04	23.795
526.38	22.660
526.72	22.852
527.06	22.768
527.41	23.700
527.75	23.007
528.09	22.998
528.43	23.063
528.78	21.944
529.12	22.938
529.46	22.969
529.80	21.787
530.15	22.275
530.49	22.804
530.83	22.669
531.17	22.448
531.51	22.685
531.86	22.101
532.20	22.002
532.54	22.348
532.88	22.861
533.22	22.364
533.57	22.819
533.91	21.445
534.25	21.639
534.59	22.339
534.93	21.331
535.27	20.888
535.62	21.587
535.96	21.454
536.30	22.425
536.64	21.739
536.98	22.089
537.32	22.500
537.66	21.875
538.01	22.786
538.35	21.772
538.69	22.027
539.03	21.455
539.37	21.541
539.71	22.593
540.05	21.723
540.39	22.013
540.73	22.342
541.07	20.828
541.42	22.015
541.76	22.256
542.10	21.085
542.44	21.633
542.78	21.963
543.12	21.043
543.46	21.241
543.80	21.241
544.14	22.105
544.48	22.019
544.82	21.713
545.16	20.279
545.50	21.881
545.84	22.159
546.18	22.432
546.52	22.820
546.86	23.211
547.20	21.382
547.54	21.406
547.88	22.141
548.22	21.190
548.56	20.742
548.90	21.056
549.24	21.984
549.58	21.714
549.92	22.397
550.26	21.839
550.60	21.424
550.94	22.795
551.28	23.517
551.62	22.828
551.96	21.419
552.30	20.633
552.64	22.330
552.98	20.490
553.32	20.679
553.66	21.498
554.00	22.265
554.34	23.502
554.68	22.715
555.02	21.181
555.36	21.476
555.69	21.728
556.03	21.465
556.37	21.797
556.71	22.229
557.05	21.232
557.39	21.400
557.73	21.698
558.07	22.334
558.41	22.276
558.75	22.367
559.08	23.088
559.42	21.904
559.76	21.668
560.10	21.129
560.44	21.765
560.78	20.972
561.12	21.043
561.45	21.214
561.79	20.599
562.13	20.088
562.47	21.155
562.81	21.535
563.15	22.043
563.48	20.807
563.82	21.210
564.16	21.642
564.50	21.218
564.84	21.277
565.17	21.687
565.51	20.998
565.85	20.913
566.19	20.655
566.52	20.096
566.86	21.716
567.20	21.236
567.54	20.306
567.88	21.075
568.21	19.421
568.55	20.671
568.89	19.343
569.23	18.637
569.56	19.169
569.90	18.326
570.24	17.990
570.57	17.586
570.91	17.629
571.25	17.527
571.59	17.484
571.92	17.223
572.26	17.062
572.60	16.856
572.93	17.798
573.27	17.375
573.61	17.055
573.95	17.082
574.28	17.063
574.62	16.768
574.96	16.591
575.29	16.482
575.63	16.419
575.97	16.139
576.30	16.856
576.64	17.125
576.98	16.763
577.31	16.797
577.65	16.514
577.98	16.240
578.32	15.863
578.66	16.369
578.99	16.572
579.33	16.486
579.67	16.178
580.00	15.937
580.34	16.316
580.67	16.376
581.01	16.831
581.35	16.219
581.68	15.642
582.02	15.572
582.35	15.995
582.69	16.281
583.02	16.129
583.36	16.600
583.70	16.440
584.03	17.475
584.37	16.784
584.70	16.621
585.04	16.583
585.37	16.839
585.71	16.854
586.04	16.934
586.38	16.854
586.72	16.808
587.05	17.113
587.39	16.334
587.72	17.053
588.06	16.961
588.39	16.684
588.73	17.080
589.06	17.275
589.40	17.778
589.73	17.011
590.07	18.154
590.40	18.014
590.73	18.693
591.07	18.558
591.40	18.403
591.74	18.466
592.07	18.178
592.41	18.225
592.74	17.539
593.08	16.927
593.41	16.756
593.75	17.013
594.08	17.185
594.41	17.791
594.75	17.397
595.08	17.112
595.42	17.972
595.75	17.341
596.09	18.005
596.42	17.334
596.75	18.349
597.09	18.159
597.42	17.878
597.75	17.525
598.09	17.768
598.42	17.870
598.76	17.386
599.09	17.396
599.42	17.336
599.76	17.741
600.09	16.983
600.42	17.645
600.76	17.301
601.09	17.190
601.42	17.177
601.76	17.651
602.09	18.580
602.42	17.708
602.76	17.533
603.09	17.647
603.42	17.394
603.76	17.607
604.09	17.553
604.42	16.723
604.76	17.661
605.09	17.673
605.42	18.082
605.75	18.160
606.09	17.330
606.42	17.437
606.75	18.461
607.09	17.687
607.42	17.276
607.75	18.073
608.08	17.872
608.42	17.450
608.75	17.544
609.08	17.378
609.41	18.364
609.75	17.857
610.08	17.986
610.41	18.006
610.74	18.095
611.07	18.463
611.41	18.582
611.74	18.069
612.07	19.027
612.40	18.519
612.73	18.472
613.07	18.855
613.40	18.546
613.73	18.872
614.06	17.950
614.39	18.838
614.72	17.780
615.06	17.409
615.39	18.911
615.72	18.248
616.05	18.483
616.38	19.330
616.71	18.882
617.05	19.001
617.38	18.989
617.71	19.629
618.04	19.013
618.37	18.733
618.70	18.938
619.03	19.353
619.36	20.415
619.69	18.799
620.03	20.091
620.36	20.617
620.69	20.562
621.02	21.128
621.35	20.559
621.68	21.681
622.01	21.033
622.34	19.956
622.67	20.857
623.00	20.967
623.33	20.310
623.66	20.160
623.99	19.384
624.32	20.257
624.65	20.145
624.99	19.608
625.32	19.840
625.65	19.724
625.98	20.223
626.31	21.068
626.64	19.590
626.97	21.423
627.30	21.196
627.63	21.429
627.96	19.718
628.29	20.380
628.62	21.471
628.95	21.897
629.28	22.086
629.61	21.880
629.94	21.608
630.26	21.750
630.59	22.252
630.92	22.960
631.25	22.756
631.58	22.565
