SpectraSuite Data File
++++++++++++++++++++++++++++++++++++
Date: Tue May 12 16:38:15 PDT 2015
User: schluterlab
Dark Spectrum Present: Yes
Reference Spectrum Present: Yes
Number of Sampled Component Spectra: 1
Spectrometers: USB2E3373
Integration Time (usec): 3000 (USB2E3373)
Spectra Averaged: 3 (USB2E3373)
Boxcar Smoothing: 0 (USB2E3373)
Correct for Electrical Dark: No (USB2E3373)
Strobe/Lamp Enabled: No (USB2E3373)
Correct for Detector Non-linearity: No (USB2E3373)
Correct for Stray Light: No (USB2E3373)
Number of Pixels in Processed Spectrum: 2048
>>>>>Begin Processed Spectral Data<<<<<
178.53	0.000
178.91	-216.667
179.29	-525.000
179.67	-3300.000
180.04	-113.333
180.42	500.000
180.80	1450.000
181.18	0.000
181.56	-325.000
181.94	0.000
182.31	866.667
182.69	-2500.000
183.07	485.714
183.45	-3700.000
183.83	-1450.000
184.20	410.000
184.58	342.857
184.96	-184.615
185.34	-125.000
185.72	1500.000
186.09	-700.000
186.47	-2500.000
186.85	1133.333
187.23	600.000
187.61	1500.000
187.98	425.000
188.36	242.857
188.74	325.000
189.12	325.000
189.49	1075.000
189.87	0.000
190.25	450.000
190.63	3000.000
191.00	-216.667
191.38	-2800.000
191.76	-675.000
192.14	487.500
192.51	-2100.000
192.89	1800.000
193.27	866.667
193.65	-1066.667
194.02	-540.000
194.40	485.714
194.78	-178.571
195.15	213.333
195.53	-2800.000
195.91	-500.000
196.29	4000.000
196.66	187.500
197.04	750.000
197.42	-1200.000
197.79	575.000
198.17	275.000
198.55	0.000
198.92	471.429
199.30	1233.333
199.68	2300.000
200.05	500.000
200.43	-333.333
200.81	177.778
201.18	2700.000
201.56	291.667
201.94	-625.000
202.31	-375.000
202.69	-340.000
203.07	3100.000
203.44	-366.667
203.82	275.000
204.19	660.000
204.57	-950.000
204.95	-775.000
205.32	-820.000
205.70	550.000
206.08	675.000
206.45	-1166.667
206.83	300.000
207.20	184.211
207.58	266.667
207.96	660.000
208.33	0.000
208.71	657.143
209.08	660.000
209.46	-3300.000
209.84	-750.000
210.21	780.000
210.59	-500.000
210.96	275.000
211.34	-825.000
211.71	336.364
212.09	1175.000
212.46	1450.000
212.84	-283.333
213.22	322.222
213.59	-2900.000
213.97	280.000
214.34	575.000
214.72	966.667
215.09	1033.333
215.47	-3400.000
215.84	-310.000
216.22	-387.500
216.59	0.000
216.97	0.000
217.34	1400.000
217.72	-1250.000
218.09	1366.667
218.47	462.500
218.84	825.000
219.22	800.000
219.59	766.667
219.97	571.429
220.34	466.667
220.72	1750.000
221.09	3200.000
221.47	183.333
221.84	966.667
222.22	270.000
222.59	238.889
222.97	242.857
223.34	293.750
223.72	-1250.000
224.09	1200.000
224.46	276.923
224.84	-750.000
225.21	377.778
225.59	246.667
225.96	1000.000
226.34	-720.000
226.71	-550.000
227.08	-300.000
227.46	0.000
227.83	-516.667
228.21	-1400.000
228.58	333.333
228.95	950.000
229.33	277.778
229.70	775.000
230.08	323.077
230.45	2500.000
230.82	-850.000
231.20	-966.667
231.57	-1166.667
231.95	480.000
232.32	391.667
232.69	500.000
233.07	316.667
233.44	-1150.000
233.81	253.333
234.19	166.667
234.56	168.750
234.93	211.765
235.31	185.000
235.68	262.500
236.05	128.571
236.43	137.037
236.80	164.286
237.17	151.724
237.55	121.875
237.92	102.500
238.29	106.061
238.67	106.250
239.04	109.756
239.41	79.167
239.79	95.000
240.16	77.083
240.53	59.016
240.91	59.420
241.28	69.492
241.65	53.030
242.02	81.690
242.40	57.143
242.77	54.945
243.14	55.696
243.51	57.576
243.89	51.402
244.26	56.075
244.63	40.594
245.00	49.541
245.38	38.136
245.75	37.121
246.12	43.704
246.49	34.752
246.87	35.246
247.24	43.333
247.61	37.500
247.98	36.054
248.36	37.576
248.73	40.816
249.10	30.357
249.47	32.000
249.84	27.861
250.22	36.757
250.59	35.500
250.96	31.646
251.33	33.488
251.70	30.804
252.08	26.471
252.45	27.888
252.82	29.278
253.19	32.016
253.56	29.615
253.94	27.536
254.31	27.519
254.68	31.359
255.05	29.310
255.42	23.358
255.79	29.642
256.16	28.814
256.54	30.844
256.91	26.144
257.28	26.087
257.65	23.824
258.02	26.844
258.39	27.221
258.76	27.536
259.14	22.000
259.51	28.571
259.88	29.483
260.25	24.451
260.62	27.945
260.99	22.865
261.36	27.855
261.73	27.394
262.10	23.822
262.47	24.750
262.85	27.733
263.22	24.679
263.59	26.598
263.96	25.564
264.33	23.210
264.70	27.027
265.07	26.341
265.44	25.917
265.81	24.528
266.18	25.629
266.55	24.823
266.92	23.714
267.29	23.684
267.66	23.991
268.03	22.870
268.40	23.467
268.77	23.348
269.14	24.946
269.51	24.499
269.88	24.082
270.25	20.518
270.62	25.751
270.99	25.761
271.36	22.764
271.73	22.642
272.10	25.455
272.47	24.603
272.84	20.958
273.21	24.380
273.58	22.874
273.95	21.971
274.32	23.930
274.69	24.606
275.06	23.497
275.43	22.797
275.80	21.887
276.17	23.346
276.54	22.617
276.91	23.507
277.28	22.263
277.65	22.325
278.02	22.794
278.39	22.302
278.76	22.069
279.13	22.420
279.50	22.909
279.87	20.670
280.23	21.547
280.60	22.080
280.97	22.931
281.34	20.132
281.71	22.087
282.08	24.786
282.45	20.270
282.82	22.074
283.19	20.509
283.56	21.322
283.92	22.638
284.29	21.131
284.66	18.487
285.03	21.061
285.40	19.835
285.77	21.451
286.14	23.065
286.51	22.239
286.87	18.987
287.24	19.069
287.61	20.669
287.98	21.642
288.35	20.741
288.72	19.727
289.08	20.270
289.45	21.646
289.82	22.656
290.19	18.448
290.56	20.378
290.93	19.281
291.29	20.028
291.66	18.079
292.03	20.617
292.40	19.783
292.77	18.802
293.13	18.973
293.50	18.084
293.87	17.344
294.24	20.280
294.60	18.708
294.97	18.881
295.34	18.459
295.71	20.237
296.08	19.733
296.44	18.551
296.81	19.355
297.18	17.871
297.55	18.966
297.91	18.966
298.28	17.995
298.65	18.037
299.02	17.491
299.38	18.585
299.75	15.976
300.12	18.578
300.48	18.033
300.85	18.117
301.22	18.837
301.59	17.217
301.95	20.070
302.32	18.277
302.69	17.760
303.05	19.416
303.42	18.049
303.79	18.960
304.15	17.602
304.52	17.548
304.89	18.977
305.25	18.799
305.62	19.190
305.99	18.370
306.35	17.474
306.72	19.667
307.09	19.151
307.45	17.635
307.82	18.107
308.19	17.423
308.55	18.300
308.92	18.744
309.29	20.118
309.65	19.029
310.02	18.763
310.38	18.146
310.75	18.901
311.12	18.199
311.48	20.077
311.85	21.088
312.22	21.681
312.58	19.825
312.95	20.777
313.31	20.318
313.68	20.169
314.05	21.612
314.41	21.043
314.78	21.117
315.14	23.223
315.51	22.800
315.87	21.442
316.24	22.782
316.61	22.471
316.97	22.202
317.34	23.181
317.70	24.056
318.07	25.979
318.43	22.847
318.80	24.694
319.16	25.087
319.53	24.336
319.89	25.538
320.26	26.164
320.62	26.465
320.99	26.501
321.35	25.974
321.72	27.419
322.08	26.500
322.45	26.703
322.81	26.624
323.18	26.909
323.54	28.484
323.91	28.740
324.27	27.675
324.64	27.336
325.00	28.707
325.37	29.764
325.73	28.499
326.10	30.240
326.46	27.911
326.83	29.680
327.19	30.442
327.56	29.952
327.92	30.410
328.29	30.033
328.65	31.421
329.01	30.197
329.38	30.372
329.74	29.462
330.11	30.582
330.47	31.969
330.84	30.198
331.20	30.795
331.56	31.347
331.93	32.164
332.29	28.486
332.66	29.932
333.02	31.357
333.38	30.803
333.75	30.692
334.11	30.872
334.48	30.940
334.84	29.307
335.20	31.394
335.57	30.647
335.93	30.614
336.29	30.182
336.66	31.647
337.02	30.026
337.38	29.493
337.75	30.659
338.11	30.549
338.47	30.483
338.84	30.398
339.20	30.563
339.56	29.268
339.93	29.766
340.29	29.832
340.65	31.350
341.02	29.445
341.38	29.228
341.74	28.904
342.11	29.967
342.47	28.548
342.83	31.009
343.20	29.507
343.56	28.197
343.92	28.159
344.28	28.868
344.65	30.073
345.01	29.048
345.37	28.526
345.73	29.762
346.10	27.968
346.46	29.107
346.82	27.546
347.19	29.134
347.55	28.649
347.91	27.417
348.27	27.111
348.63	28.639
349.00	28.637
349.36	28.482
349.72	29.128
350.08	28.960
350.45	28.865
350.81	28.593
351.17	27.581
351.53	28.022
351.89	28.361
352.26	27.816
352.62	27.677
352.98	27.837
353.34	28.351
353.70	27.676
354.07	27.462
354.43	28.187
354.79	27.259
355.15	27.718
355.51	27.266
355.87	27.410
356.24	27.637
356.60	27.473
356.96	26.990
357.32	28.109
357.68	27.460
358.04	26.976
358.40	27.811
358.77	27.724
359.13	27.402
359.49	27.279
359.85	27.252
360.21	27.192
360.57	27.153
360.93	27.489
361.29	27.273
361.66	28.635
362.02	26.562
362.38	26.551
362.74	26.398
363.10	26.297
363.46	25.829
363.82	26.297
364.18	27.738
364.54	27.468
364.90	25.904
365.26	26.787
365.62	27.003
365.98	26.153
366.35	26.000
366.71	27.065
367.07	25.256
367.43	26.729
367.79	25.399
368.15	25.102
368.51	26.327
368.87	25.476
369.23	26.265
369.59	27.040
369.95	25.664
370.31	25.667
370.67	26.371
371.03	26.190
371.39	25.623
371.75	25.960
372.11	25.833
372.47	26.575
372.83	25.901
373.19	25.840
373.55	25.430
373.91	24.793
374.27	24.802
374.63	25.220
374.99	25.539
375.35	25.538
375.71	25.528
376.07	25.265
376.42	24.872
376.78	26.718
377.14	25.295
377.50	25.655
377.86	25.625
378.22	25.472
378.58	26.574
378.94	25.045
379.30	26.016
379.66	25.105
380.02	25.044
380.38	25.000
380.74	25.779
381.09	25.584
381.45	24.220
381.81	23.995
382.17	24.908
382.53	24.775
382.89	26.079
383.25	24.097
383.61	24.150
383.97	24.115
384.32	24.412
384.68	26.203
385.04	24.795
385.40	25.089
385.76	23.932
386.12	24.304
386.48	24.620
386.83	23.961
387.19	24.264
387.55	24.676
387.91	24.654
388.27	24.390
388.62	24.413
388.98	24.198
389.34	23.974
389.70	24.233
390.06	24.939
390.42	24.183
390.77	23.833
391.13	25.106
391.49	24.501
391.85	24.923
392.20	23.719
392.56	24.373
392.92	23.638
393.28	23.374
393.64	23.624
393.99	24.541
394.35	24.426
394.71	23.583
395.07	23.662
395.42	23.712
395.78	24.800
396.14	25.000
396.50	23.406
396.85	23.720
397.21	23.827
397.57	24.208
397.92	23.570
398.28	23.442
398.64	24.316
399.00	23.998
399.35	23.242
399.71	23.068
400.07	23.801
400.42	23.582
400.78	23.871
401.14	23.899
401.49	23.329
401.85	23.407
402.21	23.433
402.57	22.920
402.92	24.242
403.28	23.329
403.63	23.484
403.99	23.040
404.35	24.853
404.70	24.572
405.06	23.863
405.42	23.998
405.77	23.484
406.13	22.722
406.49	22.911
406.84	23.237
407.20	23.858
407.55	23.754
407.91	23.995
408.27	24.075
408.62	24.009
408.98	23.004
409.34	23.144
409.69	23.522
410.05	23.494
410.40	22.968
410.76	23.297
411.11	24.230
411.47	23.642
411.83	22.906
412.18	23.671
412.54	23.243
412.89	23.186
413.25	23.318
413.60	24.357
413.96	23.040
414.31	22.786
414.67	24.209
415.03	23.691
415.38	23.975
415.74	23.752
416.09	24.110
416.45	24.822
416.80	23.605
417.16	23.488
417.51	22.994
417.87	23.905
418.22	23.147
418.58	23.185
418.93	23.974
419.29	22.674
419.64	23.259
420.00	24.105
420.35	23.229
420.71	22.987
421.06	23.779
421.42	22.855
421.77	22.765
422.12	23.484
422.48	23.318
422.83	24.219
423.19	22.786
423.54	23.752
423.90	23.330
424.25	23.886
424.61	23.506
424.96	22.756
425.31	22.824
425.67	24.018
426.02	22.939
426.38	23.396
426.73	22.499
427.09	23.962
427.44	23.748
427.79	23.728
428.15	24.101
428.50	24.057
428.85	22.986
429.21	23.123
429.56	23.679
429.92	23.421
430.27	23.125
430.62	22.712
430.98	23.403
431.33	22.984
431.68	23.111
432.04	22.504
432.39	23.600
432.74	24.005
433.10	24.086
433.45	24.469
433.80	24.379
434.16	23.752
434.51	23.271
434.86	24.224
435.22	23.393
435.57	23.948
435.92	24.132
436.28	24.482
436.63	24.257
436.98	24.662
437.34	23.459
437.69	23.740
438.04	24.301
438.39	23.993
438.75	23.608
439.10	24.123
439.45	23.968
439.81	24.407
440.16	24.601
440.51	23.255
440.86	24.786
441.22	23.106
441.57	23.360
441.92	23.544
442.27	23.918
442.63	23.374
442.98	23.976
443.33	23.567
443.68	23.541
444.03	23.610
444.39	23.964
444.74	24.120
445.09	24.487
445.44	24.920
445.79	24.074
446.15	23.526
446.50	24.314
446.85	24.153
447.20	23.682
447.55	24.742
447.91	25.040
448.26	24.121
448.61	23.659
448.96	23.693
449.31	23.817
449.66	24.252
450.02	24.041
450.37	24.820
450.72	24.187
451.07	24.491
451.42	24.363
451.77	25.200
452.12	25.014
452.47	24.484
452.83	25.690
453.18	24.925
453.53	25.044
453.88	24.857
454.23	25.102
454.58	24.592
454.93	24.586
455.28	24.847
455.63	25.296
455.98	24.591
456.34	25.593
456.69	25.061
457.04	24.702
457.39	25.029
457.74	24.944
458.09	23.807
458.44	25.301
458.79	24.934
459.14	24.604
459.49	25.481
459.84	24.565
460.19	24.576
460.54	25.299
460.89	24.787
461.24	24.170
461.59	24.490
461.94	24.704
462.29	25.114
462.64	25.628
462.99	25.272
463.34	25.340
463.69	25.590
464.04	24.813
464.39	25.129
464.74	24.971
465.09	24.608
465.44	24.918
465.79	24.333
466.14	23.635
466.49	24.688
466.84	23.913
467.19	24.897
467.54	24.985
467.89	25.587
468.24	25.014
468.59	24.524
468.94	25.181
469.29	25.229
469.64	26.045
469.99	25.386
470.34	25.427
470.68	25.448
471.03	25.617
471.38	25.695
471.73	25.800
472.08	26.745
472.43	25.822
472.78	25.352
473.13	25.031
473.48	25.244
473.83	25.501
474.17	25.228
474.52	25.355
474.87	24.616
475.22	25.071
475.57	24.239
475.92	24.374
476.27	25.027
476.61	24.933
476.96	24.922
477.31	24.936
477.66	26.302
478.01	24.497
478.36	24.768
478.70	24.615
479.05	24.268
479.40	25.000
479.75	25.124
480.10	25.411
480.45	24.556
480.79	24.424
481.14	24.441
481.49	23.925
481.84	24.890
482.19	24.105
482.53	24.594
482.88	24.910
483.23	24.267
483.58	24.372
483.92	25.137
484.27	24.272
484.62	24.788
484.97	24.347
485.31	23.195
485.66	22.457
486.01	21.633
486.36	21.485
486.70	20.944
487.05	21.848
487.40	22.198
487.75	22.692
488.09	22.330
488.44	23.550
488.79	22.978
489.13	24.151
489.48	23.851
489.83	23.520
490.17	23.823
490.52	24.462
490.87	24.698
491.22	24.734
491.56	24.813
491.91	24.104
492.26	24.410
492.60	24.784
492.95	24.377
493.30	25.068
493.64	25.202
493.99	24.687
494.34	23.980
494.68	24.745
495.03	24.921
495.37	24.809
495.72	24.988
496.07	25.112
496.41	24.283
496.76	24.525
497.11	24.464
497.45	24.244
497.80	25.533
498.14	24.457
498.49	24.698
498.84	25.140
499.18	24.269
499.53	24.254
499.87	24.349
500.22	25.012
500.56	23.770
500.91	25.417
501.26	24.989
501.60	24.362
501.95	23.342
502.29	24.667
502.64	23.114
502.98	24.189
503.33	23.563
503.67	24.636
504.02	23.914
504.36	24.344
504.71	24.314
505.06	24.496
505.40	24.380
505.75	24.462
506.09	24.545
506.44	23.731
506.78	24.716
507.13	25.061
507.47	24.309
507.82	24.769
508.16	25.380
508.51	25.362
508.85	24.786
509.19	24.572
509.54	24.609
509.88	25.311
510.23	24.167
510.57	24.035
510.92	25.075
511.26	24.749
511.61	24.618
511.95	24.938
512.30	24.400
512.64	24.559
512.98	24.910
513.33	25.307
513.67	25.220
514.02	24.987
514.36	24.870
514.70	24.480
515.05	25.200
515.39	25.658
515.74	25.533
516.08	25.000
516.42	25.738
516.77	24.960
517.11	24.587
517.46	25.269
517.80	25.068
518.14	26.366
518.49	25.689
518.83	25.110
519.17	25.458
519.52	24.904
519.86	25.395
520.20	25.096
520.55	24.703
520.89	24.943
521.23	25.701
521.58	24.900
521.92	25.248
522.26	24.763
522.61	26.797
522.95	26.847
523.29	25.614
523.64	24.509
523.98	26.408
524.32	25.721
524.66	24.812
525.01	25.207
525.35	24.632
525.69	26.370
526.04	26.353
526.38	25.544
526.72	24.881
527.06	25.310
527.41	26.542
527.75	25.563
528.09	25.226
528.43	26.602
528.78	25.104
529.12	25.467
529.46	24.196
529.80	25.117
530.15	25.692
530.49	24.308
530.83	25.411
531.17	25.092
531.51	25.322
531.86	25.543
532.20	24.845
532.54	24.608
532.88	25.109
533.22	24.619
533.57	25.320
533.91	24.126
534.25	23.774
534.59	24.444
534.93	24.175
535.27	22.937
535.62	24.387
535.96	24.113
536.30	24.375
536.64	24.161
536.98	25.047
537.32	24.750
537.66	24.490
538.01	24.520
538.35	24.329
538.69	24.272
539.03	24.192
539.37	24.818
539.71	24.630
540.05	24.246
540.39	25.912
540.73	25.443
541.07	24.467
541.42	24.565
541.76	25.401
542.10	23.921
542.44	24.439
542.78	24.607
543.12	24.110
543.46	24.499
543.80	24.875
544.14	23.406
544.48	23.662
544.82	24.037
545.16	23.315
545.50	24.155
545.84	24.937
546.18	24.967
546.52	25.180
546.86	24.565
547.20	23.902
547.54	23.939
547.88	24.270
548.22	23.862
548.56	22.923
548.90	23.488
549.24	24.068
549.58	23.454
549.92	24.100
550.26	24.611
550.60	23.619
550.94	24.491
551.28	24.345
551.62	25.448
551.96	25.000
552.30	23.270
552.64	24.078
552.98	23.518
553.32	24.136
553.66	23.322
554.00	24.646
554.34	24.900
554.68	23.992
555.02	23.557
555.36	24.003
555.69	23.887
556.03	23.949
556.37	24.156
556.71	24.055
557.05	23.263
557.39	23.200
557.73	24.259
558.07	25.151
558.41	25.223
558.75	24.624
559.08	25.804
559.42	23.407
559.76	24.163
560.10	23.606
560.44	23.889
560.78	23.849
561.12	23.903
561.45	22.528
561.79	22.597
562.13	22.489
562.47	23.686
562.81	23.227
563.15	23.529
563.48	22.174
563.82	24.329
564.16	23.694
564.50	23.086
564.84	24.742
565.17	22.757
565.51	23.091
565.85	22.887
566.19	23.214
566.52	22.744
566.86	23.584
567.20	23.539
567.54	22.216
567.88	21.909
568.21	21.717
568.55	21.741
568.89	21.305
569.23	20.017
569.56	20.567
569.90	20.374
570.24	19.761
570.57	19.500
570.91	19.282
571.25	18.624
571.59	18.979
571.92	18.730
572.26	17.574
572.60	18.578
572.93	19.149
573.27	18.553
573.61	18.056
573.95	18.476
574.28	18.711
574.62	18.281
574.96	17.970
575.29	17.931
575.63	18.068
575.97	18.014
576.30	18.223
576.64	18.390
576.98	17.878
577.31	18.522
577.65	17.868
577.98	17.433
578.32	17.346
578.66	18.002
578.99	17.831
579.33	17.682
579.67	17.632
580.00	17.588
580.34	17.725
580.67	17.315
581.01	17.950
581.35	17.034
581.68	17.215
582.02	17.172
582.35	17.266
582.69	17.134
583.02	17.618
583.36	17.359
583.70	18.285
584.03	18.195
584.37	18.072
584.70	17.790
585.04	17.392
585.37	17.223
585.71	18.135
586.04	17.545
586.38	17.644
586.72	17.580
587.05	17.936
587.39	17.674
587.72	17.882
588.06	17.854
588.39	17.605
588.73	18.142
589.06	18.354
589.40	19.218
589.73	18.682
590.07	18.977
590.40	18.920
590.73	19.501
591.07	20.152
591.40	18.962
591.74	18.994
592.07	19.010
592.41	19.424
592.74	18.894
593.08	18.229
593.41	18.073
593.75	17.804
594.08	18.263
594.41	17.954
594.75	19.041
595.08	18.107
595.42	18.762
595.75	18.230
596.09	18.978
596.42	18.864
596.75	19.671
597.09	19.604
597.42	19.673
597.75	18.580
598.09	18.712
598.42	19.421
598.76	18.774
599.09	19.051
599.42	17.647
599.76	18.419
600.09	18.373
600.42	18.163
600.76	18.117
601.09	18.467
601.42	18.268
601.76	17.974
602.09	18.837
602.42	18.410
602.76	18.178
603.09	18.590
603.42	18.532
603.76	18.040
604.09	18.567
604.42	18.004
604.76	18.530
605.09	19.306
605.42	18.448
605.75	18.279
606.09	18.707
606.42	17.813
606.75	18.850
607.09	19.029
607.42	18.963
607.75	18.432
608.08	18.968
608.42	19.379
608.75	18.143
609.08	18.390
609.41	19.773
609.75	19.597
610.08	18.480
610.41	18.577
610.74	18.571
611.07	18.963
611.41	19.462
611.74	19.551
612.07	19.027
612.40	19.737
612.73	20.070
613.07	20.172
613.40	19.699
613.73	20.220
614.06	19.350
614.39	20.051
614.72	18.885
615.06	19.041
615.39	19.257
615.72	19.458
616.05	19.890
616.38	19.787
616.71	20.239
617.05	19.495
617.38	19.663
617.71	20.472
618.04	19.349
618.37	19.288
618.70	20.035
619.03	20.024
619.36	21.357
619.69	21.306
620.03	21.265
620.36	19.846
620.69	21.903
621.02	21.128
621.35	20.917
621.68	20.501
622.01	23.100
622.34	20.685
622.67	22.472
623.00	20.558
623.33	20.985
623.66	20.559
623.99	22.466
624.32	21.206
624.65	21.198
624.99	20.825
625.32	21.176
625.65	20.207
625.98	20.990
626.31	22.033
626.64	21.564
626.97	21.194
627.30	22.360
627.63	22.763
627.96	21.127
628.29	21.205
628.62	22.498
628.95	23.316
629.28	23.839
629.61	21.968
629.94	21.867
630.26	22.964
630.59	23.670
630.92	22.601
631.25	23.481
