SpectraSuite Data File
++++++++++++++++++++++++++++++++++++
Date: Tue May 12 16:29:18 PDT 2015
User: schluterlab
Dark Spectrum Present: Yes
Reference Spectrum Present: Yes
Number of Sampled Component Spectra: 1
Spectrometers: USB2E3373
Integration Time (usec): 3000 (USB2E3373)
Spectra Averaged: 3 (USB2E3373)
Boxcar Smoothing: 0 (USB2E3373)
Correct for Electrical Dark: No (USB2E3373)
Strobe/Lamp Enabled: No (USB2E3373)
Correct for Detector Non-linearity: No (USB2E3373)
Correct for Stray Light: No (USB2E3373)
Number of Pixels in Processed Spectrum: 2048
>>>>>Begin Processed Spectral Data<<<<<
178.53	0.000
178.91	-141.667
179.29	-325.000
179.67	-4100.000
180.04	-80.000
180.42	575.000
180.80	1600.000
181.18	0.000
181.56	-325.000
181.94	0.000
182.31	866.667
182.69	-2500.000
183.07	557.143
183.45	-3800.000
183.83	-2000.000
184.20	400.000
184.58	557.143
184.96	-230.769
185.34	-166.667
185.72	1500.000
186.09	-800.000
186.47	-2800.000
186.85	1233.333
187.23	680.000
187.61	2150.000
187.98	337.500
188.36	235.714
188.74	358.333
189.12	416.667
189.49	800.000
189.87	0.000
190.25	475.000
190.63	2400.000
191.00	-275.000
191.38	-3000.000
191.76	-550.000
192.14	575.000
192.51	-2400.000
192.89	1350.000
193.27	1200.000
193.65	-933.333
194.02	-640.000
194.40	514.286
194.78	-157.143
195.15	213.333
195.53	-3900.000
195.91	-440.000
196.29	4500.000
196.66	262.500
197.04	725.000
197.42	-1500.000
197.79	500.000
198.17	375.000
198.55	0.000
198.92	457.143
199.30	1133.333
199.68	1900.000
200.05	733.333
200.43	-316.667
200.81	150.000
201.18	3400.000
201.56	275.000
201.94	-750.000
202.31	-300.000
202.69	-580.000
203.07	2600.000
203.44	-483.333
203.82	341.667
204.19	640.000
204.57	-1550.000
204.95	-625.000
205.32	-720.000
205.70	433.333
206.08	900.000
206.45	-800.000
206.83	322.222
207.20	221.053
207.58	241.667
207.96	720.000
208.33	0.000
208.71	485.714
209.08	640.000
209.46	-3700.000
209.84	-900.000
210.21	880.000
210.59	-580.000
210.96	283.333
211.34	-900.000
211.71	390.909
212.09	675.000
212.46	1600.000
212.84	-366.667
213.22	388.889
213.59	-3400.000
213.97	320.000
214.34	1025.000
214.72	1166.667
215.09	1233.333
215.47	-2900.000
215.84	-250.000
216.22	-425.000
216.59	0.000
216.97	0.000
217.34	1400.000
217.72	-1700.000
218.09	900.000
218.47	437.500
218.84	800.000
219.22	800.000
219.59	800.000
219.97	428.571
220.34	377.778
220.72	1100.000
221.09	3400.000
221.47	308.333
221.84	1033.333
222.22	330.000
222.59	311.111
222.97	242.857
223.34	200.000
223.72	-2100.000
224.09	1200.000
224.46	276.923
224.84	-850.000
225.21	477.778
225.59	226.667
225.96	1133.333
226.34	-680.000
226.71	-625.000
227.08	-540.000
227.46	0.000
227.83	-433.333
228.21	-1900.000
228.58	275.000
228.95	1000.000
229.33	244.444
229.70	925.000
230.08	346.154
230.45	2500.000
230.82	-750.000
231.20	-766.667
231.57	-1066.667
231.95	540.000
232.32	191.667
232.69	466.667
233.07	283.333
233.44	-1300.000
233.81	306.667
234.19	140.741
234.56	206.250
234.93	229.412
235.31	200.000
235.68	275.000
236.05	182.143
236.43	225.926
236.80	257.143
237.17	182.759
237.55	153.125
237.92	132.500
238.29	148.485
238.67	162.500
239.04	153.659
239.41	93.750
239.79	110.000
240.16	120.833
240.53	100.000
240.91	94.203
241.28	100.000
241.65	101.515
242.02	114.085
242.40	108.571
242.77	84.615
243.14	75.949
243.51	94.949
243.89	71.963
244.26	70.093
244.63	83.168
245.00	71.560
245.38	60.169
245.75	70.455
246.12	73.333
246.49	69.504
246.87	66.393
247.24	71.333
247.61	66.875
247.98	68.027
248.36	59.394
248.73	63.265
249.10	69.643
249.47	61.000
249.84	59.701
250.22	67.027
250.59	61.000
250.96	61.603
251.33	63.256
251.70	59.375
252.08	64.286
252.45	54.582
252.82	59.696
253.19	60.870
253.56	58.077
253.94	56.884
254.31	60.853
254.68	55.401
255.05	58.966
255.42	55.839
255.79	59.283
256.16	62.373
256.54	58.766
256.91	59.150
257.28	57.191
257.65	52.351
258.02	56.047
258.39	56.447
258.76	60.290
259.14	54.000
259.51	56.268
259.88	60.790
260.25	52.473
260.62	52.055
260.99	53.168
261.36	54.596
261.73	55.585
262.10	57.068
262.47	51.500
262.85	55.467
263.22	55.270
263.59	54.731
263.96	52.632
264.33	55.309
264.70	55.774
265.07	55.366
265.44	54.358
265.81	54.953
266.18	54.462
266.55	54.137
266.92	53.468
267.29	56.798
267.66	53.139
268.03	54.260
268.40	50.529
268.77	57.709
269.14	52.061
269.51	52.784
269.88	53.673
270.25	54.212
270.62	53.648
270.99	55.984
271.36	53.049
271.73	51.572
272.10	51.717
272.47	50.000
272.84	53.293
273.21	53.512
273.58	53.239
273.95	52.567
274.32	52.724
274.69	52.165
275.06	54.098
275.43	51.724
275.80	51.698
276.17	47.978
276.54	50.280
276.91	54.291
277.28	48.175
277.65	52.030
278.02	50.184
278.39	48.921
278.76	51.552
279.13	49.466
279.50	51.091
279.87	47.672
280.23	48.250
280.60	51.642
280.97	48.966
281.34	48.185
281.71	48.696
282.08	49.231
282.45	47.635
282.82	47.993
283.19	49.921
283.56	47.934
283.92	51.303
284.29	48.253
284.66	47.899
285.03	49.088
285.40	47.603
285.77	46.296
286.14	47.214
286.51	47.239
286.87	44.778
287.24	45.796
287.61	43.921
287.98	46.567
288.35	47.704
288.72	44.917
289.08	45.045
289.45	45.732
289.82	46.875
290.19	43.485
290.56	46.143
290.93	43.885
291.29	41.298
291.66	41.243
292.03	43.619
292.40	42.141
292.77	42.201
293.13	41.369
293.50	40.216
293.87	39.973
294.24	42.797
294.60	41.992
294.97	40.699
295.34	40.106
295.71	38.765
296.08	41.067
296.44	38.882
296.81	39.454
297.18	38.276
297.55	37.069
297.91	37.438
298.28	37.802
298.65	38.037
299.02	37.033
299.38	38.129
299.75	36.220
300.12	36.697
300.48	37.939
300.85	36.353
301.22	36.395
301.59	34.080
301.95	36.639
302.32	33.411
302.69	37.104
303.05	34.119
303.42	32.960
303.79	34.886
304.15	33.663
304.52	33.087
304.89	34.435
305.25	35.150
305.62	35.821
305.99	34.674
306.35	34.000
306.72	35.276
307.09	33.333
307.45	34.213
307.82	32.819
308.19	34.742
308.55	32.800
308.92	34.249
309.29	35.306
309.65	34.985
310.02	31.542
310.38	32.702
310.75	32.498
311.12	32.280
311.48	34.749
311.85	33.397
312.22	33.142
312.58	32.459
312.95	32.039
313.31	32.772
313.68	31.895
314.05	33.150
314.41	32.775
314.78	31.250
315.14	32.227
315.51	32.923
315.87	31.752
316.24	31.466
316.61	32.140
316.97	31.743
317.34	32.255
317.70	33.011
318.07	32.740
318.43	32.953
318.80	32.750
319.16	31.643
319.53	32.389
319.89	31.631
320.26	33.520
320.62	31.960
320.99	32.507
321.35	31.076
321.72	32.068
322.08	31.487
322.45	32.788
322.81	32.388
323.18	31.616
323.54	32.753
323.91	32.457
324.27	32.361
324.64	31.315
325.00	31.638
325.37	31.703
325.73	31.788
326.10	33.223
326.46	31.709
326.83	31.200
327.19	33.655
327.56	32.827
327.92	32.131
328.29	32.815
328.65	33.134
329.01	32.079
329.38	32.318
329.74	32.451
330.11	32.407
330.47	32.396
330.84	30.544
331.20	32.064
331.56	33.765
331.93	32.164
332.29	31.463
332.66	31.803
333.02	31.787
333.38	32.810
333.75	31.943
334.11	30.872
334.48	31.795
334.84	31.757
335.20	31.394
335.57	30.730
335.93	31.371
336.29	31.509
336.66	31.904
337.02	31.138
337.38	30.954
337.75	32.179
338.11	31.561
338.47	31.329
338.84	30.821
339.20	30.909
339.56	30.698
339.93	31.689
340.29	30.252
340.65	31.098
341.02	31.456
341.38	30.131
341.74	32.309
342.11	30.050
342.47	30.025
342.83	31.829
343.20	30.315
343.56	28.991
343.92	29.480
344.28	30.622
344.65	31.296
345.01	30.476
345.37	29.487
345.73	30.556
346.10	29.243
346.46	30.223
346.82	28.318
347.19	30.526
347.55	29.586
347.91	30.060
348.27	29.280
348.63	29.193
349.00	29.246
349.36	28.872
349.72	29.205
350.08	29.736
350.45	29.703
350.81	28.670
351.17	28.968
351.53	28.560
351.89	28.671
352.26	27.967
352.62	29.864
352.98	28.528
353.34	29.353
353.70	28.670
354.07	29.846
354.43	29.493
354.79	29.005
355.15	28.484
355.51	28.323
355.87	28.614
356.24	28.099
356.60	28.919
356.96	28.355
357.32	29.917
357.68	28.488
358.04	29.179
358.40	27.736
358.77	29.151
359.13	28.679
359.49	28.466
359.85	27.923
360.21	27.786
360.57	27.664
360.93	27.633
361.29	28.066
361.66	28.784
362.02	27.486
362.38	28.066
362.74	28.521
363.10	27.419
363.46	27.279
363.82	29.243
364.18	28.592
364.54	28.112
364.90	28.246
365.26	28.383
365.62	27.348
365.98	26.359
366.35	27.586
366.71	27.412
367.07	27.509
367.43	27.199
367.79	27.793
368.15	27.408
368.51	27.636
368.87	27.378
369.23	28.205
369.59	28.186
369.95	27.762
370.31	26.557
370.67	26.232
371.03	27.871
371.39	27.701
371.75	26.448
372.11	26.852
372.47	27.671
372.83	27.532
373.19	27.553
373.55	27.285
373.91	26.174
374.27	26.521
374.63	27.661
374.99	26.752
375.35	27.016
375.71	27.375
376.07	27.586
376.42	26.343
376.78	27.553
377.14	26.802
377.50	26.717
377.86	27.162
378.22	26.630
378.58	27.724
378.94	26.614
379.30	27.471
379.66	26.791
380.02	27.038
380.38	26.347
380.74	26.759
381.09	26.460
381.45	26.416
381.81	26.123
382.17	26.068
382.53	25.675
382.89	26.257
383.25	25.814
383.61	25.994
383.97	25.915
384.32	26.040
384.68	27.154
385.04	26.964
385.40	26.157
385.76	26.214
386.12	26.778
386.48	26.079
386.83	26.650
387.19	25.559
387.55	26.207
387.91	25.924
388.27	26.710
388.62	26.526
388.98	25.248
389.34	25.640
389.70	27.005
390.06	26.159
390.42	25.355
390.77	26.351
391.13	26.252
391.49	26.074
391.85	27.077
392.20	26.698
392.56	25.806
392.92	24.874
393.28	26.570
393.64	25.000
393.99	25.311
394.35	25.662
394.71	25.573
395.07	25.487
395.42	26.347
395.78	26.835
396.14	26.506
396.50	25.933
396.85	26.463
397.21	26.414
397.57	26.778
397.92	25.534
398.28	25.979
398.64	25.829
399.00	25.494
399.35	24.799
399.71	24.945
400.07	24.886
400.42	25.433
400.78	24.868
401.14	25.719
401.49	25.346
401.85	25.492
402.21	24.780
402.57	25.494
402.92	25.091
403.28	24.523
403.63	24.897
403.99	25.754
404.35	25.615
404.70	25.576
405.06	25.154
405.42	25.135
405.77	25.910
406.13	25.976
406.49	24.446
406.84	24.422
407.20	25.514
407.55	25.538
407.91	25.271
408.27	24.864
408.62	25.251
408.98	25.015
409.34	25.015
409.69	25.264
410.05	24.806
410.40	23.852
410.76	24.442
411.11	25.296
411.47	24.691
411.83	24.429
412.18	24.698
412.54	25.285
412.89	24.779
413.25	24.914
413.60	25.058
413.96	25.314
414.31	25.030
414.67	25.388
415.03	24.521
415.38	25.615
415.74	25.774
416.09	25.547
416.45	26.180
416.80	27.069
417.16	25.143
417.51	25.096
417.87	24.781
418.22	25.091
418.58	25.541
418.93	24.450
419.29	23.906
419.64	25.560
420.00	25.776
420.35	24.448
420.71	24.679
421.06	24.250
421.42	24.583
421.77	25.319
422.12	24.587
422.48	24.653
422.83	24.554
423.19	25.216
423.54	25.069
423.90	24.462
424.25	24.326
424.61	24.608
424.96	23.941
425.31	24.795
425.67	24.916
426.02	24.790
426.38	24.854
426.73	24.754
427.09	24.140
427.44	24.311
427.79	24.814
428.15	24.573
428.50	25.543
428.85	24.456
429.21	24.689
429.56	24.277
429.92	25.012
430.27	24.141
430.62	24.180
430.98	24.351
431.33	23.841
431.68	23.358
432.04	24.470
432.39	25.137
432.74	24.239
433.10	24.695
433.45	25.273
433.80	24.545
434.16	24.120
434.51	24.613
434.86	24.878
435.22	24.365
435.57	24.422
435.92	24.701
436.28	24.770
436.63	24.743
436.98	24.550
437.34	24.829
437.69	24.244
438.04	24.355
438.39	24.927
438.75	24.555
439.10	24.447
439.45	25.042
439.81	25.853
440.16	24.546
440.51	23.986
440.86	25.470
441.22	24.188
441.57	23.885
441.92	23.741
442.27	24.124
442.63	24.339
442.98	24.084
443.33	24.906
443.68	24.245
444.03	23.987
444.39	24.011
444.74	24.224
445.09	24.381
445.44	24.017
445.79	23.635
446.15	23.211
446.50	24.420
446.85	24.452
447.20	23.532
447.55	24.144
447.91	24.560
448.26	23.536
448.61	24.820
448.96	25.381
449.31	24.642
449.66	24.695
450.02	23.663
450.37	24.653
450.72	24.959
451.07	25.015
451.42	24.778
451.77	23.883
452.12	24.220
452.47	24.727
452.83	24.113
453.18	25.405
453.53	24.512
453.88	24.914
454.23	24.172
454.58	24.709
454.93	24.341
455.28	25.398
455.63	24.882
455.98	24.365
456.34	24.802
456.69	24.146
457.04	24.224
457.39	24.286
457.74	24.775
458.09	24.424
458.44	24.863
458.79	23.979
459.14	23.895
459.49	25.028
459.84	25.652
460.19	24.915
460.54	24.615
460.89	24.627
461.24	24.971
461.59	23.980
461.94	24.173
462.29	24.600
462.64	24.874
462.99	24.440
463.34	24.822
463.69	25.408
464.04	24.813
464.39	24.499
464.74	23.740
465.09	24.144
465.44	24.538
465.79	24.333
466.14	24.006
466.49	24.525
466.84	24.916
467.19	24.370
467.54	23.544
467.89	24.824
468.24	23.798
468.59	23.929
468.94	24.758
469.29	23.885
469.64	24.952
469.99	24.614
470.34	24.794
470.68	25.517
471.03	25.017
471.38	24.636
471.73	24.559
472.08	25.701
472.43	25.326
472.78	24.520
473.13	23.279
473.48	24.389
473.83	24.087
474.17	24.802
474.52	24.704
474.87	23.309
475.22	23.758
475.57	24.029
475.92	23.812
476.27	23.232
476.61	23.271
476.96	23.929
477.31	24.216
477.66	24.852
478.01	23.620
478.36	24.202
478.70	23.375
479.05	24.425
479.40	24.256
479.75	24.628
480.10	23.959
480.45	23.903
480.79	23.917
481.14	24.013
481.49	23.376
481.84	23.527
482.19	23.624
482.53	23.979
482.88	23.880
483.23	23.004
483.58	24.506
483.92	24.086
484.27	22.817
484.62	23.684
484.97	23.257
485.31	23.195
485.66	22.984
486.01	22.917
486.36	22.728
486.70	22.407
487.05	22.802
487.40	22.840
487.75	23.055
488.09	23.097
488.44	23.454
488.79	22.596
489.13	23.292
489.48	22.932
489.83	22.686
490.17	23.699
490.52	23.600
490.87	23.060
491.22	24.512
491.56	23.452
491.91	23.297
492.26	23.296
492.60	23.690
492.95	23.833
493.30	23.794
493.64	23.270
493.99	23.479
494.34	23.667
494.68	23.595
495.03	23.799
495.37	23.863
495.72	24.242
496.07	23.720
496.41	22.980
496.76	23.385
497.11	23.565
497.45	23.498
497.80	23.726
498.14	23.717
498.49	23.955
498.84	23.598
499.18	22.623
499.53	24.437
499.87	23.405
500.22	23.445
500.56	23.120
500.91	23.794
501.26	23.886
501.60	23.816
501.95	22.984
502.29	23.422
502.64	23.467
502.98	22.543
503.33	23.341
503.67	24.415
504.02	22.750
504.36	23.122
504.71	23.936
505.06	23.463
505.40	23.163
505.75	23.761
506.09	23.565
506.44	23.590
506.78	23.440
507.13	23.267
507.47	22.756
507.82	23.552
508.16	24.547
508.51	24.010
508.85	24.264
509.19	23.446
509.54	24.170
509.88	23.720
510.23	23.186
510.57	21.911
510.92	23.626
511.26	23.996
511.61	23.141
511.95	23.544
512.30	23.100
512.64	23.832
512.98	23.424
513.33	23.258
513.67	23.045
514.02	23.221
514.36	23.209
514.70	23.307
515.05	23.015
515.39	23.849
515.74	24.112
516.08	23.856
516.42	24.754
516.77	23.787
517.11	23.200
517.46	23.761
517.80	22.993
518.14	24.056
518.49	22.822
518.83	22.473
519.17	23.572
519.52	24.468
519.86	23.270
520.20	23.342
520.55	23.686
520.89	24.310
521.23	23.832
521.58	23.523
521.92	23.265
522.26	23.223
522.61	23.886
522.95	23.784
523.29	23.275
523.64	23.353
523.98	23.650
524.32	23.933
524.66	23.594
525.01	23.018
525.35	23.866
525.69	24.865
526.04	24.033
526.38	23.661
526.72	23.091
527.06	22.886
527.41	23.942
527.75	23.433
528.09	22.757
528.43	23.612
528.78	23.256
529.12	24.925
529.46	23.612
529.80	22.722
530.15	23.984
530.49	23.586
530.83	24.314
531.17	23.370
531.51	24.280
531.86	23.792
532.20	22.682
532.54	23.854
532.88	24.047
533.22	23.766
533.57	23.490
533.91	23.252
534.25	23.543
534.59	23.801
534.93	23.265
535.27	22.709
535.62	23.221
535.96	23.641
536.30	23.583
536.64	23.540
536.98	23.222
537.32	24.250
537.66	23.151
538.01	23.591
538.35	23.269
538.69	23.544
539.03	23.445
539.37	23.422
539.71	23.333
540.05	23.385
540.39	23.711
540.73	23.608
541.07	23.275
541.42	23.632
541.76	23.120
542.10	23.243
542.44	23.379
542.78	23.600
543.12	23.129
543.46	23.684
543.80	23.434
544.14	23.406
544.48	23.175
544.82	23.242
545.16	23.558
545.50	23.479
545.84	23.359
546.18	24.577
546.52	24.328
546.86	23.017
547.20	23.062
547.54	22.673
547.88	22.932
548.22	23.801
548.56	22.805
548.90	23.132
549.24	23.563
549.58	23.260
549.92	22.331
550.26	23.935
550.60	22.954
550.94	23.609
551.28	24.414
551.62	24.207
551.96	22.770
552.30	23.270
552.64	23.754
552.98	23.454
553.32	23.303
553.66	23.388
554.00	22.973
554.34	24.434
554.68	23.522
555.02	23.829
555.36	22.473
555.69	22.840
556.03	24.204
556.37	23.901
556.71	23.859
557.05	21.822
557.39	23.000
557.73	23.113
558.07	24.212
558.41	23.852
558.75	23.529
559.08	23.803
559.42	23.622
559.76	23.022
560.10	23.400
560.44	22.628
560.78	23.465
561.12	22.759
561.45	22.778
561.79	21.973
562.13	22.868
562.47	22.583
562.81	24.203
563.15	23.206
563.48	22.671
563.82	23.394
564.16	22.575
564.50	22.664
564.84	23.100
565.17	23.292
565.51	23.399
565.85	23.319
566.19	23.036
566.52	22.563
566.86	23.876
567.20	23.090
567.54	22.980
567.88	22.587
568.21	22.416
568.55	22.714
568.89	22.901
569.23	22.519
569.56	22.364
569.90	22.566
570.24	22.419
570.57	22.226
570.91	22.246
571.25	22.212
571.59	22.109
571.92	21.421
572.26	21.563
572.60	21.411
572.93	22.139
573.27	21.597
573.61	21.630
573.95	22.311
574.28	22.079
574.62	21.844
574.96	21.225
575.29	21.146
575.63	21.484
575.97	21.592
576.30	21.109
576.64	21.479
576.98	21.453
577.31	22.128
577.65	21.470
577.98	21.512
578.32	21.438
578.66	21.442
578.99	21.775
579.33	21.696
579.67	21.394
580.00	21.211
580.34	21.770
580.67	21.253
581.01	21.900
581.35	21.507
581.68	21.266
582.02	21.541
582.35	21.717
582.69	21.574
583.02	21.321
583.36	21.514
583.70	21.536
584.03	22.347
584.37	22.287
584.70	21.398
585.04	21.033
585.37	21.348
585.71	21.685
586.04	21.343
586.38	21.714
586.72	21.956
587.05	21.770
587.39	21.669
587.72	21.859
588.06	21.803
588.39	21.776
588.73	21.411
589.06	22.002
589.40	22.066
589.73	22.288
590.07	22.272
590.40	22.892
590.73	23.210
591.07	22.543
591.40	21.996
591.74	22.524
592.07	21.381
592.41	22.502
592.74	22.007
593.08	21.615
593.41	21.634
593.75	21.376
594.08	21.866
594.41	21.636
594.75	21.678
595.08	21.674
595.42	22.548
595.75	21.685
596.09	22.454
596.42	21.668
596.75	22.837
597.09	22.493
597.42	21.878
597.75	21.826
598.09	21.543
598.42	22.113
598.76	21.550
599.09	21.846
599.42	21.592
599.76	22.083
600.09	21.898
600.42	21.789
600.76	21.006
601.09	21.781
601.42	22.210
601.76	21.625
602.09	22.075
602.42	21.701
602.76	21.670
603.09	22.097
603.42	21.835
603.76	21.764
604.09	21.100
604.42	21.431
604.76	22.007
605.09	22.000
605.42	21.942
605.75	22.029
606.09	22.150
606.42	21.947
606.75	22.231
607.09	21.477
607.42	21.294
607.75	21.855
608.08	21.324
608.42	21.644
608.75	21.694
609.08	21.777
609.41	22.227
609.75	22.573
610.08	22.482
610.41	21.300
610.74	21.861
611.07	21.874
611.41	21.872
611.74	21.797
612.07	21.387
612.40	22.173
612.73	22.566
613.07	22.453
613.40	21.955
613.73	21.867
614.06	21.000
614.39	22.677
614.72	21.045
615.06	21.464
615.39	21.980
615.72	20.813
616.05	23.104
616.38	21.867
616.71	22.626
617.05	21.472
617.38	21.854
617.71	22.441
618.04	21.481
618.37	21.623
618.70	21.998
619.03	22.222
619.36	22.487
619.69	22.955
620.03	23.549
620.36	23.443
620.69	23.691
621.02	23.030
621.35	21.418
621.68	22.493
622.01	24.502
622.34	22.141
622.67	22.683
623.00	21.920
623.33	22.132
623.66	22.222
623.99	22.329
624.32	22.493
624.65	22.383
624.99	22.380
625.32	22.044
625.65	21.586
625.98	21.757
626.31	22.478
626.64	21.412
626.97	22.188
627.30	22.050
627.63	22.527
627.96	22.379
628.29	22.855
628.62	22.156
628.95	23.493
629.28	22.787
629.61	22.232
629.94	22.558
630.26	23.657
630.59	23.936
630.92	23.677
631.25	22.303
