SpectraSuite Data File
++++++++++++++++++++++++++++++++++++
Date: Tue May 12 16:31:29 PDT 2015
User: schluterlab
Dark Spectrum Present: Yes
Reference Spectrum Present: Yes
Number of Sampled Component Spectra: 1
Spectrometers: USB2E3373
Integration Time (usec): 3000 (USB2E3373)
Spectra Averaged: 3 (USB2E3373)
Boxcar Smoothing: 0 (USB2E3373)
Correct for Electrical Dark: No (USB2E3373)
Strobe/Lamp Enabled: No (USB2E3373)
Correct for Detector Non-linearity: No (USB2E3373)
Correct for Stray Light: No (USB2E3373)
Number of Pixels in Processed Spectrum: 2048
>>>>>Begin Processed Spectral Data<<<<<
178.53	0.000
178.91	-283.333
179.29	-525.000
179.67	-3400.000
180.04	-166.667
180.42	525.000
180.80	1700.000
181.18	0.000
181.56	-287.500
181.94	0.000
182.31	1133.333
182.69	-2800.000
183.07	514.286
183.45	-3600.000
183.83	-1650.000
184.20	320.000
184.58	514.286
184.96	-223.077
185.34	-166.667
185.72	1550.000
186.09	-650.000
186.47	-2900.000
186.85	766.667
187.23	800.000
187.61	1550.000
187.98	500.000
188.36	278.571
188.74	191.667
189.12	308.333
189.49	1075.000
189.87	0.000
190.25	437.500
190.63	2100.000
191.00	-250.000
191.38	-3400.000
191.76	-700.000
192.14	475.000
192.51	-2900.000
192.89	1900.000
193.27	1033.333
193.65	-900.000
194.02	-640.000
194.40	571.429
194.78	-242.857
195.15	253.333
195.53	-4000.000
195.91	-360.000
196.29	3300.000
196.66	312.500
197.04	950.000
197.42	-1300.000
197.79	825.000
198.17	300.000
198.55	0.000
198.92	500.000
199.30	1133.333
199.68	1550.000
200.05	616.667
200.43	-616.667
200.81	205.556
201.18	3100.000
201.56	200.000
201.94	-775.000
202.31	-187.500
202.69	-520.000
203.07	3200.000
203.44	-416.667
203.82	216.667
204.19	620.000
204.57	-1400.000
204.95	-500.000
205.32	-820.000
205.70	566.667
206.08	850.000
206.45	-1133.333
206.83	255.556
207.20	163.158
207.58	241.667
207.96	640.000
208.33	0.000
208.71	542.857
209.08	740.000
209.46	-2600.000
209.84	-900.000
210.21	920.000
210.59	-500.000
210.96	225.000
211.34	-975.000
211.71	309.091
212.09	875.000
212.46	1600.000
212.84	-400.000
213.22	422.222
213.59	-3100.000
213.97	330.000
214.34	1175.000
214.72	933.333
215.09	1100.000
215.47	-3400.000
215.84	-350.000
216.22	-387.500
216.59	0.000
216.97	0.000
217.34	1050.000
217.72	-1650.000
218.09	1133.333
218.47	462.500
218.84	750.000
219.22	1066.667
219.59	666.667
219.97	485.714
220.34	422.222
220.72	1500.000
221.09	3300.000
221.47	300.000
221.84	833.333
222.22	390.000
222.59	250.000
222.97	192.857
223.34	200.000
223.72	-1700.000
224.09	1433.333
224.46	200.000
224.84	-750.000
225.21	377.778
225.59	286.667
225.96	1200.000
226.34	-480.000
226.71	-550.000
227.08	-640.000
227.46	0.000
227.83	-533.333
228.21	-1450.000
228.58	483.333
228.95	950.000
229.33	388.889
229.70	1000.000
230.08	269.231
230.45	2700.000
230.82	-800.000
231.20	-900.000
231.57	-1366.667
231.95	660.000
232.32	316.667
232.69	600.000
233.07	216.667
233.44	-1450.000
233.81	233.333
234.19	159.259
234.56	200.000
234.93	235.294
235.31	230.000
235.68	237.500
236.05	189.286
236.43	177.778
236.80	150.000
237.17	196.552
237.55	150.000
237.92	135.000
238.29	169.697
238.67	146.875
239.04	131.707
239.41	125.000
239.79	117.500
240.16	112.500
240.53	108.197
240.91	88.406
241.28	108.475
241.65	84.848
242.02	105.634
242.40	107.143
242.77	84.615
243.14	83.544
243.51	90.909
243.89	76.636
244.26	74.766
244.63	75.248
245.00	86.239
245.38	79.661
245.75	84.091
246.12	74.815
246.49	60.993
246.87	79.508
247.24	74.000
247.61	64.375
247.98	70.068
248.36	64.242
248.73	69.898
249.10	70.833
249.47	66.000
249.84	68.159
250.22	72.973
250.59	67.000
250.96	64.979
251.33	64.651
251.70	66.518
252.08	64.286
252.45	62.550
252.82	56.274
253.19	66.008
253.56	61.923
253.94	63.043
254.31	65.891
254.68	67.247
255.05	65.862
255.42	60.949
255.79	62.215
256.16	60.678
256.54	61.039
256.91	62.418
257.28	66.221
257.65	60.502
258.02	60.177
258.39	61.605
258.76	61.449
259.14	61.429
259.51	60.058
259.88	63.222
260.25	58.516
260.62	57.808
260.99	58.127
261.36	61.003
261.73	59.840
262.10	59.686
262.47	56.000
262.85	57.867
263.22	59.897
263.59	59.079
263.96	59.649
264.33	57.284
264.70	62.162
265.07	60.732
265.44	58.486
265.81	60.377
266.18	58.581
266.55	59.811
266.92	61.521
267.29	58.333
267.66	60.987
268.03	58.744
268.40	57.928
268.77	59.031
269.14	56.616
269.51	59.688
269.88	57.551
270.25	55.940
270.62	57.296
270.99	58.418
271.36	58.130
271.73	56.813
272.10	55.354
272.47	53.373
272.84	54.691
273.21	55.579
273.58	54.656
273.95	56.057
274.32	53.696
274.69	57.480
275.06	55.373
275.43	56.322
275.80	53.396
276.17	54.228
276.54	56.636
276.91	56.157
277.28	52.007
277.65	55.166
278.02	56.618
278.39	53.957
278.76	53.966
279.13	54.448
279.50	54.364
279.87	56.238
280.23	54.696
280.60	56.934
280.97	53.793
281.34	49.505
281.71	54.435
282.08	55.556
282.45	53.547
282.82	52.843
283.19	52.464
283.56	53.388
283.92	53.257
284.29	52.413
284.66	51.429
285.03	54.561
285.40	51.901
285.77	51.698
286.14	50.929
286.51	50.613
286.87	50.791
287.24	48.649
287.61	49.088
287.98	47.761
288.35	49.630
288.72	50.076
289.08	50.901
289.45	48.933
289.82	52.188
290.19	48.170
290.56	49.927
290.93	46.619
291.29	47.099
291.66	46.045
292.03	46.985
292.40	46.341
292.77	44.986
293.13	45.792
293.50	43.860
293.87	44.715
294.24	46.154
294.60	45.626
294.97	45.035
295.34	44.090
295.71	43.758
296.08	45.333
296.44	43.456
296.81	42.432
297.18	41.698
297.55	42.241
297.91	41.379
298.28	40.700
298.65	40.491
299.02	41.375
299.38	40.887
299.75	39.634
300.12	40.367
300.48	39.344
300.85	38.737
301.22	39.186
301.59	38.797
301.95	36.989
302.32	39.697
302.69	39.819
303.05	41.190
303.42	37.444
303.79	39.328
304.15	38.504
304.52	37.632
304.89	38.273
305.25	38.487
305.62	38.486
305.99	37.391
306.35	38.316
306.72	36.733
307.09	37.888
307.45	36.748
307.82	36.317
308.19	36.907
308.55	37.400
308.92	37.978
309.29	36.785
309.65	36.373
310.02	37.728
310.38	36.191
310.75	35.873
311.12	34.195
311.48	36.486
311.85	36.546
312.22	36.103
312.58	35.666
312.95	35.825
313.31	36.142
313.68	36.492
314.05	36.538
314.41	34.544
314.78	36.080
315.14	37.251
315.51	37.465
315.87	35.310
316.24	36.788
316.61	34.557
316.97	35.872
317.34	35.939
317.70	36.435
318.07	38.078
318.43	36.731
318.80	36.077
319.16	36.364
319.53	35.221
319.89	35.842
320.26	36.872
320.62	37.546
320.99	35.462
321.35	35.807
321.72	37.571
322.08	36.196
322.45	36.421
322.81	36.322
323.18	37.034
323.54	36.585
323.91	37.625
324.27	36.693
324.64	37.111
325.00	36.638
325.37	36.509
325.73	37.268
326.10	36.537
326.46	36.086
326.83	34.560
327.19	36.707
327.56	35.703
327.92	36.148
328.29	36.170
328.65	36.729
329.01	36.014
329.38	35.618
329.74	34.500
330.11	35.969
330.47	35.635
330.84	36.411
331.20	35.364
331.56	36.788
331.93	36.869
332.29	34.779
332.66	36.310
333.02	35.137
333.38	35.079
333.75	36.781
334.11	36.242
334.48	36.154
334.84	34.544
335.20	35.843
335.57	35.600
335.93	34.651
336.29	34.494
336.66	36.535
337.02	35.244
337.38	36.113
337.75	35.473
338.11	35.612
338.47	33.954
338.84	34.462
339.20	34.199
339.56	33.221
339.93	34.866
340.29	34.370
340.65	34.702
341.02	34.433
341.38	34.893
341.74	34.801
342.11	34.057
342.47	33.634
342.83	35.685
343.20	34.276
343.56	33.916
343.92	33.361
344.28	33.652
344.65	33.822
345.01	33.730
345.37	34.615
345.73	33.413
346.10	32.271
346.46	33.413
346.82	32.485
347.19	32.689
347.55	31.616
347.91	32.704
348.27	33.075
348.63	33.307
349.00	33.740
349.36	33.385
349.72	34.633
350.08	33.618
350.45	33.130
350.81	33.563
351.17	31.587
351.53	31.024
351.89	32.556
352.26	31.293
352.62	33.107
352.98	31.902
353.34	32.820
353.70	31.957
354.07	32.385
354.43	32.873
354.79	31.435
355.15	31.776
355.51	32.024
355.87	33.057
356.24	32.333
356.60	32.040
356.96	32.980
357.32	31.876
357.68	31.938
358.04	33.055
358.40	31.634
358.77	31.781
359.13	32.132
359.49	32.468
359.85	31.943
360.21	31.278
360.57	32.701
360.93	31.457
361.29	32.900
361.66	31.544
362.02	30.256
362.38	31.385
362.74	31.847
363.10	31.487
363.46	31.215
363.82	30.505
364.18	31.437
364.54	31.831
364.90	31.794
365.26	32.130
365.62	31.146
365.98	31.659
366.35	30.690
366.71	31.367
367.07	31.331
367.43	30.826
367.79	31.117
368.15	30.190
368.51	31.151
368.87	29.755
369.23	30.423
369.59	31.220
369.95	31.329
370.31	31.554
370.67	30.881
371.03	31.793
371.39	31.302
371.75	30.984
372.11	30.727
372.47	30.822
372.83	31.271
373.19	31.254
373.55	30.997
373.91	31.077
374.27	30.489
374.63	30.983
374.99	30.728
375.35	31.183
375.71	31.794
376.07	31.432
376.42	29.731
376.78	30.893
377.14	31.455
377.50	30.337
377.86	30.109
378.22	30.469
378.58	31.174
378.94	31.080
379.30	29.897
379.66	29.982
380.02	31.261
380.38	30.328
380.74	31.084
381.09	30.607
381.45	30.809
381.81	30.969
382.17	30.037
382.53	30.234
382.89	30.337
383.25	29.603
383.61	30.951
383.97	29.574
384.32	31.043
384.68	30.541
385.04	31.008
385.40	30.427
385.76	30.369
386.12	30.921
386.48	30.638
386.83	30.562
387.19	29.564
387.55	30.801
387.91	30.023
388.27	30.399
388.62	30.575
388.98	30.087
389.34	29.625
389.70	29.363
390.06	30.122
390.42	30.105
390.77	30.160
391.13	29.451
391.49	29.764
391.85	29.354
392.20	29.499
392.56	29.331
392.92	29.759
393.28	29.709
393.64	29.358
393.99	29.638
394.35	29.665
394.71	29.373
395.07	29.136
395.42	30.211
395.78	30.352
396.14	30.542
396.50	28.941
396.85	29.878
397.21	30.144
397.57	29.588
397.92	28.827
398.28	29.068
398.64	29.959
399.00	29.503
399.35	28.395
399.71	28.918
400.07	29.623
400.42	29.910
400.78	28.798
401.14	29.830
401.49	29.263
401.85	29.722
402.21	29.115
402.57	29.503
402.92	28.970
403.28	29.415
403.63	29.076
403.99	30.157
404.35	30.305
404.70	30.419
405.06	28.804
405.42	30.341
405.77	29.162
406.13	28.579
406.49	28.994
406.84	28.483
407.20	29.452
407.55	28.308
407.91	30.313
408.27	29.776
408.62	28.563
408.98	28.445
409.34	28.404
409.69	28.998
410.05	28.265
410.40	28.916
410.76	28.105
411.11	29.325
411.47	29.136
411.83	27.358
412.18	28.684
412.54	28.529
412.89	27.316
413.25	28.449
413.60	27.336
413.96	28.306
414.31	28.512
414.67	29.981
415.03	28.736
415.38	28.770
415.74	27.795
416.09	29.419
416.45	28.895
416.80	28.929
417.16	29.472
417.51	29.236
417.87	29.036
418.22	28.736
418.58	28.981
418.93	29.149
419.29	28.774
419.64	28.468
420.00	29.177
420.35	28.862
420.71	29.697
421.06	29.017
421.42	28.670
421.77	28.762
422.12	28.942
422.48	29.327
422.83	28.906
423.19	28.294
423.54	28.579
423.90	29.275
424.25	28.619
424.61	29.251
424.96	28.402
425.31	28.900
425.67	28.956
426.02	28.547
426.38	28.646
426.73	28.629
427.09	28.944
427.44	28.813
427.79	28.645
428.15	29.523
428.50	29.371
428.85	28.924
429.21	28.471
429.56	29.113
429.92	28.792
430.27	28.786
430.62	28.390
430.98	28.743
431.33	28.831
431.68	27.062
432.04	28.764
432.39	28.924
432.74	29.333
433.10	29.347
433.45	29.581
433.80	29.288
434.16	28.324
434.51	28.483
434.86	29.559
435.22	28.363
435.57	28.512
435.92	29.880
436.28	29.378
436.63	28.525
436.98	29.167
437.34	28.653
437.69	28.052
438.04	28.925
438.39	29.247
438.75	29.399
439.10	28.872
439.45	29.791
439.81	28.976
440.16	28.343
440.51	28.209
440.86	29.117
441.22	28.301
441.57	29.711
441.92	28.480
442.27	28.660
442.63	28.455
442.98	29.203
443.33	29.084
443.68	28.823
444.03	28.841
444.39	28.672
444.74	29.244
445.09	29.015
445.44	29.012
445.79	28.752
446.15	29.053
446.50	29.114
446.85	28.785
447.20	29.104
447.55	28.331
447.91	29.302
448.26	28.435
448.61	29.685
448.96	29.684
449.31	30.033
449.66	29.568
450.02	29.444
450.37	29.150
450.72	30.138
451.07	29.319
451.42	28.986
451.77	29.152
452.12	29.836
452.47	30.134
452.83	29.634
453.18	29.550
453.53	30.373
453.88	30.400
454.23	29.924
454.58	29.138
454.93	30.227
455.28	29.376
455.63	29.728
455.98	29.216
456.34	30.152
456.69	29.512
457.04	29.535
457.39	29.257
457.74	30.068
458.09	28.972
458.44	30.011
458.79	29.231
459.14	29.078
459.49	29.841
459.84	30.217
460.19	29.096
460.54	29.858
460.89	30.064
461.24	29.324
461.59	29.025
461.94	28.783
462.29	29.920
462.64	29.837
462.99	30.198
463.34	30.006
463.69	30.067
464.04	29.706
464.39	29.823
464.74	28.957
465.09	30.006
465.44	28.727
465.79	29.614
466.14	28.829
466.49	29.517
466.84	29.543
467.19	29.818
467.54	29.309
467.89	30.047
468.24	29.531
468.59	29.940
468.94	29.469
469.29	29.444
469.64	29.711
469.99	29.627
470.34	29.412
470.68	29.862
471.03	29.953
471.38	30.199
471.73	30.438
472.08	30.594
472.43	30.230
472.78	30.794
473.13	30.100
473.48	29.707
473.83	29.918
474.17	29.544
474.52	30.450
474.87	29.619
475.22	29.812
475.57	30.010
475.92	29.637
476.27	28.727
476.61	29.544
476.96	30.512
477.31	30.334
477.66	29.522
478.01	30.222
478.36	29.300
478.70	28.536
479.05	29.289
479.40	29.365
479.75	29.444
480.10	28.170
480.45	29.085
480.79	29.263
481.14	29.672
481.49	28.911
481.84	28.672
482.19	29.127
482.53	28.942
482.88	28.719
483.23	29.138
483.58	29.174
483.92	30.804
484.27	29.366
484.62	29.711
484.97	28.672
485.31	28.287
485.66	28.202
486.01	27.772
486.36	27.171
486.70	27.141
487.05	27.371
487.40	27.635
487.75	28.683
488.09	28.608
488.44	27.884
488.79	28.462
489.13	29.302
489.48	28.925
489.83	28.649
490.17	29.026
490.52	29.242
490.87	29.009
491.22	29.034
491.56	29.293
491.91	29.749
492.26	29.087
492.60	29.886
492.95	29.089
493.30	29.026
493.64	30.099
493.99	29.338
494.34	29.314
494.68	29.172
495.03	29.681
495.37	29.131
495.72	29.371
496.07	29.290
496.41	28.714
496.76	28.873
497.11	29.177
497.45	29.811
497.80	29.194
498.14	29.219
498.49	29.387
498.84	30.234
499.18	28.428
499.53	29.766
499.87	28.122
500.22	29.065
500.56	29.573
500.91	30.519
501.26	29.995
501.60	29.508
501.95	28.853
502.29	29.467
502.64	28.937
502.98	28.857
503.33	29.042
503.67	28.918
504.02	27.765
504.36	29.321
504.71	28.713
505.06	29.094
505.40	29.340
505.75	29.093
506.09	29.725
506.44	28.806
506.78	29.064
507.13	29.035
507.47	29.112
507.82	30.073
508.16	29.495
508.51	29.903
508.85	29.345
509.19	28.977
509.54	28.906
509.88	30.035
510.23	29.069
510.57	28.378
510.92	30.320
511.26	29.568
511.61	29.345
511.95	29.318
512.30	28.800
512.64	29.491
512.98	29.472
513.33	29.662
513.67	30.088
514.02	29.299
514.36	28.816
514.70	29.707
515.05	29.409
515.39	31.360
515.74	30.399
516.08	30.065
516.42	30.820
516.77	29.227
517.11	29.387
517.46	28.502
517.80	29.711
518.14	30.366
518.49	28.886
518.83	28.626
519.17	30.616
519.52	29.656
519.86	30.027
520.20	29.644
520.55	29.734
520.89	30.805
521.23	29.965
521.58	29.891
521.92	29.563
522.26	29.680
522.61	30.481
522.95	30.931
523.29	30.292
523.64	30.347
523.98	29.754
524.32	29.239
524.66	29.855
525.01	29.882
525.35	29.287
525.69	30.464
526.04	30.577
526.38	29.665
526.72	29.117
527.06	29.982
527.41	30.593
527.75	30.067
528.09	29.139
528.43	29.835
528.78	29.815
529.12	30.283
529.46	29.749
529.80	29.965
530.15	30.112
530.49	29.242
530.83	30.591
531.17	30.689
531.51	30.717
531.86	29.589
532.20	29.913
532.54	30.195
532.88	29.919
533.22	30.408
533.57	29.530
533.91	28.730
534.25	28.505
534.59	29.883
534.93	29.181
535.27	28.628
535.62	28.821
535.96	28.546
536.30	29.799
536.64	29.130
536.98	29.452
537.32	30.062
537.66	29.783
538.01	29.969
538.35	30.069
538.69	28.823
539.03	28.980
539.37	29.915
539.71	29.506
540.05	29.046
540.39	29.308
540.73	29.873
541.07	29.548
541.42	29.726
541.76	29.285
542.10	29.655
542.44	28.928
542.78	29.327
543.12	28.957
543.46	29.135
543.80	28.885
544.14	28.607
544.48	29.988
544.82	28.318
545.16	28.537
545.50	28.642
545.84	29.735
546.18	30.299
546.52	29.180
546.86	29.787
547.20	29.264
547.54	29.386
547.88	29.319
548.22	30.115
548.56	28.049
548.90	27.995
549.24	28.996
549.58	28.544
549.92	29.339
550.26	29.953
550.60	28.343
550.94	29.308
551.28	30.276
551.62	30.207
551.96	29.257
552.30	28.477
552.64	29.709
552.98	28.286
553.32	29.449
553.66	28.860
554.00	29.987
554.34	29.561
554.68	28.898
555.02	29.871
555.36	28.590
555.69	29.319
556.03	29.745
556.37	29.382
556.71	29.140
557.05	29.030
557.39	29.933
557.73	30.121
558.07	29.309
558.41	30.569
558.75	30.027
559.08	29.950
559.42	29.205
559.76	29.651
560.10	28.493
560.44	28.998
560.78	29.284
561.12	28.798
561.45	28.723
561.79	28.964
562.13	28.996
562.47	29.332
562.81	29.343
563.15	28.571
563.48	28.012
563.82	29.632
564.16	29.042
564.50	28.330
564.84	28.450
565.17	29.293
565.51	29.926
565.85	29.056
566.19	28.274
566.52	28.339
566.86	29.539
567.20	29.270
567.54	28.002
567.88	28.951
568.21	27.708
568.55	28.210
568.89	28.467
569.23	27.135
569.56	27.516
569.90	27.057
570.24	27.291
570.57	27.644
570.91	26.677
571.25	26.690
571.59	26.199
571.92	26.265
572.26	26.119
572.60	25.993
572.93	26.970
573.27	26.048
573.61	26.367
573.95	26.195
574.28	26.975
574.62	26.409
574.96	25.610
575.29	25.696
575.63	25.819
575.97	25.292
576.30	25.690
576.64	25.882
576.98	25.842
577.31	26.383
577.65	26.010
577.98	25.977
578.32	25.512
578.66	25.816
578.99	25.991
579.33	26.319
579.67	25.779
580.00	26.301
580.34	25.592
580.67	25.615
581.01	26.136
581.35	25.721
581.68	25.353
582.02	25.759
582.35	25.046
582.69	25.527
583.02	25.329
583.36	25.965
583.70	26.147
584.03	25.951
584.37	26.275
584.70	26.151
585.04	26.077
585.37	25.316
585.71	26.247
586.04	25.480
586.38	26.119
586.72	25.972
587.05	26.402
587.39	25.891
587.72	25.665
588.06	25.726
588.39	26.100
588.73	25.906
589.06	25.270
589.40	26.479
589.73	26.090
590.07	26.973
590.40	27.213
590.73	27.470
591.07	27.097
591.40	26.747
591.74	26.948
592.07	26.539
592.41	26.859
592.74	26.547
593.08	25.944
593.41	25.254
593.75	25.622
594.08	26.240
594.41	25.415
594.75	25.959
595.08	26.749
595.42	26.498
595.75	25.864
596.09	26.451
596.42	26.438
596.75	26.763
597.09	27.445
597.42	26.204
597.75	26.045
598.09	26.590
598.42	26.357
598.76	26.060
599.09	26.664
599.42	26.125
599.76	26.153
600.09	25.661
600.42	26.105
600.76	25.561
601.09	26.200
601.42	25.871
601.76	25.994
602.09	26.821
602.42	25.767
602.76	26.869
603.09	27.112
603.42	26.202
603.76	26.067
604.09	26.059
604.42	26.629
604.76	25.998
605.09	26.490
605.42	26.900
605.75	26.490
606.09	26.435
606.42	26.343
606.75	26.312
607.09	25.740
607.42	26.517
607.75	26.592
608.08	25.630
608.42	27.013
608.75	25.588
609.08	26.837
609.41	26.682
609.75	26.145
610.08	26.574
610.41	26.175
610.74	26.407
611.07	27.103
611.41	27.340
611.74	26.625
612.07	27.216
612.40	26.608
612.73	26.510
613.07	27.268
613.40	26.566
613.73	26.410
614.06	26.250
614.39	26.970
614.72	26.118
615.06	25.767
615.39	26.881
615.72	26.815
616.05	26.419
616.38	26.230
616.71	26.696
617.05	26.085
617.38	26.910
617.71	26.715
618.04	26.977
618.37	26.793
618.70	26.386
619.03	27.411
619.36	27.701
619.69	26.913
620.03	28.702
620.36	27.553
620.69	27.969
621.02	28.533
621.35	26.003
621.68	27.655
622.01	28.339
622.34	27.167
622.67	27.247
623.00	27.025
623.33	27.935
623.66	27.279
623.99	28.288
624.32	27.642
624.65	27.321
624.99	27.992
625.32	26.253
625.65	26.759
625.98	27.964
626.31	28.264
626.64	26.879
626.97	28.003
627.30	27.019
627.63	27.708
627.96	27.308
628.29	28.300
628.62	27.716
628.95	28.369
629.28	28.133
629.61	27.856
629.94	26.880
630.26	28.510
630.59	29.344
630.92	28.251
