SpectraSuite Data File
++++++++++++++++++++++++++++++++++++
Date: Tue May 12 16:40:30 PDT 2015
User: schluterlab
Dark Spectrum Present: Yes
Reference Spectrum Present: Yes
Number of Sampled Component Spectra: 1
Spectrometers: USB2E3373
Integration Time (usec): 3000 (USB2E3373)
Spectra Averaged: 3 (USB2E3373)
Boxcar Smoothing: 0 (USB2E3373)
Correct for Electrical Dark: No (USB2E3373)
Strobe/Lamp Enabled: No (USB2E3373)
Correct for Detector Non-linearity: No (USB2E3373)
Correct for Stray Light: No (USB2E3373)
Number of Pixels in Processed Spectrum: 2048
>>>>>Begin Processed Spectral Data<<<<<
178.53	0.000
178.91	-183.333
179.29	-875.000
179.67	-3000.000
180.04	-133.333
180.42	550.000
180.80	1050.000
181.18	0.000
181.56	-262.500
181.94	0.000
182.31	733.333
182.69	-2400.000
183.07	542.857
183.45	-3300.000
183.83	-1500.000
184.20	430.000
184.58	457.143
184.96	-192.308
185.34	-175.000
185.72	1600.000
186.09	-750.000
186.47	-2500.000
186.85	633.333
187.23	520.000
187.61	1550.000
187.98	450.000
188.36	214.286
188.74	283.333
189.12	341.667
189.49	600.000
189.87	0.000
190.25	387.500
190.63	2800.000
191.00	-275.000
191.38	-3000.000
191.76	-575.000
192.14	625.000
192.51	-2900.000
192.89	1100.000
193.27	966.667
193.65	-1100.000
194.02	-740.000
194.40	485.714
194.78	-171.429
195.15	280.000
195.53	-2500.000
195.91	-660.000
196.29	3700.000
196.66	175.000
197.04	1075.000
197.42	-1350.000
197.79	1000.000
198.17	316.667
198.55	0.000
198.92	442.857
199.30	1000.000
199.68	1800.000
200.05	533.333
200.43	-466.667
200.81	172.222
201.18	3300.000
201.56	316.667
201.94	-600.000
202.31	-225.000
202.69	-520.000
203.07	2300.000
203.44	-433.333
203.82	316.667
204.19	540.000
204.57	-1550.000
204.95	-725.000
205.32	-600.000
205.70	450.000
206.08	575.000
206.45	-500.000
206.83	344.444
207.20	184.211
207.58	216.667
207.96	700.000
208.33	0.000
208.71	514.286
209.08	720.000
209.46	-2800.000
209.84	-600.000
210.21	720.000
210.59	-440.000
210.96	333.333
211.34	-1000.000
211.71	318.182
212.09	750.000
212.46	1500.000
212.84	-583.333
213.22	466.667
213.59	-2200.000
213.97	200.000
214.34	975.000
214.72	800.000
215.09	866.667
215.47	-3500.000
215.84	-350.000
216.22	-362.500
216.59	0.000
216.97	0.000
217.34	1050.000
217.72	-1700.000
218.09	1100.000
218.47	412.500
218.84	950.000
219.22	1133.333
219.59	700.000
219.97	400.000
220.34	422.222
220.72	1700.000
221.09	3800.000
221.47	258.333
221.84	1000.000
222.22	340.000
222.59	244.444
222.97	228.571
223.34	212.500
223.72	-1350.000
224.09	1233.333
224.46	300.000
224.84	-775.000
225.21	277.778
225.59	293.333
225.96	1200.000
226.34	-500.000
226.71	-550.000
227.08	-600.000
227.46	0.000
227.83	-516.667
228.21	-1350.000
228.58	441.667
228.95	825.000
229.33	288.889
229.70	1100.000
230.08	292.308
230.45	3800.000
230.82	-925.000
231.20	-666.667
231.57	-1033.333
231.95	600.000
232.32	316.667
232.69	650.000
233.07	250.000
233.44	-1350.000
233.81	233.333
234.19	144.444
234.56	268.750
234.93	194.118
235.31	205.000
235.68	250.000
236.05	153.571
236.43	144.444
236.80	228.571
237.17	144.828
237.55	128.125
237.92	100.000
238.29	127.273
238.67	137.500
239.04	100.000
239.41	70.833
239.79	97.500
240.16	83.333
240.53	67.213
240.91	72.464
241.28	93.220
241.65	69.697
242.02	77.465
242.40	61.429
242.77	57.143
243.14	58.228
243.51	72.727
243.89	54.206
244.26	54.206
244.63	54.455
245.00	55.046
245.38	36.441
245.75	56.061
246.12	54.074
246.49	51.064
246.87	57.377
247.24	40.667
247.61	48.125
247.98	53.741
248.36	36.364
248.73	47.449
249.10	44.048
249.47	38.000
249.84	38.308
250.22	45.405
250.59	41.000
250.96	38.819
251.33	35.349
251.70	36.607
252.08	43.277
252.45	39.442
252.82	35.361
253.19	35.178
253.56	40.769
253.94	38.406
254.31	41.473
254.68	35.540
255.05	39.310
255.42	39.416
255.79	39.414
256.16	37.966
256.54	35.714
256.91	38.235
257.28	35.786
257.65	31.975
258.02	32.743
258.39	36.963
258.76	36.812
259.14	31.429
259.51	36.735
259.88	36.474
260.25	31.868
260.62	35.342
260.99	32.507
261.36	33.705
261.73	32.979
262.10	35.340
262.47	33.000
262.85	33.067
263.22	33.933
263.59	36.061
263.96	36.591
264.33	32.840
264.70	35.381
265.07	32.683
265.44	35.780
265.81	34.434
266.18	33.867
266.55	31.442
266.92	33.110
267.29	34.649
267.66	32.960
268.03	29.596
268.40	32.558
268.77	33.040
269.14	33.189
269.51	32.739
269.88	32.041
270.25	30.238
270.62	32.618
270.99	32.860
271.36	34.350
271.73	32.075
272.10	31.313
272.47	31.349
272.84	29.541
273.21	31.818
273.58	31.174
273.95	31.622
274.32	30.545
274.69	32.677
275.06	33.151
275.43	31.801
275.80	30.755
276.17	31.434
276.54	32.150
276.91	32.090
277.28	31.934
277.65	30.812
278.02	30.882
278.39	30.755
278.76	30.690
279.13	30.427
279.50	33.636
279.87	28.305
280.23	31.492
280.60	32.299
280.97	30.172
281.34	30.198
281.71	31.478
282.08	31.282
282.45	30.236
282.82	32.274
283.19	30.366
283.56	30.744
283.92	32.248
284.29	29.950
284.66	28.739
285.03	31.177
285.40	31.074
285.77	29.938
286.14	29.876
286.51	30.215
286.87	28.323
287.24	28.378
287.61	30.699
287.98	30.149
288.35	27.704
288.72	27.011
289.08	30.480
289.45	26.982
289.82	27.187
290.19	28.990
290.56	28.530
290.93	29.209
291.29	26.934
291.66	26.836
292.03	27.069
292.40	26.965
292.77	26.323
293.13	28.388
293.50	26.181
293.87	26.965
294.24	28.252
294.60	26.783
294.97	27.552
295.34	26.295
295.71	26.544
296.08	27.067
296.44	26.429
296.81	25.434
297.18	23.194
297.55	26.108
297.91	24.754
298.28	24.879
298.65	24.663
299.02	24.246
299.38	26.619
299.75	23.902
300.12	23.853
300.48	25.761
300.85	24.672
301.22	25.349
301.59	25.000
301.95	24.504
302.32	24.680
302.69	25.113
303.05	24.691
303.42	24.215
303.79	24.594
304.15	23.982
304.52	24.524
304.89	25.906
305.25	24.805
305.62	24.947
305.99	25.000
306.35	24.211
306.72	24.974
307.09	24.741
307.45	25.238
307.82	24.794
308.19	25.876
308.55	24.600
308.92	25.810
309.29	26.036
309.65	25.471
310.02	25.862
310.38	26.421
310.75	24.590
311.12	25.383
311.48	26.351
311.85	26.431
312.22	26.361
312.58	26.045
312.95	26.893
313.31	26.498
313.68	27.111
314.05	27.839
314.41	26.443
314.78	26.989
315.14	28.246
315.51	28.193
315.87	28.741
316.24	29.038
316.61	28.559
316.97	28.991
317.34	29.200
317.70	29.236
318.07	30.961
318.43	30.844
318.80	30.560
319.16	30.157
319.53	29.558
319.89	30.824
320.26	32.030
320.62	30.586
320.99	32.126
321.35	31.447
321.72	34.250
322.08	32.872
322.45	33.424
322.81	31.839
323.18	32.149
323.54	33.449
323.91	33.636
324.27	33.245
324.64	33.304
325.00	33.190
325.37	33.390
325.73	32.968
326.10	32.974
326.46	34.021
326.83	32.880
327.19	33.414
327.56	35.064
327.92	35.902
328.29	35.352
328.65	34.075
329.01	34.902
329.38	34.433
329.74	33.219
330.11	33.710
330.47	35.379
330.84	33.909
331.20	34.433
331.56	35.060
331.93	34.303
332.29	35.204
332.66	35.544
333.02	33.677
333.38	33.682
333.75	36.364
334.11	34.732
334.48	34.872
334.84	35.389
335.20	35.244
335.57	34.257
335.93	34.651
336.29	33.997
336.66	36.192
337.02	33.191
337.38	33.792
337.75	34.122
338.11	34.852
338.47	34.039
338.84	34.208
339.20	34.113
339.56	33.137
339.93	34.030
340.29	33.193
340.65	34.367
341.02	34.352
341.38	34.319
341.74	33.472
342.11	33.389
342.47	34.783
342.83	33.634
343.20	34.600
343.56	31.692
343.92	34.600
344.28	33.254
344.65	34.637
345.01	32.381
345.37	33.333
345.73	33.889
346.10	31.793
346.46	33.014
346.82	31.250
347.19	32.457
347.55	32.084
347.91	32.477
348.27	30.984
348.63	32.753
349.00	33.283
349.36	32.918
349.72	33.180
350.08	32.842
350.45	33.359
350.81	32.798
351.17	31.895
351.53	32.564
351.89	32.246
352.26	32.577
352.62	31.448
352.98	32.515
353.34	32.357
353.70	31.193
354.07	32.846
354.43	33.333
354.79	31.891
355.15	31.776
355.51	31.571
355.87	32.229
356.24	33.179
356.60	31.659
356.96	31.387
357.32	31.801
357.68	32.673
358.04	32.219
358.40	32.309
358.77	31.705
359.13	31.156
359.49	30.319
359.85	31.348
360.21	31.129
360.57	31.971
360.93	31.025
361.29	32.251
361.66	32.811
362.02	30.398
362.38	32.107
362.74	31.281
363.10	30.715
363.46	31.215
363.82	31.206
364.18	31.935
364.54	31.259
364.90	32.062
365.26	32.130
365.62	30.939
365.98	30.833
366.35	31.655
366.71	30.534
367.07	30.785
367.43	31.430
367.79	30.984
368.15	30.529
368.51	30.806
368.87	30.027
369.23	30.839
369.59	31.288
369.95	31.329
370.31	31.417
370.67	31.228
371.03	31.653
371.39	31.787
371.75	30.844
372.11	31.407
372.47	30.753
372.83	30.931
373.19	30.980
373.55	31.615
373.91	29.075
374.27	30.886
374.63	30.915
374.99	30.458
375.35	30.712
375.71	30.937
376.07	29.576
376.42	29.731
376.78	30.507
377.14	30.996
377.50	30.337
377.86	30.365
378.22	31.200
378.58	31.659
378.94	30.477
379.30	29.897
379.66	30.584
380.02	30.499
380.38	29.742
380.74	31.084
381.09	31.133
381.45	29.480
381.81	30.319
382.17	30.830
382.53	30.954
382.89	30.455
383.25	30.255
383.61	30.317
383.97	29.814
384.32	30.922
384.68	31.135
385.04	30.539
385.40	30.130
385.76	29.725
386.12	30.365
386.48	30.456
386.83	30.073
387.19	30.153
387.55	30.919
387.91	30.196
388.27	31.231
388.62	29.871
388.98	30.437
389.34	29.447
389.70	29.599
390.06	29.817
390.42	30.722
390.77	30.160
391.13	29.813
391.49	29.522
391.85	30.646
392.20	30.155
392.56	30.705
392.92	29.422
393.28	29.765
393.64	29.300
393.99	30.824
394.35	29.370
394.71	29.493
395.07	29.562
395.42	29.801
395.78	30.043
396.14	29.699
396.50	29.904
396.85	28.415
397.21	28.821
397.57	29.946
397.92	29.058
398.28	29.068
398.64	29.959
399.00	28.968
399.35	29.039
399.71	30.132
400.07	29.224
400.42	29.851
400.78	30.323
401.14	29.243
401.49	29.320
401.85	29.606
402.21	29.643
402.57	30.102
402.92	29.030
403.28	28.282
403.63	28.840
403.99	28.830
404.35	30.246
404.70	29.592
405.06	28.692
405.42	29.803
405.77	28.776
406.13	28.416
406.49	28.027
406.84	29.498
407.20	29.509
407.55	28.308
407.91	29.355
408.27	29.048
408.62	30.574
408.98	29.036
409.34	29.223
409.69	29.496
410.05	28.563
410.40	29.329
410.76	27.476
411.11	29.265
411.47	28.086
411.83	28.061
412.18	28.865
412.54	29.429
412.89	28.614
413.25	28.620
413.60	28.738
413.96	28.725
414.31	27.745
414.67	30.292
415.03	29.630
415.38	28.580
415.74	28.996
416.09	28.670
416.45	29.541
416.80	29.699
417.16	28.962
417.51	29.427
417.87	28.285
418.22	29.101
418.58	29.618
418.93	29.030
419.29	27.665
419.64	27.135
420.00	29.773
420.35	28.049
420.71	28.121
421.06	28.134
421.42	28.267
421.77	28.595
422.12	28.997
422.48	27.992
422.83	29.632
423.19	28.780
423.54	28.579
423.90	29.672
424.25	29.224
424.61	28.613
424.96	29.249
425.31	29.611
425.67	30.135
426.02	29.669
426.38	28.938
426.73	28.918
427.09	29.419
427.44	28.137
427.79	28.702
428.15	29.405
428.50	30.286
428.85	30.100
429.21	28.579
429.56	29.063
429.92	28.792
430.27	28.979
430.62	27.558
430.98	28.942
431.33	28.881
431.68	28.395
432.04	28.971
432.39	29.583
432.74	30.328
433.10	29.236
433.45	29.523
433.80	30.226
434.16	29.007
434.51	29.928
434.86	29.450
435.22	29.227
435.57	29.461
435.92	30.507
436.28	30.069
436.63	29.606
436.98	31.700
437.34	29.452
437.69	28.891
438.04	29.677
438.39	29.947
438.75	29.454
439.10	29.520
439.45	30.073
439.81	30.249
440.16	30.160
440.51	29.730
440.86	30.370
441.22	29.275
441.57	30.079
441.92	30.257
442.27	29.794
442.63	29.878
442.98	29.149
443.33	29.834
443.68	29.930
444.03	30.019
444.39	30.132
444.74	30.797
445.09	30.121
445.44	29.968
445.79	30.117
446.15	29.684
446.50	30.222
446.85	30.179
447.20	29.851
447.55	30.886
447.91	30.474
448.26	30.884
448.61	31.288
448.96	30.338
449.31	30.363
449.66	30.676
450.02	30.524
450.37	31.205
450.72	30.634
451.07	30.250
451.42	30.350
451.77	31.214
452.12	31.424
452.47	31.470
452.83	31.493
453.18	31.532
453.53	31.202
453.88	31.486
454.23	31.087
454.58	30.828
454.93	29.736
455.28	30.477
455.63	30.733
455.98	31.303
456.34	31.672
456.69	30.976
457.04	30.549
457.39	31.371
457.74	32.038
458.09	30.095
458.44	30.504
458.79	31.724
459.14	31.315
459.49	31.144
459.84	32.337
460.19	30.282
460.54	31.510
460.89	31.503
461.24	30.298
461.59	32.426
461.94	31.028
462.29	31.121
462.64	31.847
462.99	31.542
463.34	32.340
463.69	31.700
464.04	31.203
464.39	31.311
464.74	30.188
465.09	30.760
465.44	31.230
465.79	30.158
466.14	30.313
466.49	31.199
466.84	30.825
467.19	30.873
467.54	30.811
467.89	31.631
468.24	31.442
468.59	30.536
468.94	31.824
469.29	31.155
469.64	31.061
469.99	31.620
470.34	31.752
470.68	31.724
471.03	31.888
471.38	30.993
471.73	31.809
472.08	31.703
472.43	31.782
472.78	31.754
473.13	30.726
473.48	31.540
473.83	30.801
474.17	31.915
474.52	31.280
474.87	31.154
475.22	30.897
475.57	30.693
475.92	30.812
476.27	30.033
476.61	30.617
476.96	30.930
477.31	31.003
477.66	31.240
478.01	30.480
478.36	31.823
478.70	30.918
479.05	30.962
479.40	31.845
479.75	30.983
480.10	31.171
480.45	30.345
480.79	30.876
481.14	30.861
481.49	30.558
481.84	30.563
482.19	30.655
482.53	29.776
482.88	30.287
483.23	30.311
483.58	30.431
483.92	31.901
484.27	30.608
484.62	30.815
484.97	30.464
485.31	29.752
485.66	29.837
486.01	28.925
486.36	29.051
486.70	28.950
487.05	29.157
487.40	29.368
487.75	29.746
488.09	29.574
488.44	29.828
488.79	29.851
489.13	30.758
489.48	30.324
489.83	30.442
490.17	29.273
490.52	29.845
490.87	31.078
491.22	30.851
491.56	30.435
491.91	29.928
492.26	30.334
492.60	31.663
492.95	30.222
493.30	30.255
493.64	30.323
493.99	30.859
494.34	30.121
494.68	30.323
495.03	30.265
495.37	31.022
495.72	30.956
496.07	31.132
496.41	29.626
496.76	30.182
497.11	30.634
497.45	30.688
497.80	30.259
498.14	31.022
498.49	30.734
498.84	30.374
499.18	29.753
499.53	30.133
499.87	30.368
500.22	30.861
500.56	30.548
500.91	31.076
501.26	30.868
501.60	30.009
501.95	30.780
502.29	30.178
502.64	30.216
502.98	29.880
503.33	30.379
503.67	30.331
504.02	29.467
504.36	30.000
504.71	29.801
505.06	30.174
505.40	30.791
505.75	30.496
506.09	30.378
506.44	31.015
506.78	30.340
507.13	31.217
507.47	30.665
507.82	30.365
508.16	30.720
508.51	30.725
508.85	30.057
509.19	30.250
509.54	29.688
509.88	30.632
510.23	30.343
510.57	29.392
510.92	30.819
511.26	31.376
511.61	30.133
511.95	30.562
512.30	30.550
512.64	30.114
512.98	30.036
513.33	30.482
513.67	30.554
514.02	30.753
514.36	30.374
514.70	30.720
515.05	30.155
515.39	31.360
515.74	30.508
516.08	31.046
516.42	31.475
516.77	30.773
517.11	30.347
517.46	30.927
517.80	30.257
518.14	30.479
518.49	29.824
518.83	29.725
519.17	31.836
519.52	31.185
519.86	31.172
520.20	30.959
520.55	30.526
520.89	30.345
521.23	31.717
521.58	31.153
521.92	30.554
522.26	30.569
522.61	32.026
522.95	31.051
523.29	31.228
523.64	30.694
523.98	30.164
524.32	30.219
524.66	30.783
525.01	31.598
525.35	30.878
525.69	30.945
526.04	30.993
526.38	30.842
526.72	30.788
527.06	30.810
527.41	31.560
527.75	31.467
528.09	30.102
528.43	31.483
528.78	30.710
529.12	31.547
529.46	29.807
529.80	30.958
530.15	30.760
530.49	30.445
530.83	30.652
531.17	30.935
531.51	30.901
531.86	30.133
532.20	30.841
532.54	31.199
532.88	31.043
533.22	30.591
533.57	31.178
533.91	29.779
534.25	29.890
534.59	31.637
534.93	30.148
535.27	29.539
535.62	30.105
535.96	30.142
536.30	31.200
536.64	31.118
536.98	30.271
537.32	30.875
537.66	30.038
538.01	29.907
538.35	30.755
538.69	29.187
539.03	29.104
539.37	29.490
539.71	30.062
540.05	30.523
540.39	30.377
540.73	30.127
541.07	29.297
541.42	29.975
541.76	31.196
542.10	29.778
542.44	31.421
542.78	30.459
543.12	30.123
543.46	29.699
543.80	30.388
544.14	30.155
544.48	29.440
544.82	29.602
545.16	29.569
545.50	29.994
545.84	30.051
546.18	30.884
546.52	29.836
546.86	30.368
547.20	29.005
547.54	29.829
547.88	29.745
548.22	29.447
548.56	29.287
548.90	29.834
549.24	30.322
549.58	29.446
549.92	30.517
550.26	30.291
550.60	30.073
550.94	29.986
551.28	30.276
551.62	31.724
551.96	30.000
552.30	29.268
552.64	30.356
552.98	29.961
553.32	29.385
553.66	29.121
554.00	29.022
554.34	30.426
554.68	29.637
555.02	30.618
555.36	29.721
555.69	30.563
556.03	29.299
556.37	30.019
556.71	30.834
557.05	28.047
557.39	30.133
557.73	29.245
558.07	29.510
558.41	30.295
558.75	29.891
559.08	30.379
559.42	30.208
559.76	30.221
560.10	29.938
560.44	28.865
560.78	29.348
561.12	29.625
561.45	29.412
561.79	28.340
562.13	28.617
562.47	30.435
562.81	28.627
563.15	29.089
563.48	28.323
563.82	30.193
564.16	29.789
564.50	29.114
564.84	28.450
565.17	28.402
565.51	30.234
565.85	29.920
566.19	30.119
566.52	28.339
566.86	29.656
567.20	29.551
567.54	29.148
567.88	29.160
568.21	28.258
568.55	27.724
568.89	27.920
569.23	28.171
569.56	28.754
569.90	27.848
570.24	27.496
570.57	27.450
570.91	26.864
571.25	26.512
571.59	26.283
571.92	26.184
572.26	26.065
572.60	26.076
572.93	26.998
573.27	26.536
573.61	26.692
573.95	26.444
574.28	26.539
574.62	25.897
574.96	25.520
575.29	25.198
575.63	25.395
575.97	25.633
576.30	25.513
576.64	26.003
576.98	25.818
577.31	26.361
577.65	26.177
577.98	25.495
578.32	25.136
578.66	24.844
578.99	25.781
579.33	25.801
579.67	25.571
580.00	25.224
580.34	25.436
580.67	25.414
581.01	26.223
581.35	25.621
581.68	25.190
582.02	25.058
582.35	25.280
582.69	25.701
583.02	25.558
583.36	25.417
583.70	26.078
584.03	25.777
584.37	26.174
584.70	25.454
585.04	25.910
585.37	25.473
585.71	26.472
586.04	25.593
586.38	25.377
586.72	26.152
587.05	25.965
587.39	25.815
587.72	25.494
588.06	25.826
588.39	26.177
588.73	25.906
589.06	26.029
589.40	26.604
589.73	25.860
590.07	26.356
590.40	26.760
590.73	26.772
591.07	26.831
591.40	26.946
591.74	26.786
592.07	26.123
592.41	26.579
592.74	25.741
593.08	24.935
593.41	25.673
593.75	25.124
594.08	26.055
594.41	25.904
594.75	26.404
595.08	26.269
595.42	26.564
595.75	26.324
596.09	26.347
596.42	26.511
596.75	27.043
597.09	26.702
597.42	26.531
597.75	25.963
598.09	25.646
598.42	25.663
598.76	25.829
599.09	26.039
599.42	25.363
599.76	26.052
600.09	25.424
600.42	25.242
600.76	25.051
601.09	25.613
601.42	25.519
601.76	25.922
602.09	26.416
602.42	25.139
602.76	26.034
603.09	27.149
603.42	26.275
603.76	26.283
604.09	25.190
604.42	25.800
604.76	25.563
605.09	26.163
605.42	26.006
605.75	25.503
606.09	25.478
606.42	25.554
606.75	25.729
607.09	25.227
607.42	25.753
607.75	26.115
608.08	25.386
608.42	25.881
608.75	25.674
609.08	25.165
609.41	25.864
609.75	27.106
610.08	25.585
610.41	26.043
610.74	26.104
611.07	26.512
611.41	26.274
611.74	25.956
612.07	26.493
612.40	26.218
612.73	25.911
613.07	26.102
613.40	26.516
613.73	26.360
614.06	25.450
614.39	26.313
614.72	24.912
615.06	25.519
615.39	25.990
615.72	25.024
616.05	26.670
616.38	26.230
616.71	26.750
617.05	26.194
617.38	26.292
617.71	26.097
618.04	26.584
618.37	26.348
618.70	26.328
619.03	26.557
619.36	26.319
619.69	26.253
620.03	27.136
620.36	26.718
620.69	28.480
621.02	27.717
621.35	27.579
621.68	27.507
622.01	27.675
622.34	26.147
622.67	27.317
623.00	27.366
623.33	26.383
623.66	27.678
623.99	27.945
624.32	26.491
624.65	26.662
624.99	26.369
625.32	26.787
625.65	26.276
625.98	27.266
626.31	27.596
626.64	27.259
626.97	26.932
627.30	27.562
627.63	27.786
627.96	26.291
628.29	28.465
628.62	27.117
628.95	29.965
629.28	28.396
629.61	29.350
629.94	28.436
630.26	28.250
630.59	29.433
630.92	27.892
631.25	28.015
