SpectraSuite Data File
++++++++++++++++++++++++++++++++++++
Date: Tue May 12 16:29:32 PDT 2015
User: schluterlab
Dark Spectrum Present: Yes
Reference Spectrum Present: Yes
Number of Sampled Component Spectra: 1
Spectrometers: USB2E3373
Integration Time (usec): 3000 (USB2E3373)
Spectra Averaged: 3 (USB2E3373)
Boxcar Smoothing: 0 (USB2E3373)
Correct for Electrical Dark: No (USB2E3373)
Strobe/Lamp Enabled: No (USB2E3373)
Correct for Detector Non-linearity: No (USB2E3373)
Correct for Stray Light: No (USB2E3373)
Number of Pixels in Processed Spectrum: 2048
>>>>>Begin Processed Spectral Data<<<<<
178.53	0.000
178.91	-216.667
179.29	-825.000
179.67	-2700.000
180.04	-106.667
180.42	775.000
180.80	1800.000
181.18	0.000
181.56	-425.000
181.94	0.000
182.31	1000.000
182.69	-2800.000
183.07	514.286
183.45	-2600.000
183.83	-1450.000
184.20	360.000
184.58	428.571
184.96	-176.923
185.34	-133.333
185.72	1300.000
186.09	-900.000
186.47	-3100.000
186.85	1033.333
187.23	640.000
187.61	1900.000
187.98	462.500
188.36	242.857
188.74	300.000
189.12	375.000
189.49	975.000
189.87	0.000
190.25	537.500
190.63	3600.000
191.00	-183.333
191.38	-3200.000
191.76	-500.000
192.14	562.500
192.51	-1800.000
192.89	1900.000
193.27	800.000
193.65	-1133.333
194.02	-640.000
194.40	571.429
194.78	-250.000
195.15	260.000
195.53	-2700.000
195.91	-420.000
196.29	3100.000
196.66	168.750
197.04	650.000
197.42	-1550.000
197.79	575.000
198.17	258.333
198.55	0.000
198.92	457.143
199.30	1066.667
199.68	2050.000
200.05	566.667
200.43	-450.000
200.81	166.667
201.18	2600.000
201.56	233.333
201.94	-725.000
202.31	-162.500
202.69	-480.000
203.07	4100.000
203.44	-333.333
203.82	308.333
204.19	640.000
204.57	-1500.000
204.95	-600.000
205.32	-560.000
205.70	633.333
206.08	650.000
206.45	-766.667
206.83	366.667
207.20	163.158
207.58	200.000
207.96	760.000
208.33	0.000
208.71	557.143
209.08	580.000
209.46	-3600.000
209.84	-825.000
210.21	940.000
210.59	-580.000
210.96	300.000
211.34	-1025.000
211.71	272.727
212.09	750.000
212.46	1750.000
212.84	-333.333
213.22	322.222
213.59	-2000.000
213.97	360.000
214.34	875.000
214.72	1400.000
215.09	600.000
215.47	-3300.000
215.84	-360.000
216.22	-375.000
216.59	0.000
216.97	0.000
217.34	1750.000
217.72	-1450.000
218.09	866.667
218.47	400.000
218.84	850.000
219.22	1000.000
219.59	666.667
219.97	557.143
220.34	366.667
220.72	1400.000
221.09	3700.000
221.47	275.000
221.84	866.667
222.22	260.000
222.59	244.444
222.97	228.571
223.34	156.250
223.72	-1900.000
224.09	1200.000
224.46	207.692
224.84	-775.000
225.21	433.333
225.59	286.667
225.96	1100.000
226.34	-480.000
226.71	-475.000
227.08	-480.000
227.46	0.000
227.83	-650.000
228.21	-1650.000
228.58	241.667
228.95	900.000
229.33	344.444
229.70	925.000
230.08	369.231
230.45	3200.000
230.82	-1025.000
231.20	-766.667
231.57	-1000.000
231.95	560.000
232.32	191.667
232.69	566.667
233.07	333.333
233.44	-1450.000
233.81	253.333
234.19	188.889
234.56	212.500
234.93	194.118
235.31	215.000
235.68	243.750
236.05	153.571
236.43	148.148
236.80	221.429
237.17	151.724
237.55	109.375
237.92	137.500
238.29	133.333
238.67	128.125
239.04	95.122
239.41	95.833
239.79	87.500
240.16	70.833
240.53	77.049
240.91	65.217
241.28	76.271
241.65	63.636
242.02	61.972
242.40	51.429
242.77	54.945
243.14	56.962
243.51	65.657
243.89	53.271
244.26	49.533
244.63	47.525
245.00	48.624
245.38	34.746
245.75	42.424
246.12	43.704
246.49	43.262
246.87	37.705
247.24	43.333
247.61	42.500
247.98	47.619
248.36	33.333
248.73	38.265
249.10	39.881
249.47	33.000
249.84	34.826
250.22	35.676
250.59	40.000
250.96	33.333
251.33	33.023
251.70	37.500
252.08	35.714
252.45	30.677
252.82	31.559
253.19	33.597
253.56	31.538
253.94	30.072
254.31	30.233
254.68	31.707
255.05	32.414
255.42	31.022
255.79	32.899
256.16	28.814
256.54	33.766
256.91	29.412
257.28	29.766
257.65	27.273
258.02	28.614
258.39	28.940
258.76	30.435
259.14	24.286
259.51	28.280
259.88	27.356
260.25	23.352
260.62	27.671
260.99	25.069
261.36	28.412
261.73	29.255
262.10	29.581
262.47	26.250
262.85	26.667
263.22	27.506
263.59	27.110
263.96	29.323
264.33	25.926
264.70	30.221
265.07	26.341
265.44	27.294
265.81	27.358
266.18	28.604
266.55	27.660
266.92	25.056
267.29	27.193
267.66	23.767
268.03	25.785
268.40	25.370
268.77	28.194
269.14	26.247
269.51	25.167
269.88	26.122
270.25	21.382
270.62	25.966
270.99	26.166
271.36	28.455
271.73	22.851
272.10	22.828
272.47	22.619
272.84	22.954
273.21	25.620
273.58	25.506
273.95	24.230
274.32	22.957
274.69	25.000
275.06	27.869
275.43	23.563
275.80	25.283
276.17	23.529
276.54	25.234
276.91	26.679
277.28	24.635
277.65	24.723
278.02	24.449
278.39	25.719
278.76	23.103
279.13	22.776
279.50	24.000
279.87	24.395
280.23	21.915
280.60	24.088
280.97	25.172
281.34	23.102
281.71	21.739
282.08	25.128
282.45	22.804
282.82	23.913
283.19	22.417
283.56	21.983
283.92	23.616
284.29	22.795
284.66	22.017
285.03	23.217
285.40	22.810
285.77	21.142
286.14	25.077
286.51	21.933
286.87	20.886
287.24	21.922
287.61	22.948
287.98	21.791
288.35	21.481
288.72	21.244
289.08	21.321
289.45	23.476
289.82	23.125
290.19	20.498
290.56	21.543
290.93	20.863
291.29	20.166
291.66	19.633
292.03	21.739
292.40	19.648
292.77	18.663
293.13	20.827
293.50	19.298
293.87	19.241
294.24	21.538
294.60	20.996
294.97	19.161
295.34	19.920
295.71	19.580
296.08	20.267
296.44	20.712
296.81	18.238
297.18	16.857
297.55	19.458
297.91	17.241
298.28	19.324
298.65	18.160
299.02	16.285
299.38	19.065
299.75	18.293
300.12	18.119
300.48	18.735
300.85	17.163
301.22	17.907
301.59	17.925
301.95	17.036
302.32	16.880
302.69	19.118
303.05	19.753
303.42	17.265
303.79	17.335
304.15	16.062
304.52	16.490
304.89	17.377
305.25	17.130
305.62	17.484
305.99	16.848
306.35	16.316
306.72	15.713
307.09	15.735
307.45	16.051
307.82	15.947
308.19	16.186
308.55	17.400
308.92	16.683
309.29	16.568
309.65	15.956
310.02	17.546
310.38	15.553
310.75	16.393
311.12	15.805
311.48	16.699
311.85	16.508
312.22	16.810
312.58	16.910
312.95	15.146
313.31	16.199
313.68	16.041
314.05	17.857
314.41	15.922
314.78	16.098
315.14	16.872
315.51	17.029
315.87	15.876
316.24	16.620
316.61	16.652
316.97	16.789
317.34	16.532
317.70	17.296
318.07	17.883
318.43	17.399
318.80	18.564
319.16	16.346
319.53	17.611
319.89	17.742
320.26	18.436
320.62	18.498
320.99	17.922
321.35	18.275
321.72	18.975
322.08	18.744
322.45	18.983
322.81	18.939
323.18	19.716
323.54	19.164
323.91	20.671
324.27	20.159
324.64	20.502
325.00	22.845
325.37	20.995
325.73	22.344
326.10	22.038
326.46	23.369
326.83	22.400
327.19	23.454
327.56	23.163
327.92	24.016
328.29	25.450
328.65	25.514
329.01	25.406
329.38	25.296
329.74	25.448
330.11	26.325
330.47	25.320
330.84	26.402
331.20	26.650
331.56	28.066
331.93	27.374
332.29	26.105
332.66	29.677
333.02	27.234
333.38	28.447
333.75	29.191
334.11	27.517
334.48	28.632
334.84	28.125
335.20	29.341
335.57	29.471
335.93	29.773
336.29	28.607
336.66	30.360
337.02	29.598
337.38	28.719
337.75	31.250
338.11	30.211
338.47	30.229
338.84	29.128
339.20	30.303
339.56	29.268
339.93	30.351
340.29	29.664
340.65	30.260
341.02	30.973
341.38	31.199
341.74	30.316
342.11	30.134
342.47	31.009
342.83	31.829
343.20	30.073
343.56	29.468
343.92	31.049
344.28	29.825
344.65	29.666
345.01	29.603
345.37	29.808
345.73	30.794
346.10	30.120
346.46	30.861
346.82	29.321
347.19	30.448
347.55	30.679
347.91	31.571
348.27	30.209
348.63	31.013
349.00	31.607
349.36	31.206
349.72	30.887
350.08	31.134
350.45	31.607
350.81	30.887
351.17	29.969
351.53	31.332
351.89	30.381
352.26	30.612
352.62	30.920
352.98	31.212
353.34	31.972
353.70	31.881
354.07	32.231
354.43	32.488
354.79	30.979
355.15	31.700
355.51	30.891
355.87	31.852
356.24	31.409
356.60	30.518
356.96	31.842
357.32	31.876
357.68	33.113
358.04	32.523
358.40	31.409
358.77	32.532
359.13	30.931
359.49	31.431
359.85	32.167
360.21	31.501
360.57	30.730
360.93	32.756
361.29	31.457
361.66	32.886
362.02	31.321
362.38	32.612
362.74	32.767
363.10	32.959
363.46	32.113
363.82	32.539
364.18	33.499
364.54	32.976
364.90	32.597
365.26	33.171
365.62	32.804
365.98	31.383
366.35	32.138
366.71	32.547
367.07	32.696
367.43	33.042
367.79	33.444
368.15	32.022
368.51	32.805
368.87	32.880
369.23	32.779
369.59	33.581
369.95	33.357
370.31	33.060
370.67	32.061
371.03	33.894
371.39	34.280
371.75	33.287
372.11	33.923
372.47	33.973
372.83	34.330
373.19	34.270
373.55	32.715
373.91	32.251
374.27	33.069
374.63	33.288
374.99	34.030
375.35	33.333
375.71	34.565
376.07	34.019
376.42	33.376
376.78	33.526
377.14	34.731
377.50	32.522
377.86	33.953
378.22	33.455
378.58	35.048
378.94	34.460
379.30	34.566
379.66	33.113
380.02	33.783
380.38	33.665
380.74	34.141
381.09	34.521
381.45	34.046
381.81	34.161
382.17	34.799
382.53	33.353
382.89	34.181
383.25	33.570
383.61	33.660
383.97	34.193
384.32	34.418
384.68	34.581
385.04	33.705
385.40	34.579
385.76	34.231
386.12	34.075
386.48	34.407
386.83	34.413
387.19	34.806
387.55	33.981
387.91	34.411
388.27	35.277
388.62	33.744
388.98	33.294
389.34	33.195
389.70	33.726
390.06	34.756
390.42	34.115
390.77	33.354
391.13	34.158
391.49	34.241
391.85	33.723
392.20	33.671
392.56	33.333
392.92	33.352
393.28	34.137
393.64	32.856
393.99	33.788
394.35	33.785
394.71	32.207
395.07	33.577
395.42	33.314
395.78	34.793
396.14	34.096
396.50	33.694
396.85	33.415
397.21	33.514
397.57	34.310
397.92	32.293
398.28	32.653
398.64	32.926
399.00	32.443
399.35	31.777
399.71	32.947
400.07	31.621
400.42	33.433
400.78	33.666
401.14	32.296
401.49	33.641
401.85	33.314
402.21	31.927
402.57	33.692
402.92	32.848
403.28	32.399
403.63	32.431
403.99	32.690
404.35	32.005
404.70	32.132
405.06	31.836
405.42	32.017
405.77	32.249
406.13	31.725
406.49	32.121
406.84	31.754
407.20	32.591
407.55	32.800
407.91	32.929
408.27	31.716
408.62	31.934
408.98	32.289
409.34	30.976
409.69	30.678
410.05	30.471
410.40	31.272
410.76	30.967
411.11	31.457
411.47	31.852
411.83	30.814
412.18	31.582
412.54	30.511
412.89	32.271
413.25	32.269
413.60	31.717
413.96	31.538
414.31	30.874
414.67	31.782
415.03	31.609
415.38	32.366
415.74	31.586
416.09	31.418
416.45	31.480
416.80	32.457
417.16	31.318
417.51	30.892
417.87	31.352
418.22	31.774
418.58	32.357
418.93	32.302
419.29	31.547
419.64	31.981
420.00	32.279
420.35	32.462
420.71	31.855
421.06	31.136
421.42	32.239
421.77	32.871
422.12	32.966
422.48	31.998
422.83	32.757
423.19	32.019
423.54	32.693
423.90	32.786
424.25	32.691
424.61	33.024
424.96	33.145
425.31	33.114
425.67	33.670
426.02	33.371
426.38	32.439
426.73	33.950
427.09	33.749
427.44	33.427
427.79	34.134
428.15	34.296
428.50	34.857
428.85	33.804
429.21	35.062
429.56	34.098
429.92	34.162
430.27	34.107
430.62	33.089
430.98	33.932
431.33	34.073
431.68	33.235
432.04	34.558
432.39	34.248
432.74	35.187
433.10	35.437
433.45	35.325
433.80	36.459
434.16	34.997
434.51	36.068
434.86	35.220
435.22	34.630
435.57	36.040
435.92	36.255
436.28	35.426
436.63	35.386
436.98	37.500
437.34	36.473
437.69	35.274
438.04	35.914
438.39	36.311
438.75	35.579
439.10	36.266
439.45	35.274
439.81	36.264
440.16	35.718
440.51	35.642
440.86	37.493
441.22	36.797
441.57	36.903
441.92	36.575
442.27	36.495
442.63	36.179
442.98	36.153
443.33	36.690
443.68	36.771
444.03	35.910
444.39	37.147
444.74	35.818
445.09	37.019
445.44	36.079
445.79	36.745
446.15	36.684
446.50	36.709
446.85	37.301
447.20	36.119
447.55	36.542
447.91	37.666
448.26	36.848
448.61	37.479
448.96	38.508
449.31	37.954
449.66	37.320
450.02	37.277
450.37	37.368
450.72	37.190
451.07	36.882
451.42	37.937
451.77	38.144
452.12	37.777
452.47	38.092
452.83	37.577
453.18	37.958
453.53	38.366
453.88	37.371
454.23	38.117
454.58	37.879
454.93	38.136
455.28	37.821
455.63	37.766
455.98	37.620
456.34	38.906
456.69	39.268
457.04	37.172
457.39	37.200
457.74	38.682
458.09	38.012
458.44	37.788
458.79	37.984
459.14	37.534
459.49	38.448
459.84	39.130
460.19	37.571
460.54	37.664
460.89	38.273
461.24	36.483
461.59	38.662
461.94	37.884
462.29	38.730
462.64	38.317
462.99	37.492
463.34	39.922
463.69	38.475
464.04	38.112
464.39	39.038
464.74	37.163
465.09	38.015
465.44	37.650
465.79	37.507
466.14	36.619
466.49	38.578
466.84	36.678
467.19	38.196
467.54	37.297
467.89	37.383
468.24	38.274
468.59	38.155
468.94	38.466
469.29	39.646
469.64	38.585
469.99	38.175
470.34	38.773
470.68	38.897
471.03	39.226
471.38	39.205
471.73	38.668
472.08	40.117
472.43	38.175
472.78	39.693
473.13	37.672
473.48	38.509
473.83	38.163
474.17	38.723
474.52	38.270
474.87	38.317
475.22	38.835
475.57	38.510
475.92	38.068
476.27	37.269
476.61	38.338
476.96	37.409
477.31	38.560
477.66	39.130
478.01	38.370
478.36	38.671
478.70	37.568
479.05	38.546
479.40	38.194
479.75	38.828
480.10	37.415
480.45	37.908
480.79	37.880
481.14	38.564
481.49	37.420
481.84	36.939
482.19	37.991
482.53	37.066
482.88	37.903
483.23	37.799
483.58	37.298
483.92	37.934
484.27	37.885
484.62	38.667
484.97	36.346
485.31	35.996
485.66	35.688
486.01	34.952
486.36	34.861
486.70	34.391
487.05	35.371
487.40	35.494
487.75	36.203
488.09	35.824
488.44	36.520
488.79	36.619
489.13	36.655
489.48	37.515
489.83	37.073
490.17	36.912
490.52	37.984
490.87	37.974
491.22	38.298
491.56	38.472
491.91	38.575
492.26	37.996
492.60	37.631
492.95	38.197
493.30	38.399
493.64	38.859
493.99	38.238
494.34	38.279
494.68	38.203
495.03	38.303
495.37	37.641
495.72	38.508
496.07	38.949
496.41	37.489
496.76	38.160
497.11	37.618
497.45	38.229
497.80	38.786
498.14	38.742
498.49	38.069
498.84	38.598
499.18	37.477
499.53	38.356
499.87	38.275
500.22	38.646
500.56	38.254
500.91	38.868
501.26	38.034
501.60	37.978
501.95	37.769
502.29	38.133
502.64	38.288
502.98	37.884
503.33	38.575
503.67	38.720
504.02	38.110
504.36	38.552
504.71	38.553
505.06	39.043
505.40	38.559
505.75	38.354
506.09	39.524
506.44	38.628
506.78	38.422
507.13	38.342
507.47	39.350
507.82	38.881
508.16	39.000
508.51	39.565
508.85	38.651
509.19	39.109
509.54	39.111
509.88	39.533
510.23	38.971
510.57	37.790
510.92	39.311
511.26	39.910
511.61	38.552
511.95	38.726
512.30	38.650
512.64	39.252
512.98	39.518
513.33	39.344
513.67	38.788
514.02	40.416
514.36	39.045
514.70	38.933
515.05	39.478
515.39	40.406
515.74	40.733
516.08	40.251
516.42	41.803
516.77	39.413
517.11	38.613
517.46	40.032
517.80	40.142
518.14	40.451
518.49	40.022
518.83	38.626
519.17	40.488
519.52	40.852
519.86	40.599
520.20	40.164
520.55	40.644
520.89	40.172
521.23	41.297
521.58	39.931
521.92	39.708
522.26	39.100
522.61	41.117
522.95	41.441
523.29	41.579
523.64	40.925
523.98	40.904
524.32	41.061
524.66	41.739
525.01	40.769
525.35	40.660
525.69	40.879
526.04	41.106
526.38	40.494
526.72	40.334
527.06	40.154
527.41	41.294
527.75	41.388
528.09	39.856
528.43	39.963
528.78	40.549
529.12	41.541
529.46	40.035
529.80	40.946
530.15	40.719
530.49	39.892
530.83	39.915
531.17	40.160
531.51	41.815
531.86	39.553
532.20	41.595
532.54	40.301
532.88	41.287
533.22	40.098
533.57	41.367
533.91	39.394
534.25	39.873
534.59	39.825
534.93	39.818
535.27	39.101
535.62	38.273
535.96	39.775
536.30	40.707
536.64	40.994
536.98	40.592
537.32	41.312
537.66	41.135
538.01	40.186
538.35	41.298
538.69	39.442
539.03	39.428
539.37	40.473
539.71	40.679
540.05	40.000
540.39	41.447
540.73	41.076
541.07	39.272
541.42	40.485
541.76	40.259
542.10	39.827
542.44	40.212
542.78	40.529
543.12	40.184
543.46	40.539
543.80	40.977
544.14	41.053
544.48	40.754
544.82	40.000
545.16	39.709
545.50	40.504
545.84	39.962
546.18	42.328
546.52	42.098
546.86	41.006
547.20	40.375
547.54	41.039
547.88	41.788
548.22	40.862
548.56	40.071
548.90	39.739
549.24	40.366
549.58	39.755
549.92	42.371
550.26	42.529
550.60	42.049
550.94	42.741
551.28	43.034
551.62	41.655
551.96	40.946
552.30	40.409
552.64	41.230
552.98	41.495
553.32	40.781
553.66	41.173
554.00	41.313
554.34	42.210
554.68	42.070
555.02	42.295
555.36	41.223
555.69	40.903
556.03	40.637
556.37	41.300
556.71	42.308
557.05	41.219
557.39	41.467
557.73	41.846
558.07	41.918
558.41	41.809
558.75	43.434
559.08	42.244
559.42	41.947
559.76	42.267
560.10	42.120
560.44	41.739
560.78	42.199
561.12	42.149
561.45	42.053
561.79	41.136
562.13	42.072
562.47	41.402
562.81	42.420
563.15	42.275
563.48	39.876
563.82	42.795
564.16	42.910
564.50	41.772
564.84	42.067
565.17	41.711
565.51	43.227
565.85	43.122
566.19	42.500
566.52	41.396
566.86	43.900
567.20	40.899
567.54	41.758
567.88	41.888
568.21	40.290
568.55	40.710
568.89	41.150
569.23	39.991
569.56	40.056
569.90	39.202
570.24	38.569
570.57	38.838
570.91	37.785
571.25	37.278
571.59	37.761
571.92	37.244
572.26	37.412
572.60	37.712
572.93	38.039
573.27	38.283
573.61	37.737
573.95	37.176
574.28	37.349
574.62	37.308
574.96	36.754
575.29	36.473
575.63	36.773
575.97	36.733
576.30	36.674
576.64	37.071
576.98	37.172
577.31	37.536
577.65	36.839
577.98	36.771
578.32	36.418
578.66	37.053
578.99	36.774
579.33	37.776
579.67	37.018
580.00	36.872
580.34	37.215
580.67	37.136
581.01	37.415
581.35	37.686
581.68	36.347
582.02	36.646
582.35	36.507
582.69	36.880
583.02	37.164
583.36	37.819
583.70	38.022
584.03	39.200
584.37	37.935
584.70	37.920
585.04	38.116
585.37	37.556
585.71	38.809
586.04	37.893
586.38	38.066
586.72	39.099
587.05	38.780
587.39	38.761
587.72	38.668
588.06	38.416
588.39	38.843
588.73	39.989
589.06	39.685
589.40	40.031
589.73	39.823
590.07	41.112
590.40	40.592
590.73	41.645
591.07	42.049
591.40	41.357
591.74	40.909
592.07	41.348
592.41	40.488
592.74	39.949
593.08	39.876
593.41	39.408
593.75	39.414
594.08	40.222
594.41	39.720
594.75	39.623
595.08	41.049
595.42	40.487
595.75	40.671
596.09	40.945
596.42	40.641
596.75	41.386
597.09	42.385
597.42	41.592
597.75	41.501
598.09	41.855
598.42	41.044
598.76	41.403
599.09	41.523
599.42	40.588
599.76	40.706
600.09	40.542
600.42	41.195
600.76	40.449
601.09	41.250
601.42	41.147
601.76	41.425
602.09	41.906
602.42	40.665
602.76	41.328
603.09	42.157
603.42	41.908
603.76	41.323
604.09	41.477
604.42	41.356
604.76	41.999
605.09	42.000
605.42	42.462
605.75	41.611
606.09	41.584
606.42	41.000
606.75	41.935
607.09	42.124
607.42	42.025
607.75	41.322
608.08	41.998
608.42	42.450
608.75	42.619
609.08	43.159
609.41	43.500
609.75	43.727
610.08	43.390
610.41	43.742
610.74	43.377
611.07	42.974
611.41	43.281
611.74	43.212
612.07	44.557
612.40	45.078
612.73	44.483
613.07	44.805
613.40	44.662
613.73	44.833
614.06	42.950
614.39	44.293
614.72	43.144
615.06	43.175
615.39	43.911
615.72	42.691
616.05	43.395
616.38	43.836
616.71	44.384
617.05	44.206
617.38	45.393
617.71	45.444
618.04	45.149
618.37	44.691
618.70	45.150
619.03	45.238
619.36	47.173
619.69	46.372
620.03	46.771
620.36	46.885
620.69	47.701
621.02	46.739
621.35	46.920
621.68	46.755
622.01	49.815
622.34	47.633
622.67	46.629
623.00	46.154
623.33	46.086
623.66	46.840
623.99	48.699
624.32	47.019
624.65	45.820
624.99	48.208
625.32	46.560
625.65	46.414
625.98	46.444
626.31	49.407
626.64	47.912
626.97	47.207
627.30	48.680
627.63	49.058
627.96	48.905
628.29	49.422
628.62	49.016
628.95	50.177
629.28	50.394
629.61	50.791
629.94	50.735
630.26	49.133
630.59	48.848
630.92	49.686
631.25	51.043
