SpectraSuite Data File
++++++++++++++++++++++++++++++++++++
Date: Tue May 12 16:36:03 PDT 2015
User: schluterlab
Dark Spectrum Present: Yes
Reference Spectrum Present: Yes
Number of Sampled Component Spectra: 1
Spectrometers: USB2E3373
Integration Time (usec): 3000 (USB2E3373)
Spectra Averaged: 3 (USB2E3373)
Boxcar Smoothing: 0 (USB2E3373)
Correct for Electrical Dark: No (USB2E3373)
Strobe/Lamp Enabled: No (USB2E3373)
Correct for Detector Non-linearity: No (USB2E3373)
Correct for Stray Light: No (USB2E3373)
Number of Pixels in Processed Spectrum: 2048
>>>>>Begin Processed Spectral Data<<<<<
178.53	0.000
178.91	-191.667
179.29	-700.000
179.67	-3200.000
180.04	-106.667
180.42	625.000
180.80	1650.000
181.18	0.000
181.56	-225.000
181.94	0.000
182.31	1233.333
182.69	-3400.000
183.07	542.857
183.45	-4200.000
183.83	-1150.000
184.20	290.000
184.58	600.000
184.96	-246.154
185.34	-200.000
185.72	1600.000
186.09	-675.000
186.47	-2400.000
186.85	766.667
187.23	700.000
187.61	1800.000
187.98	575.000
188.36	235.714
188.74	275.000
189.12	325.000
189.49	825.000
189.87	0.000
190.25	475.000
190.63	1800.000
191.00	-233.333
191.38	-2400.000
191.76	-675.000
192.14	537.500
192.51	-2500.000
192.89	1250.000
193.27	1033.333
193.65	-1266.667
194.02	-800.000
194.40	500.000
194.78	-142.857
195.15	260.000
195.53	-3000.000
195.91	-440.000
196.29	3700.000
196.66	306.250
197.04	775.000
197.42	-1600.000
197.79	550.000
198.17	358.333
198.55	0.000
198.92	500.000
199.30	1100.000
199.68	1600.000
200.05	733.333
200.43	-466.667
200.81	216.667
201.18	3700.000
201.56	291.667
201.94	-600.000
202.31	-337.500
202.69	-620.000
203.07	3300.000
203.44	-466.667
203.82	325.000
204.19	500.000
204.57	-1350.000
204.95	-700.000
205.32	-660.000
205.70	483.333
206.08	950.000
206.45	-833.333
206.83	355.556
207.20	131.579
207.58	308.333
207.96	600.000
208.33	0.000
208.71	557.143
209.08	540.000
209.46	-3300.000
209.84	-775.000
210.21	660.000
210.59	-700.000
210.96	250.000
211.34	-900.000
211.71	327.273
212.09	825.000
212.46	1400.000
212.84	-500.000
213.22	455.556
213.59	-3700.000
213.97	390.000
214.34	800.000
214.72	1033.333
215.09	1200.000
215.47	-3400.000
215.84	-300.000
216.22	-525.000
216.59	0.000
216.97	0.000
217.34	1350.000
217.72	-1400.000
218.09	1000.000
218.47	387.500
218.84	625.000
219.22	1066.667
219.59	800.000
219.97	542.857
220.34	388.889
220.72	1750.000
221.09	3300.000
221.47	275.000
221.84	1200.000
222.22	360.000
222.59	266.667
222.97	228.571
223.34	212.500
223.72	-1550.000
224.09	1466.667
224.46	261.538
224.84	-800.000
225.21	322.222
225.59	200.000
225.96	1266.667
226.34	-620.000
226.71	-725.000
227.08	-560.000
227.46	0.000
227.83	-516.667
228.21	-1650.000
228.58	325.000
228.95	1125.000
229.33	422.222
229.70	775.000
230.08	369.231
230.45	3200.000
230.82	-1000.000
231.20	-1100.000
231.57	-1066.667
231.95	540.000
232.32	300.000
232.69	650.000
233.07	325.000
233.44	-1750.000
233.81	240.000
234.19	159.259
234.56	262.500
234.93	229.412
235.31	215.000
235.68	275.000
236.05	203.571
236.43	174.074
236.80	307.143
237.17	165.517
237.55	143.750
237.92	140.000
238.29	166.667
238.67	171.875
239.04	134.146
239.41	114.583
239.79	130.000
240.16	104.167
240.53	119.672
240.91	94.203
241.28	94.915
241.65	100.000
242.02	92.958
242.40	94.286
242.77	74.725
243.14	89.873
243.51	81.818
243.89	78.505
244.26	74.766
244.63	78.218
245.00	88.991
245.38	72.034
245.75	74.242
246.12	73.333
246.49	78.014
246.87	81.148
247.24	70.667
247.61	73.125
247.98	79.592
248.36	69.697
248.73	73.980
249.10	74.405
249.47	64.000
249.84	64.179
250.22	71.892
250.59	64.500
250.96	63.291
251.33	65.581
251.70	63.839
252.08	59.244
252.45	56.972
252.82	58.175
253.19	58.893
253.56	58.077
253.94	57.609
254.31	66.667
254.68	63.066
255.05	63.103
255.42	58.759
255.79	62.866
256.16	62.373
256.54	62.013
256.91	57.516
257.28	57.525
257.65	59.248
258.02	58.997
258.39	59.026
258.76	59.130
259.14	56.857
259.51	58.309
259.88	60.182
260.25	55.220
260.62	56.438
260.99	54.821
261.36	58.496
261.73	59.840
262.10	59.162
262.47	51.500
262.85	60.533
263.22	56.812
263.59	56.266
263.96	60.401
264.33	54.568
264.70	57.740
265.07	56.829
265.44	57.110
265.81	54.953
266.18	54.233
266.55	58.865
266.92	54.139
267.29	55.921
267.66	57.623
268.03	56.951
268.40	53.277
268.77	53.744
269.14	52.928
269.51	55.234
269.88	54.490
270.25	53.996
270.62	56.223
270.99	52.941
271.36	54.065
271.73	53.669
272.10	56.162
272.47	55.556
272.84	51.697
273.21	53.719
273.58	54.049
273.95	53.593
274.32	55.058
274.69	55.315
275.06	51.366
275.43	53.640
275.80	53.019
276.17	50.551
276.54	50.841
276.91	54.851
277.28	52.737
277.65	55.904
278.02	51.838
278.39	52.698
278.76	52.931
279.13	50.890
279.50	54.909
279.87	53.073
280.23	51.565
280.60	54.927
280.97	53.621
281.34	51.650
281.71	51.130
282.08	51.111
282.45	53.209
282.82	52.174
283.19	50.715
283.56	51.074
283.92	51.954
284.29	50.250
284.66	52.437
285.03	50.083
285.40	50.413
285.77	49.383
286.14	50.155
286.51	50.000
286.87	49.367
287.24	48.198
287.61	46.809
287.98	48.507
288.35	48.296
288.72	47.800
289.08	49.249
289.45	49.390
289.82	47.344
290.19	47.438
290.56	50.218
290.93	48.345
291.29	46.961
291.66	45.480
292.03	46.143
292.40	45.935
292.77	45.961
293.13	47.504
293.50	45.614
293.87	45.393
294.24	48.112
294.60	45.222
294.97	45.874
295.34	46.614
295.71	47.569
296.08	46.267
296.44	45.616
296.81	43.176
297.18	43.219
297.55	45.443
297.91	42.980
298.28	45.894
298.65	42.822
299.02	43.788
299.38	45.204
299.75	45.366
300.12	44.839
300.48	46.956
300.85	46.365
301.22	45.000
301.59	44.104
301.95	45.624
302.32	46.100
302.69	43.778
303.05	44.557
303.42	45.291
303.79	46.154
304.15	45.655
304.52	46.300
304.89	45.203
305.25	44.383
305.62	43.817
305.99	44.348
306.35	45.579
306.72	44.641
307.09	44.824
307.45	46.463
307.82	45.679
308.19	45.670
308.55	44.800
308.92	47.399
309.29	47.239
309.65	46.283
310.02	45.740
310.38	46.560
310.75	47.155
311.12	46.935
311.48	49.131
311.85	46.660
312.22	47.278
312.58	48.591
312.95	49.417
313.31	48.970
313.68	47.561
314.05	49.267
314.41	48.603
314.78	51.705
315.14	50.237
315.51	50.426
315.87	50.000
316.24	49.767
316.61	51.746
316.97	51.284
317.34	51.303
317.70	51.010
318.07	53.648
318.43	52.812
318.80	53.590
319.16	54.021
319.53	53.540
319.89	54.480
320.26	56.518
320.62	55.311
320.99	54.909
321.35	55.751
321.72	56.736
322.08	57.156
322.45	56.312
322.81	58.554
323.18	57.815
323.54	60.105
323.91	61.650
324.27	60.566
324.64	60.208
325.00	62.155
325.37	61.804
325.73	61.383
326.10	63.380
326.46	62.428
326.83	60.880
327.19	63.614
327.56	63.738
327.92	65.492
328.29	64.075
328.65	65.839
329.01	63.986
329.38	65.059
329.74	62.852
330.11	66.377
330.47	66.837
330.84	64.107
331.20	66.497
331.56	67.444
331.93	67.408
332.29	65.136
332.66	65.901
333.02	64.777
333.38	67.103
333.75	65.221
334.11	66.779
334.48	66.410
334.84	64.189
335.20	66.210
335.57	64.652
335.93	65.433
336.29	64.594
336.66	67.324
337.02	65.098
337.38	64.488
337.75	66.047
338.11	65.992
338.47	67.739
338.84	64.522
339.20	65.455
339.56	65.601
339.93	65.552
340.29	64.286
340.65	66.220
341.02	64.682
341.38	65.846
341.74	65.199
342.11	65.275
342.47	65.053
342.83	66.366
343.20	65.319
343.56	63.145
343.92	66.722
344.28	64.673
344.65	66.259
345.01	63.889
345.37	63.221
345.73	67.063
346.10	64.940
346.46	65.949
346.82	63.349
347.19	65.765
347.55	64.637
347.91	65.483
348.27	64.214
348.63	66.060
349.00	65.270
349.36	67.315
349.72	66.514
350.08	67.391
350.45	64.585
350.81	65.979
351.17	65.485
351.53	66.205
351.89	65.346
352.26	66.289
352.62	64.706
352.98	65.798
353.34	65.871
353.70	65.214
354.07	66.692
354.43	67.204
354.79	64.920
355.15	65.620
355.51	65.710
355.87	66.039
356.24	66.667
356.60	65.753
356.96	66.717
357.32	65.109
357.68	64.537
358.04	67.477
358.40	66.792
358.77	65.665
359.13	65.841
359.49	65.827
359.85	67.312
360.21	66.345
360.57	66.277
360.93	66.017
361.29	67.316
361.66	69.500
362.02	65.980
362.38	67.027
362.74	66.454
363.10	66.339
363.46	66.160
363.82	65.708
364.18	68.137
364.54	69.099
364.90	65.997
365.26	69.188
365.62	67.818
365.98	66.965
366.35	68.069
366.71	66.065
367.07	67.235
367.43	67.361
367.79	68.484
368.15	66.079
368.51	67.884
368.87	66.848
369.23	67.775
369.59	68.375
369.95	68.741
370.31	67.146
370.67	68.633
371.03	67.647
371.39	69.598
371.75	68.737
372.11	68.185
372.47	68.014
372.83	68.389
373.19	68.266
373.55	67.835
373.91	68.232
374.27	67.923
374.63	68.407
374.99	69.272
375.35	70.430
375.71	70.383
376.07	68.501
376.42	67.967
376.78	70.906
377.14	69.921
377.50	68.664
377.86	70.468
378.22	68.739
378.58	70.339
378.94	69.765
379.30	70.588
379.66	69.476
380.02	70.205
380.38	69.438
380.74	69.435
381.09	71.028
381.45	68.844
381.81	69.858
382.17	70.269
382.53	72.106
382.89	69.840
383.25	70.337
383.61	70.375
383.97	70.126
384.32	70.826
384.68	70.945
385.04	70.223
385.40	70.522
385.76	69.690
386.12	71.490
386.48	71.064
386.83	72.433
387.19	70.436
387.55	71.378
387.91	70.670
388.27	70.732
388.62	71.420
388.98	71.312
389.34	69.244
389.70	71.403
390.06	70.671
390.42	71.931
390.77	70.700
391.13	72.963
391.49	69.631
391.85	71.815
392.20	72.408
392.56	71.983
392.92	70.634
393.28	71.861
393.64	70.929
393.99	70.243
394.35	70.394
394.71	70.748
395.07	70.560
395.42	72.014
395.78	71.808
396.14	71.386
396.50	70.999
396.85	71.829
397.21	71.480
397.57	70.652
397.92	69.960
398.28	70.767
398.64	71.670
399.00	69.001
399.35	69.136
399.71	70.585
400.07	71.005
400.42	71.582
400.78	70.323
401.14	71.462
401.49	70.046
401.85	70.800
402.21	70.357
402.57	70.018
402.92	70.667
403.28	69.272
403.63	69.570
403.99	70.627
404.35	70.809
404.70	71.530
405.06	70.354
405.42	69.779
405.77	69.184
406.13	69.089
406.49	69.073
406.84	68.979
407.20	69.749
407.55	70.031
407.91	69.368
408.27	69.375
408.62	71.023
408.98	70.195
409.34	67.797
409.69	68.762
410.05	70.662
410.40	68.963
410.76	69.720
411.11	69.727
411.47	69.198
411.83	68.248
412.18	68.659
412.54	68.889
412.89	68.378
413.25	70.068
413.60	68.808
413.96	69.001
414.31	69.776
414.67	69.957
415.03	69.476
415.38	70.473
415.74	70.436
416.09	69.082
416.45	70.394
416.80	68.762
417.16	67.473
417.51	68.981
417.87	68.836
418.22	67.983
418.58	70.382
418.93	69.007
419.29	67.714
419.64	68.019
420.00	68.616
420.35	68.815
420.71	68.378
421.06	68.629
421.42	68.394
421.77	67.907
422.12	69.460
422.48	67.488
422.83	68.917
423.19	67.765
423.54	67.965
423.90	68.743
424.25	70.061
424.61	69.704
424.96	67.984
425.31	69.294
425.67	68.967
426.02	68.368
426.38	68.611
426.73	68.537
427.09	69.276
427.44	68.205
427.79	69.583
428.15	70.242
428.50	68.800
428.85	69.782
429.21	68.774
429.56	67.149
429.92	68.523
430.27	68.457
430.62	66.814
430.98	67.864
431.33	67.389
431.68	67.259
432.04	69.219
432.39	67.892
432.74	68.677
433.10	67.996
433.45	69.730
433.80	68.946
434.16	68.734
434.51	67.337
434.86	67.175
435.22	68.287
435.57	68.168
435.92	68.241
436.28	69.931
436.63	67.639
436.98	69.144
437.34	68.322
437.69	68.589
438.04	67.419
438.39	68.535
438.75	67.094
439.10	67.836
439.45	67.044
439.81	67.206
440.16	68.740
440.51	67.624
440.86	68.946
441.22	68.019
441.57	68.819
441.92	67.078
442.27	67.629
442.63	66.006
442.98	68.373
443.33	67.381
443.68	67.002
444.03	67.484
444.39	67.750
444.74	67.340
445.09	67.351
445.44	67.322
445.79	67.544
446.15	67.789
446.50	68.987
446.85	66.932
447.20	67.065
447.55	67.591
447.91	68.247
448.26	66.986
448.61	69.431
448.96	68.355
449.31	68.152
449.66	67.885
450.02	66.559
450.37	68.018
450.72	68.926
451.07	65.678
451.42	67.338
451.77	67.869
452.12	67.952
452.47	67.315
452.83	67.887
453.18	67.327
453.53	67.673
453.88	68.171
454.23	67.345
454.58	67.016
454.93	67.137
455.28	66.585
455.63	67.376
455.98	66.046
456.34	68.571
456.69	67.134
457.04	67.721
457.39	66.629
457.74	67.624
458.09	65.974
458.44	67.032
458.79	67.268
459.14	66.285
459.49	65.062
459.84	67.283
460.19	66.045
460.54	66.382
460.89	66.365
461.24	64.490
461.59	66.327
461.94	66.135
462.29	65.847
462.64	66.143
462.99	65.963
463.34	66.883
463.69	65.517
464.04	66.494
464.39	64.625
464.74	65.123
465.09	65.873
465.44	65.397
465.79	65.487
466.14	63.487
466.49	64.297
466.84	65.050
467.19	64.851
467.54	64.925
467.89	64.789
468.24	65.547
468.59	64.286
468.94	65.882
469.29	63.653
469.64	65.916
469.99	64.974
470.34	63.441
470.68	64.966
471.03	67.178
471.38	64.702
471.73	65.447
472.08	64.905
472.43	65.549
472.78	65.557
473.13	64.205
473.48	64.120
473.83	64.605
474.17	64.802
474.52	62.974
474.87	63.559
475.22	64.477
475.57	63.799
475.92	63.413
476.27	63.058
476.61	62.949
476.96	62.644
477.31	63.650
477.66	64.144
478.01	63.074
478.36	63.131
478.70	62.730
479.05	64.121
479.40	63.343
479.75	63.406
480.10	63.166
480.45	62.558
480.79	62.396
481.14	63.576
481.49	61.848
481.84	61.653
482.19	62.707
482.53	62.187
482.88	62.321
483.23	61.885
483.58	62.208
483.92	63.620
484.27	61.729
484.62	62.861
484.97	61.083
485.31	61.318
485.66	60.701
486.01	60.807
486.36	59.919
486.70	60.299
487.05	59.655
487.40	60.375
487.75	59.725
488.09	59.119
488.44	60.198
488.79	60.778
489.13	61.292
489.48	61.167
489.83	61.468
490.17	60.116
490.52	60.724
490.87	59.741
491.22	60.860
491.56	60.782
491.91	60.260
492.26	60.089
492.60	60.729
492.95	59.447
493.30	60.282
493.64	60.602
493.99	59.928
494.34	60.735
494.68	60.381
495.03	60.305
495.37	60.288
495.72	61.305
496.07	59.030
496.41	59.123
496.76	59.477
497.11	59.983
497.45	59.185
497.80	60.102
498.14	59.223
498.49	59.471
498.84	60.794
499.18	58.821
499.53	59.669
499.87	58.715
500.22	59.650
500.56	59.471
500.91	59.462
501.26	60.129
501.60	59.244
501.95	58.602
502.29	58.667
502.64	58.536
502.98	57.670
503.33	58.797
503.67	58.013
504.02	58.486
504.36	58.597
504.71	59.839
505.06	58.236
505.40	58.212
505.75	57.671
506.09	58.656
506.44	58.553
506.78	58.554
507.13	59.186
507.47	58.515
507.82	58.491
508.16	58.746
508.51	58.309
508.85	57.455
509.19	58.590
509.54	58.057
509.88	57.185
510.23	58.186
510.57	57.625
510.92	58.991
511.26	58.584
511.61	56.967
511.95	57.790
512.30	57.850
512.64	57.788
512.98	57.150
513.33	58.145
513.67	56.655
514.02	56.779
514.36	58.307
514.70	57.760
515.05	57.592
515.39	58.224
515.74	58.721
516.08	57.843
516.42	58.579
516.77	57.440
517.11	58.560
517.46	57.543
517.80	57.346
518.14	57.465
518.49	55.954
518.83	55.659
519.17	57.959
519.52	56.909
519.86	56.621
520.20	57.205
520.55	55.964
520.89	57.126
521.23	58.937
521.58	56.512
521.92	57.085
522.26	56.872
522.61	57.695
522.95	57.357
523.29	56.784
523.64	56.821
523.98	57.805
524.32	57.151
524.66	55.594
525.01	56.568
525.35	55.097
525.69	56.352
526.04	55.384
526.38	56.622
526.72	56.205
527.06	55.411
527.41	55.985
527.75	56.239
528.09	55.087
528.43	56.803
528.78	56.112
529.12	57.194
529.46	55.348
529.80	56.659
530.15	56.511
530.49	55.114
530.83	55.332
531.17	55.966
531.51	55.671
531.86	54.348
532.20	53.523
532.54	55.807
532.88	55.340
533.22	55.210
533.57	56.498
533.91	54.371
534.25	53.837
534.59	54.503
534.93	54.266
535.27	54.240
535.62	55.659
535.96	54.374
536.30	55.576
536.64	54.161
536.98	55.632
537.32	53.812
537.66	54.911
538.01	54.241
538.35	54.273
538.69	53.580
539.03	54.851
539.37	52.852
539.71	54.444
540.05	54.462
540.39	53.396
540.73	56.203
541.07	53.890
541.42	55.410
541.76	53.391
542.10	53.453
542.44	54.551
542.78	54.563
543.12	53.558
543.46	53.759
543.80	53.446
544.14	53.375
544.48	53.041
544.82	53.823
545.16	51.852
545.50	53.104
545.84	52.525
546.18	54.746
546.52	54.164
546.86	53.191
547.20	53.101
547.54	52.818
547.88	52.433
548.22	53.005
548.56	52.445
548.90	52.017
549.24	53.569
549.58	53.093
549.92	53.897
550.26	53.347
550.60	52.029
550.94	53.256
551.28	54.138
551.62	53.241
551.96	52.162
552.30	52.142
552.64	52.621
552.98	52.191
553.32	51.536
553.66	52.964
554.00	51.931
554.34	53.795
554.68	53.024
555.02	52.546
555.36	52.460
555.69	51.702
556.03	50.828
556.37	51.625
556.71	52.868
557.05	50.983
557.39	50.800
557.73	52.763
558.07	52.046
558.41	52.365
558.75	51.505
559.08	52.037
559.42	53.472
559.76	52.958
560.10	50.929
560.44	50.564
560.78	51.662
561.12	50.985
561.45	51.001
561.79	50.499
562.13	50.853
562.47	51.720
562.81	52.180
563.15	51.196
563.48	49.006
563.82	51.404
564.16	50.808
564.50	50.633
564.84	50.517
565.17	50.267
565.51	52.401
565.85	51.450
566.19	50.774
566.52	51.564
566.86	50.555
567.20	51.236
567.54	50.382
567.88	50.496
568.21	49.076
568.55	50.146
568.89	49.544
569.23	49.871
569.56	49.201
569.90	48.976
570.24	48.961
570.57	48.475
570.91	48.362
571.25	48.458
571.59	48.111
571.92	47.282
572.26	47.736
572.60	48.098
572.93	48.907
573.27	47.961
573.61	47.916
573.95	47.535
574.28	48.085
574.62	47.834
574.96	47.175
575.29	47.136
575.63	47.303
575.97	46.714
576.30	47.102
576.64	47.920
576.98	47.365
577.31	47.839
577.65	48.334
577.98	47.162
578.32	47.025
578.66	46.617
578.99	47.598
579.33	47.249
579.67	47.819
580.00	46.732
580.34	46.916
580.67	46.219
581.01	47.312
581.35	46.889
581.68	46.781
582.02	46.699
582.35	46.880
582.69	47.327
583.02	46.517
583.36	47.015
583.70	46.991
584.03	47.726
584.37	47.426
584.70	46.678
585.04	46.705
585.37	46.190
585.71	46.719
586.04	46.394
586.38	46.804
586.72	46.718
587.05	46.912
587.39	46.144
587.72	47.085
588.06	46.660
588.39	46.571
588.73	45.791
589.06	46.922
589.40	47.230
589.73	46.804
590.07	47.117
590.40	46.376
590.73	48.402
591.07	47.059
591.40	47.465
591.74	46.672
592.07	45.799
592.41	46.843
592.74	45.698
593.08	46.387
593.41	46.230
593.75	45.710
594.08	46.196
594.41	45.748
594.75	46.301
595.08	45.885
595.42	45.754
595.75	45.903
596.09	46.090
596.42	45.266
596.75	47.196
597.09	46.100
597.42	46.082
597.75	46.247
598.09	45.261
598.42	46.144
598.76	45.412
599.09	45.936
599.42	44.706
599.76	45.556
600.09	45.220
600.42	45.442
600.76	45.683
601.09	45.116
601.42	44.984
601.76	44.755
602.09	45.843
602.42	45.656
602.76	45.806
603.09	45.098
603.42	45.248
603.76	45.409
604.09	45.096
604.42	45.085
604.76	45.753
605.09	44.653
605.42	44.535
605.75	45.124
606.09	45.295
606.42	44.419
606.75	45.161
607.09	44.256
607.42	45.199
607.75	44.626
608.08	44.435
608.42	44.128
608.75	46.042
609.08	44.743
609.41	45.682
609.75	45.467
610.08	44.379
610.41	44.532
610.74	44.935
611.07	45.202
611.41	45.737
611.74	45.363
612.07	44.894
612.40	44.834
612.73	45.781
613.07	45.819
613.40	45.163
613.73	45.632
614.06	44.150
614.39	45.606
614.72	44.601
615.06	44.362
615.39	44.802
615.72	43.127
616.05	45.706
616.38	44.850
616.71	44.384
617.05	45.744
617.38	44.944
617.71	45.726
618.04	45.766
618.37	44.580
618.70	45.035
619.03	44.200
619.36	44.975
619.69	45.251
620.03	46.249
620.36	45.601
620.69	46.041
621.02	45.177
621.35	44.341
621.68	45.133
622.01	45.461
622.34	45.302
622.67	45.014
623.00	43.771
623.33	44.872
623.66	45.110
623.99	45.274
624.32	45.393
624.65	44.832
624.99	45.842
625.32	44.890
625.65	44.414
625.98	43.724
626.31	46.068
626.64	45.027
626.97	45.371
627.30	43.944
627.63	44.741
627.96	44.366
628.29	45.792
628.62	44.825
628.95	45.124
629.28	47.765
629.61	45.079
629.94	44.944
630.26	44.887
630.59	45.922
630.92	44.574
