SpectraSuite Data File
++++++++++++++++++++++++++++++++++++
Date: Tue May 12 16:31:25 PDT 2015
User: schluterlab
Dark Spectrum Present: Yes
Reference Spectrum Present: Yes
Number of Sampled Component Spectra: 1
Spectrometers: USB2E3373
Integration Time (usec): 3000 (USB2E3373)
Spectra Averaged: 3 (USB2E3373)
Boxcar Smoothing: 0 (USB2E3373)
Correct for Electrical Dark: No (USB2E3373)
Strobe/Lamp Enabled: No (USB2E3373)
Correct for Detector Non-linearity: No (USB2E3373)
Correct for Stray Light: No (USB2E3373)
Number of Pixels in Processed Spectrum: 2048
>>>>>Begin Processed Spectral Data<<<<<
178.53	0.000
178.91	-175.000
179.29	-725.000
179.67	-3900.000
180.04	-160.000
180.42	675.000
180.80	1450.000
181.18	0.000
181.56	-325.000
181.94	0.000
182.31	800.000
182.69	-2600.000
183.07	442.857
183.45	-3200.000
183.83	-1350.000
184.20	310.000
184.58	485.714
184.96	-246.154
185.34	-200.000
185.72	1500.000
186.09	-875.000
186.47	-2800.000
186.85	1133.333
187.23	660.000
187.61	1900.000
187.98	475.000
188.36	250.000
188.74	308.333
189.12	391.667
189.49	975.000
189.87	0.000
190.25	475.000
190.63	3000.000
191.00	-183.333
191.38	-3500.000
191.76	-650.000
192.14	550.000
192.51	-2300.000
192.89	1600.000
193.27	933.333
193.65	-666.667
194.02	-840.000
194.40	528.571
194.78	-128.571
195.15	253.333
195.53	-2800.000
195.91	-440.000
196.29	3800.000
196.66	212.500
197.04	575.000
197.42	-1150.000
197.79	600.000
198.17	283.333
198.55	0.000
198.92	471.429
199.30	1000.000
199.68	1900.000
200.05	583.333
200.43	-450.000
200.81	227.778
201.18	3600.000
201.56	325.000
201.94	-800.000
202.31	-250.000
202.69	-540.000
203.07	3300.000
203.44	-450.000
203.82	325.000
204.19	640.000
204.57	-1500.000
204.95	-625.000
205.32	-640.000
205.70	533.333
206.08	950.000
206.45	-600.000
206.83	377.778
207.20	147.368
207.58	291.667
207.96	220.000
208.33	0.000
208.71	557.143
209.08	440.000
209.46	-3200.000
209.84	-1050.000
210.21	860.000
210.59	-700.000
210.96	291.667
211.34	-850.000
211.71	327.273
212.09	725.000
212.46	1000.000
212.84	-433.333
213.22	355.556
213.59	-2600.000
213.97	240.000
214.34	875.000
214.72	1233.333
215.09	1033.333
215.47	-2700.000
215.84	-320.000
216.22	-287.500
216.59	0.000
216.97	0.000
217.34	1650.000
217.72	-1150.000
218.09	1333.333
218.47	400.000
218.84	575.000
219.22	1500.000
219.59	633.333
219.97	571.429
220.34	411.111
220.72	1300.000
221.09	3100.000
221.47	241.667
221.84	833.333
222.22	320.000
222.59	255.556
222.97	257.143
223.34	212.500
223.72	-1900.000
224.09	1400.000
224.46	284.615
224.84	-675.000
225.21	277.778
225.59	280.000
225.96	1200.000
226.34	-480.000
226.71	-900.000
227.08	-640.000
227.46	0.000
227.83	-566.667
228.21	-950.000
228.58	308.333
228.95	950.000
229.33	355.556
229.70	800.000
230.08	338.462
230.45	4400.000
230.82	-600.000
231.20	-866.667
231.57	-1066.667
231.95	760.000
232.32	266.667
232.69	466.667
233.07	275.000
233.44	-1700.000
233.81	273.333
234.19	166.667
234.56	281.250
234.93	223.529
235.31	220.000
235.68	281.250
236.05	171.429
236.43	133.333
236.80	271.429
237.17	210.345
237.55	150.000
237.92	132.500
238.29	151.515
238.67	146.875
239.04	119.512
239.41	106.250
239.79	125.000
240.16	118.750
240.53	93.443
240.91	92.754
241.28	100.000
241.65	95.455
242.02	90.141
242.40	97.143
242.77	79.121
243.14	88.608
243.51	79.798
243.89	78.505
244.26	70.093
244.63	91.089
245.00	81.651
245.38	74.576
245.75	78.030
246.12	80.000
246.49	78.723
246.87	77.869
247.24	66.667
247.61	71.875
247.98	70.068
248.36	63.636
248.73	66.837
249.10	60.714
249.47	64.000
249.84	63.184
250.22	63.784
250.59	64.000
250.96	62.869
251.33	60.000
251.70	60.268
252.08	64.706
252.45	58.964
252.82	64.259
253.19	60.870
253.56	61.923
253.94	60.870
254.31	63.178
254.68	58.188
255.05	62.414
255.42	60.219
255.79	59.609
256.16	58.983
256.54	59.740
256.91	62.418
257.28	59.866
257.65	56.426
258.02	60.177
258.39	57.880
258.76	58.551
259.14	54.857
259.51	60.350
259.88	65.350
260.25	53.571
260.62	56.712
260.99	57.300
261.36	58.496
261.73	59.309
262.10	59.948
262.47	57.000
262.85	57.333
263.22	62.211
263.59	57.801
263.96	56.892
264.33	57.778
264.70	59.214
265.07	61.463
265.44	59.174
265.81	57.783
266.18	57.895
266.55	58.392
266.92	54.810
267.29	58.333
267.66	55.830
268.03	55.830
268.40	55.603
268.77	58.150
269.14	55.098
269.51	59.688
269.88	53.673
270.25	54.212
270.62	59.442
270.99	53.550
271.36	57.520
271.73	58.910
272.10	54.141
272.47	53.571
272.84	51.497
273.21	53.926
273.58	59.514
273.95	53.183
274.32	54.669
274.69	52.165
275.06	55.009
275.43	53.448
275.80	54.340
276.17	52.390
276.54	53.458
276.91	55.970
277.28	49.818
277.65	53.321
278.02	51.287
278.39	51.978
278.76	52.759
279.13	50.356
279.50	55.273
279.87	51.769
280.23	54.512
280.60	54.927
280.97	52.759
281.34	50.825
281.71	52.000
282.08	52.137
282.45	50.507
282.82	54.348
283.19	48.967
283.56	51.570
283.92	52.117
284.29	50.915
284.66	49.748
285.03	50.415
285.40	50.083
285.77	51.235
286.14	50.464
286.51	48.773
286.87	47.310
287.24	46.246
287.61	50.304
287.98	49.701
288.35	48.593
288.72	47.648
289.08	48.799
289.45	49.848
289.82	49.219
290.19	47.438
290.56	45.852
290.93	47.770
291.29	46.547
291.66	46.469
292.03	46.003
292.40	45.122
292.77	42.201
293.13	45.078
293.50	42.780
293.87	41.463
294.24	44.056
294.60	44.818
294.97	45.734
295.34	43.028
295.71	40.999
296.08	42.800
296.44	41.550
296.81	40.447
297.18	39.290
297.55	41.872
297.91	40.640
298.28	41.304
298.65	39.755
299.02	41.255
299.38	39.329
299.75	39.512
300.12	39.450
300.48	40.749
300.85	39.690
301.22	40.000
301.59	39.033
301.95	38.973
302.32	38.068
302.69	38.122
303.05	40.741
303.42	36.883
303.79	39.112
304.15	37.404
304.52	37.738
304.89	38.273
305.25	38.598
305.62	37.633
305.99	38.152
306.35	37.053
306.72	37.357
307.09	36.749
307.45	37.909
307.82	37.654
308.19	35.876
308.55	36.600
308.92	37.586
309.29	38.757
309.65	37.166
310.02	36.207
310.38	36.590
310.75	35.487
311.12	35.728
311.48	36.100
311.85	35.973
312.22	36.199
312.58	35.374
312.95	36.117
313.31	36.610
313.68	35.272
314.05	37.088
314.41	36.592
314.78	36.364
315.14	36.493
315.51	36.140
315.87	37.135
316.24	35.481
316.61	36.437
316.97	35.321
317.34	36.837
317.70	36.260
318.07	36.299
318.43	37.083
318.80	35.464
319.16	36.364
319.53	36.195
319.89	36.022
320.26	36.778
320.62	36.630
320.99	36.225
321.35	35.622
321.72	37.381
322.08	36.750
322.45	36.058
322.81	36.871
323.18	36.234
323.54	36.498
323.91	37.171
324.27	36.340
324.64	36.246
325.00	36.897
325.37	37.184
325.73	37.184
326.10	36.951
326.46	36.829
326.83	35.280
327.19	36.707
327.56	36.022
327.92	37.213
328.29	36.743
328.65	37.928
329.01	36.612
329.38	36.633
329.74	35.611
330.11	36.751
330.47	36.232
330.84	34.771
331.20	35.618
331.56	36.442
331.93	36.099
332.29	34.524
332.66	35.544
333.02	34.794
333.38	35.864
333.75	35.947
334.11	35.319
334.48	36.068
334.84	35.895
335.20	35.415
335.57	35.013
335.93	35.071
336.29	34.163
336.66	36.707
337.02	34.388
337.38	33.878
337.75	35.304
338.11	34.430
338.47	34.970
338.84	34.124
339.20	33.766
339.56	33.474
339.93	34.114
340.29	32.605
340.65	34.619
341.02	33.709
341.38	32.923
341.74	33.721
342.11	32.471
342.47	32.240
342.83	34.947
343.20	34.115
343.56	32.804
343.92	33.856
344.28	34.211
344.65	34.067
345.01	32.698
345.37	33.494
345.73	31.587
346.10	31.952
346.46	33.094
346.82	31.867
347.19	34.080
347.55	33.411
347.91	31.798
348.27	31.991
348.63	31.962
349.00	31.759
349.36	33.152
349.72	32.416
350.08	33.385
350.45	33.054
350.81	32.416
351.17	31.587
351.53	32.794
351.89	32.401
352.26	32.124
352.62	31.900
352.98	32.669
353.34	32.357
353.70	32.722
354.07	31.846
354.43	31.567
354.79	30.524
355.15	31.700
355.51	31.344
355.87	31.401
356.24	32.179
356.60	30.898
356.96	31.463
357.32	31.198
357.68	32.159
358.04	31.915
358.40	31.709
358.77	32.156
359.13	31.607
359.49	31.950
359.85	31.720
360.21	30.312
360.57	30.803
360.93	31.818
361.29	31.313
361.66	32.364
362.02	29.688
362.38	31.241
362.74	31.352
363.10	30.575
363.46	31.146
363.82	32.328
364.18	31.152
364.54	31.116
364.90	30.589
365.26	31.783
365.62	30.870
365.98	29.525
366.35	29.931
366.71	31.159
367.07	30.512
367.43	31.028
367.79	30.718
368.15	29.579
368.51	30.875
368.87	29.688
369.23	31.324
369.59	31.018
369.95	30.839
370.31	30.527
370.67	31.090
371.03	30.322
371.39	30.055
371.75	30.914
372.11	29.776
372.47	31.027
372.83	29.300
373.19	30.843
373.55	31.203
373.91	30.041
374.27	29.034
374.63	30.169
374.99	29.515
375.35	30.914
375.71	30.805
376.07	30.570
376.42	29.795
376.78	31.471
377.14	30.472
377.50	30.025
377.86	30.045
378.22	30.530
378.58	30.569
378.94	31.382
379.30	30.746
379.66	30.102
380.02	30.616
380.38	30.562
380.74	30.854
381.09	31.367
381.45	29.364
381.81	29.669
382.17	29.609
382.53	30.534
382.89	30.751
383.25	29.722
383.61	30.029
383.97	28.974
384.32	30.259
384.68	30.957
385.04	30.481
385.40	31.376
385.76	29.783
386.12	30.798
386.48	30.030
386.83	29.890
387.19	30.565
387.55	30.978
387.91	30.196
388.27	31.231
388.62	30.692
388.98	29.738
389.34	29.923
389.70	30.366
390.06	30.549
390.42	30.722
390.77	30.221
391.13	30.235
391.49	30.490
391.85	29.846
392.20	29.678
392.56	30.765
392.92	29.871
393.28	29.933
393.64	28.956
393.99	30.172
394.35	30.253
394.71	30.217
395.07	29.684
395.42	30.211
395.78	30.907
396.14	30.241
396.50	30.445
396.85	30.488
397.21	29.723
397.57	30.066
397.92	29.521
398.28	29.619
398.64	29.494
399.00	28.755
399.35	29.254
399.71	29.249
400.07	29.338
400.42	29.493
400.78	29.326
401.14	29.830
401.49	30.242
401.85	29.780
402.21	29.174
402.57	29.563
402.92	29.273
403.28	29.236
403.63	28.546
403.99	29.011
404.35	29.777
404.70	30.183
405.06	28.130
405.42	29.204
405.77	28.611
406.13	28.688
406.49	29.278
406.84	28.878
407.20	28.311
407.55	29.600
407.91	30.185
408.27	29.836
408.62	28.504
408.98	28.326
409.34	28.814
409.69	28.314
410.05	28.444
410.40	28.563
410.76	28.277
411.11	28.851
411.47	28.519
411.83	27.885
412.18	28.261
412.54	28.769
412.89	28.791
413.25	28.449
413.60	28.388
413.96	28.426
414.31	28.040
414.67	29.112
415.03	27.905
415.38	28.770
415.74	28.048
416.09	28.482
416.45	29.024
416.80	29.955
417.16	28.326
417.51	29.427
417.87	28.911
418.22	29.040
418.58	28.599
418.93	27.543
419.29	28.096
419.64	28.528
420.00	28.819
420.35	27.875
420.71	28.530
421.06	28.016
421.42	29.073
421.77	28.040
422.12	28.556
422.48	27.530
422.83	29.074
423.19	27.592
423.54	28.086
423.90	27.860
424.25	28.343
424.61	28.961
424.96	27.668
425.31	27.477
425.67	28.676
426.02	27.370
426.38	27.363
426.73	28.571
427.09	27.877
427.44	28.081
427.79	27.559
428.15	28.580
428.50	29.429
428.85	28.807
429.21	27.661
429.56	27.817
429.92	27.350
430.27	27.963
430.62	27.509
430.98	27.545
431.33	27.419
431.68	27.062
432.04	27.315
432.39	28.266
432.74	27.986
433.10	28.239
433.45	28.260
433.80	28.351
434.16	28.061
434.51	28.328
434.86	28.307
435.22	27.283
435.57	27.445
435.92	28.515
436.28	28.687
436.63	27.391
436.98	28.322
437.34	28.482
437.69	27.716
438.04	27.849
438.39	27.904
438.75	27.617
439.10	27.415
439.45	27.530
439.81	28.514
440.16	27.133
440.51	27.815
440.86	28.604
441.22	27.273
441.57	27.717
441.92	27.789
442.27	27.216
442.63	27.896
442.98	27.371
443.33	27.638
443.68	27.616
444.03	28.322
444.39	27.731
444.74	27.899
445.09	27.014
445.44	28.108
445.79	28.070
446.15	28.158
446.50	27.479
446.85	27.341
447.20	26.766
447.55	27.243
447.91	27.118
448.26	26.944
448.61	28.303
448.96	27.397
449.31	27.283
449.66	28.184
450.02	26.472
450.37	27.707
450.72	27.493
451.07	27.167
451.42	28.216
451.77	27.205
452.12	27.623
452.47	27.157
452.83	27.606
453.18	26.907
453.53	27.886
453.88	27.886
454.23	27.484
454.58	27.448
454.93	28.020
455.28	27.479
455.63	27.009
455.98	27.468
456.34	27.842
456.69	27.927
457.04	27.208
457.39	27.486
457.74	28.097
458.09	27.176
458.44	27.327
458.79	27.374
459.14	26.896
459.49	27.067
459.84	27.880
460.19	26.158
460.54	27.749
460.89	27.612
461.24	26.976
461.59	28.515
461.94	27.541
462.29	26.602
462.64	27.261
462.99	28.023
463.34	26.377
463.69	27.102
464.04	27.922
464.39	26.560
464.74	26.964
465.09	26.175
465.44	26.496
465.79	27.654
466.14	26.232
466.49	26.641
466.84	26.979
467.19	27.417
467.54	27.628
467.89	26.467
468.24	26.346
468.59	25.893
468.94	26.389
469.29	26.634
469.64	27.010
469.99	27.506
470.34	26.376
470.68	26.138
471.03	26.951
471.38	26.424
471.73	26.323
472.08	27.136
472.43	27.809
472.78	27.657
473.13	25.907
473.48	26.711
473.83	26.148
474.17	26.565
474.52	25.770
474.87	26.094
475.22	26.728
475.57	26.705
475.92	26.009
476.27	25.626
476.61	25.684
476.96	26.646
477.31	26.530
477.66	26.624
478.01	26.921
478.36	26.468
478.70	25.906
479.05	25.680
479.40	26.538
479.75	25.919
480.10	25.895
480.45	24.977
480.79	25.392
481.14	25.250
481.49	25.069
481.84	25.374
482.19	26.638
482.53	25.736
482.88	25.358
483.23	25.259
483.58	25.359
483.92	26.920
484.27	25.728
484.62	25.637
484.97	25.438
485.31	25.044
485.66	25.540
486.01	26.209
486.36	26.363
486.70	26.007
487.05	25.807
487.40	26.021
487.75	26.141
488.09	25.170
488.44	25.590
488.79	25.790
489.13	25.084
489.48	25.569
489.83	25.146
490.17	25.145
490.52	24.892
490.87	24.784
491.22	25.399
491.56	25.648
491.91	25.269
492.26	25.657
492.60	25.831
492.95	24.739
493.30	24.431
493.64	24.843
493.99	24.821
494.34	25.280
494.68	24.436
495.03	25.505
495.37	25.349
495.72	25.175
496.07	24.663
496.41	25.109
496.76	25.665
497.11	25.021
497.45	24.288
497.80	25.394
498.14	23.948
498.49	24.373
498.84	25.654
499.18	24.314
499.53	25.540
499.87	25.202
500.22	25.795
500.56	24.559
500.91	25.371
501.26	25.034
501.60	25.046
501.95	24.552
502.29	24.400
502.64	24.129
502.98	23.833
503.33	24.811
503.67	24.547
504.02	24.227
504.36	24.163
504.71	24.456
505.06	24.636
505.40	24.754
505.75	24.088
506.09	24.545
506.44	24.859
506.78	25.047
507.13	24.721
507.47	23.920
507.82	24.915
508.16	24.743
508.51	24.686
508.85	24.596
509.19	24.767
509.54	23.975
509.88	24.565
510.23	24.657
510.57	23.456
510.92	24.426
511.26	24.046
511.61	23.732
511.95	23.793
512.30	24.250
512.64	24.039
512.98	23.783
513.33	23.566
513.67	24.340
514.02	23.844
514.36	23.988
514.70	23.947
515.05	23.815
515.39	23.520
515.74	24.112
516.08	23.257
516.42	24.645
516.77	23.733
517.11	23.947
517.46	24.731
517.80	23.266
518.14	23.944
518.49	23.484
518.83	23.132
519.17	23.683
519.52	23.375
519.86	23.052
520.20	24.164
520.55	23.573
520.89	23.161
521.23	23.306
521.58	23.064
521.92	23.499
522.26	22.453
522.61	23.470
522.95	23.243
523.29	23.333
523.64	22.948
523.98	23.181
524.32	23.472
524.66	24.116
525.01	22.663
525.35	23.041
525.69	23.600
526.04	24.271
526.38	23.072
526.72	23.449
527.06	23.182
527.41	23.035
527.75	23.554
528.09	22.095
528.43	23.063
528.78	23.554
529.12	23.721
529.46	23.320
529.80	23.131
530.15	22.687
530.49	22.082
530.83	23.583
531.17	23.186
531.51	23.666
531.86	23.188
532.20	22.930
532.54	22.662
532.88	22.548
533.22	23.644
533.57	23.795
533.91	23.019
534.25	22.100
534.59	23.099
534.93	22.924
535.27	22.766
535.62	22.345
535.96	23.050
536.30	24.558
536.64	22.236
536.98	23.159
537.32	23.500
537.66	22.832
538.01	22.786
538.35	22.832
538.69	23.240
539.03	22.139
539.37	22.391
539.71	23.086
540.05	23.815
540.39	24.025
540.73	23.418
541.07	22.271
541.42	23.134
541.76	23.305
542.10	22.750
542.44	22.693
542.78	22.215
543.12	22.270
543.46	22.744
543.80	22.807
544.14	23.096
544.48	22.567
544.82	22.936
545.16	23.012
545.50	23.417
545.84	23.674
546.18	23.212
546.52	23.475
546.86	23.533
547.20	22.028
547.54	22.799
547.88	23.236
548.22	23.376
548.56	22.216
548.90	23.428
549.24	23.121
549.58	23.260
549.92	22.790
550.26	22.650
550.60	23.021
550.94	22.252
551.28	23.724
551.62	22.828
551.96	22.770
552.30	22.149
552.64	22.136
552.98	22.423
553.32	22.343
553.66	22.410
554.00	22.394
554.34	23.435
554.68	22.245
555.02	23.150
555.36	22.274
555.69	22.709
556.03	22.739
556.37	23.327
556.71	22.686
557.05	21.756
557.39	22.867
557.73	23.450
558.07	21.395
558.41	22.618
558.75	23.051
559.08	22.588
559.42	22.405
559.76	22.737
560.10	21.748
560.44	22.230
560.78	22.570
561.12	22.378
561.45	22.340
561.79	22.909
562.13	22.426
562.47	22.777
562.81	23.032
563.15	23.077
563.48	21.677
563.82	22.396
564.16	23.383
564.50	22.483
564.84	22.432
565.17	22.757
565.51	23.153
565.85	22.949
566.19	23.274
566.52	22.623
566.86	23.759
567.20	23.315
567.54	23.745
567.88	24.309
568.21	23.115
568.55	23.541
568.89	23.586
569.23	23.598
569.56	23.842
569.90	23.679
570.24	23.339
570.57	23.978
570.91	23.744
571.25	23.814
571.59	22.984
571.92	24.166
572.26	24.043
572.60	23.577
572.93	23.951
573.27	23.693
573.61	23.822
573.95	23.780
574.28	24.140
574.62	24.173
574.96	24.028
575.29	23.523
575.63	23.816
575.97	23.442
576.30	23.412
576.64	24.422
576.98	23.868
577.31	24.188
577.65	23.886
577.98	23.821
578.32	23.784
578.66	23.698
578.99	23.893
579.33	24.199
579.67	23.309
580.00	23.664
580.34	23.894
580.67	23.468
581.01	24.380
581.35	24.031
581.68	23.689
582.02	24.208
582.35	23.975
582.69	24.203
583.02	24.127
583.36	23.982
583.70	23.934
584.03	24.609
584.37	23.927
584.70	23.911
585.04	23.674
585.37	23.557
585.71	24.000
586.04	23.920
586.38	23.989
586.72	24.015
587.05	24.267
587.39	23.944
587.72	24.103
588.06	23.988
588.39	23.951
588.73	24.326
589.06	24.132
589.40	23.944
589.73	23.992
590.07	23.816
590.40	24.599
590.73	24.348
591.07	24.061
591.40	23.872
591.74	23.782
592.07	23.295
592.41	23.421
592.74	23.398
593.08	23.307
593.41	23.788
593.75	23.367
594.08	23.991
594.41	23.232
594.75	23.390
595.08	23.937
595.42	24.095
595.75	23.560
596.09	23.775
596.42	23.015
596.75	24.038
597.09	23.236
597.42	23.143
597.75	23.205
598.09	22.487
598.42	23.337
598.76	23.400
599.09	23.501
599.42	23.702
599.76	23.677
600.09	22.881
600.42	23.446
600.76	23.351
601.09	23.334
601.42	23.266
601.76	23.451
602.09	24.062
602.42	23.105
602.76	23.909
603.09	23.492
603.42	23.670
603.76	23.825
604.09	23.091
604.42	23.653
604.76	23.588
605.09	23.184
605.42	23.568
605.75	23.766
606.09	23.374
606.42	22.698
606.75	22.930
607.09	22.898
607.42	23.423
607.75	23.209
608.08	22.583
608.42	23.658
608.75	22.850
609.08	23.053
609.41	23.500
609.75	23.718
610.08	23.291
610.41	23.276
610.74	23.377
611.07	22.510
611.41	23.355
611.74	23.327
612.07	23.266
612.40	23.197
612.73	23.115
613.07	22.808
613.40	23.308
613.73	23.415
614.06	22.500
614.39	23.990
614.72	22.903
615.06	22.552
615.39	22.772
615.72	23.427
616.05	22.551
616.38	22.679
616.71	22.843
617.05	23.449
617.38	22.528
617.71	22.610
618.04	23.163
618.37	22.290
618.70	22.402
619.03	22.894
619.36	22.990
619.69	22.493
620.03	22.831
620.36	22.672
620.69	22.669
621.02	22.826
621.35	21.418
621.68	22.714
622.01	22.657
622.34	21.559
622.67	23.315
623.00	22.532
623.33	22.470
623.66	21.756
623.99	22.603
624.32	22.967
624.65	22.449
624.99	22.853
625.32	22.645
625.65	22.138
625.98	21.060
626.31	22.107
626.64	21.336
626.97	21.500
627.30	22.981
627.63	22.135
627.96	21.674
628.29	21.865
628.62	21.129
628.95	21.809
629.28	21.823
629.61	21.705
629.94	21.780
630.26	21.144
630.59	21.365
630.92	22.242
631.25	21.668
