SpectraSuite Data File
++++++++++++++++++++++++++++++++++++
Date: Tue May 12 16:29:50 PDT 2015
User: schluterlab
Dark Spectrum Present: Yes
Reference Spectrum Present: Yes
Number of Sampled Component Spectra: 1
Spectrometers: USB2E3373
Integration Time (usec): 3000 (USB2E3373)
Spectra Averaged: 3 (USB2E3373)
Boxcar Smoothing: 0 (USB2E3373)
Correct for Electrical Dark: No (USB2E3373)
Strobe/Lamp Enabled: No (USB2E3373)
Correct for Detector Non-linearity: No (USB2E3373)
Correct for Stray Light: No (USB2E3373)
Number of Pixels in Processed Spectrum: 2048
>>>>>Begin Processed Spectral Data<<<<<
178.53	0.000
178.91	-266.667
179.29	-650.000
179.67	-3100.000
180.04	-133.333
180.42	850.000
180.80	1500.000
181.18	0.000
181.56	-312.500
181.94	0.000
182.31	1433.333
182.69	-2300.000
183.07	542.857
183.45	-4300.000
183.83	-1450.000
184.20	380.000
184.58	528.571
184.96	-246.154
185.34	-200.000
185.72	1100.000
186.09	-700.000
186.47	-2000.000
186.85	1000.000
187.23	580.000
187.61	1550.000
187.98	500.000
188.36	271.429
188.74	266.667
189.12	341.667
189.49	900.000
189.87	0.000
190.25	412.500
190.63	2600.000
191.00	-208.333
191.38	-2700.000
191.76	-700.000
192.14	525.000
192.51	-3800.000
192.89	1950.000
193.27	1233.333
193.65	-733.333
194.02	-700.000
194.40	500.000
194.78	-228.571
195.15	240.000
195.53	-3800.000
195.91	-460.000
196.29	3800.000
196.66	200.000
197.04	825.000
197.42	-1350.000
197.79	525.000
198.17	316.667
198.55	0.000
198.92	557.143
199.30	1100.000
199.68	1800.000
200.05	716.667
200.43	-483.333
200.81	166.667
201.18	3400.000
201.56	333.333
201.94	-800.000
202.31	-312.500
202.69	-480.000
203.07	2400.000
203.44	-483.333
203.82	266.667
204.19	640.000
204.57	-1150.000
204.95	-725.000
205.32	-660.000
205.70	550.000
206.08	725.000
206.45	-866.667
206.83	344.444
207.20	210.526
207.58	216.667
207.96	700.000
208.33	0.000
208.71	542.857
209.08	420.000
209.46	-2600.000
209.84	-925.000
210.21	860.000
210.59	-600.000
210.96	266.667
211.34	-775.000
211.71	336.364
212.09	675.000
212.46	1300.000
212.84	-466.667
213.22	344.444
213.59	-2300.000
213.97	390.000
214.34	1025.000
214.72	1033.333
215.09	1066.667
215.47	-2600.000
215.84	-280.000
216.22	-300.000
216.59	0.000
216.97	0.000
217.34	1450.000
217.72	-1750.000
218.09	1033.333
218.47	437.500
218.84	650.000
219.22	1100.000
219.59	1000.000
219.97	528.571
220.34	344.444
220.72	1250.000
221.09	3100.000
221.47	208.333
221.84	966.667
222.22	280.000
222.59	255.556
222.97	192.857
223.34	231.250
223.72	-1600.000
224.09	1133.333
224.46	330.769
224.84	-925.000
225.21	433.333
225.59	240.000
225.96	1066.667
226.34	-520.000
226.71	-675.000
227.08	-500.000
227.46	0.000
227.83	-616.667
228.21	-1550.000
228.58	341.667
228.95	1075.000
229.33	300.000
229.70	900.000
230.08	330.769
230.45	3500.000
230.82	-875.000
231.20	-900.000
231.57	-1100.000
231.95	500.000
232.32	225.000
232.69	400.000
233.07	241.667
233.44	-1500.000
233.81	206.667
234.19	114.815
234.56	231.250
234.93	194.118
235.31	190.000
235.68	243.750
236.05	160.714
236.43	137.037
236.80	242.857
237.17	155.172
237.55	103.125
237.92	97.500
238.29	136.364
238.67	93.750
239.04	85.366
239.41	68.750
239.79	75.000
240.16	70.833
240.53	62.295
240.91	59.420
241.28	69.492
241.65	71.212
242.02	67.606
242.40	75.714
242.77	51.648
243.14	49.367
243.51	56.566
243.89	43.925
244.26	52.336
244.63	46.535
245.00	47.706
245.38	32.203
245.75	32.576
246.12	43.704
246.49	31.206
246.87	35.246
247.24	39.333
247.61	33.750
247.98	40.136
248.36	28.485
248.73	33.673
249.10	29.167
249.47	30.500
249.84	31.841
250.22	28.108
250.59	29.500
250.96	25.316
251.33	27.907
251.70	33.036
252.08	31.092
252.45	21.514
252.82	26.616
253.19	26.482
253.56	23.846
253.94	24.638
254.31	22.481
254.68	28.223
255.05	27.241
255.42	24.088
255.79	26.059
256.16	28.475
256.54	27.273
256.91	25.490
257.28	25.084
257.65	21.317
258.02	24.189
258.39	24.355
258.76	28.696
259.14	20.286
259.51	25.948
259.88	22.796
260.25	19.231
260.62	26.027
260.99	21.212
261.36	22.841
261.73	22.606
262.10	23.298
262.47	22.750
262.85	20.267
263.22	22.365
263.59	23.529
263.96	23.058
264.33	19.753
264.70	21.376
265.07	22.439
265.44	20.872
265.81	20.991
266.18	22.197
266.55	23.877
266.92	20.582
267.29	23.026
267.66	22.197
268.03	17.713
268.40	20.507
268.77	21.586
269.14	20.607
269.51	19.822
269.88	22.245
270.25	19.654
270.62	19.957
270.99	24.341
271.36	21.138
271.73	20.126
272.10	19.394
272.47	21.032
272.84	20.758
273.21	20.041
273.58	21.660
273.95	19.507
274.32	20.817
274.69	24.016
275.06	21.676
275.43	21.456
275.80	18.868
276.17	21.140
276.54	20.935
276.91	21.642
277.28	18.978
277.65	21.402
278.02	21.140
278.39	19.424
278.76	21.207
279.13	19.573
279.50	20.000
279.87	20.484
280.23	18.232
280.60	18.978
280.97	20.345
281.34	17.822
281.71	23.130
282.08	20.171
282.45	19.257
282.82	18.060
283.19	19.396
283.56	17.025
283.92	19.544
284.29	17.637
284.66	17.815
285.03	18.574
285.40	18.678
285.77	19.444
286.14	18.885
286.51	18.712
286.87	16.456
287.24	16.967
287.61	18.237
287.98	17.761
288.35	19.111
288.72	18.513
289.08	17.718
289.45	17.530
289.82	17.656
290.19	17.570
290.56	17.904
290.93	15.683
291.29	17.403
291.66	16.949
292.03	18.093
292.40	17.480
292.77	17.270
293.13	16.405
293.50	16.869
293.87	15.718
294.24	15.944
294.60	16.689
294.97	15.524
295.34	16.069
295.71	14.717
296.08	16.667
296.44	15.883
296.81	14.268
297.18	14.702
297.55	15.148
297.91	13.793
298.28	15.580
298.65	15.092
299.02	14.113
299.38	14.508
299.75	15.610
300.12	15.367
300.48	16.042
300.85	14.184
301.22	15.814
301.59	14.505
301.95	13.769
302.32	15.134
302.69	14.480
303.05	15.264
303.42	13.677
303.79	16.143
304.15	14.301
304.52	14.271
304.89	13.753
305.25	14.016
305.62	15.139
305.99	14.130
306.35	13.053
306.72	14.776
307.09	13.768
307.45	14.256
307.82	14.198
308.19	15.670
308.55	13.700
308.92	14.818
309.29	15.680
309.65	14.965
310.02	14.402
310.38	14.756
310.75	13.886
311.12	14.464
311.48	17.085
311.85	15.363
312.22	16.237
312.58	16.327
312.95	16.117
313.31	16.667
313.68	16.229
314.05	16.667
314.41	16.480
314.78	17.614
315.14	16.588
315.51	17.975
315.87	17.974
316.24	17.834
316.61	18.263
316.97	17.248
317.34	19.497
317.70	20.369
318.07	19.840
318.43	19.508
318.80	20.490
319.16	20.717
319.53	20.619
319.89	21.147
320.26	22.253
320.62	22.344
320.99	22.307
321.35	24.119
321.72	24.668
322.08	24.284
322.45	24.977
322.81	25.526
323.18	24.778
323.54	27.439
323.91	26.383
324.27	26.260
324.64	26.211
325.00	28.362
325.37	27.150
325.73	28.668
326.10	29.743
326.46	30.058
326.83	29.280
327.19	30.763
327.56	31.070
327.92	31.311
328.29	31.506
328.65	33.390
329.01	31.908
329.38	31.303
329.74	31.512
330.11	33.102
330.47	31.799
330.84	31.320
331.20	32.149
331.56	32.297
331.93	33.191
332.29	32.398
332.66	33.418
333.02	32.646
333.38	34.206
333.75	34.612
334.11	33.557
334.48	33.846
334.84	34.459
335.20	34.132
335.57	33.837
335.93	35.240
336.29	33.499
336.66	36.106
337.02	33.618
337.38	34.996
337.75	34.882
338.11	35.021
338.47	35.309
338.84	33.531
339.20	33.766
339.56	35.997
339.93	34.197
340.29	33.866
340.65	35.624
341.02	35.318
341.38	35.140
341.74	35.382
342.11	34.224
342.47	34.619
342.83	36.423
343.20	35.812
343.56	33.836
343.92	35.756
344.28	35.726
344.65	35.289
345.01	35.794
345.37	35.016
345.73	34.444
346.10	35.299
346.46	36.045
346.82	34.568
347.19	37.558
347.55	34.973
347.91	35.650
348.27	34.702
348.63	35.759
349.00	35.263
349.36	37.121
349.72	35.780
350.08	36.413
350.45	36.253
350.81	36.468
351.17	35.516
351.53	35.258
351.89	36.053
352.26	35.147
352.62	35.897
352.98	35.890
353.34	37.057
353.70	35.321
354.07	36.923
354.43	36.713
354.79	35.611
355.15	36.677
355.51	37.311
355.87	36.220
356.24	36.336
356.60	36.301
356.96	37.225
357.32	35.268
357.68	36.344
358.04	37.766
358.40	37.856
358.77	37.641
359.13	37.162
359.49	36.620
359.85	37.379
360.21	35.661
360.57	37.299
360.93	37.302
361.29	37.374
361.66	38.479
362.02	36.364
362.38	37.518
362.74	37.084
363.10	37.307
363.46	37.086
363.82	37.447
364.18	38.691
364.54	37.840
364.90	37.082
365.26	38.446
365.62	37.500
365.98	36.958
366.35	37.034
366.71	38.584
367.07	37.201
367.43	37.475
367.79	38.098
368.15	36.431
368.51	37.905
368.87	37.364
369.23	38.184
369.59	37.357
369.95	38.182
370.31	38.330
370.67	38.723
371.03	38.025
371.39	39.404
371.75	38.521
372.11	38.545
372.47	37.671
372.83	38.341
373.19	39.273
373.55	38.900
373.91	37.983
374.27	37.434
374.63	38.712
374.99	38.881
375.35	39.718
375.71	38.588
376.07	38.660
376.42	37.916
376.78	39.049
377.14	39.056
377.50	38.577
377.86	38.565
378.22	39.915
378.58	39.407
378.94	39.529
379.30	39.600
379.66	40.157
380.02	40.117
380.38	38.466
380.74	39.965
381.09	40.362
381.45	39.884
381.81	40.366
382.17	40.171
382.53	40.192
382.89	39.681
383.25	40.438
383.61	40.000
383.97	40.612
384.32	39.904
384.68	40.463
385.04	40.621
385.40	41.103
385.76	40.140
386.12	41.187
386.48	40.486
386.83	41.137
387.19	40.400
387.55	40.106
387.91	40.242
388.27	40.512
388.62	40.552
388.98	40.933
389.34	39.441
389.70	39.976
390.06	40.122
390.42	40.037
390.77	41.216
391.13	40.555
391.49	41.016
391.85	41.108
392.20	40.167
392.56	40.084
392.92	39.697
393.28	40.078
393.64	39.335
393.99	40.605
394.35	39.023
394.71	39.264
395.07	40.207
395.42	40.574
395.78	41.024
396.14	40.120
396.50	39.771
396.85	40.244
397.21	40.554
397.57	40.227
397.92	40.092
398.28	39.768
398.64	40.314
399.00	39.444
399.35	39.184
399.71	39.680
400.07	39.669
400.42	40.179
400.78	40.528
401.14	40.282
401.49	38.940
401.85	40.962
402.21	40.480
402.57	40.993
402.92	40.000
403.28	38.783
403.63	39.906
403.99	39.324
404.35	40.621
404.70	40.224
405.06	38.798
405.42	39.916
405.77	39.305
406.13	39.317
406.49	39.341
406.84	38.466
407.20	39.384
407.55	40.369
407.91	40.077
408.27	39.175
408.62	39.740
408.98	39.562
409.34	39.451
409.69	39.203
410.05	38.402
410.40	38.869
410.76	38.294
411.11	38.152
411.47	38.580
411.83	38.664
412.18	39.010
412.54	38.619
412.89	37.404
413.25	38.255
413.60	38.201
413.96	39.019
414.31	37.485
414.67	41.092
415.03	38.570
415.38	38.549
415.74	39.292
416.09	39.413
416.45	40.401
416.80	40.154
417.16	38.320
417.51	38.790
417.87	38.486
418.22	39.490
418.58	38.025
418.93	38.846
419.29	38.201
419.64	37.916
420.00	39.737
420.35	39.199
420.71	38.215
421.06	38.199
421.42	38.687
421.77	38.867
422.12	38.534
422.48	38.007
422.83	38.616
423.19	37.959
423.54	37.905
423.90	39.241
424.25	38.470
424.61	38.363
424.96	37.549
425.31	38.752
425.67	39.282
426.02	38.418
426.38	36.873
426.73	38.115
427.09	38.612
427.44	38.098
427.79	38.593
428.15	39.010
428.50	39.029
428.85	38.977
429.21	39.006
429.56	38.335
429.92	38.986
430.27	37.349
430.62	37.249
430.98	37.375
431.33	37.853
431.68	36.543
432.04	38.076
432.39	38.749
432.74	38.290
433.10	38.483
433.45	38.713
433.80	38.555
434.16	37.782
434.51	37.719
434.86	38.977
435.22	37.439
435.57	37.700
435.92	38.589
436.28	38.594
436.63	38.358
436.98	39.189
437.34	38.470
437.69	36.730
438.04	37.527
438.39	38.354
438.75	37.751
439.10	38.154
439.45	37.761
439.81	38.866
440.16	38.085
440.51	36.993
440.86	38.860
441.22	37.608
441.57	38.478
441.92	38.105
442.27	37.526
442.63	37.500
442.98	36.800
443.33	37.922
443.68	37.877
444.03	36.616
444.39	37.994
444.74	37.681
445.09	38.547
445.44	37.726
445.79	37.524
446.15	37.895
446.50	37.395
446.85	37.201
447.20	37.114
447.55	39.043
447.91	37.826
448.26	39.457
448.61	39.082
448.96	37.908
449.31	38.394
449.66	37.154
450.02	37.817
450.37	38.201
450.72	38.182
451.07	37.347
451.42	37.819
451.77	37.113
452.12	37.720
452.47	39.004
452.83	38.366
453.18	38.739
453.53	37.004
453.88	38.057
454.23	38.292
454.58	38.345
454.93	38.197
455.28	38.005
455.63	38.121
455.98	37.451
456.34	39.331
456.69	38.720
457.04	37.888
457.39	37.829
457.74	37.669
458.09	37.114
458.44	37.076
458.79	37.241
459.14	36.989
459.49	37.542
459.84	38.315
460.19	36.158
460.54	36.752
460.89	37.367
461.24	35.968
461.59	36.508
461.94	37.234
462.29	37.872
462.64	37.940
462.99	37.108
463.34	37.459
463.69	38.536
464.04	37.363
464.39	36.863
464.74	36.460
465.09	36.390
465.44	36.942
465.79	36.309
466.14	35.453
466.49	36.571
466.84	35.730
467.19	36.965
467.54	36.937
467.89	36.502
468.24	36.306
468.59	36.845
468.94	36.413
469.29	37.385
469.64	36.977
469.99	38.175
470.34	37.128
470.68	36.552
471.03	36.891
471.38	37.417
471.73	37.035
472.08	37.508
472.43	37.865
472.78	37.580
473.13	35.357
473.48	35.941
473.83	36.219
474.17	37.143
474.52	35.130
474.87	34.792
475.22	36.779
475.57	35.572
475.92	36.178
476.27	35.473
476.61	35.228
476.96	35.423
477.31	36.247
477.66	36.983
478.01	35.121
478.36	35.736
478.70	35.533
479.05	35.931
479.40	35.615
479.75	36.495
480.10	35.721
480.45	35.434
480.79	35.161
481.14	35.758
481.49	35.224
481.84	34.609
482.19	34.279
482.53	34.827
482.88	35.529
483.23	35.544
483.58	35.009
483.92	36.380
484.27	34.461
484.62	35.441
484.97	33.580
485.31	33.624
485.66	31.919
486.01	31.399
486.36	30.853
486.70	30.347
487.05	31.533
487.40	32.004
487.75	32.261
488.09	32.386
488.44	32.696
488.79	33.322
489.13	33.819
489.48	33.640
489.83	34.195
490.17	33.980
490.52	34.539
490.87	34.741
491.22	34.043
491.56	34.827
491.91	34.633
492.26	34.076
492.60	35.216
492.95	34.345
493.30	33.667
493.64	34.412
493.99	34.794
494.34	34.021
494.68	33.909
495.03	34.665
495.37	35.119
495.72	34.592
496.07	34.367
496.41	33.449
496.76	33.601
497.11	34.190
497.45	34.064
497.80	33.874
498.14	34.258
498.49	34.308
498.84	34.860
499.18	33.227
499.53	34.359
499.87	33.783
500.22	33.625
500.56	33.844
500.91	34.184
501.26	34.451
501.60	33.379
501.95	33.916
502.29	33.111
502.64	32.686
502.98	33.126
503.33	33.497
503.67	33.510
504.02	33.229
504.36	33.032
504.71	33.822
505.06	33.458
505.40	33.786
505.75	32.413
506.09	33.364
506.44	33.694
506.78	33.979
507.13	34.125
507.47	32.703
507.82	34.015
508.16	34.199
508.51	33.333
508.85	32.858
509.19	34.019
509.54	33.936
509.88	34.212
510.23	33.333
510.57	33.398
510.92	34.266
511.26	33.434
511.61	32.841
511.95	33.599
512.30	33.400
512.64	32.710
512.98	32.906
513.33	34.529
513.67	34.076
514.02	33.455
514.36	33.437
514.70	33.600
515.05	33.564
515.39	33.662
515.74	34.609
516.08	34.477
516.42	34.426
516.77	32.800
517.11	33.760
517.46	34.159
517.80	32.933
518.14	34.535
518.49	34.179
518.83	33.571
519.17	34.554
519.52	32.824
519.86	33.624
520.20	34.247
520.55	34.257
520.89	35.000
521.23	33.470
521.58	34.366
521.92	34.227
522.26	34.301
522.61	35.472
522.95	34.895
523.29	33.918
523.64	33.931
523.98	33.099
524.32	33.795
524.66	34.145
525.01	32.781
525.35	34.060
525.69	35.461
526.04	34.503
526.38	34.197
526.72	33.771
527.06	32.525
527.41	33.918
527.75	34.023
528.09	33.113
528.43	32.947
528.78	32.916
529.12	34.196
529.46	33.606
529.80	32.944
530.15	33.353
530.49	32.491
530.83	33.821
531.17	33.333
531.51	33.660
531.86	33.152
532.20	33.313
532.54	33.522
532.88	32.792
533.22	33.821
533.57	33.557
533.91	31.410
534.25	32.198
534.59	33.099
534.93	31.741
535.27	31.588
535.62	31.914
535.96	32.742
536.30	33.090
536.64	32.609
536.98	33.228
537.32	33.438
537.66	32.653
538.01	33.189
538.35	33.125
538.69	32.706
539.03	32.090
539.37	32.039
539.71	32.593
540.05	32.062
540.39	32.893
540.73	32.025
541.07	30.427
541.42	31.654
541.76	32.614
542.10	32.059
542.44	32.045
542.78	32.222
543.12	30.859
543.46	31.078
543.80	31.830
544.14	31.827
544.48	31.265
544.82	32.049
545.16	30.723
545.50	32.698
545.84	32.071
546.18	32.250
546.52	33.049
546.86	33.204
547.20	31.460
547.54	31.602
547.88	31.144
548.22	31.148
548.56	30.878
548.90	31.198
549.24	31.522
549.58	31.379
549.92	31.893
550.26	31.373
550.60	31.404
550.94	32.225
551.28	32.828
551.62	32.414
551.96	31.351
552.30	30.916
552.64	30.939
552.98	30.541
553.32	29.706
553.66	30.293
554.00	30.888
554.34	31.292
554.68	31.855
555.02	30.482
555.36	30.120
555.69	31.021
556.03	31.083
556.37	30.338
556.71	31.747
557.05	29.948
557.39	31.133
557.73	31.671
558.07	30.919
558.41	31.391
558.75	30.985
559.08	32.094
559.42	31.496
559.76	31.575
560.10	31.039
560.44	30.060
560.78	30.435
561.12	30.515
561.45	29.537
561.79	30.025
562.13	30.512
562.47	30.629
562.81	30.709
563.15	31.351
563.48	29.193
563.82	31.441
564.16	30.535
564.50	28.993
564.84	30.517
565.17	28.342
565.51	31.158
565.85	30.043
566.19	28.929
566.52	28.520
566.86	30.823
567.20	30.112
567.54	28.493
567.88	29.317
568.21	27.659
568.55	27.675
568.89	28.148
569.23	26.920
569.56	27.196
569.90	25.979
570.24	25.758
570.57	25.633
570.91	25.460
571.25	24.852
571.59	24.478
571.92	24.085
572.26	23.396
572.60	23.743
572.93	24.209
573.27	24.268
573.61	23.416
573.95	24.079
574.28	23.800
574.62	23.451
574.96	22.920
575.29	23.002
575.63	23.651
575.97	22.614
576.30	23.260
576.64	23.328
576.98	22.568
577.31	23.113
577.65	22.782
577.98	22.705
578.32	22.189
578.66	22.531
578.99	22.530
579.33	22.621
579.67	23.033
580.00	22.334
580.34	22.664
580.67	22.371
581.01	22.734
581.35	22.481
581.68	21.646
582.02	21.924
582.35	21.917
582.69	21.748
583.02	22.142
583.36	22.759
583.70	23.219
584.03	23.415
584.37	22.993
584.70	22.568
585.04	22.603
585.37	22.362
585.71	22.831
586.04	22.338
586.38	22.313
586.72	23.037
587.05	23.006
587.39	22.579
587.72	22.591
588.06	22.871
588.39	22.825
588.73	22.664
589.06	22.877
589.40	23.693
589.73	24.025
590.07	24.056
590.40	24.286
590.73	24.238
591.07	24.478
591.40	23.872
591.74	23.864
592.07	24.334
592.41	24.341
592.74	24.057
593.08	23.079
593.41	22.651
593.75	22.518
594.08	22.944
594.41	23.037
594.75	23.116
595.08	23.320
595.42	23.107
595.75	23.231
596.09	23.844
596.42	23.562
596.75	23.798
597.09	24.350
597.42	23.673
597.75	23.489
598.09	24.169
598.42	23.990
598.76	23.362
599.09	23.575
599.42	22.872
599.76	22.626
600.09	22.644
600.42	22.790
600.76	22.400
601.09	22.092
601.42	23.266
601.76	22.843
602.09	23.289
602.42	22.994
602.76	23.719
603.09	23.152
603.42	23.706
603.76	22.270
604.09	22.874
604.42	23.013
604.76	23.469
605.09	22.857
605.42	22.877
605.75	22.424
606.09	23.259
606.42	23.187
606.75	22.969
607.09	22.977
607.42	23.182
607.75	23.408
608.08	23.152
608.42	23.112
608.75	23.449
609.08	23.625
609.41	23.500
609.75	24.176
610.08	24.281
610.41	23.408
610.74	23.420
611.07	23.784
611.41	23.401
611.74	23.614
612.07	23.362
612.40	23.392
612.73	24.663
613.07	24.531
613.40	23.759
613.73	23.964
614.06	23.300
614.39	24.192
614.72	24.209
615.06	23.541
615.39	23.911
615.72	23.717
616.05	23.456
616.38	23.034
616.71	23.874
617.05	23.998
617.38	23.764
617.71	24.691
618.04	24.173
618.37	24.736
618.70	25.173
619.03	24.847
619.36	25.565
619.69	25.660
620.03	26.680
620.36	25.755
620.69	25.096
621.02	25.068
621.35	26.433
621.68	26.622
622.01	27.159
622.34	26.147
622.67	25.913
623.00	26.549
623.33	25.978
623.66	25.749
623.99	26.096
624.32	25.474
624.65	25.346
624.99	25.423
625.32	25.050
625.65	24.621
625.98	25.035
626.31	26.261
626.64	26.348
626.97	26.473
627.30	25.000
627.63	26.688
627.96	27.152
628.29	26.898
628.62	27.887
628.95	27.394
629.28	29.360
629.61	29.174
629.94	27.744
630.26	28.683
630.59	28.901
630.92	27.803
631.25	28.377
