SpectraSuite Data File
++++++++++++++++++++++++++++++++++++
Date: Tue May 12 17:01:23 PDT 2015
User: schluterlab
Dark Spectrum Present: Yes
Reference Spectrum Present: Yes
Number of Sampled Component Spectra: 1
Spectrometers: USB2E3373
Integration Time (usec): 3000 (USB2E3373)
Spectra Averaged: 3 (USB2E3373)
Boxcar Smoothing: 0 (USB2E3373)
Correct for Electrical Dark: No (USB2E3373)
Strobe/Lamp Enabled: No (USB2E3373)
Correct for Detector Non-linearity: No (USB2E3373)
Correct for Stray Light: No (USB2E3373)
Number of Pixels in Processed Spectrum: 2048
>>>>>Begin Processed Spectral Data<<<<<
178.53	0.000
178.91	-275.000
179.29	-650.000
179.67	-4200.000
180.04	-153.333
180.42	850.000
180.80	1200.000
181.18	0.000
181.56	-350.000
181.94	0.000
182.31	1133.333
182.69	-2900.000
183.07	585.714
183.45	-4200.000
183.83	-1650.000
184.20	380.000
184.58	471.429
184.96	-223.077
185.34	-200.000
185.72	2000.000
186.09	-700.000
186.47	-3200.000
186.85	900.000
187.23	760.000
187.61	1850.000
187.98	462.500
188.36	278.571
188.74	383.333
189.12	416.667
189.49	775.000
189.87	0.000
190.25	375.000
190.63	2500.000
191.00	-191.667
191.38	-3900.000
191.76	-725.000
192.14	475.000
192.51	-3300.000
192.89	1700.000
193.27	1200.000
193.65	-966.667
194.02	-560.000
194.40	442.857
194.78	-142.857
195.15	233.333
195.53	-3200.000
195.91	-420.000
196.29	4500.000
196.66	256.250
197.04	800.000
197.42	-2000.000
197.79	400.000
198.17	425.000
198.55	0.000
198.92	557.143
199.30	1100.000
199.68	1950.000
200.05	633.333
200.43	-483.333
200.81	211.111
201.18	4100.000
201.56	291.667
201.94	-1025.000
202.31	-375.000
202.69	-480.000
203.07	2500.000
203.44	-566.667
203.82	333.333
204.19	780.000
204.57	-1400.000
204.95	-825.000
205.32	-660.000
205.70	600.000
206.08	900.000
206.45	-1100.000
206.83	500.000
207.20	200.000
207.58	250.000
207.96	580.000
208.33	0.000
208.71	671.429
209.08	620.000
209.46	-2800.000
209.84	-775.000
210.21	700.000
210.59	-780.000
210.96	316.667
211.34	-1100.000
211.71	400.000
212.09	825.000
212.46	1850.000
212.84	-466.667
213.22	477.778
213.59	-3400.000
213.97	470.000
214.34	1000.000
214.72	1333.333
215.09	1000.000
215.47	-2900.000
215.84	-240.000
216.22	-400.000
216.59	0.000
216.97	0.000
217.34	1450.000
217.72	-1900.000
218.09	1233.333
218.47	462.500
218.84	925.000
219.22	900.000
219.59	966.667
219.97	542.857
220.34	433.333
220.72	1850.000
221.09	3500.000
221.47	258.333
221.84	1066.667
222.22	320.000
222.59	250.000
222.97	200.000
223.34	275.000
223.72	-1500.000
224.09	1133.333
224.46	307.692
224.84	-825.000
225.21	433.333
225.59	253.333
225.96	933.333
226.34	-580.000
226.71	-575.000
227.08	-780.000
227.46	0.000
227.83	-666.667
228.21	-1800.000
228.58	341.667
228.95	850.000
229.33	388.889
229.70	875.000
230.08	353.846
230.45	4200.000
230.82	-950.000
231.20	-1200.000
231.57	-1066.667
231.95	600.000
232.32	341.667
232.69	500.000
233.07	358.333
233.44	-2000.000
233.81	306.667
234.19	166.667
234.56	225.000
234.93	205.882
235.31	215.000
235.68	275.000
236.05	164.286
236.43	137.037
236.80	342.857
237.17	158.621
237.55	118.750
237.92	127.500
238.29	154.545
238.67	150.000
239.04	121.951
239.41	85.417
239.79	137.500
240.16	89.583
240.53	96.721
240.91	95.652
241.28	103.390
241.65	89.394
242.02	91.549
242.40	94.286
242.77	74.725
243.14	75.949
243.51	91.919
243.89	73.832
244.26	69.159
244.63	81.188
245.00	71.560
245.38	58.475
245.75	54.545
246.12	71.111
246.49	69.504
246.87	59.016
247.24	62.667
247.61	59.375
247.98	66.667
248.36	54.545
248.73	58.673
249.10	58.929
249.47	48.000
249.84	55.721
250.22	60.000
250.59	56.000
250.96	57.806
251.33	47.442
251.70	57.143
252.08	50.420
252.45	53.386
252.82	49.810
253.19	51.779
253.56	53.077
253.94	53.261
254.31	54.651
254.68	53.310
255.05	54.138
255.42	50.730
255.79	52.117
256.16	52.881
256.54	50.649
256.91	52.941
257.28	48.495
257.65	48.903
258.02	46.313
258.39	44.699
258.76	50.725
259.14	47.714
259.51	52.770
259.88	51.368
260.25	48.626
260.62	47.945
260.99	46.556
261.36	49.304
261.73	50.266
262.10	53.665
262.47	48.500
262.85	45.333
263.22	51.157
263.59	45.013
263.96	50.376
264.33	44.938
264.70	51.843
265.07	49.024
265.44	47.477
265.81	49.057
266.18	46.224
266.55	48.936
266.92	44.072
267.29	48.684
267.66	47.758
268.03	47.309
268.40	45.666
268.77	48.018
269.14	47.505
269.51	44.989
269.88	46.735
270.25	46.868
270.62	47.210
270.99	48.276
271.36	45.122
271.73	45.702
272.10	43.232
272.47	47.024
272.84	43.114
273.21	46.694
273.58	46.559
273.95	44.353
274.32	46.109
274.69	45.669
275.06	46.448
275.43	45.785
275.80	44.906
276.17	44.853
276.54	45.981
276.91	46.082
277.28	45.073
277.65	45.203
278.02	43.199
278.39	44.604
278.76	44.828
279.13	43.594
279.50	45.091
279.87	43.203
280.23	42.910
280.60	44.526
280.97	43.276
281.34	42.739
281.71	43.826
282.08	43.932
282.45	43.750
282.82	43.478
283.19	42.289
283.56	42.645
283.92	43.974
284.29	41.597
284.66	40.672
285.03	43.615
285.40	41.818
285.77	41.667
286.14	41.486
286.51	42.331
286.87	39.082
287.24	38.739
287.61	39.818
287.98	40.299
288.35	40.000
288.72	37.936
289.08	39.339
289.45	37.652
289.82	39.688
290.19	37.921
290.56	39.010
290.93	38.849
291.29	37.707
291.66	36.441
292.03	37.728
292.40	35.772
292.77	38.022
293.13	35.949
293.50	36.302
293.87	34.011
294.24	37.343
294.60	36.878
294.97	35.944
295.34	33.865
295.71	38.633
296.08	36.000
296.44	35.197
296.81	34.119
297.18	34.981
297.55	35.591
297.91	31.897
298.28	32.971
298.65	32.515
299.02	31.484
299.38	33.453
299.75	31.585
300.12	32.110
300.48	33.372
300.85	33.373
301.22	32.093
301.59	31.722
301.95	30.572
302.32	32.480
302.69	33.032
303.05	31.089
303.42	30.830
303.79	30.986
304.15	30.253
304.52	30.233
304.89	32.409
305.25	30.701
305.62	30.277
305.99	30.870
306.35	30.316
306.72	30.905
307.09	30.228
307.45	29.884
307.82	29.218
308.19	29.897
308.55	29.100
308.92	29.048
309.29	30.473
309.65	30.030
310.02	29.412
310.38	28.514
310.75	29.990
311.12	28.257
311.48	29.826
311.85	28.531
312.22	30.086
312.58	28.960
312.95	28.252
313.31	30.337
313.68	29.362
314.05	29.487
314.41	29.795
314.78	27.841
315.14	30.806
315.51	29.423
315.87	28.558
316.24	29.412
316.61	29.185
316.97	28.349
317.34	29.650
317.70	30.465
318.07	30.694
318.43	30.756
318.80	29.422
319.16	30.245
319.53	30.177
319.89	29.659
320.26	31.657
320.62	31.502
320.99	31.173
321.35	31.354
321.72	32.922
322.08	32.779
322.45	31.789
322.81	33.852
323.18	33.393
323.54	34.843
323.91	35.721
324.27	36.340
324.64	34.083
325.00	34.569
325.37	35.919
325.73	36.003
326.10	37.117
326.46	36.664
326.83	37.120
327.19	39.357
327.56	38.978
327.92	40.984
328.29	40.180
328.65	41.438
329.01	42.258
329.38	42.047
329.74	41.247
330.11	41.703
330.47	42.711
330.84	42.709
331.20	42.132
331.56	43.696
331.93	43.798
332.29	43.112
332.66	44.983
333.02	42.698
333.38	45.899
333.75	45.038
334.11	45.470
334.48	44.103
334.84	44.172
335.20	45.338
335.57	43.577
335.93	44.323
336.29	44.776
336.66	47.599
337.02	44.397
337.38	45.142
337.75	44.932
338.11	45.485
338.47	45.639
338.84	45.470
339.20	43.810
339.56	46.341
339.93	45.151
340.29	45.966
340.65	46.018
341.02	47.305
341.38	45.731
341.74	46.761
342.11	44.992
342.47	46.021
342.83	45.037
343.20	45.998
343.56	44.797
343.92	46.408
344.28	44.976
344.65	48.411
345.01	46.349
345.37	45.913
345.73	45.556
346.10	45.817
346.46	45.534
346.82	44.753
347.19	46.445
347.55	44.575
347.91	45.544
348.27	45.546
348.63	46.123
349.00	46.687
349.36	45.525
349.72	45.948
350.08	47.360
350.45	46.230
350.81	47.248
351.17	46.071
351.53	46.343
351.89	45.066
352.26	46.032
352.62	46.078
352.98	46.702
353.34	47.920
353.70	44.495
354.07	45.769
354.43	46.467
354.79	45.710
355.15	46.554
355.51	47.054
355.87	45.482
356.24	45.881
356.60	46.271
356.96	46.020
357.32	45.818
357.68	46.329
358.04	45.289
358.40	46.252
358.77	45.980
359.13	45.270
359.49	45.219
359.85	45.793
360.21	44.948
360.57	45.766
360.93	46.248
361.29	45.960
361.66	47.054
362.02	44.673
362.38	46.320
362.74	46.851
363.10	46.003
363.46	45.442
363.82	46.844
364.18	45.804
364.54	48.426
364.90	46.051
365.26	47.467
365.62	47.514
365.98	46.043
366.35	45.448
366.71	47.120
367.07	47.372
367.43	45.534
367.79	45.146
368.15	45.455
368.51	46.657
368.87	45.448
369.23	47.055
369.59	45.786
369.95	47.552
370.31	47.091
370.67	47.536
371.03	47.339
371.39	46.537
371.75	46.755
372.11	45.615
372.47	46.781
372.83	46.159
373.19	46.676
373.55	47.285
373.91	46.685
374.27	46.429
374.63	46.983
374.99	47.237
375.35	47.984
375.71	46.504
376.07	45.623
376.42	46.100
376.78	47.527
377.14	46.855
377.50	46.255
377.86	46.381
378.22	47.166
378.58	47.821
378.94	47.858
379.30	46.938
379.66	47.200
380.02	46.745
380.38	46.429
380.74	46.713
381.09	46.729
381.45	46.069
381.81	46.690
382.17	46.215
382.53	46.191
382.89	47.014
383.25	46.655
383.61	47.723
383.97	47.031
384.32	46.835
384.68	48.010
385.04	47.245
385.40	46.738
385.76	47.455
386.12	46.753
386.48	48.693
386.83	47.616
387.19	47.880
387.55	47.939
387.91	47.113
388.27	47.353
388.62	46.538
388.98	46.122
389.34	46.520
389.70	47.583
390.06	48.232
390.42	47.316
390.77	47.666
391.13	49.004
391.49	48.336
391.85	48.554
392.20	48.272
392.56	46.834
392.92	47.108
393.28	47.309
393.64	47.076
393.99	47.481
394.35	46.321
394.71	46.321
395.07	46.898
395.42	47.951
395.78	47.872
396.14	47.048
396.50	47.653
396.85	46.951
397.21	48.255
397.57	47.639
397.92	46.447
398.28	46.498
398.64	48.284
399.00	47.354
399.35	47.450
399.71	46.689
400.07	47.089
400.42	47.881
400.78	46.921
401.14	47.739
401.49	46.313
401.85	48.494
402.21	47.393
402.57	46.798
402.92	47.636
403.28	47.017
403.63	46.792
403.99	47.226
404.35	47.655
404.70	47.608
405.06	47.165
405.42	47.816
405.77	46.858
406.13	47.343
406.49	46.902
406.84	46.249
407.20	47.660
407.55	48.000
407.91	48.628
408.27	47.119
408.62	48.551
408.98	47.842
409.34	46.815
409.69	46.484
410.05	47.764
410.40	46.408
410.76	47.338
411.11	47.867
411.47	47.716
411.83	46.397
412.18	47.705
412.54	46.967
412.89	45.841
413.25	48.005
413.60	47.371
413.96	47.397
414.31	47.226
414.67	48.790
415.03	47.382
415.38	47.697
415.74	48.073
416.09	47.283
416.45	47.576
416.80	49.134
417.16	47.613
417.51	47.389
417.87	48.185
418.22	47.631
418.58	48.344
418.93	47.888
419.29	47.936
419.64	48.334
420.00	47.912
420.35	47.445
420.71	48.133
421.06	48.205
421.42	47.899
421.77	47.973
422.12	47.519
422.48	47.252
422.83	47.042
423.19	48.596
423.54	47.504
423.90	47.565
424.25	48.542
424.61	48.694
424.96	47.713
425.31	49.206
425.67	48.822
426.02	48.065
426.38	48.775
426.73	48.814
427.09	49.288
427.44	48.734
427.79	48.771
428.15	48.910
428.50	49.200
428.85	48.736
429.21	48.460
429.56	48.654
429.92	48.831
430.27	48.476
430.62	47.577
430.98	48.353
431.33	48.034
431.68	48.642
432.04	48.422
432.39	49.177
432.74	49.415
433.10	48.671
433.45	50.546
433.80	51.296
434.16	49.921
434.51	48.504
434.86	50.354
435.22	49.595
435.57	49.318
435.92	51.736
436.28	50.000
436.63	49.109
436.98	50.056
437.34	50.114
437.69	49.104
438.04	50.538
438.39	50.321
438.75	49.666
439.10	49.703
439.45	49.124
439.81	50.954
440.16	50.578
440.51	50.113
440.86	51.054
441.22	49.784
441.57	50.604
441.92	49.654
442.27	50.670
442.63	50.152
442.98	50.108
443.33	50.241
443.68	50.201
444.03	49.057
444.39	50.895
444.74	51.035
445.09	51.343
445.44	50.691
445.79	50.780
446.15	50.632
446.50	51.424
446.85	50.747
447.20	50.348
447.55	51.822
447.91	51.412
448.26	50.319
448.61	49.917
448.96	51.471
449.31	50.715
449.66	51.107
450.02	50.243
450.37	51.860
450.72	51.405
451.07	51.774
451.42	50.504
451.77	51.317
452.12	50.425
452.47	52.126
452.83	51.493
453.18	50.871
453.53	52.043
453.88	51.429
454.23	51.656
454.58	52.273
454.93	51.502
455.28	51.897
455.63	51.005
455.98	51.495
456.34	53.131
456.69	52.073
457.04	52.506
457.39	51.657
457.74	52.646
458.09	51.769
458.44	51.150
458.79	51.777
459.14	52.100
459.49	51.302
459.84	51.467
460.19	51.582
460.54	51.567
460.89	52.932
461.24	51.088
461.59	53.118
461.94	51.891
462.29	52.689
462.64	51.633
462.99	53.167
463.34	52.949
463.69	51.301
464.04	51.526
464.39	51.173
464.74	51.583
465.09	52.060
465.44	51.904
465.79	52.477
466.14	52.464
466.49	52.089
466.84	52.174
467.19	51.494
467.54	52.312
467.89	52.523
468.24	52.229
468.59	52.857
468.94	53.019
469.29	52.657
469.64	51.833
469.99	52.828
470.34	53.384
470.68	52.414
471.03	54.370
471.38	53.311
471.73	52.057
472.08	54.077
472.43	53.942
472.78	54.097
473.13	51.126
473.48	53.240
473.83	52.179
474.17	52.523
474.52	53.199
474.87	53.724
475.22	52.142
475.57	52.256
475.92	51.559
476.27	51.904
476.61	51.850
476.96	52.194
477.31	53.419
477.66	54.267
478.01	52.759
478.36	52.626
478.70	51.960
479.05	53.347
479.40	52.034
479.75	53.227
480.10	52.565
480.45	52.194
480.79	51.705
481.14	51.498
481.49	51.189
481.84	51.143
482.19	51.354
482.53	51.120
482.88	52.509
483.23	52.278
483.58	52.738
483.92	52.879
484.27	51.156
484.62	52.207
484.97	50.993
485.31	50.296
485.66	49.473
486.01	48.270
486.36	47.911
486.70	47.493
487.05	47.838
487.40	48.243
487.75	49.404
488.09	49.233
488.44	50.127
488.79	51.406
489.13	51.027
489.48	52.097
489.83	51.835
490.17	51.197
490.52	53.445
490.87	52.759
491.22	53.413
491.56	52.481
491.91	51.120
492.26	52.428
492.60	52.711
492.95	52.107
493.30	52.093
493.64	52.650
493.99	52.504
494.34	52.846
494.68	51.749
495.03	52.672
495.37	51.103
495.72	53.240
496.07	52.650
496.41	52.389
496.76	52.089
497.11	51.157
497.45	52.565
497.80	52.966
498.14	52.890
498.49	51.718
498.84	53.178
499.18	52.057
499.53	53.147
499.87	51.977
500.22	52.234
500.56	52.832
500.91	51.994
501.26	53.192
501.60	52.732
501.95	51.927
502.29	52.000
502.64	50.904
502.98	51.445
503.33	52.339
503.67	51.744
504.02	51.635
504.36	52.308
504.71	53.075
505.06	52.464
505.40	52.223
505.75	52.900
506.09	53.710
506.44	52.444
506.78	53.072
507.13	53.320
507.47	52.499
507.82	52.506
508.16	53.797
508.51	53.671
508.85	52.184
509.19	53.157
509.54	53.271
509.88	54.202
510.23	53.039
510.57	52.268
510.92	53.996
511.26	52.912
511.61	52.191
511.95	53.260
512.30	51.700
512.64	54.154
512.98	53.255
513.33	53.074
513.67	53.651
514.02	54.649
514.36	53.427
514.70	53.333
515.05	53.277
515.39	54.989
515.74	54.456
516.08	54.630
516.42	54.973
516.77	54.187
517.11	55.040
517.46	53.933
517.80	53.632
518.14	55.099
518.49	54.079
518.83	53.901
519.17	54.298
519.52	54.615
519.86	54.060
520.20	53.534
520.55	53.929
520.89	54.080
521.23	54.790
521.58	54.963
521.92	54.985
522.26	54.147
522.61	55.734
522.95	55.796
523.29	55.497
523.64	54.335
523.98	55.282
524.32	53.460
524.66	55.594
525.01	53.728
525.35	54.272
525.69	56.111
526.04	55.205
526.38	54.738
526.72	54.177
527.06	53.873
527.41	54.897
527.75	55.508
528.09	54.124
528.43	56.620
528.78	54.323
529.12	56.773
529.46	54.646
529.80	54.848
530.15	55.156
530.49	55.114
530.83	54.540
531.17	55.289
531.51	55.303
531.86	54.469
532.20	54.512
532.54	54.928
532.88	53.966
533.22	56.063
533.57	54.545
533.91	54.021
534.25	52.972
534.59	53.918
534.93	53.413
535.27	53.614
535.62	52.800
535.96	52.896
536.30	55.332
536.64	54.720
536.98	54.563
537.32	54.562
537.66	53.763
538.01	53.808
538.35	54.398
538.69	53.459
539.03	53.731
539.37	52.731
539.71	54.444
540.05	54.031
540.39	54.403
540.73	54.873
541.07	54.015
541.42	54.291
541.76	53.884
542.10	53.946
542.44	54.489
542.78	54.437
543.12	53.006
543.46	53.070
543.80	54.449
544.14	53.994
544.48	53.406
544.82	55.107
545.16	53.552
545.50	54.579
545.84	53.788
546.18	55.462
546.52	55.475
546.86	53.965
547.20	54.134
547.54	52.818
547.88	52.859
548.22	53.370
548.56	51.974
548.90	52.610
549.24	53.632
549.58	53.544
549.92	54.879
550.26	55.172
550.60	54.158
550.94	55.020
551.28	55.517
551.62	57.103
551.96	55.000
552.30	52.933
552.64	54.628
552.98	53.415
553.32	53.393
553.66	53.029
554.00	54.247
554.34	54.394
554.68	55.444
555.02	55.465
555.36	53.191
555.69	53.599
556.03	52.102
556.37	54.111
556.71	54.302
557.05	52.949
557.39	54.200
557.73	54.582
558.07	55.131
558.41	55.175
558.75	55.404
559.08	55.754
559.42	56.192
559.76	54.170
560.10	52.925
560.44	54.745
560.78	53.133
561.12	54.800
561.45	53.504
561.79	53.246
562.13	54.075
562.47	54.315
562.81	55.303
563.15	54.686
563.48	52.112
563.82	53.525
564.16	53.856
564.50	51.718
564.84	52.766
565.17	51.396
565.51	55.357
565.85	55.275
566.19	53.810
566.52	52.647
566.86	53.765
567.20	52.865
567.54	52.238
567.88	52.061
568.21	50.774
568.55	49.951
568.89	49.589
569.23	49.569
569.56	49.002
569.90	47.754
570.24	47.973
570.57	48.605
570.91	47.676
571.25	46.916
571.59	46.785
571.92	46.502
572.26	46.119
572.60	46.820
572.93	47.355
573.27	47.501
573.61	47.482
573.95	46.838
574.28	46.413
574.62	45.855
574.96	45.253
575.29	45.710
575.63	45.018
575.97	45.472
576.30	45.432
576.64	45.804
576.98	45.531
577.31	46.025
577.65	45.689
577.98	45.238
578.32	44.734
578.66	44.829
578.99	44.892
579.33	45.580
579.67	45.327
580.00	44.554
580.34	45.262
580.67	44.877
581.01	45.666
581.35	45.100
581.68	44.448
582.02	44.932
582.35	44.655
582.69	44.680
583.02	44.570
583.36	45.497
583.70	46.322
584.03	46.806
584.37	46.088
584.70	45.932
585.04	45.729
585.37	45.379
585.71	46.000
586.04	45.196
586.38	44.745
586.72	45.586
587.05	45.548
587.39	45.790
587.72	46.621
588.06	46.064
588.39	46.187
588.73	45.764
589.06	46.542
589.40	47.355
589.73	47.493
590.07	48.147
590.40	47.666
590.73	48.806
591.07	47.818
591.40	48.144
591.74	48.174
592.07	47.671
592.41	48.561
592.74	47.419
593.08	46.940
593.41	46.439
593.75	45.798
594.08	46.474
594.41	47.149
594.75	46.541
595.08	47.394
595.42	47.235
595.75	46.858
596.09	47.758
596.42	47.232
596.75	49.159
597.09	48.865
597.42	47.959
597.75	48.316
598.09	47.600
598.42	47.654
598.76	47.224
599.09	48.474
599.42	46.920
599.76	46.947
600.09	46.475
600.42	46.478
600.76	47.111
601.09	47.635
601.42	47.131
601.76	47.225
602.09	47.829
602.42	46.506
602.76	47.438
603.09	47.285
603.42	47.413
603.76	46.565
604.09	46.688
604.42	47.571
604.76	48.558
605.09	48.163
605.42	47.907
605.75	47.454
606.09	47.819
606.42	46.825
606.75	47.843
607.09	47.138
607.42	47.328
607.75	47.293
608.08	47.116
608.42	48.406
608.75	48.310
609.08	48.130
609.41	48.909
609.75	48.581
610.08	49.056
610.41	47.958
610.74	48.701
611.07	49.432
611.41	49.073
611.74	49.761
612.07	48.844
612.40	49.123
612.73	49.875
613.07	49.721
613.40	50.276
613.73	49.176
614.06	48.550
614.39	49.293
614.72	49.171
615.06	48.417
615.39	49.802
615.72	48.258
616.05	49.272
616.38	48.605
616.71	49.267
617.05	50.851
617.38	51.348
617.71	50.450
618.04	50.028
618.37	50.806
618.70	51.039
619.03	51.893
619.36	52.073
619.69	51.715
620.03	52.185
620.36	52.473
620.69	52.554
621.02	52.717
621.35	52.650
621.68	52.581
622.01	53.506
622.34	53.095
622.67	52.879
623.00	50.851
623.33	51.957
623.66	51.364
623.99	53.425
624.32	53.726
624.65	52.271
624.99	54.158
625.32	53.039
625.65	52.828
625.98	51.534
626.31	54.228
626.64	54.062
626.97	53.405
627.30	55.202
627.63	55.259
627.96	52.973
628.29	55.198
628.62	55.860
628.95	56.826
629.28	56.792
629.61	55.185
629.94	56.093
630.26	54.679
630.59	56.915
630.92	56.054
631.25	56.210
