SpectraSuite Data File
++++++++++++++++++++++++++++++++++++
Date: Tue May 12 15:16:17 PDT 2015
User: schluterlab
Dark Spectrum Present: Yes
Reference Spectrum Present: Yes
Number of Sampled Component Spectra: 1
Spectrometers: USB2E3373
Integration Time (usec): 3000 (USB2E3373)
Spectra Averaged: 3 (USB2E3373)
Boxcar Smoothing: 0 (USB2E3373)
Correct for Electrical Dark: No (USB2E3373)
Strobe/Lamp Enabled: No (USB2E3373)
Correct for Detector Non-linearity: No (USB2E3373)
Correct for Stray Light: No (USB2E3373)
Number of Pixels in Processed Spectrum: 2048
>>>>>Begin Processed Spectral Data<<<<<
178.53	0.000
178.91	-175.000
179.29	-750.000
179.67	-2900.000
180.04	-46.667
180.42	475.000
180.80	1550.000
181.18	0.000
181.56	-237.500
181.94	0.000
182.31	833.333
182.69	-2300.000
183.07	414.286
183.45	-3100.000
183.83	-1400.000
184.20	320.000
184.58	328.571
184.96	-192.308
185.34	-183.333
185.72	1300.000
186.09	-725.000
186.47	-2300.000
186.85	1033.333
187.23	660.000
187.61	1600.000
187.98	562.500
188.36	242.857
188.74	283.333
189.12	358.333
189.49	950.000
189.87	0.000
190.25	462.500
190.63	1600.000
191.00	-191.667
191.38	-2400.000
191.76	-575.000
192.14	437.500
192.51	-900.000
192.89	1700.000
193.27	1133.333
193.65	-900.000
194.02	-640.000
194.40	385.714
194.78	-171.429
195.15	233.333
195.53	-2600.000
195.91	-560.000
196.29	3500.000
196.66	256.250
197.04	675.000
197.42	-1250.000
197.79	450.000
198.17	300.000
198.55	0.000
198.92	400.000
199.30	1166.667
199.68	1650.000
200.05	683.333
200.43	-333.333
200.81	150.000
201.18	2100.000
201.56	258.333
201.94	-775.000
202.31	-237.500
202.69	-720.000
203.07	2900.000
203.44	-416.667
203.82	275.000
204.19	660.000
204.57	-900.000
204.95	-475.000
205.32	-620.000
205.70	483.333
206.08	725.000
206.45	-700.000
206.83	344.444
207.20	131.579
207.58	225.000
207.96	600.000
208.33	0.000
208.71	442.857
209.08	680.000
209.46	-3100.000
209.84	-850.000
210.21	700.000
210.59	-440.000
210.96	366.667
211.34	-1000.000
211.71	418.182
212.09	575.000
212.46	1200.000
212.84	-400.000
213.22	311.111
213.59	-2100.000
213.97	260.000
214.34	925.000
214.72	933.333
215.09	800.000
215.47	-3000.000
215.84	-270.000
216.22	-275.000
216.59	0.000
216.97	0.000
217.34	950.000
217.72	-1300.000
218.09	1066.667
218.47	450.000
218.84	800.000
219.22	1233.333
219.59	1033.333
219.97	500.000
220.34	400.000
220.72	1500.000
221.09	2700.000
221.47	266.667
221.84	666.667
222.22	330.000
222.59	222.222
222.97	214.286
223.34	250.000
223.72	-1900.000
224.09	1066.667
224.46	284.615
224.84	-675.000
225.21	222.222
225.59	233.333
225.96	1166.667
226.34	-760.000
226.71	-525.000
227.08	-480.000
227.46	0.000
227.83	-416.667
228.21	-1550.000
228.58	250.000
228.95	800.000
229.33	355.556
229.70	650.000
230.08	284.615
230.45	2600.000
230.82	-600.000
231.20	-566.667
231.57	-866.667
231.95	460.000
232.32	200.000
232.69	416.667
233.07	250.000
233.44	-1250.000
233.81	220.000
234.19	122.222
234.56	143.750
234.93	117.647
235.31	160.000
235.68	218.750
236.05	150.000
236.43	77.778
236.80	128.571
237.17	131.034
237.55	56.250
237.92	87.500
238.29	106.061
238.67	118.750
239.04	90.244
239.41	43.750
239.79	42.500
240.16	52.083
240.53	59.016
240.91	47.826
241.28	61.017
241.65	62.121
242.02	43.662
242.40	55.714
242.77	49.451
243.14	32.911
243.51	46.465
243.89	38.318
244.26	31.776
244.63	29.703
245.00	36.697
245.38	25.424
245.75	29.545
246.12	34.815
246.49	35.461
246.87	25.410
247.24	24.000
247.61	37.500
247.98	25.170
248.36	27.273
248.73	28.571
249.10	20.238
249.47	21.000
249.84	23.383
250.22	19.459
250.59	18.000
250.96	25.316
251.33	17.674
251.70	20.089
252.08	16.807
252.45	17.928
252.82	18.631
253.19	19.763
253.56	14.231
253.94	16.667
254.31	15.891
254.68	21.254
255.05	20.345
255.42	13.504
255.79	17.264
256.16	17.627
256.54	16.883
256.91	15.686
257.28	16.722
257.65	15.047
258.02	12.094
258.39	19.198
258.76	14.203
259.14	13.429
259.51	16.035
259.88	17.021
260.25	15.659
260.62	15.342
260.99	11.846
261.36	17.827
261.73	15.426
262.10	14.398
262.47	14.500
262.85	13.067
263.22	16.710
263.59	10.997
263.96	15.539
264.33	12.346
264.70	14.251
265.07	13.171
265.44	14.220
265.81	14.858
266.18	15.789
266.55	11.820
266.92	15.436
267.29	13.158
267.66	12.556
268.03	10.314
268.40	11.839
268.77	12.335
269.14	10.846
269.51	13.586
269.88	15.918
270.25	11.879
270.62	12.446
270.99	15.213
271.36	13.415
271.73	10.901
272.10	10.707
272.47	11.905
272.84	9.980
273.21	11.983
273.58	12.551
273.95	11.088
274.32	12.451
274.69	13.780
275.06	12.933
275.43	11.686
275.80	11.698
276.17	11.949
276.54	13.084
276.91	11.381
277.28	10.766
277.65	10.517
278.02	11.213
278.39	13.489
278.76	12.931
279.13	12.100
279.50	11.818
279.87	9.683
280.23	10.866
280.60	10.766
280.97	11.379
281.34	11.221
281.71	11.478
282.08	12.137
282.45	12.669
282.82	11.037
283.19	11.447
283.56	12.397
283.92	10.912
284.29	11.980
284.66	8.908
285.03	11.443
285.40	11.074
285.77	9.722
286.14	11.455
286.51	11.810
286.87	10.601
287.24	10.360
287.61	9.422
287.98	11.493
288.35	10.667
288.72	9.408
289.08	11.562
289.45	11.433
289.82	11.719
290.19	10.981
290.56	11.936
290.93	10.647
291.29	10.912
291.66	10.593
292.03	11.360
292.40	12.873
292.77	10.306
293.13	11.698
293.50	10.121
293.87	9.214
294.24	11.049
294.60	10.498
294.97	13.566
295.34	9.827
295.71	11.958
296.08	11.067
296.44	10.292
296.81	10.670
297.18	10.013
297.55	11.946
297.91	10.099
298.28	10.628
298.65	10.798
299.02	9.891
299.38	11.271
299.75	11.220
300.12	10.206
300.48	11.241
300.85	9.535
301.22	9.070
301.59	10.142
301.95	10.152
302.32	11.525
302.69	10.973
303.05	11.223
303.42	9.865
303.79	11.809
304.15	11.551
304.52	10.148
304.89	11.194
305.25	12.236
305.62	10.341
305.99	10.109
306.35	11.895
306.72	12.279
307.09	11.698
307.45	11.193
307.82	10.700
308.19	11.753
308.55	11.700
308.92	12.267
309.29	13.412
309.65	11.695
310.02	12.069
310.38	12.562
310.75	12.150
311.12	11.686
311.48	13.127
311.85	13.263
312.22	13.372
312.58	13.314
312.95	13.398
313.31	13.109
313.68	14.353
314.05	13.736
314.41	14.153
314.78	14.299
315.14	15.640
315.51	15.137
315.87	14.872
316.24	14.566
316.61	14.056
316.97	14.771
317.34	16.083
317.70	15.277
318.07	17.349
318.43	16.081
318.80	16.200
319.16	17.483
319.53	16.460
319.89	17.115
320.26	18.436
320.62	18.223
320.99	18.112
321.35	18.275
321.72	19.355
322.08	20.037
322.45	18.619
322.81	19.305
323.18	21.314
323.54	21.080
323.91	22.031
324.27	21.839
324.64	20.934
325.00	22.759
325.37	22.766
325.73	22.766
326.10	23.861
326.46	23.865
326.83	22.400
327.19	25.141
327.56	25.719
327.92	24.180
328.29	25.696
328.65	26.712
329.01	27.203
329.38	27.834
329.74	27.242
330.11	27.281
330.47	26.343
330.84	27.524
331.20	27.834
331.56	28.411
331.93	28.571
332.29	27.806
332.66	27.636
333.02	28.179
333.38	28.883
333.75	30.192
334.11	28.272
334.48	28.462
334.84	28.801
335.20	30.539
335.57	28.799
335.93	28.343
336.29	28.109
336.66	30.274
337.02	29.427
337.38	29.665
337.75	31.081
338.11	30.042
338.47	29.297
338.84	29.636
339.20	29.091
339.56	29.689
339.93	30.100
340.29	27.983
340.65	31.350
341.02	30.330
341.38	30.542
341.74	29.900
342.11	29.466
342.47	29.368
342.83	30.927
343.20	31.770
343.56	29.150
343.92	30.388
344.28	30.781
344.65	30.399
345.01	29.762
345.37	29.407
345.73	29.841
346.10	29.880
346.46	31.180
346.82	29.784
347.19	30.216
347.55	30.679
347.91	29.758
348.27	30.132
348.63	29.905
349.00	30.769
349.36	30.817
349.72	30.963
350.08	30.745
350.45	30.922
350.81	31.193
351.17	30.277
351.53	30.870
351.89	30.381
352.26	31.368
352.62	31.297
352.98	31.748
353.34	30.663
353.70	30.199
354.07	31.692
354.43	31.413
354.79	30.904
355.15	31.394
355.51	31.722
355.87	30.497
356.24	31.409
356.60	30.822
356.96	30.705
357.32	30.821
357.68	30.984
358.04	31.383
358.40	32.459
358.77	32.231
359.13	31.682
359.49	30.912
359.85	30.678
360.21	31.426
360.57	31.168
360.93	32.107
361.29	32.035
361.66	33.333
362.02	30.185
362.38	32.395
362.74	31.918
363.10	32.328
363.46	31.699
363.82	32.468
364.18	33.215
364.54	31.974
364.90	31.995
365.26	33.102
365.62	33.218
365.98	32.485
366.35	32.552
366.71	33.102
367.07	32.218
367.43	32.975
367.79	32.912
368.15	31.750
368.51	31.358
368.87	31.861
369.23	32.502
369.59	32.637
369.95	33.776
370.31	32.786
370.67	32.963
371.03	31.933
371.39	32.687
371.75	33.287
372.11	32.495
372.47	33.014
372.83	32.427
373.19	32.625
373.55	33.333
373.91	31.699
374.27	32.407
374.63	31.593
374.99	32.278
375.35	32.728
375.71	32.850
376.07	32.560
376.42	32.928
376.78	33.847
377.14	33.290
377.50	32.834
377.86	33.120
378.22	33.333
378.58	33.959
378.94	33.193
379.30	33.111
379.66	32.992
380.02	33.607
380.38	33.138
380.74	34.025
381.09	32.769
381.45	33.237
381.81	32.861
382.17	33.028
382.53	32.214
382.89	33.057
383.25	32.860
383.61	32.161
383.97	32.274
384.32	33.574
384.68	32.383
385.04	32.239
385.40	32.266
385.76	32.066
386.12	32.715
386.48	31.793
386.83	33.068
387.19	32.744
387.55	32.509
387.91	32.968
388.27	33.016
388.62	31.455
388.98	31.487
389.34	31.529
389.70	32.017
390.06	32.073
390.42	31.647
390.77	31.941
391.13	32.649
391.49	32.305
391.85	32.800
392.20	32.300
392.56	32.497
392.92	30.601
393.28	31.502
393.64	31.651
393.99	31.950
394.35	31.313
394.71	30.579
395.07	31.265
395.42	30.972
395.78	31.585
396.14	31.867
396.50	31.709
396.85	31.159
397.21	31.167
397.57	31.082
397.92	29.058
398.28	30.006
398.64	31.006
399.00	30.572
399.35	29.898
399.71	30.519
400.07	29.966
400.42	30.746
400.78	30.616
401.14	29.947
401.49	30.588
401.85	31.228
402.21	30.463
402.57	30.042
402.92	29.636
403.28	29.535
403.63	29.017
403.99	29.674
404.35	30.363
404.70	30.183
405.06	29.422
405.42	29.204
405.77	29.548
406.13	28.416
406.49	28.880
406.84	28.708
407.20	29.623
407.55	28.738
407.91	29.738
408.27	29.230
408.62	28.681
408.98	28.977
409.34	28.404
409.69	28.500
410.05	28.086
410.40	28.386
410.76	27.247
411.11	28.673
411.47	27.901
411.83	27.944
412.18	29.227
412.54	29.309
412.89	27.257
413.25	29.019
413.60	27.512
413.96	28.247
414.31	27.981
414.67	28.430
415.03	28.097
415.38	29.148
415.74	27.353
416.09	27.983
416.45	28.571
416.80	28.608
417.16	26.989
417.51	28.025
417.87	27.910
418.22	28.190
418.58	27.516
418.93	27.781
419.29	27.357
419.64	27.862
420.00	28.759
420.35	28.281
420.71	27.596
421.06	27.428
421.42	28.152
421.77	28.429
422.12	28.225
422.48	27.375
422.83	27.958
423.19	27.268
423.54	27.482
423.90	28.256
424.25	27.683
424.61	27.742
424.96	27.216
425.31	28.079
425.67	27.890
426.02	27.818
426.38	27.655
426.73	27.299
427.09	28.529
427.44	27.518
427.79	28.531
428.15	28.226
428.50	28.800
428.85	28.513
429.21	27.985
429.56	27.966
429.92	28.245
430.27	28.108
430.62	27.264
430.98	27.345
431.33	27.621
431.68	27.407
432.04	27.470
432.39	27.442
432.74	28.279
433.10	27.962
433.45	28.317
433.80	29.178
434.16	27.588
434.51	27.709
434.86	28.198
435.22	27.769
435.57	27.979
435.92	27.832
436.28	28.629
436.63	27.877
436.98	28.829
437.34	28.881
437.69	27.660
438.04	27.473
438.39	28.780
438.75	28.786
439.10	28.440
439.45	28.038
439.81	28.340
440.16	28.453
440.51	28.998
440.86	28.946
441.22	27.922
441.57	28.294
441.92	28.480
442.27	28.093
442.63	28.404
442.98	27.155
443.33	28.066
443.68	28.672
444.03	28.087
444.39	27.778
444.74	28.727
445.09	27.962
445.44	27.577
445.79	28.801
446.15	28.316
446.50	27.795
446.85	27.888
447.20	27.761
447.55	27.841
447.91	27.810
448.26	28.381
448.61	28.635
448.96	28.595
449.31	28.823
449.66	28.239
450.02	26.958
450.37	27.929
450.72	28.264
451.07	28.796
451.42	27.979
451.77	28.293
452.12	29.155
452.47	28.250
452.83	28.338
453.18	28.348
453.53	28.064
453.88	28.057
454.23	28.065
454.58	28.030
454.93	27.836
455.28	28.825
455.63	28.605
455.98	28.088
456.34	28.936
456.69	28.049
457.04	28.162
457.39	28.686
457.74	28.998
458.09	27.625
458.44	28.642
458.79	27.905
459.14	27.496
459.49	27.576
459.84	27.446
460.19	27.288
460.54	28.262
460.89	27.772
461.24	27.205
461.59	28.968
461.94	27.246
462.29	28.661
462.64	28.015
462.99	27.127
463.34	28.192
463.69	27.647
464.04	27.979
464.39	27.132
464.74	27.257
465.09	27.046
465.44	27.040
465.79	26.674
466.14	26.391
466.49	27.130
466.84	26.923
467.19	27.299
467.54	26.246
467.89	27.171
468.24	26.867
468.59	26.607
468.94	26.993
469.29	27.245
469.64	27.267
469.99	27.892
470.34	27.135
470.68	27.448
471.03	27.151
471.38	27.616
471.73	26.715
472.08	27.723
472.43	26.940
472.78	26.953
473.13	25.219
473.48	25.917
473.83	26.737
474.17	26.930
474.52	26.303
474.87	25.583
475.22	26.613
475.57	26.128
475.92	25.754
476.27	25.952
476.61	25.576
476.96	26.385
477.31	26.324
477.66	26.677
478.01	25.477
478.36	26.262
478.70	25.509
479.05	25.523
479.40	26.438
479.75	26.167
480.10	25.702
480.45	25.537
480.79	25.115
481.14	25.630
481.49	25.389
481.84	25.286
482.19	25.459
482.53	25.604
482.88	24.776
483.23	24.899
483.58	25.673
483.92	26.005
484.27	24.401
484.62	25.042
484.97	24.309
485.31	24.451
485.66	24.012
486.01	22.824
486.36	22.433
486.70	21.914
487.05	22.497
487.40	22.911
487.75	23.133
488.09	22.926
488.44	23.709
488.79	23.776
489.13	24.673
489.48	24.810
489.83	24.354
490.17	23.947
490.52	24.591
490.87	24.224
491.22	24.867
491.56	24.726
491.91	24.238
492.26	24.588
492.60	24.920
492.95	24.241
493.30	24.613
493.64	24.483
493.99	24.374
494.34	24.653
494.68	24.081
495.03	24.338
495.37	24.719
495.72	24.336
496.07	24.079
496.41	23.936
496.76	24.398
497.11	24.422
497.45	24.507
497.80	24.421
498.14	24.965
498.49	24.745
498.84	24.299
499.18	23.080
499.53	24.851
499.87	23.405
500.22	24.228
500.56	23.770
500.91	25.325
501.26	24.162
501.60	23.770
501.95	24.059
502.29	23.778
502.64	23.379
502.98	23.299
503.33	23.831
503.67	23.885
504.02	23.421
504.36	23.801
504.71	23.936
505.06	23.651
505.40	23.350
505.75	23.199
506.09	23.238
506.44	23.449
506.78	24.244
507.13	23.073
507.47	22.756
507.82	23.601
508.16	24.841
508.51	23.720
508.85	24.074
509.19	24.131
509.54	23.877
509.88	23.918
510.23	24.265
510.57	22.828
510.92	23.976
511.26	24.046
511.61	23.584
511.95	23.295
512.30	23.800
512.64	23.261
512.98	23.629
513.33	23.770
513.67	23.563
514.02	23.065
514.36	22.690
514.70	23.787
515.05	23.548
515.39	23.739
515.74	23.565
516.08	23.638
516.42	24.645
516.77	23.467
517.11	23.147
517.46	23.330
517.80	23.812
518.14	23.887
518.49	22.933
518.83	23.352
519.17	23.516
519.52	23.375
519.86	23.542
520.20	23.836
520.55	23.007
520.89	23.046
521.23	23.832
521.58	22.605
521.92	23.324
522.26	23.460
522.61	23.173
522.95	23.123
523.29	23.333
523.64	21.908
523.98	23.239
524.32	22.434
524.66	22.493
525.01	23.432
525.35	22.982
525.69	23.359
526.04	23.200
526.38	23.131
526.72	23.031
527.06	21.762
527.41	23.700
527.75	23.798
528.09	22.276
528.43	23.002
528.78	22.958
529.12	23.781
529.46	22.151
529.80	21.846
530.15	22.334
530.49	21.661
530.83	22.243
531.17	22.325
531.51	22.256
531.86	22.947
532.20	22.188
532.54	21.971
532.88	22.736
533.22	22.303
533.57	22.270
533.91	21.503
534.25	21.004
534.59	22.339
534.93	21.388
535.27	20.489
535.62	21.529
535.96	21.868
536.30	22.303
536.64	21.553
536.98	21.901
537.32	22.313
537.66	21.684
538.01	21.238
538.35	22.271
538.69	20.813
539.03	20.336
539.37	21.905
539.71	22.284
540.05	21.108
540.39	22.201
540.73	21.582
541.07	20.577
541.42	21.580
541.76	20.530
542.10	21.702
542.44	21.758
542.78	21.334
543.12	20.429
543.46	21.429
543.80	20.677
544.14	21.176
544.48	21.594
544.82	21.346
545.16	19.308
545.50	20.406
545.84	21.023
546.18	21.586
546.52	21.770
546.86	20.567
547.20	20.349
547.54	20.266
547.88	20.620
548.22	20.947
548.56	20.742
548.90	20.641
549.24	20.846
549.58	19.910
549.92	21.873
550.26	21.163
550.60	21.357
550.94	21.303
551.28	21.931
551.62	21.655
551.96	21.486
552.30	19.446
552.64	21.294
552.98	20.103
553.32	19.846
553.66	20.195
554.00	19.305
554.34	21.971
554.68	20.833
555.02	20.434
555.36	20.878
555.69	20.353
556.03	20.510
556.37	20.905
556.71	21.512
557.05	19.594
557.39	20.667
557.73	20.822
558.07	21.261
558.41	20.288
558.75	21.477
559.08	21.515
559.42	21.904
559.76	21.525
560.10	21.473
560.44	20.770
560.78	20.908
561.12	20.343
561.45	19.712
561.79	20.412
562.13	19.078
562.47	19.922
562.81	20.169
563.15	20.556
563.48	19.255
563.82	20.087
564.16	20.771
564.50	19.771
564.84	19.149
565.17	19.370
565.51	20.751
565.85	20.296
566.19	19.405
566.52	19.073
566.86	20.023
567.20	19.326
567.54	19.869
567.88	19.718
568.21	19.171
568.55	19.261
568.89	19.480
569.23	18.248
569.56	18.610
569.90	17.607
570.24	17.036
570.57	17.846
570.91	17.192
571.25	17.467
571.59	16.413
571.92	16.873
572.26	16.388
572.60	16.357
572.93	17.136
573.27	17.203
573.61	16.459
573.95	16.185
574.28	16.675
574.62	16.395
574.96	15.823
575.29	16.097
575.63	15.878
575.97	15.531
576.30	15.768
576.64	16.127
576.98	16.137
577.31	16.394
577.65	15.993
577.98	15.278
578.32	15.769
578.66	15.572
578.99	15.733
579.33	15.584
579.67	16.017
580.00	15.341
580.34	15.512
580.67	15.861
581.01	16.195
581.35	15.822
581.68	15.190
582.02	15.438
582.35	15.493
582.69	15.497
583.02	15.575
583.36	15.630
583.70	16.348
584.03	16.381
584.37	16.557
584.70	16.198
585.04	15.917
585.37	15.645
585.71	16.427
586.04	15.555
586.38	16.088
586.72	16.036
587.05	16.958
587.39	16.182
587.72	15.882
588.06	16.091
588.39	16.249
588.73	16.263
589.06	16.253
589.40	16.776
589.73	16.618
590.07	17.124
590.40	16.899
590.73	17.591
591.07	18.482
591.40	17.126
591.74	17.127
592.07	16.805
592.41	17.066
592.74	16.697
593.08	16.569
593.41	15.889
593.75	16.662
594.08	16.785
594.41	16.878
594.75	16.884
595.08	16.770
595.42	16.754
595.75	16.913
596.09	17.275
596.42	17.407
596.75	18.429
597.09	17.788
597.42	17.429
597.75	16.552
598.09	17.275
598.42	17.217
598.76	17.348
599.09	17.139
599.42	16.194
599.76	16.791
600.09	16.678
600.42	16.333
600.76	16.213
601.09	16.396
601.42	16.403
601.76	16.434
602.09	16.887
602.42	16.932
602.76	17.002
603.09	17.081
603.42	17.284
603.76	16.703
604.09	16.540
604.42	17.100
604.76	17.108
605.09	16.980
605.42	17.107
605.75	16.857
606.09	17.445
606.42	16.949
606.75	16.712
607.09	16.384
607.42	16.673
607.75	16.959
608.08	16.328
608.42	17.156
608.75	16.175
609.08	17.158
609.41	17.591
609.75	16.987
610.08	17.086
610.41	16.293
610.74	17.100
611.07	17.372
611.41	17.285
611.74	17.208
612.07	18.208
612.40	17.008
612.73	17.474
613.07	17.993
613.40	17.744
613.73	17.673
614.06	16.300
614.39	18.182
614.72	18.282
615.06	16.963
615.39	17.327
615.72	17.425
616.05	17.479
616.38	16.895
616.71	17.851
617.05	17.683
617.38	16.910
617.71	18.110
618.04	17.723
618.37	17.454
618.70	17.263
619.03	18.132
619.36	18.028
619.69	18.799
620.03	19.504
620.36	18.112
620.69	19.540
621.02	18.410
621.35	17.335
621.68	19.395
622.01	18.819
622.34	17.698
622.67	19.733
623.00	17.903
623.33	18.286
623.66	18.430
623.99	18.493
624.32	18.293
624.65	18.038
624.99	18.594
625.32	19.372
625.65	17.379
625.98	18.131
626.31	18.546
626.64	18.679
626.97	18.592
627.30	18.634
627.63	19.466
627.96	19.249
628.29	19.389
628.62	18.648
628.95	19.504
629.28	20.684
629.61	19.947
629.94	20.138
630.26	19.584
630.59	21.454
630.92	19.821
631.25	20.399
631.58	21.119
