SpectraSuite Data File
++++++++++++++++++++++++++++++++++++
Date: Tue May 12 15:35:14 PDT 2015
User: schluterlab
Dark Spectrum Present: Yes
Reference Spectrum Present: Yes
Number of Sampled Component Spectra: 1
Spectrometers: USB2E3373
Integration Time (usec): 3000 (USB2E3373)
Spectra Averaged: 3 (USB2E3373)
Boxcar Smoothing: 0 (USB2E3373)
Correct for Electrical Dark: No (USB2E3373)
Strobe/Lamp Enabled: No (USB2E3373)
Correct for Detector Non-linearity: No (USB2E3373)
Correct for Stray Light: No (USB2E3373)
Number of Pixels in Processed Spectrum: 2048
>>>>>Begin Processed Spectral Data<<<<<
178.53	0.000
178.91	-258.333
179.29	-825.000
179.67	-3500.000
180.04	-140.000
180.42	725.000
180.80	1450.000
181.18	0.000
181.56	-300.000
181.94	0.000
182.31	1133.333
182.69	-2700.000
183.07	714.286
183.45	-3600.000
183.83	-1300.000
184.20	350.000
184.58	471.429
184.96	-230.769
185.34	-250.000
185.72	1650.000
186.09	-975.000
186.47	-3300.000
186.85	1100.000
187.23	560.000
187.61	2050.000
187.98	575.000
188.36	271.429
188.74	283.333
189.12	316.667
189.49	1000.000
189.87	0.000
190.25	562.500
190.63	3000.000
191.00	-183.333
191.38	-3900.000
191.76	-875.000
192.14	550.000
192.51	-3100.000
192.89	2150.000
193.27	1233.333
193.65	-1166.667
194.02	-760.000
194.40	514.286
194.78	-228.571
195.15	253.333
195.53	-3000.000
195.91	-620.000
196.29	4600.000
196.66	262.500
197.04	975.000
197.42	-1800.000
197.79	875.000
198.17	258.333
198.55	0.000
198.92	585.714
199.30	1166.667
199.68	2350.000
200.05	716.667
200.43	-466.667
200.81	216.667
201.18	2700.000
201.56	275.000
201.94	-825.000
202.31	-375.000
202.69	-360.000
203.07	2900.000
203.44	-433.333
203.82	333.333
204.19	640.000
204.57	-2000.000
204.95	-750.000
205.32	-540.000
205.70	516.667
206.08	900.000
206.45	-1133.333
206.83	511.111
207.20	168.421
207.58	250.000
207.96	820.000
208.33	0.000
208.71	657.143
209.08	680.000
209.46	-2100.000
209.84	-925.000
210.21	1040.000
210.59	-720.000
210.96	341.667
211.34	-1100.000
211.71	381.818
212.09	700.000
212.46	1700.000
212.84	-400.000
213.22	522.222
213.59	-3400.000
213.97	370.000
214.34	850.000
214.72	1033.333
215.09	1066.667
215.47	-4400.000
215.84	-370.000
216.22	-325.000
216.59	0.000
216.97	0.000
217.34	1650.000
217.72	-1400.000
218.09	1133.333
218.47	487.500
218.84	950.000
219.22	1133.333
219.59	733.333
219.97	457.143
220.34	388.889
220.72	1700.000
221.09	4200.000
221.47	241.667
221.84	733.333
222.22	340.000
222.59	266.667
222.97	221.429
223.34	250.000
223.72	-2200.000
224.09	833.333
224.46	300.000
224.84	-925.000
225.21	366.667
225.59	346.667
225.96	1233.333
226.34	-660.000
226.71	-800.000
227.08	-700.000
227.46	0.000
227.83	-400.000
228.21	-1400.000
228.58	316.667
228.95	1150.000
229.33	466.667
229.70	1050.000
230.08	284.615
230.45	3600.000
230.82	-975.000
231.20	-1133.333
231.57	-933.333
231.95	720.000
232.32	291.667
232.69	366.667
233.07	241.667
233.44	-1750.000
233.81	240.000
234.19	181.481
234.56	243.750
234.93	217.647
235.31	165.000
235.68	262.500
236.05	164.286
236.43	133.333
236.80	300.000
237.17	124.138
237.55	137.500
237.92	107.500
238.29	136.364
238.67	140.625
239.04	95.122
239.41	70.833
239.79	102.500
240.16	83.333
240.53	60.656
240.91	65.217
241.28	72.881
241.65	71.212
242.02	73.239
242.40	71.429
242.77	54.945
243.14	55.696
243.51	66.667
243.89	45.794
244.26	51.402
244.63	49.505
245.00	53.211
245.38	37.288
245.75	48.485
246.12	53.333
246.49	39.716
246.87	31.148
247.24	44.667
247.61	41.250
247.98	38.776
248.36	38.788
248.73	43.367
249.10	27.976
249.47	40.000
249.84	35.821
250.22	36.216
250.59	32.500
250.96	35.443
251.33	31.163
251.70	34.375
252.08	29.412
252.45	29.880
252.82	28.897
253.19	28.458
253.56	29.615
253.94	31.159
254.31	26.744
254.68	33.449
255.05	32.759
255.42	29.927
255.79	28.013
256.16	30.847
256.54	29.221
256.91	28.431
257.28	29.766
257.65	27.273
258.02	27.729
258.39	33.524
258.76	29.855
259.14	23.143
259.51	30.321
259.88	26.748
260.25	27.747
260.62	31.781
260.99	23.140
261.36	28.691
261.73	26.330
262.10	26.702
262.47	26.500
262.85	24.800
263.22	25.707
263.59	27.110
263.96	27.068
264.33	25.926
264.70	26.536
265.07	27.073
265.44	25.229
265.81	25.000
266.18	27.231
266.55	25.296
266.92	23.490
267.29	25.219
267.66	25.112
268.03	21.973
268.40	23.890
268.77	27.753
269.14	24.512
269.51	24.499
269.88	24.898
270.25	21.814
270.62	25.107
270.99	24.746
271.36	26.016
271.73	24.528
272.10	23.838
272.47	23.413
272.84	22.954
273.21	22.521
273.58	22.672
273.95	21.355
274.32	23.930
274.69	25.984
275.06	25.137
275.43	23.946
275.80	21.321
276.17	22.978
276.54	24.486
276.91	22.388
277.28	21.715
277.65	21.402
278.02	24.265
278.39	23.201
278.76	23.793
279.13	24.733
279.50	24.000
279.87	21.229
280.23	23.389
280.60	22.445
280.97	22.759
281.34	21.782
281.71	22.957
282.08	21.709
282.45	22.973
282.82	22.742
283.19	22.258
283.56	20.331
283.92	22.964
284.29	20.466
284.66	21.849
285.03	21.725
285.40	22.314
285.77	20.062
286.14	20.279
286.51	20.552
286.87	18.987
287.24	21.471
287.61	20.821
287.98	20.896
288.35	21.333
288.72	19.423
289.08	21.171
289.45	21.037
289.82	20.000
290.19	20.791
290.56	20.961
290.93	20.576
291.29	20.856
291.66	18.220
292.03	19.074
292.40	19.377
292.77	18.106
293.13	19.829
293.50	17.274
293.87	17.073
294.24	18.881
294.60	18.035
294.97	19.161
295.34	17.397
295.71	20.368
296.08	20.133
296.44	17.916
296.81	17.866
297.18	19.265
297.55	17.488
297.91	18.473
298.28	18.478
298.65	19.632
299.02	18.697
299.38	17.506
299.75	18.049
300.12	17.775
300.48	18.735
300.85	17.521
301.22	19.767
301.59	18.160
301.95	18.903
302.32	17.928
302.69	19.118
303.05	18.406
303.42	19.170
303.79	18.418
304.15	17.052
304.52	18.076
304.89	18.763
305.25	18.242
305.62	18.337
305.99	17.283
306.35	18.842
306.72	18.314
307.09	18.634
307.45	18.691
307.82	17.284
308.19	18.969
308.55	17.700
308.92	19.333
309.29	19.132
309.65	19.029
310.02	20.487
310.38	19.442
310.75	19.961
311.12	20.019
311.48	21.622
311.85	20.134
312.22	22.063
312.58	20.894
312.95	22.427
313.31	21.348
313.68	21.107
314.05	23.352
314.41	22.346
314.78	22.822
315.14	23.886
315.51	26.017
315.87	23.540
316.24	25.303
316.61	25.157
316.97	24.954
317.34	26.415
317.70	26.602
318.07	26.068
318.43	27.856
318.80	27.846
319.16	28.934
319.53	29.292
319.89	28.495
320.26	32.495
320.62	31.410
320.99	31.268
321.35	31.540
321.72	33.491
322.08	34.534
322.45	34.968
322.81	34.950
323.18	36.767
323.54	36.237
323.91	37.081
324.27	38.815
324.64	39.706
325.00	41.207
325.37	41.568
325.73	42.664
326.10	44.242
326.46	44.839
326.83	44.880
327.19	46.747
327.56	46.645
327.92	49.508
328.29	48.936
328.65	50.257
329.01	51.326
329.38	51.269
329.74	50.726
330.11	52.215
330.47	51.748
330.84	52.114
331.20	53.723
331.56	55.699
331.93	55.774
332.29	53.656
332.66	55.102
333.02	53.866
333.38	56.370
333.75	56.547
334.11	55.789
334.48	55.726
334.84	54.561
335.20	55.945
335.57	55.751
335.93	57.275
336.29	55.058
336.66	57.633
337.02	56.801
337.38	56.664
337.75	57.855
338.11	57.637
338.47	57.494
338.84	55.631
339.20	57.749
339.56	57.359
339.93	57.776
340.29	55.966
340.65	55.993
341.02	55.994
341.38	57.225
341.74	56.312
342.11	56.177
342.47	55.865
342.83	57.998
343.20	55.780
343.56	56.235
343.92	57.308
344.28	56.380
344.65	58.843
345.01	55.952
345.37	57.212
345.73	56.190
346.10	57.530
346.46	58.214
346.82	56.559
347.19	56.801
347.55	56.831
347.91	55.438
348.27	56.778
348.63	57.120
349.00	56.969
349.36	57.743
349.72	57.492
350.08	57.143
350.45	56.283
350.81	57.187
351.17	56.857
351.53	57.044
351.89	56.022
352.26	55.782
352.62	55.732
352.98	56.595
353.34	58.012
353.70	57.110
354.07	56.846
354.43	56.912
354.79	57.403
355.15	58.040
355.51	57.251
355.87	56.476
356.24	58.276
356.60	57.078
356.96	58.074
357.32	57.121
357.68	58.150
358.04	57.447
358.40	57.871
358.77	59.204
359.13	57.432
359.49	57.746
359.85	58.228
360.21	59.212
360.57	57.664
360.93	58.586
361.29	57.864
361.66	58.464
362.02	57.528
362.38	58.442
362.74	57.962
363.10	57.504
363.46	57.113
363.82	57.784
364.18	57.752
364.54	60.014
364.90	57.965
365.26	59.750
365.62	58.356
365.98	59.119
366.35	59.241
366.71	60.028
367.07	59.317
367.43	59.503
367.79	57.713
368.15	57.598
368.51	58.580
368.87	57.269
369.23	58.628
369.59	58.395
369.95	59.231
370.31	58.316
370.67	57.252
371.03	59.594
371.39	59.834
371.75	58.688
372.11	57.988
372.47	58.288
372.83	58.600
373.19	59.013
373.55	58.144
373.91	59.599
374.27	59.524
374.63	60.000
374.99	57.615
375.35	59.610
375.71	59.631
376.07	59.416
376.42	59.143
376.78	60.951
377.14	60.288
377.50	59.551
377.86	59.193
378.22	58.501
378.58	60.533
378.94	60.410
379.30	59.673
379.66	59.302
380.02	60.880
380.38	59.778
380.74	60.381
381.09	59.463
381.45	58.497
381.81	59.456
382.17	59.585
382.53	58.608
382.89	59.846
383.25	59.384
383.61	57.810
383.97	59.508
384.32	58.529
384.68	60.131
385.04	59.144
385.40	59.312
385.76	59.450
386.12	59.246
386.48	60.000
386.83	60.636
387.19	60.306
387.55	60.071
387.91	59.873
388.27	60.678
388.62	58.509
388.98	58.776
389.34	59.369
389.70	59.788
390.06	60.793
390.42	59.716
390.77	59.644
391.13	60.410
391.49	58.984
391.85	59.815
392.20	60.131
392.56	58.901
392.92	59.629
393.28	57.735
393.64	58.544
393.99	58.447
394.35	57.504
394.71	59.168
395.07	59.976
395.42	58.021
395.78	59.963
396.14	60.301
396.50	59.446
396.85	58.598
397.21	57.762
397.57	58.159
397.92	58.174
398.28	58.853
398.64	58.930
399.00	58.311
399.35	56.951
399.71	58.223
400.07	57.763
400.42	57.552
400.78	58.240
401.14	59.072
401.49	58.295
401.85	58.343
402.21	58.524
402.57	58.348
402.92	58.667
403.28	56.742
403.63	58.387
403.99	57.419
404.35	58.441
404.70	58.949
405.06	57.440
405.42	57.989
405.77	57.938
406.13	56.236
406.49	56.055
406.84	55.838
407.20	56.393
407.55	56.677
407.91	57.881
408.27	57.368
408.62	57.481
408.98	57.363
409.34	56.634
409.69	56.752
410.05	56.052
410.40	56.184
410.76	55.810
411.11	56.043
411.47	56.296
411.83	56.649
412.18	56.763
412.54	56.757
412.89	55.634
413.25	56.385
413.60	55.199
413.96	56.732
414.31	56.080
414.67	57.294
415.03	57.280
415.38	56.972
415.74	56.601
416.09	56.652
416.45	57.725
416.80	57.793
417.16	55.188
417.51	56.115
417.87	55.444
418.22	56.440
418.58	57.070
418.93	56.395
419.29	55.330
419.64	56.693
420.00	57.876
420.35	56.620
420.71	57.293
421.06	56.210
421.42	56.477
421.77	55.858
422.12	56.174
422.48	55.110
422.83	56.808
423.19	56.425
423.54	56.007
423.90	56.059
424.25	57.622
424.61	57.458
424.96	56.635
425.31	57.198
425.67	57.856
426.02	57.151
426.38	56.243
426.73	58.126
427.09	57.473
427.44	56.612
427.79	57.404
428.15	58.986
428.50	57.371
428.85	58.671
429.21	57.320
429.56	56.281
429.92	57.434
430.27	56.604
430.62	55.947
430.98	57.685
431.33	56.401
431.68	54.716
432.04	56.079
432.39	57.794
432.74	56.674
433.10	58.804
433.45	58.300
433.80	59.404
434.16	57.698
434.51	57.740
434.86	57.703
435.22	57.753
435.57	58.803
435.92	58.793
436.28	58.295
436.63	56.942
436.98	58.896
437.34	58.562
437.69	57.223
438.04	56.989
438.39	58.844
438.75	57.906
439.10	57.420
439.45	57.660
439.81	57.953
440.16	57.898
440.51	57.264
440.86	58.917
441.22	57.359
441.57	57.218
441.92	57.552
442.27	58.299
442.63	56.758
442.98	56.950
443.33	57.954
443.68	57.193
444.03	57.634
444.39	58.145
444.74	55.642
445.09	58.189
445.44	56.695
445.79	57.992
446.15	56.684
446.50	57.648
446.85	57.620
447.20	57.114
447.55	58.510
447.91	57.912
448.26	56.337
448.61	58.596
448.96	58.170
449.31	57.371
449.66	57.697
450.02	57.428
450.37	57.690
450.72	57.466
451.07	57.708
451.42	57.617
451.77	58.018
452.12	57.289
452.47	57.473
452.83	56.676
453.18	58.258
453.53	57.667
453.88	58.171
454.23	56.769
454.58	57.226
454.93	56.714
455.28	57.038
455.63	57.861
455.98	57.191
456.34	57.751
456.69	58.171
457.04	57.160
457.39	56.743
457.74	56.137
458.09	56.036
458.44	57.174
458.79	56.127
459.14	55.319
459.49	57.305
459.84	57.337
460.19	56.497
460.54	55.954
460.89	55.597
461.24	55.498
461.59	56.803
461.94	55.319
462.29	56.579
462.64	58.103
462.99	56.174
463.34	56.384
463.69	57.592
464.04	56.707
464.39	55.409
464.74	55.920
465.09	55.194
465.44	55.713
465.79	54.927
466.14	54.425
466.49	54.259
466.84	54.794
467.19	55.243
467.54	54.775
467.89	55.223
468.24	54.545
468.59	55.655
468.94	55.737
469.29	54.429
469.64	56.077
469.99	55.077
470.34	54.712
470.68	54.276
471.03	55.170
471.38	55.894
471.73	55.650
472.08	56.164
472.43	54.190
472.78	56.082
473.13	54.255
473.48	54.707
473.83	54.594
474.17	54.590
474.52	53.199
474.87	53.496
475.22	55.054
475.57	54.092
475.92	54.011
476.27	52.666
476.61	53.190
476.96	53.501
477.31	54.087
477.66	55.448
478.01	53.584
478.36	52.214
478.70	53.449
479.05	52.929
479.40	53.274
479.75	53.873
480.10	53.582
480.45	52.801
480.79	51.567
481.14	52.116
481.49	50.961
481.84	51.407
482.19	52.445
482.53	51.383
482.88	52.464
483.23	51.737
483.58	52.648
483.92	52.651
484.27	50.642
484.62	52.250
484.97	51.305
485.31	50.471
485.66	49.710
486.01	47.675
486.36	46.637
486.70	45.833
487.05	47.005
487.40	47.460
487.75	48.185
488.09	48.864
488.44	48.438
488.79	49.497
489.13	50.653
489.48	50.100
489.83	49.374
490.17	49.711
490.52	51.163
490.87	49.914
491.22	50.709
491.56	50.417
491.91	49.418
492.26	49.978
492.60	51.025
492.95	50.023
493.30	50.637
493.64	50.494
493.99	49.374
494.34	50.471
494.68	49.624
495.03	50.022
495.37	49.347
495.72	50.070
496.07	50.045
496.41	49.696
496.76	48.544
497.11	48.458
497.45	49.057
497.80	49.305
498.14	48.960
498.49	49.257
498.84	49.626
499.18	48.446
499.53	48.966
499.87	49.012
500.22	49.010
500.56	49.211
500.91	49.119
501.26	49.747
501.60	49.909
501.95	48.566
502.29	48.533
502.64	47.684
502.98	47.399
503.33	47.661
503.67	47.417
504.02	47.515
504.36	48.326
504.71	49.858
505.06	48.381
505.40	48.245
505.75	47.521
506.09	47.690
506.44	47.979
506.78	49.575
507.13	49.346
507.47	48.083
507.82	48.856
508.16	49.339
508.51	48.309
508.85	48.718
509.19	48.018
509.54	47.998
509.88	47.936
510.23	47.745
510.57	46.911
510.92	48.501
511.26	48.193
511.61	47.612
511.95	48.084
512.30	48.600
512.64	47.871
512.98	47.924
513.33	47.643
513.67	48.731
514.02	47.896
514.36	47.664
514.70	48.587
515.05	47.576
515.39	47.423
515.74	48.223
516.08	47.222
516.42	48.852
516.77	47.787
517.11	48.053
517.46	48.114
517.80	47.023
518.14	48.732
518.49	46.968
518.83	47.033
519.17	46.700
519.52	47.624
519.86	47.357
520.20	46.740
520.55	47.880
520.89	49.023
521.23	48.131
521.58	47.390
521.92	46.880
522.26	46.979
522.61	47.831
522.95	48.408
523.29	47.602
523.64	47.572
523.98	47.535
524.32	47.059
524.66	47.362
525.01	47.101
525.35	46.965
525.69	47.923
526.04	46.520
526.38	47.322
526.72	47.673
527.06	46.067
527.41	48.005
527.75	47.900
528.09	45.575
528.43	47.041
528.78	47.346
529.12	48.104
529.46	46.347
529.80	46.379
530.15	46.199
530.49	45.608
530.83	46.618
531.17	46.433
531.51	46.291
531.86	45.954
532.20	45.859
532.54	47.395
532.88	47.533
533.22	46.679
533.57	47.407
533.91	44.814
534.25	44.778
534.59	45.614
534.93	44.482
535.27	44.337
535.62	45.158
535.96	44.149
536.30	46.374
536.64	45.652
536.98	44.997
537.32	45.688
537.66	44.579
538.01	44.706
538.35	45.789
538.69	43.629
539.03	44.590
539.37	43.022
539.71	44.691
540.05	44.800
540.39	45.346
540.73	44.747
541.07	43.852
541.42	44.092
541.76	44.760
542.10	44.143
542.44	44.701
542.78	45.626
543.12	43.926
543.46	42.857
543.80	44.799
544.14	44.768
544.48	44.526
544.82	43.731
545.16	43.169
545.50	43.762
545.84	44.697
546.18	46.164
546.52	43.934
546.86	44.745
547.20	44.380
547.54	42.052
547.88	43.735
548.22	43.716
548.56	42.310
548.90	41.222
549.24	44.283
549.58	43.235
549.92	43.746
550.26	44.625
550.60	42.515
550.94	44.098
551.28	44.897
551.62	45.931
551.96	44.054
552.30	43.045
552.64	43.236
552.98	43.170
553.32	43.214
553.66	43.062
554.00	43.372
554.34	45.140
554.68	43.683
555.02	45.350
555.36	42.553
555.69	42.801
556.03	41.783
556.37	41.874
556.71	43.481
557.05	42.923
557.39	43.600
557.73	43.127
558.07	42.790
558.41	43.112
558.75	43.434
559.08	45.104
559.42	44.023
559.76	43.763
560.10	43.496
560.44	41.805
560.78	42.327
561.12	42.594
561.45	41.990
561.79	42.135
562.13	41.567
562.47	42.570
562.81	41.574
563.15	41.758
563.48	40.248
563.82	43.169
564.16	41.480
564.50	40.446
564.84	40.790
565.17	41.592
565.51	42.365
565.85	42.628
566.19	41.190
566.52	40.915
566.86	41.740
567.20	41.966
567.54	40.502
567.88	40.532
568.21	39.391
568.55	39.835
568.89	38.139
569.23	38.956
569.56	38.379
569.90	37.334
570.24	37.445
570.57	37.184
570.91	36.942
571.25	35.706
571.59	35.110
571.92	35.495
572.26	34.933
572.60	34.851
572.93	35.796
573.27	35.841
573.61	35.192
573.95	34.736
574.28	35.191
574.62	34.886
574.96	34.765
575.29	34.299
575.63	34.064
575.97	33.763
576.30	34.219
576.64	34.201
576.98	34.479
577.31	34.737
577.65	33.944
577.98	33.539
578.32	33.809
578.66	33.320
578.99	33.228
579.33	34.078
579.67	33.926
580.00	33.341
580.34	33.482
580.67	33.691
581.01	33.728
581.35	33.751
581.68	33.092
582.02	33.128
582.35	33.227
582.69	33.223
583.02	33.384
583.36	33.769
583.70	33.595
584.03	34.452
584.37	34.250
584.70	34.312
585.04	33.976
585.37	33.521
585.71	33.955
586.04	33.733
586.38	33.804
586.72	34.054
587.05	33.917
587.39	33.881
587.72	34.057
588.06	33.698
588.39	34.826
588.73	33.969
589.06	34.432
589.40	35.274
589.73	35.267
590.07	36.102
590.40	36.551
590.73	36.210
591.07	36.622
591.40	35.888
591.74	36.323
592.07	35.483
592.41	35.931
592.74	35.335
593.08	34.505
593.41	34.979
593.75	33.382
594.08	34.093
594.41	34.669
594.75	35.068
595.08	34.396
595.42	34.694
595.75	35.406
596.09	35.488
596.42	35.361
596.75	36.098
597.09	36.071
597.42	35.796
597.75	35.456
598.09	36.069
598.42	35.904
598.76	34.773
599.09	35.013
599.42	34.360
599.76	34.905
600.09	34.644
600.42	34.289
600.76	34.500
601.09	34.070
601.42	34.002
601.76	34.622
602.09	34.584
602.42	34.381
602.76	34.611
603.09	35.558
603.42	35.486
603.76	34.454
604.09	34.962
604.42	34.614
604.76	35.362
605.09	35.061
605.42	35.961
605.75	34.465
606.09	34.583
606.42	34.987
606.75	34.901
607.09	35.176
607.42	34.673
607.75	35.589
608.08	33.916
608.42	34.983
608.75	34.489
609.08	35.064
609.41	35.727
609.75	36.218
610.08	34.982
610.41	34.914
610.74	34.892
611.07	35.516
611.41	35.728
611.74	35.994
612.07	36.175
612.40	35.819
612.73	36.495
613.07	36.290
613.40	36.842
613.73	35.347
614.06	35.300
614.39	35.859
614.72	35.560
615.06	35.213
615.39	35.396
615.72	35.189
616.05	35.811
616.38	34.805
616.71	36.191
617.05	36.848
617.38	36.573
617.71	36.445
618.04	36.568
618.37	35.686
618.70	36.952
619.03	36.447
619.36	38.191
619.69	37.335
620.03	38.421
620.36	37.701
620.69	37.739
621.02	37.976
621.35	38.682
621.68	38.864
622.01	40.812
622.34	38.893
622.67	38.062
623.00	37.645
623.33	37.449
623.66	37.325
623.99	37.877
624.32	37.805
624.65	36.932
624.99	38.945
625.32	38.343
625.65	37.379
625.98	37.727
626.31	38.947
626.64	38.648
626.97	38.485
627.30	39.053
627.63	39.639
627.96	37.559
628.29	40.677
628.62	38.666
628.95	39.894
629.28	41.280
629.61	39.807
629.94	39.844
630.26	40.121
630.59	40.780
630.92	39.641
631.25	40.163
