SpectraSuite Data File
++++++++++++++++++++++++++++++++++++
Date: Tue May 12 16:50:07 PDT 2015
User: schluterlab
Dark Spectrum Present: Yes
Reference Spectrum Present: Yes
Number of Sampled Component Spectra: 1
Spectrometers: USB2E3373
Integration Time (usec): 3000 (USB2E3373)
Spectra Averaged: 3 (USB2E3373)
Boxcar Smoothing: 0 (USB2E3373)
Correct for Electrical Dark: No (USB2E3373)
Strobe/Lamp Enabled: No (USB2E3373)
Correct for Detector Non-linearity: No (USB2E3373)
Correct for Stray Light: No (USB2E3373)
Number of Pixels in Processed Spectrum: 2048
>>>>>Begin Processed Spectral Data<<<<<
178.53	0.000
178.91	-233.333
179.29	-675.000
179.67	-3300.000
180.04	-153.333
180.42	600.000
180.80	1600.000
181.18	0.000
181.56	-425.000
181.94	0.000
182.31	1200.000
182.69	-3700.000
183.07	571.429
183.45	-3400.000
183.83	-1800.000
184.20	320.000
184.58	557.143
184.96	-238.462
185.34	-250.000
185.72	1650.000
186.09	-775.000
186.47	-3000.000
186.85	1100.000
187.23	560.000
187.61	1500.000
187.98	525.000
188.36	221.429
188.74	350.000
189.12	333.333
189.49	925.000
189.87	0.000
190.25	437.500
190.63	2600.000
191.00	-208.333
191.38	-3100.000
191.76	-700.000
192.14	562.500
192.51	-3300.000
192.89	1600.000
193.27	1033.333
193.65	-1166.667
194.02	-580.000
194.40	528.571
194.78	-178.571
195.15	326.667
195.53	-3700.000
195.91	-560.000
196.29	4200.000
196.66	200.000
197.04	700.000
197.42	-1500.000
197.79	775.000
198.17	358.333
198.55	0.000
198.92	485.714
199.30	1166.667
199.68	1800.000
200.05	600.000
200.43	-566.667
200.81	194.444
201.18	2700.000
201.56	333.333
201.94	-800.000
202.31	-312.500
202.69	-560.000
203.07	2700.000
203.44	-650.000
203.82	333.333
204.19	1000.000
204.57	-1450.000
204.95	-1075.000
205.32	-680.000
205.70	466.667
206.08	800.000
206.45	-1033.333
206.83	388.889
207.20	210.526
207.58	216.667
207.96	820.000
208.33	0.000
208.71	585.714
209.08	780.000
209.46	-3500.000
209.84	-700.000
210.21	880.000
210.59	-560.000
210.96	283.333
211.34	-900.000
211.71	390.909
212.09	1175.000
212.46	1950.000
212.84	-533.333
213.22	411.111
213.59	-2600.000
213.97	300.000
214.34	1000.000
214.72	933.333
215.09	1200.000
215.47	-3000.000
215.84	-330.000
216.22	-325.000
216.59	0.000
216.97	0.000
217.34	1800.000
217.72	-1300.000
218.09	1300.000
218.47	512.500
218.84	950.000
219.22	1066.667
219.59	1033.333
219.97	657.143
220.34	455.556
220.72	1700.000
221.09	4000.000
221.47	333.333
221.84	1333.333
222.22	370.000
222.59	294.444
222.97	228.571
223.34	250.000
223.72	-1850.000
224.09	1466.667
224.46	261.538
224.84	-875.000
225.21	366.667
225.59	233.333
225.96	1133.333
226.34	-800.000
226.71	-550.000
227.08	-700.000
227.46	0.000
227.83	-766.667
228.21	-2250.000
228.58	391.667
228.95	1200.000
229.33	300.000
229.70	900.000
230.08	346.154
230.45	3600.000
230.82	-775.000
231.20	-900.000
231.57	-1200.000
231.95	640.000
232.32	325.000
232.69	550.000
233.07	250.000
233.44	-1600.000
233.81	273.333
234.19	174.074
234.56	225.000
234.93	194.118
235.31	220.000
235.68	331.250
236.05	146.429
236.43	159.259
236.80	250.000
237.17	155.172
237.55	134.375
237.92	105.000
238.29	130.303
238.67	162.500
239.04	112.195
239.41	66.667
239.79	77.500
240.16	93.750
240.53	81.967
240.91	66.667
241.28	79.661
241.65	74.242
242.02	84.507
242.40	60.000
242.77	62.637
243.14	45.570
243.51	65.657
243.89	51.402
244.26	45.794
244.63	50.495
245.00	52.294
245.38	40.678
245.75	46.970
246.12	46.667
246.49	42.553
246.87	36.885
247.24	38.667
247.61	37.500
247.98	44.218
248.36	34.545
248.73	41.327
249.10	38.690
249.47	36.000
249.84	35.821
250.22	41.081
250.59	31.500
250.96	29.114
251.33	33.488
251.70	32.143
252.08	31.513
252.45	29.482
252.82	30.418
253.19	32.806
253.56	32.308
253.94	29.710
254.31	30.620
254.68	29.268
255.05	30.345
255.42	30.657
255.79	32.899
256.16	31.525
256.54	28.571
256.91	25.817
257.28	28.094
257.65	26.646
258.02	24.779
258.39	29.513
258.76	30.725
259.14	26.857
259.51	29.738
259.88	28.875
260.25	23.077
260.62	24.658
260.99	25.620
261.36	25.070
261.73	23.404
262.10	25.654
262.47	26.250
262.85	25.867
263.22	26.992
263.59	26.087
263.96	26.065
264.33	24.938
264.70	27.518
265.07	25.854
265.44	24.771
265.81	26.179
266.18	27.231
266.55	25.059
266.92	23.266
267.29	24.781
267.66	23.318
268.03	21.749
268.40	20.930
268.77	24.009
269.14	21.909
269.51	24.499
269.88	23.061
270.25	22.462
270.62	22.747
270.99	25.963
271.36	25.407
271.73	23.690
272.10	21.616
272.47	22.222
272.84	21.756
273.21	25.000
273.58	23.684
273.95	22.177
274.32	22.179
274.69	23.031
275.06	23.862
275.43	21.648
275.80	20.943
276.17	22.243
276.54	22.056
276.91	23.881
277.28	20.985
277.65	22.325
278.02	22.794
278.39	22.302
278.76	22.069
279.13	22.242
279.50	23.455
279.87	21.043
280.23	20.258
280.60	21.715
280.97	22.759
281.34	19.967
281.71	21.913
282.08	22.222
282.45	20.101
282.82	21.572
283.19	21.622
283.56	18.843
283.92	21.987
284.29	20.965
284.66	19.664
285.03	21.725
285.40	20.826
285.77	20.062
286.14	21.207
286.51	18.405
286.87	20.728
287.24	19.820
287.61	19.757
287.98	19.403
288.35	21.037
288.72	20.637
289.08	22.072
289.45	18.445
289.82	19.531
290.19	19.180
290.56	20.815
290.93	20.576
291.29	19.613
291.66	19.350
292.03	19.355
292.40	21.003
292.77	18.663
293.13	20.257
293.50	20.783
293.87	19.106
294.24	20.140
294.60	22.476
294.97	21.259
295.34	19.788
295.71	18.528
296.08	19.733
296.44	19.949
296.81	20.347
297.18	18.124
297.55	19.335
297.91	18.103
298.28	18.961
298.65	18.160
299.02	20.386
299.38	19.424
299.75	20.000
300.12	19.266
300.48	20.375
300.85	20.024
301.22	20.581
301.59	20.637
301.95	19.020
302.32	20.955
302.69	18.891
303.05	20.651
303.42	20.516
303.79	20.693
304.15	19.472
304.52	20.085
304.89	21.855
305.25	22.024
305.62	20.682
305.99	19.565
306.35	21.158
306.72	20.499
307.09	21.636
307.45	21.119
307.82	21.811
308.19	21.340
308.55	19.600
308.92	21.492
309.29	22.880
309.65	23.588
310.02	22.819
310.38	22.632
310.75	23.047
311.12	22.797
311.48	23.938
311.85	23.378
312.22	23.782
312.58	23.615
312.95	24.272
313.31	24.532
313.68	23.640
314.05	26.190
314.41	23.464
314.78	25.947
315.14	25.877
315.51	25.449
315.87	25.547
316.24	26.984
316.61	25.783
316.97	25.963
317.34	28.751
317.70	28.183
318.07	27.936
318.43	28.120
318.80	28.284
319.16	27.972
319.53	28.319
319.89	29.301
320.26	30.633
320.62	30.128
320.99	30.505
321.35	30.334
321.72	31.404
322.08	31.856
322.45	31.789
322.81	32.022
323.18	31.883
323.54	32.317
323.91	32.185
324.27	33.245
324.64	32.612
325.00	33.103
325.37	34.233
325.73	34.654
326.10	33.720
326.46	34.352
326.83	34.640
327.19	35.502
327.56	35.383
327.92	34.836
328.29	36.007
328.65	35.788
329.01	36.441
329.38	36.802
329.74	37.233
330.11	37.793
330.47	38.193
330.84	36.066
331.20	36.971
331.56	37.392
331.93	39.179
332.29	36.480
332.66	37.500
333.02	37.973
333.38	38.918
333.75	39.116
334.11	37.584
334.48	39.316
334.84	37.500
335.20	38.666
335.57	36.692
335.93	38.604
336.29	37.811
336.66	39.708
337.02	38.238
337.38	37.833
337.75	38.345
338.11	38.397
338.47	39.204
338.84	37.257
339.20	37.143
339.56	37.090
339.93	39.130
340.29	36.218
340.65	39.396
341.02	37.892
341.38	38.013
341.74	38.289
342.11	37.730
342.47	37.654
342.83	40.361
343.20	38.399
343.56	37.093
343.92	38.150
344.28	37.959
344.65	37.897
345.01	37.619
345.37	36.458
345.73	38.016
346.10	37.211
346.46	39.314
346.82	36.111
347.19	37.481
347.55	38.017
347.91	37.236
348.27	37.490
348.63	38.608
349.00	37.776
349.36	38.054
349.72	38.456
350.08	38.276
350.45	38.842
350.81	39.220
351.17	35.670
351.53	37.798
351.89	37.141
352.26	36.961
352.62	37.330
352.98	38.344
353.34	38.906
353.70	37.844
354.07	37.538
354.43	38.249
354.79	36.750
355.15	38.055
355.51	37.311
355.87	38.027
356.24	38.414
356.60	37.747
356.96	36.922
357.32	37.754
357.68	37.298
358.04	38.298
358.40	36.957
358.77	39.219
359.13	37.613
359.49	36.990
359.85	36.932
360.21	37.816
360.57	39.051
360.93	38.095
361.29	37.734
361.66	39.523
362.02	37.571
362.38	38.240
362.74	37.650
363.10	38.289
363.46	37.431
363.82	38.008
364.18	38.549
364.54	38.770
364.90	38.153
365.26	38.446
365.62	37.707
365.98	38.059
366.35	36.897
366.71	38.237
367.07	38.567
367.43	38.549
367.79	37.367
368.15	37.856
368.51	38.318
368.87	37.092
369.23	37.699
369.59	37.761
369.95	37.902
370.31	37.714
370.67	38.584
371.03	38.866
371.39	38.989
371.75	37.474
372.11	38.817
372.47	38.014
372.83	38.137
373.19	37.766
373.55	38.007
373.91	36.740
374.27	38.294
374.63	38.644
374.99	37.871
375.35	38.642
375.71	38.918
376.07	38.727
376.42	36.509
376.78	38.921
377.14	38.139
377.50	38.577
377.86	38.629
378.22	38.087
378.58	38.983
378.94	38.503
379.30	38.387
379.66	38.350
380.02	38.651
380.38	37.881
380.74	38.581
381.09	38.551
381.45	37.399
381.81	38.416
382.17	38.523
382.53	38.032
382.89	37.315
383.25	36.649
383.61	37.176
383.97	38.092
384.32	38.156
384.68	38.740
385.04	38.101
385.40	37.663
385.76	36.922
386.12	38.590
386.48	37.629
386.83	38.509
387.19	38.104
387.55	36.690
387.91	37.413
388.27	38.370
388.62	36.913
388.98	37.201
389.34	37.359
389.70	36.910
390.06	37.500
390.42	38.001
390.77	37.469
391.13	37.477
391.49	36.237
391.85	36.800
392.20	37.366
392.56	37.694
392.92	36.103
393.28	36.099
393.64	35.952
393.99	36.040
394.35	36.845
394.71	36.007
395.07	37.348
395.42	37.178
395.78	37.138
396.14	36.506
396.50	36.522
396.85	36.159
397.21	35.259
397.57	36.701
397.92	35.240
398.28	35.301
398.64	36.766
399.00	34.955
399.35	35.802
399.71	35.320
400.07	35.674
400.42	35.164
400.78	35.660
401.14	35.760
401.49	34.965
401.85	35.052
402.21	34.974
402.57	36.445
402.92	35.515
403.28	34.785
403.63	34.726
403.99	36.068
404.35	35.991
404.70	36.680
405.06	34.475
405.42	35.189
405.77	34.564
406.13	33.568
406.49	33.826
406.84	34.179
407.20	34.646
407.55	34.277
407.91	35.418
408.27	34.991
408.62	34.122
408.98	33.885
409.34	33.197
409.69	33.914
410.05	34.407
410.40	33.039
410.76	32.971
411.11	33.886
411.47	33.519
411.83	33.275
412.18	33.514
412.54	33.814
412.89	32.861
413.25	34.208
413.60	33.820
413.96	33.812
414.31	33.648
414.67	33.644
415.03	33.333
415.38	33.817
415.74	34.049
416.09	33.729
416.45	34.454
416.80	34.317
417.16	33.736
417.51	34.650
417.87	34.105
418.22	33.475
418.58	34.841
418.93	32.897
419.29	32.902
419.64	33.495
420.00	34.547
420.35	34.901
420.71	33.664
421.06	33.431
421.42	34.082
421.77	34.148
422.12	33.903
422.48	33.025
422.83	34.040
423.19	33.963
423.54	33.736
423.90	33.805
424.25	34.342
424.61	34.533
424.96	34.500
425.31	34.209
425.67	34.680
426.02	34.156
426.38	33.664
426.73	34.933
427.09	35.291
427.44	35.115
427.79	35.620
428.15	36.358
428.50	35.429
428.85	35.215
429.21	35.981
429.56	35.194
429.92	35.256
430.27	34.591
430.62	34.606
430.98	34.431
431.33	35.635
431.68	34.716
432.04	35.282
432.39	35.675
432.74	37.178
433.10	35.271
433.45	36.760
433.80	36.293
434.16	35.155
434.51	36.378
434.86	36.745
435.22	36.359
435.57	36.277
435.92	36.369
436.28	36.866
436.63	36.845
436.98	37.106
437.34	37.215
437.69	35.778
438.04	35.860
438.39	36.427
438.75	36.804
439.10	36.266
439.45	36.574
439.81	37.189
440.16	37.975
440.51	37.331
440.86	37.265
441.22	37.175
441.57	37.165
441.92	37.562
442.27	37.784
442.63	37.449
442.98	37.069
443.33	37.654
443.68	37.475
444.03	37.323
444.39	37.335
444.74	37.060
445.09	37.441
445.44	37.779
445.79	37.573
446.15	37.789
446.50	38.027
446.85	38.048
447.20	36.716
447.55	38.608
447.91	39.105
448.26	38.285
448.61	38.308
448.96	37.963
449.31	37.789
449.66	38.372
450.02	38.033
450.37	38.090
450.72	38.623
451.07	38.220
451.42	38.293
451.77	38.488
452.12	38.457
452.47	39.976
452.83	39.042
453.18	38.859
453.53	39.195
453.88	38.400
454.23	39.338
454.58	38.928
454.93	38.811
455.28	38.739
455.63	39.539
455.98	38.071
456.34	39.574
456.69	39.146
457.04	39.141
457.39	39.086
457.74	39.583
458.09	38.349
458.44	38.938
458.79	39.523
459.14	38.243
459.49	40.147
459.84	39.402
460.19	38.362
460.54	39.487
460.89	38.859
461.24	38.144
461.59	39.626
461.94	37.530
462.29	39.760
462.64	40.075
462.99	39.859
463.34	38.691
463.69	40.532
464.04	40.069
464.39	38.122
464.74	37.925
465.09	37.957
465.44	39.227
465.79	38.323
466.14	37.679
466.49	38.687
466.84	38.183
467.19	38.840
467.54	38.799
467.89	39.613
468.24	38.969
468.59	38.750
468.94	39.191
469.29	39.524
469.64	39.678
469.99	39.460
470.34	38.963
470.68	39.448
471.03	39.960
471.38	39.404
471.73	39.843
472.08	39.400
472.43	39.913
472.78	39.245
473.13	39.612
473.48	38.753
473.83	39.105
474.17	38.602
474.52	40.107
474.87	38.147
475.22	39.634
475.57	38.405
475.92	38.273
476.27	38.901
476.61	39.035
476.96	37.931
477.31	39.177
477.66	39.238
478.01	39.092
478.36	39.032
478.70	38.759
479.05	38.860
479.40	38.294
479.75	39.970
480.10	39.061
480.45	38.095
480.79	38.249
481.14	37.803
481.49	37.603
481.84	38.478
482.19	38.559
482.53	38.823
482.88	38.530
483.23	38.521
483.58	38.824
483.92	39.031
484.27	38.527
484.62	39.177
484.97	37.281
485.31	36.659
485.66	36.215
486.01	35.975
486.36	35.545
486.70	34.966
487.05	35.919
487.40	36.633
487.75	36.618
488.09	37.358
488.44	37.699
488.79	37.695
489.13	37.663
489.48	37.875
489.83	37.531
490.17	37.903
490.52	38.157
490.87	38.233
491.22	38.209
491.56	37.945
491.91	38.262
492.26	37.951
492.60	38.861
492.95	38.015
493.30	38.262
493.64	38.275
493.99	38.283
494.34	38.413
494.68	37.937
495.03	38.931
495.37	39.036
495.72	38.788
496.07	38.410
496.41	37.272
496.76	37.906
497.11	37.189
497.45	37.878
497.80	38.462
498.14	38.326
498.49	38.254
498.84	39.065
499.18	37.934
499.53	37.483
499.87	38.140
500.22	38.738
500.56	38.579
500.91	39.378
501.26	38.631
501.60	38.707
501.95	37.097
502.29	37.467
502.64	37.583
502.98	37.528
503.33	38.040
503.67	37.748
504.02	36.767
504.36	38.281
504.71	38.836
505.06	37.541
505.40	37.763
505.75	38.213
506.09	38.497
506.44	38.346
506.78	38.894
507.13	38.391
507.47	38.282
507.82	38.200
508.16	38.805
508.51	38.213
508.85	38.651
509.19	38.179
509.54	38.281
509.88	38.787
510.23	38.480
510.57	36.438
510.92	39.510
511.26	38.956
511.61	38.060
511.95	38.427
512.30	36.800
512.64	38.474
512.98	38.134
513.33	37.500
513.67	38.788
514.02	38.701
514.36	38.629
514.70	39.520
515.05	38.093
515.39	39.035
515.74	39.694
516.08	38.453
516.42	39.617
516.77	38.453
517.11	38.133
517.46	38.362
517.80	39.760
518.14	39.831
518.49	39.085
518.83	38.187
519.17	38.880
519.52	38.995
519.86	38.965
520.20	38.959
520.55	39.005
520.89	38.276
521.23	40.070
521.58	39.243
521.92	38.192
522.26	39.514
522.61	39.513
522.95	40.901
523.29	39.181
523.64	38.150
523.98	39.143
524.32	38.754
524.66	38.783
525.01	37.929
525.35	38.833
525.69	39.073
526.04	40.333
526.38	38.611
526.72	39.200
527.06	38.971
527.41	39.238
527.75	39.257
528.09	38.471
528.43	39.292
528.78	38.640
529.12	39.253
529.46	39.217
529.80	38.435
530.15	38.362
530.49	38.688
530.83	37.965
531.17	39.852
531.51	38.688
531.86	38.889
532.20	38.072
532.54	38.544
532.88	39.475
533.22	39.183
533.57	38.804
533.91	37.762
534.25	37.911
534.59	38.304
534.93	37.884
535.27	36.767
535.62	37.456
535.96	38.534
536.30	39.488
536.64	37.516
536.98	38.955
537.32	39.125
537.66	38.074
538.01	37.461
538.35	38.178
538.69	38.228
539.03	37.562
539.37	36.954
539.71	37.963
540.05	37.354
540.39	38.491
540.73	37.722
541.07	38.645
541.42	37.002
541.76	37.300
542.10	37.300
542.44	37.344
542.78	37.571
543.12	37.178
543.46	37.657
543.80	37.406
544.14	37.276
544.48	37.835
544.82	38.104
545.16	37.158
545.50	38.537
545.84	37.753
546.18	39.207
546.52	38.557
546.86	38.878
547.20	37.726
547.54	37.809
547.88	38.990
548.22	37.644
548.56	36.299
548.90	36.655
549.24	37.650
549.58	36.920
549.92	38.703
550.26	38.742
550.60	37.858
550.94	38.602
551.28	38.621
551.62	39.379
551.96	38.784
552.30	37.376
552.64	38.317
552.98	37.822
553.32	37.004
553.66	38.241
554.00	37.452
554.34	39.214
554.68	38.038
555.02	37.814
555.36	38.098
555.69	37.238
556.03	38.471
556.37	38.305
556.71	38.462
557.05	36.697
557.39	37.867
557.73	38.410
558.07	37.492
558.41	38.931
558.75	39.466
559.08	39.099
559.42	38.511
559.76	39.986
560.10	37.715
560.44	37.956
560.78	38.427
561.12	37.635
561.45	37.234
561.79	37.141
562.13	38.282
562.47	38.287
562.81	38.582
563.15	38.203
563.48	36.087
563.82	38.366
564.16	37.873
564.50	36.588
564.84	38.176
565.17	36.601
565.51	38.054
565.85	38.186
566.19	36.131
566.52	37.665
566.86	37.653
567.20	37.022
567.54	37.500
567.88	37.872
568.21	36.096
568.55	36.527
568.89	35.903
569.23	35.893
569.56	36.142
569.90	34.423
570.24	34.549
570.57	34.945
570.91	34.009
571.25	34.312
571.59	33.023
571.92	33.154
572.26	33.288
572.60	32.741
572.93	33.640
573.27	33.688
573.61	32.756
573.95	33.292
574.28	33.495
574.62	32.743
574.96	32.256
575.29	32.556
575.63	32.367
575.97	32.449
576.30	32.675
576.64	32.693
576.98	32.412
577.31	33.124
577.65	33.195
577.98	32.423
578.32	32.457
578.66	32.621
578.99	32.473
579.33	32.927
579.67	32.841
580.00	32.837
580.34	32.767
580.67	32.595
581.01	32.851
581.35	32.856
581.68	32.369
582.02	32.377
582.35	32.173
582.69	32.962
583.02	32.869
583.36	33.010
583.70	33.848
584.03	34.178
584.37	33.872
584.70	33.192
585.04	33.405
585.37	32.687
585.71	33.528
586.04	33.168
586.38	33.349
586.72	33.694
587.05	33.685
587.39	33.906
587.72	34.325
588.06	34.443
588.39	34.186
588.73	33.533
589.06	34.374
589.40	35.117
589.73	34.284
590.07	35.587
590.40	35.470
590.73	36.761
591.07	35.370
591.40	34.810
591.74	35.674
592.07	35.399
592.41	36.451
592.74	34.713
593.08	33.757
593.41	34.500
593.75	33.909
594.08	34.555
594.41	34.637
594.75	34.452
595.08	34.705
595.42	34.924
595.75	34.189
596.09	35.349
596.42	34.268
596.75	35.897
597.09	35.246
597.42	35.510
597.75	35.781
598.09	35.330
598.42	34.965
598.76	34.541
599.09	34.939
599.42	34.360
599.76	34.735
600.09	33.864
600.42	34.012
600.76	34.738
601.09	34.277
601.42	34.671
601.76	35.052
602.09	35.283
602.42	34.824
602.76	35.598
603.09	35.558
603.42	35.083
603.76	35.177
604.09	34.890
604.42	34.727
604.76	35.045
605.09	35.469
605.42	35.717
605.75	34.662
606.09	34.468
606.42	35.100
606.75	34.901
607.09	35.018
607.42	34.833
607.75	35.510
608.08	34.850
608.42	35.109
608.75	34.831
609.08	35.812
609.41	35.273
609.75	36.310
610.08	35.477
610.41	35.046
610.74	35.022
611.07	36.289
611.41	36.284
611.74	36.329
612.07	35.934
612.40	36.404
612.73	36.296
613.07	36.290
613.40	36.341
613.73	36.196
614.06	35.450
614.39	36.010
614.72	35.761
615.06	35.064
615.39	35.743
615.72	35.092
616.05	36.565
616.38	35.464
616.71	36.300
617.05	35.750
617.38	36.517
617.71	36.952
618.04	37.465
618.37	35.853
618.70	36.028
619.03	36.935
619.36	37.437
619.69	37.269
620.03	38.356
620.36	38.793
620.69	38.123
621.02	37.976
621.35	38.181
621.68	38.053
622.01	38.081
622.34	38.310
622.67	37.360
623.00	37.645
623.33	37.449
623.66	37.991
623.99	38.151
624.32	37.940
624.65	36.669
624.99	38.269
625.32	38.143
625.65	37.517
625.98	37.238
626.31	39.021
626.64	37.661
626.97	37.414
627.30	38.898
627.63	39.246
627.96	39.280
628.29	39.686
628.62	38.152
628.95	40.426
629.28	41.280
629.61	39.104
629.94	39.412
630.26	40.641
630.59	41.046
630.92	38.655
