SpectraSuite Data File
++++++++++++++++++++++++++++++++++++
Date: Tue May 12 17:01:47 PDT 2015
User: schluterlab
Dark Spectrum Present: Yes
Reference Spectrum Present: Yes
Number of Sampled Component Spectra: 1
Spectrometers: USB2E3373
Integration Time (usec): 3000 (USB2E3373)
Spectra Averaged: 3 (USB2E3373)
Boxcar Smoothing: 0 (USB2E3373)
Correct for Electrical Dark: No (USB2E3373)
Strobe/Lamp Enabled: No (USB2E3373)
Correct for Detector Non-linearity: No (USB2E3373)
Correct for Stray Light: No (USB2E3373)
Number of Pixels in Processed Spectrum: 2048
>>>>>Begin Processed Spectral Data<<<<<
178.53	0.000
178.91	-291.667
179.29	-675.000
179.67	-3300.000
180.04	-180.000
180.42	825.000
180.80	1650.000
181.18	0.000
181.56	-337.500
181.94	0.000
182.31	1100.000
182.69	-3500.000
183.07	628.571
183.45	-3100.000
183.83	-1850.000
184.20	360.000
184.58	457.143
184.96	-246.154
185.34	-233.333
185.72	1550.000
186.09	-850.000
186.47	-2800.000
186.85	1100.000
187.23	680.000
187.61	1700.000
187.98	462.500
188.36	292.857
188.74	333.333
189.12	366.667
189.49	1075.000
189.87	0.000
190.25	512.500
190.63	2800.000
191.00	-216.667
191.38	-3600.000
191.76	-800.000
192.14	537.500
192.51	-3300.000
192.89	2200.000
193.27	1033.333
193.65	-1066.667
194.02	-740.000
194.40	428.571
194.78	-207.143
195.15	333.333
195.53	-3400.000
195.91	-640.000
196.29	4000.000
196.66	193.750
197.04	825.000
197.42	-1650.000
197.79	700.000
198.17	400.000
198.55	0.000
198.92	385.714
199.30	1266.667
199.68	2050.000
200.05	700.000
200.43	-483.333
200.81	222.222
201.18	2500.000
201.56	216.667
201.94	-450.000
202.31	-337.500
202.69	-500.000
203.07	4100.000
203.44	-583.333
203.82	325.000
204.19	620.000
204.57	-1250.000
204.95	-850.000
205.32	-880.000
205.70	733.333
206.08	725.000
206.45	-1033.333
206.83	422.222
207.20	210.526
207.58	275.000
207.96	720.000
208.33	0.000
208.71	500.000
209.08	640.000
209.46	-3400.000
209.84	-950.000
210.21	760.000
210.59	-540.000
210.96	375.000
211.34	-925.000
211.71	363.636
212.09	650.000
212.46	2050.000
212.84	-416.667
213.22	377.778
213.59	-2700.000
213.97	460.000
214.34	1075.000
214.72	1033.333
215.09	1033.333
215.47	-4100.000
215.84	-330.000
216.22	-362.500
216.59	0.000
216.97	0.000
217.34	1600.000
217.72	-1750.000
218.09	1333.333
218.47	475.000
218.84	725.000
219.22	1700.000
219.59	1233.333
219.97	500.000
220.34	422.222
220.72	1800.000
221.09	3900.000
221.47	216.667
221.84	1366.667
222.22	280.000
222.59	283.333
222.97	200.000
223.34	231.250
223.72	-2000.000
224.09	1233.333
224.46	323.077
224.84	-1000.000
225.21	400.000
225.59	360.000
225.96	1366.667
226.34	-800.000
226.71	-775.000
227.08	-680.000
227.46	0.000
227.83	-600.000
228.21	-1350.000
228.58	400.000
228.95	850.000
229.33	388.889
229.70	1225.000
230.08	330.769
230.45	4300.000
230.82	-1075.000
231.20	-1033.333
231.57	-1133.333
231.95	720.000
232.32	333.333
232.69	650.000
233.07	266.667
233.44	-1400.000
233.81	213.333
234.19	162.963
234.56	237.500
234.93	194.118
235.31	240.000
235.68	331.250
236.05	175.000
236.43	144.444
236.80	271.429
237.17	200.000
237.55	159.375
237.92	140.000
238.29	130.303
238.67	150.000
239.04	143.902
239.41	110.417
239.79	125.000
240.16	116.667
240.53	114.754
240.91	89.855
241.28	103.390
241.65	96.970
242.02	101.408
242.40	92.857
242.77	82.418
243.14	75.949
243.51	85.859
243.89	82.243
244.26	79.439
244.63	78.218
245.00	81.651
245.38	61.864
245.75	68.182
246.12	83.704
246.49	70.213
246.87	68.033
247.24	68.667
247.61	63.125
247.98	73.469
248.36	67.273
248.73	67.347
249.10	57.738
249.47	63.500
249.84	61.692
250.22	60.000
250.59	59.000
250.96	61.181
251.33	60.930
251.70	59.821
252.08	62.185
252.45	53.785
252.82	59.316
253.19	53.755
253.56	56.923
253.94	57.971
254.31	60.853
254.68	55.052
255.05	53.103
255.42	56.934
255.79	57.655
256.16	58.644
256.54	53.896
256.91	56.209
257.28	54.849
257.65	50.784
258.02	52.212
258.39	50.143
258.76	54.783
259.14	51.429
259.51	53.644
259.88	56.535
260.25	53.297
260.62	48.493
260.99	50.413
261.36	53.760
261.73	55.053
262.10	52.618
262.47	52.000
262.85	52.533
263.22	51.928
263.59	52.941
263.96	50.376
264.33	49.630
264.70	51.351
265.07	52.683
265.44	50.917
265.81	52.594
266.18	50.114
266.55	51.537
266.92	49.441
267.29	51.316
267.66	52.466
268.03	50.673
268.40	49.683
268.77	51.762
269.14	49.458
269.51	51.448
269.88	49.592
270.25	47.516
270.62	50.858
270.99	49.899
271.36	48.780
271.73	48.008
272.10	47.879
272.47	48.810
272.84	48.503
273.21	51.240
273.58	52.632
273.95	51.129
274.32	47.082
274.69	50.000
275.06	48.998
275.43	46.552
275.80	48.491
276.17	48.162
276.54	47.477
276.91	49.440
277.28	46.533
277.65	50.369
278.02	47.059
278.39	47.302
278.76	47.069
279.13	48.043
279.50	49.273
279.87	46.182
280.23	46.593
280.60	44.526
280.97	42.931
281.34	44.059
281.71	43.826
282.08	47.863
282.45	44.426
282.82	46.823
283.19	46.582
283.56	43.967
283.92	46.906
284.29	45.757
284.66	43.529
285.03	47.430
285.40	44.793
285.77	44.290
286.14	44.272
286.51	44.939
286.87	41.456
287.24	43.844
287.61	44.225
287.98	41.493
288.35	43.852
288.72	44.006
289.08	42.342
289.45	43.293
289.82	43.281
290.19	43.777
290.56	44.250
290.93	41.151
291.29	40.608
291.66	39.548
292.03	40.954
292.40	41.192
292.77	39.276
293.13	42.225
293.50	38.731
293.87	36.450
294.24	39.580
294.60	39.569
294.97	38.042
295.34	38.513
295.71	36.399
296.08	37.867
296.44	37.992
296.81	36.600
297.18	35.995
297.55	37.438
297.91	35.591
298.28	35.386
298.65	33.742
299.02	36.671
299.38	35.492
299.75	34.390
300.12	33.830
300.48	35.831
300.85	35.280
301.22	34.651
301.59	34.080
301.95	32.789
302.32	33.760
302.69	35.520
303.05	34.231
303.42	33.857
303.79	34.128
304.15	33.223
304.52	33.721
304.89	34.435
305.25	34.038
305.62	34.435
305.99	33.696
306.35	33.474
306.72	33.819
307.09	33.230
307.45	33.685
307.82	33.436
308.19	34.433
308.55	32.400
308.92	33.759
309.29	33.531
309.65	33.003
310.02	33.976
310.38	33.799
310.75	34.041
311.12	33.525
311.48	34.942
311.85	34.256
312.22	34.097
312.58	34.305
312.95	33.981
313.31	35.206
313.68	33.490
314.05	36.081
314.41	35.102
314.78	36.174
315.14	37.441
315.51	35.194
315.87	36.770
316.24	37.628
316.61	38.048
316.97	36.330
317.34	37.556
317.70	38.806
318.07	39.591
318.43	39.016
318.80	39.054
319.16	38.811
319.53	38.850
319.89	38.172
320.26	42.179
320.62	42.857
320.99	40.705
321.35	41.929
321.72	43.548
322.08	42.382
322.45	43.233
322.81	44.190
323.18	43.783
323.54	43.467
323.91	45.331
324.27	44.209
324.64	43.599
325.00	45.431
325.37	45.447
325.73	45.025
326.10	46.727
326.46	44.756
326.83	44.560
327.19	47.229
327.56	47.125
327.92	47.869
328.29	47.463
328.65	46.404
329.01	47.819
329.38	48.308
329.74	47.054
330.11	47.003
330.47	48.849
330.84	46.764
331.20	47.462
331.56	49.050
331.93	49.102
332.29	46.769
332.66	49.405
333.02	49.656
333.38	49.738
333.75	48.207
334.11	47.483
334.48	48.889
334.84	47.804
335.20	48.760
335.57	48.027
335.93	48.612
336.29	48.093
336.66	49.228
337.02	49.273
337.38	48.495
337.75	47.804
338.11	48.776
338.47	48.518
338.84	47.756
339.20	49.524
339.56	48.024
339.93	47.324
340.29	46.723
340.65	49.120
341.02	47.788
341.38	49.261
341.74	48.339
342.11	48.247
342.47	48.236
342.83	48.811
343.20	47.858
343.56	46.704
343.92	47.812
344.28	47.927
344.65	49.144
345.01	46.984
345.37	47.035
345.73	48.254
346.10	46.853
346.46	47.847
346.82	46.836
347.19	47.218
347.55	46.682
347.91	48.263
348.27	48.180
348.63	47.785
349.00	46.382
349.36	46.926
349.72	48.012
350.08	48.370
350.45	46.382
350.81	47.630
351.17	47.149
351.53	47.498
351.89	46.542
352.26	47.392
352.62	46.833
352.98	47.393
353.34	49.461
353.70	46.560
354.07	47.462
354.43	48.003
354.79	46.090
355.15	46.937
355.51	48.338
355.87	47.967
356.24	47.652
356.60	45.967
356.96	47.991
357.32	47.852
357.68	46.843
358.04	47.796
358.40	47.076
358.77	46.582
359.13	46.697
359.49	45.960
359.85	47.059
360.21	45.394
360.57	46.569
360.93	47.980
361.29	46.825
361.66	46.682
362.02	45.313
362.38	47.186
362.74	46.426
363.10	47.475
363.46	46.409
363.82	47.686
364.18	47.084
364.54	46.924
364.90	46.854
365.26	47.953
365.62	46.547
365.98	45.630
366.35	47.172
366.71	46.634
367.07	46.212
367.43	47.414
367.79	45.279
368.15	45.794
368.51	46.451
368.87	46.739
369.23	48.025
369.59	46.123
369.95	48.531
370.31	46.886
370.67	47.398
371.03	47.549
371.39	47.161
371.75	46.267
372.11	47.111
372.47	47.123
372.83	46.839
373.19	47.156
373.55	45.292
373.91	45.373
374.27	46.561
374.63	46.305
374.99	47.439
375.35	47.446
375.71	46.966
376.07	46.088
376.42	45.908
376.78	47.270
377.14	46.592
377.50	47.378
377.86	46.381
378.22	45.704
378.58	46.065
378.94	47.314
379.30	46.270
379.66	46.779
380.02	47.097
380.38	45.960
380.74	47.405
381.09	46.963
381.45	46.474
381.81	46.217
382.17	46.276
382.53	46.011
382.89	46.422
383.25	46.477
383.61	44.784
383.97	45.471
384.32	47.860
384.68	46.762
385.04	46.073
385.40	46.856
385.76	45.992
386.12	46.815
386.48	46.079
386.83	46.699
387.19	47.409
387.55	46.643
387.91	47.055
388.27	47.650
388.62	46.009
388.98	47.114
389.34	45.330
389.70	46.050
390.06	46.890
390.42	45.836
390.77	46.069
391.13	46.470
391.49	46.582
391.85	47.077
392.20	46.663
392.56	44.982
392.92	45.985
393.28	45.796
393.64	45.585
393.99	46.532
394.35	45.851
394.71	45.175
395.07	46.290
395.42	46.077
395.78	46.885
396.14	47.349
396.50	46.811
396.85	45.427
397.21	46.330
397.57	46.025
397.92	45.003
398.28	46.277
398.64	46.655
399.00	45.110
399.35	45.840
399.71	45.033
400.07	45.605
400.42	45.373
400.78	45.455
401.14	45.684
401.49	45.276
401.85	46.292
402.21	45.870
402.57	45.961
402.92	45.515
403.28	44.988
403.63	45.203
403.99	45.356
404.35	45.135
404.70	46.604
405.06	45.199
405.42	46.200
405.77	46.141
406.13	44.306
406.49	45.253
406.84	44.726
407.20	45.491
407.55	45.231
407.91	46.139
408.27	45.785
408.62	45.299
408.98	45.890
409.34	45.061
409.69	45.302
410.05	45.200
410.40	45.053
410.76	43.961
411.11	45.735
411.47	44.815
411.83	45.343
412.18	44.928
412.54	43.904
412.89	44.366
413.25	45.040
413.60	44.685
413.96	44.764
414.31	44.038
414.67	44.817
415.03	43.934
415.38	44.543
415.74	45.546
416.09	45.784
416.45	46.671
416.80	45.606
417.16	44.876
417.51	45.223
417.87	43.867
418.22	45.018
418.58	45.032
418.93	44.557
419.29	43.623
419.64	45.548
420.00	45.764
420.35	45.180
420.71	44.574
421.06	44.791
421.42	44.675
421.77	45.142
422.12	44.487
422.48	43.451
422.83	44.420
423.19	43.575
423.54	44.268
423.90	44.677
424.25	45.460
424.61	44.631
424.96	44.890
425.31	44.444
425.67	45.567
426.02	44.812
426.38	43.932
426.73	44.766
427.09	44.840
427.44	44.457
427.79	44.883
428.15	45.021
428.50	45.200
428.85	44.503
429.21	44.841
429.56	44.068
429.92	44.953
430.27	44.074
430.62	43.270
430.98	43.812
431.33	43.397
431.68	44.000
432.04	43.973
432.39	44.402
432.74	44.731
433.10	45.017
433.45	44.572
433.80	45.394
434.16	43.563
434.51	44.530
434.86	44.529
435.22	44.841
435.57	44.517
435.92	44.906
436.28	44.988
436.63	44.949
436.98	45.158
437.34	45.091
437.69	44.569
438.04	44.946
438.39	44.892
438.75	45.267
439.10	44.414
439.45	44.036
439.81	44.477
440.16	43.864
440.51	43.806
440.86	44.444
441.22	43.885
441.57	45.564
441.92	44.768
442.27	44.639
442.63	43.852
442.98	43.319
443.33	44.135
443.68	44.366
444.03	44.251
444.39	44.115
444.74	43.168
445.09	43.655
445.44	43.996
445.79	44.932
446.15	44.263
446.50	45.411
446.85	44.223
447.20	43.930
447.55	44.154
447.91	44.326
448.26	43.344
448.61	44.555
448.96	45.261
449.31	44.609
449.66	45.127
450.02	43.436
450.37	43.698
450.72	44.187
451.07	44.619
451.42	44.102
451.77	44.101
452.12	44.923
452.47	44.593
452.83	44.507
453.18	44.685
453.53	44.109
453.88	44.514
454.23	45.032
454.58	44.347
454.93	43.961
455.28	44.982
455.63	44.385
455.98	43.429
456.34	44.863
456.69	44.512
457.04	45.167
457.39	44.800
457.74	44.257
458.09	43.627
458.44	43.209
458.79	43.660
459.14	44.190
459.49	43.998
459.84	45.163
460.19	43.107
460.54	44.274
460.89	43.817
461.24	43.127
461.59	44.388
461.94	43.913
462.29	44.451
462.64	44.347
462.99	43.506
463.34	44.588
463.69	43.073
464.04	44.847
464.39	44.018
464.74	43.435
465.09	43.529
465.44	43.961
465.79	43.821
466.14	43.084
466.49	43.136
466.84	43.088
467.19	43.995
467.54	42.222
467.89	43.897
468.24	42.617
468.59	44.048
468.94	43.659
469.29	43.128
469.64	44.373
469.99	43.316
470.34	43.201
470.68	43.241
471.03	45.230
471.38	43.510
471.73	42.391
472.08	42.792
472.43	43.513
472.78	44.814
473.13	42.991
473.48	43.460
473.83	43.404
474.17	43.587
474.52	44.372
474.87	42.752
475.22	42.604
475.57	41.605
475.92	42.821
476.27	41.893
476.61	42.681
476.96	42.685
477.31	42.416
477.66	43.908
478.01	42.187
478.36	42.636
478.70	41.290
479.05	43.672
479.40	43.204
479.75	42.254
480.10	42.885
480.45	42.530
480.79	41.751
481.14	41.512
481.49	42.086
481.84	41.996
482.19	42.576
482.53	41.414
482.88	42.563
483.23	42.174
483.58	42.101
483.92	42.185
484.27	41.610
484.62	41.978
484.97	40.592
485.31	40.565
485.66	40.801
486.01	40.216
486.36	40.143
486.70	39.273
487.05	39.350
487.40	39.482
487.75	39.471
488.09	39.176
488.44	40.504
488.79	40.646
489.13	41.023
489.48	41.350
489.83	40.826
490.17	40.504
490.52	41.860
490.87	40.474
491.22	40.869
491.56	41.107
491.91	40.457
492.26	41.069
492.60	41.549
492.95	41.278
493.30	41.174
493.64	40.252
493.99	41.369
494.34	40.744
494.68	40.151
495.03	40.997
495.37	41.468
495.72	41.585
496.07	39.847
496.41	40.964
496.76	40.861
497.11	40.317
497.45	40.114
497.80	40.918
498.14	41.054
498.49	40.390
498.84	41.916
499.18	40.905
499.53	41.249
499.87	40.027
500.22	40.903
500.56	40.204
500.91	40.260
501.26	40.560
501.60	40.984
501.95	40.457
502.29	40.267
502.64	39.832
502.98	39.618
503.33	40.312
503.67	39.868
504.02	40.036
504.36	40.362
504.71	40.114
505.06	40.732
505.40	40.290
505.75	39.336
506.09	39.897
506.44	40.508
506.78	39.981
507.13	40.184
507.47	39.932
507.82	40.097
508.16	41.450
508.51	40.338
508.85	39.696
509.19	40.969
509.54	40.332
509.88	39.930
510.23	39.755
510.57	37.886
510.92	39.411
511.26	39.960
511.61	39.291
511.95	39.622
512.30	40.350
512.64	38.474
512.98	40.800
513.33	39.805
513.67	40.756
514.02	40.519
514.36	39.252
514.70	40.533
515.05	39.531
515.39	39.693
515.74	39.913
516.08	39.270
516.42	41.311
516.77	39.360
517.11	39.573
517.46	39.763
517.80	39.377
518.14	40.563
518.49	39.636
518.83	38.242
519.17	39.101
519.52	40.033
519.86	39.619
520.20	40.274
520.55	39.175
520.89	39.540
521.23	41.121
521.58	39.931
521.92	39.534
522.26	38.448
522.61	41.236
522.95	39.580
523.29	39.474
523.64	38.035
523.98	39.730
524.32	39.043
524.66	39.536
525.01	39.112
525.35	38.598
525.69	38.772
526.04	39.976
526.38	39.906
526.72	39.081
527.06	38.557
527.41	39.964
527.75	38.831
528.09	38.230
528.43	39.658
528.78	39.058
529.12	40.578
529.46	39.100
529.80	39.369
530.15	38.598
530.49	38.628
530.83	40.646
531.17	38.376
531.51	39.117
531.86	37.862
532.20	38.813
532.54	39.360
532.88	38.913
533.22	38.635
533.57	39.170
533.91	37.879
534.25	37.450
534.59	39.181
534.93	37.656
535.27	38.076
535.62	38.040
535.96	39.657
536.30	39.854
536.64	37.702
536.98	38.389
537.32	38.000
537.66	37.372
538.01	37.709
538.35	38.428
538.69	37.318
539.03	37.438
539.37	36.650
539.71	38.086
540.05	37.231
540.39	38.176
540.73	38.924
541.07	36.888
541.42	37.624
541.76	38.039
542.10	37.916
542.44	38.653
542.78	37.508
543.12	37.362
543.46	37.281
543.80	38.346
544.14	37.399
544.48	37.591
544.82	37.615
545.16	37.766
545.50	37.246
545.84	38.636
546.18	38.557
546.52	38.230
546.86	37.137
547.20	38.307
547.54	38.189
547.88	37.530
548.22	37.401
548.56	37.006
548.90	36.714
549.24	37.208
549.58	37.242
549.92	37.459
550.26	37.999
550.60	37.192
550.94	37.992
551.28	37.793
551.62	38.000
551.96	37.297
552.30	36.651
552.64	38.317
552.98	37.178
553.32	36.300
553.66	36.678
554.00	36.937
554.34	38.948
554.68	36.895
555.02	38.221
555.36	37.168
555.69	36.715
556.03	36.943
556.37	36.201
556.71	38.136
557.05	35.780
557.39	35.933
557.73	36.860
558.07	36.486
558.41	36.737
558.75	37.073
559.08	37.598
559.42	37.509
559.76	38.204
560.10	36.820
560.44	36.364
560.78	37.340
561.12	36.427
561.45	35.795
561.79	36.454
562.13	36.197
562.47	36.665
562.81	35.914
563.15	36.393
563.48	35.093
563.82	36.619
564.16	36.754
564.50	35.322
564.84	35.927
565.17	35.710
565.51	37.069
565.85	36.891
566.19	36.667
566.52	35.740
566.86	36.369
567.20	35.843
567.54	35.699
567.88	36.411
568.21	35.447
568.55	35.700
568.89	35.173
569.23	34.426
569.56	35.823
569.90	34.280
570.24	34.003
570.57	34.199
570.91	33.042
571.25	33.482
571.59	32.769
571.92	32.992
572.26	32.776
572.60	32.658
572.93	33.410
573.27	33.544
573.61	32.729
573.95	32.943
574.28	33.301
574.62	32.487
574.96	32.007
575.29	32.805
575.63	31.802
575.97	32.619
576.30	32.447
576.64	32.304
576.98	31.878
577.31	32.721
577.65	32.778
577.98	32.307
578.32	32.119
578.66	31.785
578.99	31.844
579.33	32.454
579.67	32.010
580.00	31.575
580.34	32.052
580.67	32.394
581.01	32.807
581.35	31.763
581.68	31.971
582.02	32.061
582.35	31.922
582.69	31.778
583.02	31.857
583.36	32.335
583.70	31.958
584.03	32.389
584.37	32.181
584.70	32.346
585.04	31.311
585.37	31.515
585.71	32.315
586.04	31.653
586.38	31.530
586.72	31.660
587.05	31.858
587.39	32.086
587.72	32.130
588.06	31.910
588.39	32.600
588.73	32.362
589.06	32.565
589.40	32.676
589.73	32.350
590.07	33.082
590.40	32.962
590.73	33.713
591.07	33.548
591.40	32.335
591.74	33.401
592.07	32.030
592.41	33.133
592.74	32.589
593.08	31.673
593.41	32.256
593.75	31.947
594.08	32.214
594.41	31.443
594.75	32.295
595.08	32.236
595.42	32.324
595.75	31.721
596.09	32.638
596.42	31.901
596.75	33.293
597.09	33.141
597.42	32.041
597.75	32.211
598.09	32.622
598.42	32.232
598.76	31.804
599.09	32.733
599.42	32.111
599.76	32.157
600.09	31.695
600.42	31.319
600.76	31.339
601.09	31.619
601.42	31.820
601.76	31.149
602.09	31.383
602.42	31.238
602.76	31.575
603.09	32.655
603.42	32.220
603.76	31.417
604.09	31.017
604.42	31.375
604.76	32.003
605.09	31.510
605.42	31.654
605.75	31.741
606.09	32.211
606.42	31.454
606.75	31.792
607.09	30.951
607.42	31.659
607.75	31.170
608.08	31.235
608.42	31.963
608.75	31.536
609.08	31.544
609.41	32.182
609.75	32.509
610.08	31.879
610.41	32.279
610.74	32.857
611.07	32.469
611.41	32.437
611.74	32.409
612.07	32.322
612.40	32.212
612.73	32.901
613.07	32.184
613.40	33.183
613.73	32.052
614.06	32.050
614.39	31.465
614.72	31.441
615.06	31.949
615.39	31.832
615.72	30.736
616.05	32.546
616.38	30.949
616.71	31.525
617.05	32.290
617.38	31.629
617.71	33.015
618.04	32.193
618.37	32.351
618.70	31.871
619.03	32.112
619.36	32.098
619.69	32.058
620.03	34.116
620.36	32.884
620.69	33.333
621.02	33.696
621.35	32.521
621.68	32.670
622.01	33.801
622.34	32.119
622.67	32.584
623.00	33.220
623.33	31.984
623.66	33.067
623.99	33.630
624.32	32.724
624.65	33.048
624.99	33.063
625.32	32.799
625.65	31.172
625.98	32.008
626.31	33.680
626.64	33.637
626.97	32.900
627.30	33.696
627.63	33.752
627.96	32.551
628.29	34.158
628.62	31.908
628.95	34.131
629.28	34.443
629.61	34.007
629.94	33.621
630.26	32.929
630.59	35.018
630.92	34.439
