SpectraSuite Data File
++++++++++++++++++++++++++++++++++++
Date: Tue May 12 16:25:44 PDT 2015
User: schluterlab
Dark Spectrum Present: Yes
Reference Spectrum Present: Yes
Number of Sampled Component Spectra: 1
Spectrometers: USB2E3373
Integration Time (usec): 3000 (USB2E3373)
Spectra Averaged: 3 (USB2E3373)
Boxcar Smoothing: 0 (USB2E3373)
Correct for Electrical Dark: No (USB2E3373)
Strobe/Lamp Enabled: No (USB2E3373)
Correct for Detector Non-linearity: No (USB2E3373)
Correct for Stray Light: No (USB2E3373)
Number of Pixels in Processed Spectrum: 2048
>>>>>Begin Processed Spectral Data<<<<<
178.53	0.000
178.91	-200.000
179.29	-675.000
179.67	-3700.000
180.04	-120.000
180.42	550.000
180.80	2000.000
181.18	0.000
181.56	-275.000
181.94	0.000
182.31	1233.333
182.69	-3100.000
183.07	528.571
183.45	-3400.000
183.83	-1300.000
184.20	380.000
184.58	542.857
184.96	-192.308
185.34	-141.667
185.72	1400.000
186.09	-750.000
186.47	-3200.000
186.85	1166.667
187.23	700.000
187.61	1550.000
187.98	512.500
188.36	314.286
188.74	283.333
189.12	316.667
189.49	925.000
189.87	0.000
190.25	625.000
190.63	2900.000
191.00	-208.333
191.38	-3300.000
191.76	-950.000
192.14	525.000
192.51	-2400.000
192.89	1500.000
193.27	833.333
193.65	-600.000
194.02	-540.000
194.40	442.857
194.78	-164.286
195.15	226.667
195.53	-3500.000
195.91	-480.000
196.29	4000.000
196.66	300.000
197.04	600.000
197.42	-1550.000
197.79	1000.000
198.17	275.000
198.55	0.000
198.92	514.286
199.30	1266.667
199.68	2350.000
200.05	700.000
200.43	-600.000
200.81	166.667
201.18	2600.000
201.56	316.667
201.94	-700.000
202.31	-300.000
202.69	-680.000
203.07	3400.000
203.44	-583.333
203.82	283.333
204.19	520.000
204.57	-900.000
204.95	-850.000
205.32	-720.000
205.70	483.333
206.08	850.000
206.45	-1133.333
206.83	344.444
207.20	226.316
207.58	366.667
207.96	820.000
208.33	0.000
208.71	614.286
209.08	780.000
209.46	-3900.000
209.84	-1075.000
210.21	780.000
210.59	-600.000
210.96	266.667
211.34	-875.000
211.71	390.909
212.09	950.000
212.46	1350.000
212.84	-316.667
213.22	522.222
213.59	-3900.000
213.97	300.000
214.34	875.000
214.72	1033.333
215.09	933.333
215.47	-3000.000
215.84	-350.000
216.22	-400.000
216.59	0.000
216.97	0.000
217.34	1250.000
217.72	-1650.000
218.09	1166.667
218.47	462.500
218.84	750.000
219.22	1066.667
219.59	1133.333
219.97	542.857
220.34	300.000
220.72	1800.000
221.09	3900.000
221.47	316.667
221.84	900.000
222.22	410.000
222.59	238.889
222.97	235.714
223.34	287.500
223.72	-1800.000
224.09	1333.333
224.46	330.769
224.84	-825.000
225.21	400.000
225.59	266.667
225.96	1466.667
226.34	-780.000
226.71	-450.000
227.08	-580.000
227.46	0.000
227.83	-516.667
228.21	-1400.000
228.58	383.333
228.95	1050.000
229.33	422.222
229.70	1050.000
230.08	376.923
230.45	3700.000
230.82	-725.000
231.20	-733.333
231.57	-733.333
231.95	580.000
232.32	266.667
232.69	550.000
233.07	341.667
233.44	-2000.000
233.81	306.667
234.19	192.593
234.56	268.750
234.93	241.176
235.31	220.000
235.68	250.000
236.05	164.286
236.43	185.185
236.80	378.571
237.17	162.069
237.55	187.500
237.92	135.000
238.29	154.545
238.67	137.500
239.04	153.659
239.41	93.750
239.79	122.500
240.16	87.500
240.53	88.525
240.91	86.957
241.28	100.000
241.65	83.333
242.02	94.366
242.40	91.429
242.77	70.330
243.14	70.886
243.51	86.869
243.89	79.439
244.26	57.944
244.63	80.198
245.00	71.560
245.38	63.559
245.75	63.636
246.12	74.074
246.49	69.504
246.87	65.574
247.24	69.333
247.61	66.250
247.98	72.789
248.36	61.212
248.73	58.673
249.10	61.905
249.47	58.500
249.84	59.701
250.22	71.351
250.59	60.000
250.96	57.806
251.33	62.791
251.70	54.911
252.08	57.143
252.45	50.996
252.82	53.232
253.19	55.336
253.56	51.154
253.94	51.449
254.31	54.264
254.68	56.794
255.05	54.483
255.42	52.920
255.79	52.769
256.16	53.898
256.54	53.571
256.91	51.961
257.28	55.184
257.65	48.276
258.02	49.558
258.39	51.576
258.76	55.362
259.14	47.714
259.51	50.146
259.88	51.976
260.25	53.022
260.62	51.507
260.99	50.138
261.36	52.089
261.73	52.660
262.10	53.927
262.47	48.500
262.85	52.533
263.22	51.928
263.59	47.570
263.96	53.634
264.33	47.407
264.70	52.580
265.07	50.976
265.44	51.376
265.81	52.830
266.18	50.801
266.55	50.591
266.92	49.888
267.29	49.561
267.66	48.206
268.03	48.206
268.40	48.203
268.77	50.661
269.14	48.373
269.51	47.439
269.88	47.551
270.25	44.060
270.62	49.356
270.99	49.493
271.36	49.797
271.73	47.589
272.10	44.646
272.47	46.429
272.84	45.309
273.21	46.488
273.58	47.773
273.95	45.996
274.32	46.887
274.69	48.228
275.06	45.173
275.43	45.594
275.80	45.660
276.17	46.140
276.54	47.664
276.91	48.881
277.28	43.796
277.65	46.494
278.02	46.507
278.39	43.165
278.76	46.207
279.13	44.484
279.50	46.182
279.87	43.762
280.23	47.330
280.60	47.993
280.97	44.310
281.34	43.399
281.71	44.522
282.08	45.641
282.45	44.088
282.82	44.983
283.19	44.038
283.56	43.140
283.92	45.114
284.29	42.429
284.66	41.849
285.03	44.444
285.40	41.818
285.77	43.364
286.14	41.486
286.51	42.485
286.87	42.880
287.24	42.943
287.61	41.793
287.98	41.642
288.35	40.593
288.72	41.123
289.08	39.339
289.45	41.768
289.82	40.625
290.19	40.556
290.56	38.282
290.93	40.719
291.29	40.331
291.66	38.418
292.03	38.008
292.40	38.618
292.77	38.162
293.13	37.946
293.50	35.223
293.87	35.637
294.24	37.762
294.60	35.666
294.97	37.483
295.34	37.981
295.71	36.794
296.08	35.867
296.44	36.086
296.81	35.732
297.18	33.460
297.55	35.345
297.91	33.867
298.28	33.454
298.65	33.620
299.02	34.620
299.38	34.532
299.75	33.049
300.12	33.028
300.48	33.958
300.85	32.896
301.22	35.000
301.59	33.726
301.95	30.572
302.32	32.247
302.69	32.240
303.05	34.905
303.42	31.390
303.79	31.528
304.15	32.123
304.52	31.818
304.89	31.770
305.25	32.258
305.62	33.689
305.99	29.457
306.35	32.211
306.72	31.426
307.09	31.884
307.45	29.989
307.82	31.276
308.19	31.649
308.55	30.500
308.92	32.188
309.29	32.249
309.65	30.823
310.02	31.744
310.38	31.206
310.75	30.955
311.12	31.130
311.48	32.336
311.85	31.489
312.22	31.328
312.58	30.515
312.95	31.359
313.31	31.929
313.68	32.552
314.05	32.875
314.41	32.682
314.78	33.049
315.14	32.701
315.51	33.491
315.87	32.847
316.24	33.147
316.61	33.751
316.97	33.761
317.34	34.861
317.70	36.260
318.07	35.854
318.43	34.886
318.80	36.953
319.16	35.927
319.53	35.221
319.89	36.470
320.26	40.130
320.62	37.546
320.99	36.988
321.35	38.312
321.72	40.607
322.08	39.797
322.45	39.873
322.81	40.073
323.18	40.142
323.54	42.160
323.91	42.883
324.27	42.352
324.64	42.734
325.00	44.914
325.37	45.110
325.73	45.531
326.10	46.230
326.46	46.491
326.83	44.720
327.19	47.229
327.56	46.805
327.92	49.016
328.29	51.309
328.65	51.027
329.01	51.069
329.38	50.338
329.74	51.494
330.11	51.434
330.47	53.879
330.84	51.337
331.20	53.215
331.56	52.850
331.93	53.550
332.29	53.316
332.66	55.102
333.02	52.234
333.38	54.276
333.75	52.877
334.11	53.859
334.48	55.128
334.84	54.223
335.20	55.689
335.57	53.904
335.93	53.911
336.29	54.312
336.66	56.518
337.02	54.149
337.38	54.600
337.75	57.179
338.11	55.612
338.47	56.393
338.84	56.224
339.20	55.844
339.56	55.929
339.93	55.686
340.29	55.378
340.65	55.742
341.02	56.396
341.38	56.404
341.74	57.641
342.11	56.845
342.47	57.014
342.83	56.604
343.20	57.154
343.56	54.964
343.92	57.473
344.28	56.938
344.65	58.761
345.01	55.635
345.37	56.811
345.73	57.063
346.10	55.618
346.46	57.337
346.82	55.941
347.19	57.651
347.55	56.753
347.91	57.024
348.27	57.552
348.63	58.544
349.00	55.674
349.36	58.210
349.72	58.486
350.08	58.385
350.45	57.959
350.81	58.486
351.17	59.091
351.53	57.968
351.89	57.110
352.26	56.387
352.62	57.768
352.98	59.202
353.34	58.860
353.70	57.492
354.07	57.231
354.43	58.602
354.79	57.707
355.15	59.265
355.51	60.121
355.87	58.961
356.24	59.507
356.60	58.219
356.96	59.666
357.32	59.382
357.68	58.003
358.04	60.030
358.40	59.070
358.77	61.082
359.13	60.435
359.49	60.119
359.85	59.270
360.21	58.915
360.57	60.000
360.93	59.957
361.29	59.957
361.66	61.223
362.02	61.009
362.38	60.534
362.74	59.236
363.10	61.571
363.46	59.530
363.82	62.482
364.18	60.526
364.54	62.876
364.90	62.048
365.26	62.457
365.62	62.638
365.98	61.046
366.35	60.897
366.71	61.554
367.07	61.433
367.43	62.861
367.79	61.636
368.15	62.890
368.51	62.578
368.87	63.043
369.23	63.756
369.59	63.385
369.95	63.427
370.31	62.765
370.67	64.261
371.03	64.146
371.39	63.643
371.75	63.294
372.11	63.902
372.47	64.658
372.83	65.058
373.19	63.811
373.55	63.574
373.91	64.572
374.27	63.823
374.63	64.339
374.99	64.286
375.35	64.583
375.71	65.369
376.07	64.721
376.42	64.386
376.78	66.153
377.14	66.252
377.50	64.856
377.86	66.047
378.22	64.839
378.58	65.617
378.94	66.144
379.30	65.676
379.66	66.406
380.02	65.396
380.38	65.222
380.74	66.609
381.09	66.005
381.45	65.087
381.81	66.726
382.17	67.033
382.53	66.527
382.89	65.760
383.25	67.259
383.61	65.706
383.97	67.606
384.32	67.812
384.68	68.330
385.04	66.061
385.40	66.429
385.76	67.349
386.12	67.471
386.48	67.112
386.83	68.582
387.19	67.609
387.55	67.962
387.91	66.917
388.27	69.244
388.62	66.843
388.98	66.939
389.34	68.531
389.70	66.450
390.06	68.780
390.42	66.872
390.77	67.383
391.13	67.592
391.49	67.090
391.85	66.892
392.20	67.700
392.56	68.459
392.92	66.648
393.28	67.152
393.64	67.718
393.99	67.813
394.35	67.275
394.71	67.431
395.07	68.127
395.42	68.033
395.78	70.204
396.14	69.157
396.50	68.351
396.85	68.537
397.21	68.051
397.57	68.858
397.92	67.187
398.28	67.237
398.64	69.168
399.00	68.680
399.35	68.223
399.71	68.764
400.07	67.466
400.42	67.881
400.78	67.801
401.14	68.761
401.49	68.779
401.85	68.946
402.21	68.190
402.57	68.941
402.92	69.636
403.28	66.826
403.63	66.686
403.99	67.973
404.35	67.468
404.70	68.872
405.06	67.771
405.42	69.180
405.77	67.365
406.13	66.649
406.49	67.140
406.84	68.472
407.20	69.349
407.55	68.800
407.91	69.177
408.27	68.890
408.62	69.545
408.98	68.125
409.34	66.978
409.69	66.708
410.05	67.621
410.40	67.138
410.76	66.342
411.11	67.950
411.47	67.469
411.83	66.432
412.18	67.512
412.54	67.147
412.89	67.375
413.25	68.187
413.60	67.815
413.96	67.923
414.31	67.414
414.67	68.281
415.03	67.305
415.38	67.697
415.74	68.983
416.09	67.645
416.45	68.003
416.80	68.698
417.16	67.473
417.51	67.962
417.87	68.586
418.22	68.773
418.58	68.981
418.93	67.817
419.29	68.084
419.64	68.443
420.00	68.198
420.35	69.164
420.71	68.845
421.06	68.158
421.42	68.394
421.77	69.684
422.12	68.467
422.48	68.053
422.83	68.638
423.19	68.521
423.54	67.636
423.90	68.800
424.25	69.400
424.61	69.008
424.96	69.113
425.31	68.199
425.67	70.314
426.02	69.153
426.38	69.662
426.73	70.156
427.09	70.996
427.44	69.837
427.79	70.669
428.15	71.420
428.50	70.514
428.85	70.958
429.21	69.476
429.56	68.445
429.92	68.473
430.27	69.182
430.62	68.527
430.98	69.711
431.33	69.607
431.68	68.099
432.04	69.891
432.39	70.801
432.74	70.667
433.10	70.930
433.45	71.970
433.80	72.973
434.16	71.098
434.51	70.898
434.86	71.475
435.22	72.339
435.57	72.792
435.92	71.258
436.28	72.062
436.63	71.043
436.98	72.860
437.34	71.005
437.69	70.493
438.04	70.753
438.39	72.096
438.75	71.047
439.10	70.966
439.45	70.548
439.81	73.048
440.16	71.326
440.51	72.354
440.86	72.650
441.22	70.671
441.57	72.021
441.92	70.681
442.27	71.856
442.63	71.646
442.98	71.067
443.33	71.398
443.68	71.026
444.03	72.290
444.39	71.987
444.74	71.325
445.09	73.407
445.44	70.988
445.79	72.758
446.15	71.368
446.50	71.888
446.85	72.161
447.20	71.343
447.55	73.736
447.91	71.337
448.26	71.938
448.61	72.637
448.96	74.020
449.31	72.662
449.66	71.595
450.02	70.989
450.37	72.793
450.72	73.719
451.07	72.193
451.42	73.385
451.77	72.967
452.12	71.072
452.47	71.871
452.83	73.465
453.18	73.453
453.53	74.600
453.88	72.686
454.23	73.911
454.58	73.135
454.93	71.429
455.28	72.338
455.63	73.463
455.98	72.081
456.34	73.556
456.69	75.183
457.04	72.673
457.39	72.343
457.74	72.804
458.09	71.757
458.44	71.249
458.79	72.573
459.14	71.686
459.49	71.065
459.84	72.989
460.19	71.864
460.54	71.111
460.89	72.281
461.24	70.389
461.59	72.222
461.94	71.868
462.29	71.739
462.64	72.802
462.99	72.681
463.34	72.521
463.69	72.716
464.04	72.251
464.39	70.750
464.74	71.864
465.09	71.097
465.44	71.110
465.79	70.876
466.14	69.740
466.49	70.700
466.84	70.680
467.19	72.115
467.54	70.030
467.89	72.183
468.24	72.496
468.59	70.833
468.94	72.101
469.29	71.533
469.64	71.383
469.99	71.144
470.34	71.664
470.68	71.379
471.03	73.115
471.38	72.848
471.73	71.587
472.08	73.059
472.43	72.874
472.78	70.935
473.13	71.402
473.48	72.005
473.83	71.555
474.17	71.672
474.52	70.557
474.87	70.381
475.22	70.588
475.57	70.672
475.92	70.925
476.27	68.825
476.61	70.617
476.96	70.899
477.31	71.517
477.66	70.853
478.01	70.242
478.36	70.803
478.70	70.323
479.05	71.600
479.40	70.585
479.75	71.251
480.10	70.184
480.45	71.195
480.79	68.618
481.14	69.995
481.49	69.259
481.84	70.361
482.19	69.825
482.53	69.346
482.88	70.072
483.23	69.463
483.58	69.973
483.92	70.567
484.27	70.077
484.62	69.270
484.97	67.589
485.31	67.876
485.66	66.131
486.01	64.472
486.36	64.471
486.70	63.932
487.05	64.731
487.40	66.382
487.75	66.520
488.09	66.790
488.44	67.878
488.79	67.928
489.13	68.384
489.48	68.718
489.83	68.098
490.17	67.382
490.52	69.121
490.87	68.405
491.22	70.213
491.56	68.819
491.91	69.265
492.26	68.998
492.60	69.932
492.95	68.691
493.30	69.245
493.64	69.272
493.99	68.739
494.34	68.669
494.68	68.747
495.03	69.376
495.37	68.528
495.72	69.417
496.07	68.374
496.41	68.288
496.76	68.679
497.11	68.209
497.45	68.610
497.80	69.555
498.14	68.423
498.49	68.431
498.84	69.299
499.18	67.962
499.53	68.810
499.87	67.880
500.22	69.507
500.56	68.942
500.91	69.852
501.26	68.902
501.60	69.035
501.95	69.041
502.29	68.400
502.64	67.358
502.98	67.852
503.33	68.731
503.67	67.594
504.02	67.801
504.36	67.149
504.71	69.442
505.06	69.263
505.40	69.864
505.75	67.680
506.09	68.455
506.44	68.938
506.78	68.856
507.13	69.656
507.47	68.268
507.82	69.246
508.16	70.162
508.51	68.116
508.85	68.376
509.19	69.261
509.54	70.117
509.88	68.523
510.23	69.657
510.57	68.243
510.92	70.380
511.26	70.030
511.61	68.144
511.95	68.890
512.30	68.850
512.64	69.626
512.98	69.349
513.33	69.570
513.67	69.394
514.02	69.922
514.36	69.938
514.70	70.133
515.05	70.698
515.39	71.053
515.74	72.553
516.08	71.187
516.42	72.623
516.77	71.733
517.11	71.093
517.46	70.097
517.80	71.983
518.14	72.620
518.49	70.562
518.83	71.154
519.17	71.547
519.52	72.146
519.86	72.153
520.20	71.616
520.55	71.170
520.89	71.782
521.23	71.846
521.58	71.429
521.92	73.061
522.26	72.334
522.61	73.797
522.95	72.132
523.29	72.573
523.64	72.139
523.98	72.829
524.32	72.318
524.66	72.696
525.01	72.367
525.35	72.422
525.69	74.353
526.04	73.349
526.38	72.925
526.72	71.659
527.06	71.674
527.41	74.002
527.75	73.463
528.09	73.390
528.43	72.788
528.78	73.643
529.12	74.533
529.46	71.245
529.80	72.021
530.15	71.715
530.49	72.864
530.83	73.126
531.17	73.801
531.51	73.145
531.86	72.222
532.20	72.744
532.54	73.697
532.88	73.704
533.22	73.065
533.57	74.741
533.91	71.154
534.25	71.437
534.59	72.456
534.93	71.559
535.27	70.575
535.62	71.587
535.96	71.690
536.30	73.492
536.64	73.540
536.98	73.191
537.32	73.875
537.66	72.704
538.01	73.994
538.35	74.423
538.69	71.238
539.03	72.139
539.37	72.209
539.71	73.642
540.05	73.231
540.39	74.088
540.73	73.354
541.07	72.898
541.42	72.512
541.76	72.626
542.10	72.935
542.44	73.878
542.78	73.820
543.12	72.577
543.46	72.431
543.80	74.311
544.14	73.003
544.48	72.324
544.82	72.844
545.16	71.585
545.50	72.096
545.84	73.169
546.18	76.073
546.52	74.623
546.86	72.598
547.20	72.868
547.54	72.641
547.88	72.141
548.22	73.710
548.56	72.658
548.90	70.937
549.24	72.457
549.58	74.034
549.92	74.394
550.26	75.930
550.60	75.183
550.94	75.848
551.28	75.172
551.62	75.724
551.96	73.446
552.30	72.643
552.64	74.693
552.98	73.260
553.32	73.431
553.66	73.420
554.00	73.810
554.34	74.234
554.68	74.395
555.02	74.745
555.36	73.471
555.69	74.542
556.03	72.484
556.37	73.486
556.71	74.772
557.05	73.132
557.39	74.867
557.73	74.326
558.07	74.313
558.41	74.229
558.75	74.419
559.08	75.768
559.42	75.018
559.76	76.835
560.10	74.880
560.44	72.595
560.78	75.767
561.12	74.444
561.45	73.279
561.79	73.658
562.13	73.026
562.47	74.951
562.81	75.862
563.15	73.368
563.48	72.360
563.82	73.175
564.16	73.507
564.50	72.212
564.84	73.191
565.17	71.301
565.51	75.000
565.85	74.213
566.19	71.607
566.52	72.924
566.86	73.847
567.20	71.742
567.54	72.271
567.88	73.187
568.21	69.646
568.55	70.623
568.89	69.434
569.23	68.982
569.56	70.048
569.90	67.589
570.24	67.394
570.57	67.002
570.91	66.646
571.25	66.429
571.59	65.849
571.92	64.397
572.26	64.205
572.60	65.371
572.93	65.354
573.27	64.991
573.61	64.591
573.95	64.442
574.28	64.954
574.62	63.717
574.96	63.517
575.29	62.984
575.63	63.675
575.97	63.169
576.30	63.225
576.64	64.048
576.98	64.244
577.31	64.927
577.65	63.453
577.98	62.594
578.32	62.193
578.66	63.666
578.99	63.205
579.33	64.321
579.67	63.974
580.00	64.114
580.34	64.394
580.67	63.490
581.01	63.792
581.35	63.009
581.68	62.640
582.02	62.371
582.35	63.008
582.69	63.033
583.02	62.989
583.36	64.396
583.70	64.653
584.03	66.170
584.37	65.573
584.70	65.066
585.04	64.216
585.37	63.819
585.71	65.124
586.04	63.984
586.38	64.975
586.72	64.505
587.05	64.977
587.39	65.259
587.72	65.333
588.06	65.408
588.39	65.558
588.73	65.241
589.06	66.064
589.40	66.886
589.73	66.634
590.07	68.806
590.40	67.770
590.73	68.821
591.07	68.767
591.40	68.383
591.74	68.425
592.07	67.221
592.41	68.665
592.74	67.814
593.08	66.374
593.41	66.098
593.75	65.037
594.08	66.954
594.41	66.471
594.75	66.815
595.08	67.695
595.42	66.820
595.75	67.029
596.09	68.335
596.42	67.480
596.75	69.671
597.09	68.634
597.42	68.041
597.75	68.073
598.09	67.419
598.42	67.279
598.76	67.001
599.09	68.444
599.42	66.574
599.76	67.469
600.09	66.576
600.42	65.988
600.76	67.539
601.09	67.518
601.42	66.631
601.76	68.099
602.09	68.102
602.42	66.433
602.76	67.704
603.09	68.477
603.42	68.000
603.76	67.607
604.09	68.657
604.42	68.249
604.76	67.918
605.09	68.408
605.42	68.184
605.75	66.917
606.09	67.406
606.42	67.644
606.75	67.470
607.09	67.114
607.42	67.376
607.75	68.033
608.08	67.953
608.42	69.253
608.75	68.335
609.08	68.104
609.41	70.364
609.75	70.604
610.08	69.649
610.41	68.775
610.74	68.831
611.07	70.168
611.41	70.297
611.74	70.363
612.07	69.750
612.40	71.442
612.73	69.795
613.07	71.161
613.40	70.777
613.73	71.792
614.06	69.300
614.39	70.253
614.72	70.065
615.06	70.326
615.39	69.604
615.72	70.039
616.05	70.718
616.38	69.762
616.71	70.320
617.05	71.170
617.38	72.303
617.71	71.991
618.04	72.855
618.37	71.429
618.70	72.748
619.03	72.589
619.36	73.304
619.69	73.747
620.03	74.951
620.36	74.053
620.69	73.883
621.02	75.000
621.35	73.997
621.68	75.442
622.01	75.941
622.34	75.965
622.67	75.702
623.00	73.179
623.33	75.034
623.66	73.919
623.99	75.548
624.32	73.916
624.65	73.206
624.99	75.592
625.32	73.480
625.65	73.034
625.98	74.547
626.31	76.780
626.64	75.475
626.97	76.588
627.30	76.630
627.63	78.022
627.96	75.509
628.29	78.630
628.62	78.700
628.95	79.433
629.28	80.543
629.61	79.525
629.94	79.170
630.26	77.470
630.59	78.280
630.92	78.655
631.25	77.516
