SpectraSuite Data File
++++++++++++++++++++++++++++++++++++
Date: Tue May 12 15:11:15 PDT 2015
User: schluterlab
Dark Spectrum Present: Yes
Reference Spectrum Present: Yes
Number of Sampled Component Spectra: 1
Spectrometers: USB2E3373
Integration Time (usec): 3000 (USB2E3373)
Spectra Averaged: 3 (USB2E3373)
Boxcar Smoothing: 0 (USB2E3373)
Correct for Electrical Dark: No (USB2E3373)
Strobe/Lamp Enabled: No (USB2E3373)
Correct for Detector Non-linearity: No (USB2E3373)
Correct for Stray Light: No (USB2E3373)
Number of Pixels in Processed Spectrum: 2048
>>>>>Begin Processed Spectral Data<<<<<
178.53	0.000
178.91	-191.667
179.29	-425.000
179.67	-2400.000
180.04	-60.000
180.42	300.000
180.80	850.000
181.18	0.000
181.56	-187.500
181.94	0.000
182.31	866.667
182.69	-2400.000
183.07	442.857
183.45	-2700.000
183.83	-1150.000
184.20	270.000
184.58	471.429
184.96	-192.308
185.34	-108.333
185.72	700.000
186.09	-300.000
186.47	-2200.000
186.85	733.333
187.23	400.000
187.61	1350.000
187.98	350.000
188.36	185.714
188.74	258.333
189.12	183.333
189.49	575.000
189.87	0.000
190.25	362.500
190.63	2100.000
191.00	-116.667
191.38	-2700.000
191.76	-525.000
192.14	387.500
192.51	-1300.000
192.89	1050.000
193.27	733.333
193.65	-733.333
194.02	-520.000
194.40	442.857
194.78	-78.571
195.15	206.667
195.53	-1400.000
195.91	-480.000
196.29	2400.000
196.66	162.500
197.04	450.000
197.42	-950.000
197.79	250.000
198.17	241.667
198.55	0.000
198.92	357.143
199.30	666.667
199.68	1350.000
200.05	500.000
200.43	-283.333
200.81	161.111
201.18	1300.000
201.56	141.667
201.94	-625.000
202.31	-212.500
202.69	-320.000
203.07	2200.000
203.44	-283.333
203.82	150.000
204.19	340.000
204.57	-1050.000
204.95	-575.000
205.32	-500.000
205.70	416.667
206.08	700.000
206.45	-566.667
206.83	355.556
207.20	142.105
207.58	183.333
207.96	640.000
208.33	0.000
208.71	485.714
209.08	520.000
209.46	-3000.000
209.84	-425.000
210.21	500.000
210.59	-380.000
210.96	166.667
211.34	-675.000
211.71	372.727
212.09	925.000
212.46	1200.000
212.84	-300.000
213.22	288.889
213.59	-1000.000
213.97	240.000
214.34	600.000
214.72	866.667
215.09	800.000
215.47	-2100.000
215.84	-260.000
216.22	-212.500
216.59	0.000
216.97	0.000
217.34	1150.000
217.72	-1250.000
218.09	766.667
218.47	362.500
218.84	625.000
219.22	533.333
219.59	966.667
219.97	442.857
220.34	166.667
220.72	750.000
221.09	2300.000
221.47	225.000
221.84	800.000
222.22	190.000
222.59	194.444
222.97	178.571
223.34	93.750
223.72	-1150.000
224.09	800.000
224.46	253.846
224.84	-475.000
225.21	322.222
225.59	193.333
225.96	1100.000
226.34	-380.000
226.71	-375.000
227.08	-420.000
227.46	0.000
227.83	-183.333
228.21	-1500.000
228.58	258.333
228.95	625.000
229.33	311.111
229.70	675.000
230.08	223.077
230.45	1800.000
230.82	-525.000
231.20	-733.333
231.57	-700.000
231.95	400.000
232.32	241.667
232.69	433.333
233.07	200.000
233.44	-750.000
233.81	146.667
234.19	140.741
234.56	137.500
234.93	117.647
235.31	155.000
235.68	175.000
236.05	153.571
236.43	140.741
236.80	192.857
237.17	137.931
237.55	87.500
237.92	120.000
238.29	121.212
238.67	137.500
239.04	82.927
239.41	87.500
239.79	65.000
240.16	89.583
240.53	75.410
240.91	65.217
241.28	59.322
241.65	72.727
242.02	81.690
242.40	91.429
242.77	72.527
243.14	63.291
243.51	70.707
243.89	43.925
244.26	59.813
244.63	60.396
245.00	55.046
245.38	60.169
245.75	51.515
246.12	62.963
246.49	58.156
246.87	54.098
247.24	57.333
247.61	58.125
247.98	52.381
248.36	53.333
248.73	47.959
249.10	51.190
249.47	49.000
249.84	47.761
250.22	48.649
250.59	50.000
250.96	49.789
251.33	48.837
251.70	53.571
252.08	50.000
252.45	47.809
252.82	47.529
253.19	49.012
253.56	45.769
253.94	43.116
254.31	50.388
254.68	43.902
255.05	46.552
255.42	51.460
255.79	49.511
256.16	47.119
256.54	49.026
256.91	48.039
257.28	46.154
257.65	39.185
258.02	45.428
258.39	44.413
258.76	44.928
259.14	43.429
259.51	48.688
259.88	48.328
260.25	41.484
260.62	44.110
260.99	42.149
261.36	45.682
261.73	42.553
262.10	49.476
262.47	43.500
262.85	45.600
263.22	43.445
263.59	46.036
263.96	42.857
264.33	44.198
264.70	43.980
265.07	44.878
265.44	44.266
265.81	43.396
266.18	43.478
266.55	44.208
266.92	44.072
267.29	44.956
267.66	45.067
268.03	43.946
268.40	41.860
268.77	44.493
269.14	40.781
269.51	43.207
269.88	43.878
270.25	41.469
270.62	44.206
270.99	42.799
271.36	41.463
271.73	41.929
272.10	40.808
272.47	40.278
272.84	38.922
273.21	41.942
273.58	43.320
273.95	42.300
274.32	40.661
274.69	42.323
275.06	44.991
275.43	40.230
275.80	40.943
276.17	40.074
276.54	41.495
276.91	41.978
277.28	40.876
277.65	41.697
278.02	39.706
278.39	41.187
278.76	40.172
279.13	40.569
279.50	41.818
279.87	41.155
280.23	39.042
280.60	43.066
280.97	40.690
281.34	40.264
281.71	40.174
282.08	41.880
282.45	39.527
282.82	41.806
283.19	38.633
283.56	37.355
283.92	40.717
284.29	40.100
284.66	39.664
285.03	40.962
285.40	37.521
285.77	38.272
286.14	40.093
286.51	39.264
286.87	37.975
287.24	34.985
287.61	37.690
287.98	38.209
288.35	36.889
288.72	38.240
289.08	38.138
289.45	36.585
289.82	39.844
290.19	37.042
290.56	38.865
290.93	37.986
291.29	36.326
291.66	35.452
292.03	36.466
292.40	35.366
292.77	36.908
293.13	35.235
293.50	34.413
293.87	33.469
294.24	36.224
294.60	34.455
294.97	36.364
295.34	35.060
295.71	34.428
296.08	33.467
296.44	36.722
296.81	32.258
297.18	32.700
297.55	33.621
297.91	30.911
298.28	32.609
298.65	32.515
299.02	33.052
299.38	32.614
299.75	34.390
300.12	32.454
300.48	34.192
300.85	33.850
301.22	31.512
301.59	31.368
301.95	32.322
302.32	32.480
302.69	32.240
303.05	34.231
303.42	30.493
303.79	32.286
304.15	33.553
304.52	31.818
304.89	33.049
305.25	31.257
305.62	33.582
305.99	31.304
306.35	32.421
306.72	31.634
307.09	32.919
307.45	33.685
307.82	32.407
308.19	34.330
308.55	31.600
308.92	34.053
309.29	34.221
309.65	32.805
310.02	33.367
310.38	34.098
310.75	33.269
311.12	32.663
311.48	33.977
311.85	34.065
312.22	33.620
312.58	33.916
312.95	34.272
313.31	34.176
313.68	34.146
314.05	34.524
314.41	33.426
314.78	34.564
315.14	36.398
315.51	35.478
315.87	34.580
316.24	35.574
316.61	35.184
316.97	35.138
317.34	37.646
317.70	36.348
318.07	36.833
318.43	36.292
318.80	37.478
319.16	36.626
319.53	37.080
319.89	37.097
320.26	37.709
320.62	37.637
320.99	37.750
321.35	39.147
321.72	38.994
322.08	38.596
322.45	39.055
322.81	39.433
323.18	39.609
323.54	39.721
323.91	41.523
324.27	41.291
324.64	41.003
325.00	41.293
325.37	42.664
325.73	41.737
326.10	43.993
326.46	42.609
326.83	42.240
327.19	44.257
327.56	44.569
327.92	45.000
328.29	44.435
328.65	44.521
329.01	44.825
329.38	44.078
329.74	44.492
330.11	44.483
330.47	45.780
330.84	44.435
331.20	45.854
331.56	45.423
331.93	45.766
332.29	44.983
332.66	47.619
333.02	43.900
333.38	46.248
333.75	46.956
334.11	45.805
334.48	46.581
334.84	44.595
335.20	46.193
335.57	45.760
335.93	46.678
336.29	45.274
336.66	46.312
337.02	45.167
337.38	45.142
337.75	46.368
338.11	45.401
338.47	46.147
338.84	44.962
339.20	45.714
339.56	45.164
339.93	45.569
340.29	43.950
340.65	45.516
341.02	45.857
341.38	45.813
341.74	46.262
342.11	46.661
342.47	46.185
342.83	45.775
343.20	45.271
343.56	43.844
343.92	45.995
344.28	44.817
344.65	47.514
345.01	45.794
345.37	46.474
345.73	46.190
346.10	45.339
346.46	46.810
346.82	45.910
347.19	45.672
347.55	44.731
347.91	44.940
348.27	44.694
348.63	45.886
349.00	46.002
349.36	48.171
349.72	46.254
350.08	45.807
350.45	47.601
350.81	46.407
351.17	45.840
351.53	46.420
351.89	45.532
352.26	47.241
352.62	45.777
352.98	46.626
353.34	47.535
353.70	44.878
354.07	46.692
354.43	46.467
354.79	45.938
355.15	47.167
355.51	47.054
355.87	46.536
356.24	47.883
356.60	46.043
356.96	46.702
357.32	47.928
357.68	46.696
358.04	48.328
358.40	46.252
358.77	48.234
359.13	47.748
359.49	47.072
359.85	46.463
360.21	45.840
360.57	47.883
360.93	47.042
361.29	48.196
361.66	48.695
362.02	46.520
362.38	48.268
362.74	48.125
363.10	49.509
363.46	47.997
363.82	49.860
364.18	47.084
364.54	49.356
364.90	47.590
365.26	48.439
365.62	48.826
365.98	48.245
366.35	49.241
366.71	51.214
367.07	48.601
367.43	49.496
367.79	48.471
368.15	49.118
368.51	50.034
368.87	48.981
369.23	49.272
369.59	47.674
369.95	49.441
370.31	48.597
370.67	48.786
371.03	49.580
371.39	50.693
371.75	49.686
372.11	49.558
372.47	49.863
372.83	49.830
373.19	50.720
373.55	50.309
373.91	48.550
374.27	50.992
374.63	48.881
374.99	50.337
375.35	51.075
375.71	50.858
376.07	51.194
376.42	49.361
376.78	50.803
377.14	50.983
377.50	49.563
377.86	50.673
378.22	51.005
378.58	51.574
378.94	52.323
379.30	50.940
379.66	53.161
380.02	52.551
380.38	50.937
380.74	52.191
381.09	51.928
381.45	52.023
381.81	52.837
382.17	52.259
382.53	51.290
382.89	51.981
383.25	52.516
383.61	51.643
383.97	51.950
384.32	53.104
384.68	52.941
385.04	52.521
385.40	52.076
385.76	52.019
386.12	51.824
386.48	52.948
386.83	54.034
387.19	51.413
387.55	53.121
387.91	53.811
388.27	52.469
388.62	52.171
388.98	52.245
389.34	52.350
389.70	53.184
390.06	53.232
390.42	53.177
390.77	53.870
391.13	54.737
391.49	53.297
391.85	54.031
392.20	54.172
392.56	54.480
392.92	54.071
393.28	53.868
393.64	53.096
393.99	53.823
394.35	54.091
394.71	53.559
395.07	54.684
395.42	54.098
395.78	54.658
396.14	55.301
396.50	53.911
396.85	53.659
397.21	54.392
397.57	52.839
397.92	54.362
398.28	53.999
398.64	53.810
399.00	53.127
399.35	54.267
399.71	53.201
400.07	53.425
400.42	53.910
400.78	53.900
401.14	54.316
401.49	54.608
401.85	54.056
402.21	53.603
402.57	54.339
402.92	54.182
403.28	53.580
403.63	53.443
403.99	53.860
404.35	53.693
404.70	56.113
405.06	54.183
405.42	54.159
405.77	54.245
406.13	53.688
406.49	53.667
406.84	52.735
407.20	54.167
407.55	54.708
407.91	54.946
408.27	54.882
408.62	54.938
408.98	55.766
409.34	54.120
409.69	54.076
410.05	52.773
410.40	53.357
410.76	53.062
411.11	53.969
411.47	54.012
411.83	52.841
412.18	54.227
412.54	53.393
412.89	53.746
413.25	53.478
413.60	53.388
413.96	54.997
414.31	53.247
414.67	54.749
415.03	54.342
415.38	53.943
415.74	55.780
416.09	55.340
416.45	55.785
416.80	56.318
417.16	53.151
417.51	54.140
417.87	54.631
418.22	54.739
418.58	55.032
418.93	53.956
419.29	55.022
419.64	54.694
420.00	55.012
420.35	55.575
420.71	54.901
421.06	54.385
421.42	55.095
421.77	56.247
422.12	55.017
422.48	53.416
422.83	54.688
423.19	54.320
423.54	53.867
423.90	54.700
424.25	56.577
424.61	54.324
424.96	55.280
425.31	54.899
425.67	56.622
426.02	54.739
426.38	55.368
426.73	55.466
427.09	55.753
427.44	55.205
427.79	55.289
428.15	55.922
428.50	56.571
428.85	56.790
429.21	54.943
429.56	54.786
429.92	56.340
430.27	55.443
430.62	54.332
430.98	54.691
431.33	55.192
431.68	54.914
432.04	55.199
432.39	56.257
432.74	56.440
433.10	56.921
433.45	57.036
433.80	56.757
434.16	55.964
434.51	55.005
434.86	55.743
435.22	56.942
435.57	55.898
435.92	56.858
436.28	57.028
436.63	56.726
436.98	57.264
437.34	56.279
437.69	55.263
438.04	57.204
438.39	56.801
438.75	56.737
439.10	57.744
439.45	56.925
439.81	58.415
440.16	57.843
440.51	56.363
440.86	57.721
441.22	56.385
441.57	57.480
441.92	57.404
442.27	56.649
442.63	57.368
442.98	57.004
443.33	56.776
443.68	57.445
444.03	56.833
444.39	56.262
444.74	56.832
445.09	56.977
445.44	57.598
445.79	57.749
446.15	56.947
446.50	56.382
446.85	58.217
447.20	56.468
447.55	58.293
447.91	56.846
448.26	56.550
448.61	57.767
448.96	59.150
449.31	58.471
449.66	58.749
450.02	57.050
450.37	57.801
450.72	58.402
451.07	57.417
451.42	57.676
451.77	57.388
452.12	56.608
452.47	57.837
452.83	57.746
453.18	57.658
453.53	59.266
453.88	58.971
454.23	57.931
454.58	58.800
454.93	58.246
455.28	59.058
455.63	58.333
455.98	56.909
456.34	59.514
456.69	59.390
457.04	59.487
457.39	59.314
457.74	58.277
458.09	58.843
458.44	58.269
458.79	58.408
459.14	58.047
459.49	59.173
459.84	58.478
460.19	57.571
460.54	58.746
460.89	58.262
461.24	58.305
461.59	58.163
461.94	57.624
462.29	58.295
462.64	58.982
462.99	58.925
463.34	59.170
463.69	59.831
464.04	59.988
464.39	57.584
464.74	57.386
465.09	58.154
465.44	59.086
465.79	57.594
466.14	55.644
466.49	58.220
466.84	56.800
467.19	57.704
467.54	59.039
467.89	58.451
468.24	58.020
468.59	57.857
468.94	59.420
469.29	59.194
469.64	58.778
469.99	58.740
470.34	58.381
470.68	58.552
471.03	59.239
471.38	59.338
471.73	57.936
472.08	59.426
472.43	58.970
472.78	59.859
473.13	58.198
473.48	59.046
473.83	58.009
474.17	59.392
474.52	57.938
474.87	58.272
475.22	58.538
475.57	57.660
475.92	57.128
476.27	57.617
476.61	58.123
476.96	58.046
477.31	60.206
477.66	59.742
478.01	58.690
478.36	57.261
478.70	56.526
479.05	58.630
479.40	57.292
479.75	57.795
480.10	58.325
480.45	56.443
480.79	56.636
481.14	57.156
481.49	56.496
481.84	57.344
482.19	56.987
482.53	57.312
482.88	57.796
483.23	57.149
483.58	57.181
483.92	57.952
484.27	57.021
484.62	57.937
484.97	56.097
485.31	56.191
485.66	54.955
486.01	52.902
486.36	51.794
486.70	51.274
487.05	51.655
487.40	52.849
487.75	53.994
488.09	54.489
488.44	54.971
488.79	55.745
489.13	56.551
489.48	57.411
489.83	55.922
490.17	55.945
490.52	57.494
490.87	56.164
491.22	57.624
491.56	56.434
491.91	57.392
492.26	56.659
492.60	58.223
492.95	56.185
493.30	56.506
493.64	57.053
493.99	56.261
494.34	56.746
494.68	56.839
495.03	57.162
495.37	56.911
495.72	57.016
496.07	56.514
496.41	56.125
496.76	56.733
497.11	56.684
497.45	55.502
497.80	56.766
498.14	56.912
498.49	55.942
498.84	56.449
499.18	55.622
499.53	57.051
499.87	55.975
500.22	56.886
500.56	56.035
500.91	56.169
501.26	57.143
501.60	56.148
501.95	55.690
502.29	55.244
502.64	55.404
502.98	54.513
503.33	55.724
503.67	55.011
504.02	55.799
504.36	55.792
504.71	56.197
505.06	55.608
505.40	56.153
505.75	56.408
506.09	55.950
506.44	56.438
506.78	55.766
507.13	57.053
507.47	55.313
507.82	56.788
508.16	56.884
508.51	56.570
508.85	55.556
509.19	55.507
509.54	54.395
509.88	57.335
510.23	56.176
510.57	54.681
510.92	56.344
511.26	57.480
511.61	55.391
511.95	56.546
512.30	55.550
512.64	55.919
512.98	55.920
513.33	56.404
513.67	56.758
514.02	56.779
514.36	55.556
514.70	56.640
515.05	56.580
515.39	56.743
515.74	56.643
516.08	55.773
516.42	58.251
516.77	56.213
517.11	56.107
517.46	55.765
517.80	55.543
518.14	56.620
518.49	56.395
518.83	55.110
519.17	56.794
519.52	57.892
519.86	55.531
520.20	56.438
520.55	55.851
520.89	56.034
521.23	57.769
521.58	55.135
521.92	55.977
522.26	56.635
522.61	56.387
522.95	56.877
523.29	56.608
523.64	55.896
523.98	55.810
524.32	55.306
524.66	55.884
525.01	55.680
525.35	55.804
525.69	55.930
526.04	56.157
526.38	55.739
526.72	54.773
527.06	54.760
527.41	56.711
527.75	56.056
528.09	55.087
528.43	56.010
528.78	54.681
529.12	56.051
529.46	53.828
529.80	54.147
530.15	53.742
530.49	54.212
530.83	56.673
531.17	55.043
531.51	54.506
531.86	54.227
532.20	55.192
532.54	55.367
532.88	55.840
533.22	54.662
533.57	55.278
533.91	53.089
534.25	52.510
534.59	53.626
534.93	54.152
535.27	50.256
535.62	52.100
535.96	53.428
536.30	53.748
536.64	52.671
536.98	53.052
537.32	54.000
537.66	53.125
538.01	52.446
538.35	53.525
538.69	52.670
539.03	52.674
539.37	52.124
539.71	52.654
540.05	52.246
540.39	52.390
540.73	53.418
541.07	52.008
541.42	53.047
541.76	52.774
542.10	52.466
542.44	52.681
542.78	52.863
543.12	51.534
543.46	52.193
543.80	51.692
544.14	52.136
544.48	51.399
544.82	51.254
545.16	51.123
545.50	51.567
545.84	52.083
546.18	53.901
546.52	52.131
546.86	52.805
547.20	52.326
547.54	50.855
547.88	51.156
548.22	51.366
548.56	50.619
548.90	50.652
549.24	51.674
549.58	51.160
549.92	51.277
550.26	52.874
550.60	51.697
550.94	53.189
551.28	51.931
551.62	52.966
551.96	50.946
552.30	49.637
552.64	50.874
552.98	49.807
553.32	49.552
553.66	50.098
554.00	50.644
554.34	52.330
554.68	52.352
555.02	51.663
555.36	49.867
555.69	50.524
556.03	50.064
556.37	49.586
556.71	49.478
557.05	49.869
557.39	49.667
557.73	50.943
558.07	50.570
558.41	50.720
558.75	51.026
559.08	51.823
559.42	52.684
559.76	50.820
560.10	48.589
560.44	48.839
560.78	49.936
561.12	49.396
561.45	49.374
561.79	48.065
562.13	48.831
562.47	48.994
562.81	48.276
563.15	49.257
563.48	46.522
563.82	50.156
564.16	48.197
564.50	47.498
564.84	48.693
565.17	47.356
565.51	47.845
565.85	47.193
566.19	47.024
566.52	47.714
566.86	47.869
567.20	47.697
567.54	46.834
567.88	46.531
568.21	45.781
568.55	44.796
568.89	44.891
569.23	44.866
569.56	44.529
569.90	42.652
570.24	42.283
570.57	42.018
570.91	41.466
571.25	41.281
571.59	40.694
571.92	41.200
572.26	40.809
572.60	41.822
572.93	41.144
573.27	41.097
573.61	40.904
573.95	40.339
574.28	40.572
574.62	39.846
574.96	39.760
575.29	39.235
575.63	40.094
575.97	39.752
576.30	39.838
576.64	39.990
576.98	39.238
577.31	39.597
577.65	39.317
577.98	38.888
578.32	38.934
578.66	38.316
578.99	38.599
579.33	39.084
579.67	38.911
580.00	39.303
580.34	39.048
580.67	38.904
581.01	39.039
581.35	38.998
581.68	38.463
582.02	37.963
582.35	37.728
582.69	37.715
583.02	37.908
583.36	38.494
583.70	39.198
584.03	39.349
584.37	39.273
584.70	38.666
585.04	38.163
585.37	38.097
585.71	38.742
586.04	38.006
586.38	38.808
586.72	38.662
587.05	38.986
587.39	38.230
587.72	38.009
588.06	38.614
588.39	38.460
588.73	38.899
589.06	39.451
589.40	39.562
589.73	39.167
590.07	39.808
590.40	39.721
590.73	41.021
591.07	40.304
591.40	39.601
591.74	39.935
592.07	40.349
592.41	40.168
592.74	39.619
593.08	38.932
593.41	38.300
593.75	37.980
594.08	38.158
594.41	38.710
594.75	39.075
595.08	39.232
595.42	38.940
595.75	38.631
596.09	39.381
596.42	38.602
596.75	39.463
597.09	40.446
597.42	39.510
597.75	39.635
598.09	39.475
598.42	39.412
598.76	38.743
599.09	39.095
599.42	37.578
599.76	38.161
600.09	37.424
600.42	38.225
600.76	38.477
601.09	38.419
601.42	37.733
601.76	39.277
602.09	38.705
602.42	38.115
602.76	38.140
603.09	39.404
603.42	38.092
603.76	38.467
604.09	37.821
604.42	37.589
604.76	38.246
605.09	38.327
605.42	38.683
605.75	39.124
606.09	37.911
606.42	37.317
606.75	38.554
607.09	38.058
607.42	37.766
607.75	38.217
608.08	38.424
608.42	38.758
608.75	38.169
609.08	38.231
609.41	39.409
609.75	38.874
610.08	37.950
610.41	37.549
610.74	38.398
611.07	38.518
611.41	38.971
611.74	38.815
612.07	38.632
612.40	38.938
612.73	39.291
613.07	39.432
613.40	39.048
613.73	39.091
614.06	37.600
614.39	38.990
614.72	38.925
615.06	37.784
615.39	38.416
615.72	38.625
616.05	38.222
616.38	38.762
616.71	38.361
617.05	38.221
617.38	38.539
617.71	39.651
618.04	39.260
618.37	39.466
618.70	38.337
619.03	39.499
619.36	40.766
619.69	39.446
620.03	41.357
620.36	40.462
620.69	39.591
621.02	41.101
621.35	41.046
621.68	41.962
622.01	41.328
622.34	40.277
622.67	41.152
623.00	39.959
623.33	41.161
623.66	39.188
623.99	40.548
624.32	39.770
624.65	40.882
624.99	40.500
625.32	39.412
625.65	37.862
625.98	39.540
626.31	40.579
626.64	40.926
626.97	40.704
627.30	41.071
627.63	40.816
627.96	40.376
628.29	40.842
628.62	41.232
628.95	42.819
629.28	43.383
629.61	41.740
629.94	42.610
630.26	42.461
630.59	41.667
630.92	41.973
631.25	41.886
631.58	43.202
