SpectraSuite Data File
++++++++++++++++++++++++++++++++++++
Date: Tue May 12 16:06:02 PDT 2015
User: schluterlab
Dark Spectrum Present: Yes
Reference Spectrum Present: Yes
Number of Sampled Component Spectra: 1
Spectrometers: USB2E3373
Integration Time (usec): 3000 (USB2E3373)
Spectra Averaged: 3 (USB2E3373)
Boxcar Smoothing: 0 (USB2E3373)
Correct for Electrical Dark: No (USB2E3373)
Strobe/Lamp Enabled: No (USB2E3373)
Correct for Detector Non-linearity: No (USB2E3373)
Correct for Stray Light: No (USB2E3373)
Number of Pixels in Processed Spectrum: 2048
>>>>>Begin Processed Spectral Data<<<<<
178.53	0.000
178.91	-266.667
179.29	-725.000
179.67	-3900.000
180.04	-186.667
180.42	875.000
180.80	1550.000
181.18	0.000
181.56	-262.500
181.94	0.000
182.31	1166.667
182.69	-3300.000
183.07	628.571
183.45	-3900.000
183.83	-1700.000
184.20	410.000
184.58	557.143
184.96	-238.462
185.34	-233.333
185.72	1950.000
186.09	-875.000
186.47	-2400.000
186.85	1233.333
187.23	660.000
187.61	1850.000
187.98	362.500
188.36	328.571
188.74	341.667
189.12	366.667
189.49	850.000
189.87	0.000
190.25	487.500
190.63	2900.000
191.00	-241.667
191.38	-4600.000
191.76	-1000.000
192.14	637.500
192.51	-2000.000
192.89	2000.000
193.27	933.333
193.65	-1233.333
194.02	-740.000
194.40	571.429
194.78	-214.286
195.15	360.000
195.53	-2900.000
195.91	-700.000
196.29	4600.000
196.66	275.000
197.04	825.000
197.42	-800.000
197.79	525.000
198.17	341.667
198.55	0.000
198.92	500.000
199.30	1233.333
199.68	2000.000
200.05	633.333
200.43	-533.333
200.81	216.667
201.18	3900.000
201.56	333.333
201.94	-950.000
202.31	-262.500
202.69	-480.000
203.07	3800.000
203.44	-616.667
203.82	408.333
204.19	640.000
204.57	-1300.000
204.95	-825.000
205.32	-900.000
205.70	633.333
206.08	925.000
206.45	-933.333
206.83	444.444
207.20	215.789
207.58	341.667
207.96	820.000
208.33	0.000
208.71	585.714
209.08	780.000
209.46	-3700.000
209.84	-650.000
210.21	1000.000
210.59	-720.000
210.96	308.333
211.34	-1100.000
211.71	445.455
212.09	975.000
212.46	2200.000
212.84	-316.667
213.22	477.778
213.59	-2800.000
213.97	350.000
214.34	850.000
214.72	1300.000
215.09	1300.000
215.47	-3300.000
215.84	-290.000
216.22	-412.500
216.59	0.000
216.97	0.000
217.34	1900.000
217.72	-1500.000
218.09	1333.333
218.47	500.000
218.84	1025.000
219.22	1000.000
219.59	833.333
219.97	671.429
220.34	444.444
220.72	1700.000
221.09	3600.000
221.47	283.333
221.84	1100.000
222.22	370.000
222.59	238.889
222.97	292.857
223.34	262.500
223.72	-1950.000
224.09	1366.667
224.46	276.923
224.84	-800.000
225.21	400.000
225.59	333.333
225.96	1533.333
226.34	-1060.000
226.71	-650.000
227.08	-580.000
227.46	0.000
227.83	-500.000
228.21	-1800.000
228.58	416.667
228.95	1325.000
229.33	411.111
229.70	975.000
230.08	384.615
230.45	3900.000
230.82	-925.000
231.20	-1133.333
231.57	-1266.667
231.95	620.000
232.32	358.333
232.69	616.667
233.07	300.000
233.44	-1750.000
233.81	280.000
234.19	185.185
234.56	281.250
234.93	294.118
235.31	180.000
235.68	275.000
236.05	196.429
236.43	181.481
236.80	321.429
237.17	162.069
237.55	146.875
237.92	130.000
238.29	136.364
238.67	171.875
239.04	124.390
239.41	81.250
239.79	127.500
240.16	110.417
240.53	83.607
240.91	91.304
241.28	96.610
241.65	89.394
242.02	95.775
242.40	104.286
242.77	83.516
243.14	79.747
243.51	81.818
243.89	84.112
244.26	73.832
244.63	80.198
245.00	76.147
245.38	82.203
245.75	69.697
246.12	77.778
246.49	68.085
246.87	54.918
247.24	66.000
247.61	62.500
247.98	65.986
248.36	64.848
248.73	63.776
249.10	61.310
249.47	57.000
249.84	55.721
250.22	67.027
250.59	58.500
250.96	57.384
251.33	58.140
251.70	60.714
252.08	55.042
252.45	53.386
252.82	51.711
253.19	51.779
253.56	49.615
253.94	52.536
254.31	58.527
254.68	52.962
255.05	58.276
255.42	55.839
255.79	54.723
256.16	54.915
256.54	56.169
256.91	48.693
257.28	51.171
257.65	49.216
258.02	48.968
258.39	52.722
258.76	50.725
259.14	48.000
259.51	51.603
259.88	52.584
260.25	47.527
260.62	50.959
260.99	47.383
261.36	48.189
261.73	46.011
262.10	48.953
262.47	46.500
262.85	46.133
263.22	50.129
263.59	50.639
263.96	50.125
264.33	45.679
264.70	47.666
265.07	47.073
265.44	46.330
265.81	46.462
266.18	47.368
266.55	46.099
266.92	46.980
267.29	48.465
267.66	46.413
268.03	47.758
268.40	46.512
268.77	50.000
269.14	46.638
269.51	46.771
269.88	46.531
270.25	42.765
270.62	47.425
270.99	45.842
271.36	46.748
271.73	45.912
272.10	46.667
272.47	44.048
272.84	43.912
273.21	44.008
273.58	46.964
273.95	45.175
274.32	45.720
274.69	49.016
275.06	44.627
275.43	46.169
275.80	45.472
276.17	43.934
276.54	45.047
276.91	47.761
277.28	45.620
277.65	44.834
278.02	45.221
278.39	45.863
278.76	45.000
279.13	42.527
279.50	44.727
279.87	42.458
280.23	44.567
280.60	46.898
280.97	46.207
281.34	42.574
281.71	43.304
282.08	43.419
282.45	42.399
282.82	45.151
283.19	42.766
283.56	43.471
283.92	45.440
284.29	45.258
284.66	42.857
285.03	41.791
285.40	44.298
285.77	42.284
286.14	43.963
286.51	42.025
286.87	41.456
287.24	40.240
287.61	43.465
287.98	41.940
288.35	41.630
288.72	43.399
289.08	42.342
289.45	43.750
289.82	44.688
290.19	43.045
290.56	44.105
290.93	43.309
291.29	42.818
291.66	41.243
292.03	42.076
292.40	42.141
292.77	40.947
293.13	42.796
293.50	41.565
293.87	39.973
294.24	41.678
294.60	43.876
294.97	44.476
295.34	41.700
295.71	41.393
296.08	41.200
296.44	40.788
296.81	40.323
297.18	41.191
297.55	42.488
297.91	40.640
298.28	40.821
298.65	42.577
299.02	40.531
299.38	40.767
299.75	39.756
300.12	41.628
300.48	41.803
300.85	43.504
301.22	41.279
301.59	41.509
301.95	42.007
302.32	41.909
302.69	42.081
303.05	42.312
303.42	40.695
303.79	42.579
304.15	43.014
304.52	41.649
304.89	43.284
305.25	43.715
305.62	43.070
305.99	41.957
306.35	43.263
306.72	42.456
307.09	42.443
307.45	42.239
307.82	41.872
308.19	43.814
308.55	42.700
308.92	44.259
309.29	44.477
309.65	42.914
310.02	45.842
310.38	42.772
310.75	44.262
311.12	43.295
311.48	45.560
311.85	46.279
312.22	43.744
312.58	44.509
312.95	45.437
313.31	46.348
313.68	44.559
314.05	45.147
314.41	45.251
314.78	46.212
315.14	46.445
315.51	47.588
315.87	46.259
316.24	46.592
316.61	47.269
316.97	45.046
317.34	47.978
317.70	47.059
318.07	49.555
318.43	50.176
318.80	47.811
319.16	48.252
319.53	47.788
319.89	48.387
320.26	49.162
320.62	50.183
320.99	49.762
321.35	48.701
321.72	50.949
322.08	51.339
322.45	51.499
322.81	51.784
323.18	51.776
323.54	53.223
323.91	54.578
324.27	52.343
324.64	52.249
325.00	53.103
325.37	52.951
325.73	53.794
326.10	53.853
326.46	54.005
326.83	54.240
327.19	55.502
327.56	54.952
327.92	56.557
328.29	56.137
328.65	56.507
329.01	56.801
329.38	57.022
329.74	54.654
330.11	55.691
330.47	56.863
330.84	54.961
331.20	56.176
331.56	56.390
331.93	56.972
332.29	55.697
332.66	56.463
333.02	55.412
333.38	55.585
333.75	56.047
334.11	55.201
334.48	58.376
334.84	54.139
335.20	55.518
335.57	54.492
335.93	54.331
336.29	54.312
336.66	58.062
337.02	53.464
337.38	54.686
337.75	55.743
338.11	56.540
338.47	57.324
338.84	54.191
339.20	55.152
339.56	55.341
339.93	55.936
340.29	53.866
340.65	54.736
341.02	55.270
341.38	54.187
341.74	55.731
342.11	54.758
342.47	54.799
342.83	56.194
343.20	54.568
343.56	53.932
343.92	55.739
344.28	54.067
344.65	55.175
345.01	54.524
345.37	54.087
345.73	54.365
346.10	54.263
346.46	54.864
346.82	54.012
347.19	54.946
347.55	54.176
347.91	54.381
348.27	53.524
348.63	55.063
349.00	54.455
349.36	54.864
349.72	55.581
350.08	53.882
350.45	54.989
350.81	54.281
351.17	54.391
351.53	53.272
351.89	52.836
352.26	54.422
352.62	54.299
352.98	55.138
353.34	54.545
353.70	53.211
354.07	54.308
354.43	55.069
354.79	55.733
355.15	55.207
355.51	54.456
355.87	55.045
356.24	55.119
356.60	52.892
356.96	54.359
357.32	53.203
357.68	55.360
358.04	54.103
358.40	54.498
358.77	55.597
359.13	53.228
359.49	56.042
359.85	53.835
360.21	54.606
360.57	54.453
360.93	54.618
361.29	54.762
361.66	55.108
362.02	54.048
362.38	55.267
362.74	54.565
363.10	55.400
363.46	52.555
363.82	53.226
364.18	56.117
364.54	55.794
364.90	55.221
365.26	55.239
365.62	55.180
365.98	54.852
366.35	54.414
366.71	55.864
367.07	54.881
367.43	54.802
367.79	54.455
368.15	53.867
368.51	55.203
368.87	54.823
369.23	55.094
369.59	54.619
369.95	54.895
370.31	55.852
370.67	55.517
371.03	54.482
371.39	55.471
371.75	54.361
372.11	55.404
372.47	55.890
372.83	55.676
373.19	57.300
373.55	55.258
373.91	55.387
374.27	55.291
374.63	55.593
374.99	56.536
375.35	55.847
375.71	56.662
376.07	56.300
376.42	55.627
376.78	56.198
377.14	56.422
377.50	54.432
377.86	56.246
378.22	56.429
378.58	56.295
378.94	57.031
379.30	56.277
379.66	55.629
380.02	57.419
380.38	56.909
380.74	58.074
381.09	56.250
381.45	55.780
381.81	56.147
382.17	55.861
382.53	56.809
382.89	57.481
383.25	55.891
383.61	56.427
383.97	56.689
384.32	57.263
384.68	57.100
385.04	57.737
385.40	57.829
385.76	56.700
386.12	57.019
386.48	56.413
386.83	57.885
387.19	56.478
387.55	56.478
387.91	57.102
388.27	56.811
388.62	56.925
388.98	55.743
389.34	56.276
389.70	56.309
390.06	57.317
390.42	57.680
390.77	56.511
391.13	56.367
391.49	57.350
391.85	57.477
392.20	57.032
392.56	56.571
392.92	55.755
393.28	56.390
393.64	55.734
393.99	56.550
394.35	55.915
394.71	55.308
395.07	56.630
395.42	56.382
395.78	56.878
396.14	56.627
396.50	56.679
396.85	56.646
397.21	57.160
397.57	58.518
397.92	55.170
398.28	56.922
398.64	56.137
399.00	55.746
399.35	55.663
399.71	55.574
400.07	56.050
400.42	56.418
400.78	54.780
401.14	57.546
401.49	55.357
401.85	55.388
402.21	56.239
402.57	56.792
402.92	56.303
403.28	54.415
403.63	55.798
403.99	55.850
404.35	55.744
404.70	57.118
405.06	55.755
405.42	57.211
405.77	55.733
406.13	54.881
406.49	54.179
406.84	54.822
407.20	54.909
407.55	56.062
407.91	56.094
408.27	55.124
408.62	54.938
408.98	54.465
409.34	53.828
409.69	54.387
410.05	53.846
410.40	54.005
410.76	54.264
411.11	54.443
411.47	54.753
411.83	53.544
412.18	54.891
412.54	54.354
412.89	53.923
413.25	54.789
413.60	53.563
413.96	53.800
414.31	55.844
414.67	55.742
415.03	54.598
415.38	54.763
415.74	53.569
416.09	54.841
416.45	55.785
416.80	57.409
417.16	54.806
417.51	54.459
417.87	54.756
418.22	54.860
418.58	55.541
418.93	55.086
419.29	53.851
419.64	55.663
420.00	56.742
420.35	55.459
420.71	54.784
421.06	55.327
421.42	55.728
421.77	56.524
422.12	55.017
422.48	54.648
422.83	55.859
423.19	55.076
423.54	55.403
423.90	56.399
424.25	56.577
424.61	55.659
424.96	54.997
425.31	55.665
425.67	57.127
426.02	55.132
426.38	55.018
426.73	57.259
427.09	56.465
427.44	56.106
427.79	57.061
428.15	56.688
428.50	57.657
428.85	57.084
429.21	56.780
429.56	56.032
429.92	56.837
430.27	56.217
430.62	55.507
430.98	56.986
431.33	56.452
431.68	55.062
432.04	56.286
432.39	57.025
432.74	58.138
433.10	57.863
433.45	57.783
433.80	58.136
434.16	57.909
434.51	57.843
434.86	57.322
435.22	56.456
435.57	57.913
435.92	58.623
436.28	57.719
436.63	58.401
436.98	59.009
437.34	57.192
437.69	56.943
438.04	58.011
438.39	57.910
438.75	56.236
439.10	58.068
439.45	57.094
439.81	57.895
440.16	57.567
440.51	57.376
440.86	59.202
441.22	57.197
441.57	58.215
441.92	57.700
442.27	57.526
442.63	57.571
442.98	56.843
443.33	58.061
443.68	57.646
444.03	57.399
444.39	57.250
444.74	56.573
445.09	57.609
445.44	57.917
445.79	57.651
446.15	58.105
446.50	58.017
446.85	58.815
447.20	58.358
447.55	59.869
447.91	58.924
448.26	58.892
448.61	57.601
448.96	57.898
449.31	59.626
449.66	57.641
450.02	57.320
450.37	59.078
450.72	58.843
451.07	58.115
451.42	57.321
451.77	58.419
452.12	58.026
452.47	57.169
452.83	57.803
453.18	59.459
453.53	58.733
453.88	58.914
454.23	59.210
454.58	57.925
454.93	57.756
455.28	59.853
455.63	59.811
455.98	57.699
456.34	58.723
456.69	60.122
457.04	59.905
457.39	57.943
457.74	58.615
458.09	56.822
458.44	57.503
458.79	58.515
459.14	57.119
459.49	57.531
459.84	58.478
460.19	58.757
460.54	58.405
460.89	57.463
461.24	57.560
461.59	58.673
461.94	58.511
462.29	58.009
462.64	59.673
462.99	58.349
463.34	58.587
463.69	57.834
464.04	58.434
464.39	57.871
464.74	58.675
465.09	56.994
465.44	58.705
465.79	56.886
466.14	56.651
466.49	56.647
466.84	56.577
467.19	57.528
467.54	58.138
467.89	57.512
468.24	58.020
468.59	56.726
468.94	57.186
469.29	56.689
469.64	56.913
469.99	58.290
470.34	57.748
470.68	57.862
471.03	58.105
471.38	58.212
471.73	57.805
472.08	57.991
472.43	58.287
472.78	58.643
473.13	56.008
473.48	57.152
473.83	58.304
474.17	57.508
474.52	57.227
474.87	57.646
475.22	57.510
475.57	56.034
475.92	55.646
476.27	56.094
476.61	56.461
476.96	56.165
477.31	56.710
477.66	57.810
478.01	56.060
478.36	57.158
478.70	55.831
479.05	56.381
479.40	56.002
479.75	57.200
480.10	56.680
480.45	56.443
480.79	56.544
481.14	55.825
481.49	55.032
481.84	56.552
482.19	55.808
482.53	55.687
482.88	56.272
483.23	54.623
483.58	56.822
483.92	56.353
484.27	56.122
484.62	55.518
484.97	55.512
485.31	54.552
485.66	56.273
486.01	55.078
486.36	53.798
486.70	53.378
487.05	53.259
487.40	53.419
487.75	53.423
488.09	54.091
488.44	54.461
488.79	54.911
489.13	54.759
489.48	55.094
489.83	54.754
490.17	54.996
490.52	56.072
490.87	53.707
491.22	55.541
491.56	54.853
491.91	54.570
492.26	54.566
492.60	55.945
492.95	54.916
493.30	54.413
493.64	54.403
493.99	54.338
494.34	54.550
494.68	54.183
495.03	54.648
495.37	54.930
495.72	54.266
496.07	54.133
496.41	54.083
496.76	53.651
497.11	54.370
497.45	53.705
497.80	54.588
498.14	54.554
498.49	54.318
498.84	55.187
499.18	53.291
499.53	54.525
499.87	54.178
500.22	54.261
500.56	54.968
500.91	54.592
501.26	53.881
501.60	54.872
501.95	52.509
502.29	53.022
502.64	53.198
502.98	52.912
503.33	54.165
503.67	53.157
504.02	53.874
504.36	53.846
504.71	54.068
505.06	52.792
505.40	54.141
505.75	52.947
506.09	53.663
506.44	53.195
506.78	54.206
507.13	53.951
507.47	54.537
507.82	54.793
508.16	54.434
508.51	55.024
508.85	53.609
509.19	54.626
509.54	53.711
509.88	53.357
510.23	53.137
510.57	52.220
510.92	53.497
511.26	54.116
511.61	52.388
511.95	52.812
512.30	52.450
512.64	53.011
512.98	52.640
513.33	52.818
513.67	54.065
514.02	52.623
514.36	52.700
514.70	53.920
515.05	52.477
515.39	54.550
515.74	53.581
516.08	53.595
516.42	55.683
516.77	53.280
517.11	53.440
517.46	53.718
517.80	52.540
518.14	54.761
518.49	53.418
518.83	52.527
519.17	52.579
519.52	53.632
519.86	53.515
520.20	52.658
520.55	53.363
520.89	52.069
521.23	54.147
521.58	53.069
521.92	53.411
522.26	54.265
522.61	53.714
522.95	54.595
523.29	53.626
523.64	51.387
523.98	54.695
524.32	52.710
524.66	52.696
525.01	52.899
525.35	53.035
525.69	52.197
526.04	53.123
526.38	53.031
526.72	53.282
527.06	53.400
527.41	53.083
527.75	53.256
528.09	52.920
528.43	52.715
528.78	52.534
529.12	54.004
529.46	52.016
529.80	51.636
530.15	52.858
530.49	52.708
530.83	52.712
531.17	53.506
531.51	52.238
531.86	52.959
532.20	51.731
532.54	52.166
532.88	52.780
533.22	52.102
533.57	53.508
533.91	50.991
534.25	51.760
534.59	52.164
534.93	51.763
535.27	50.313
535.62	50.992
535.96	51.123
536.30	51.920
536.64	50.870
536.98	50.535
537.32	52.312
537.66	51.849
538.01	51.146
538.35	51.778
538.69	49.515
539.03	50.622
539.37	49.150
539.71	51.543
540.05	50.646
540.39	51.321
540.73	52.089
541.07	51.506
541.42	51.679
541.76	50.432
542.10	51.665
542.44	51.683
542.78	51.542
543.12	50.552
543.46	50.063
543.80	51.441
544.14	51.455
544.48	50.730
544.82	50.948
545.16	50.334
545.50	50.953
545.84	51.389
546.18	51.560
546.52	51.803
546.86	50.806
547.20	49.742
547.54	49.462
547.88	49.574
548.22	49.848
548.56	50.029
548.90	49.229
549.24	50.916
549.58	48.776
549.92	49.836
550.26	51.792
550.60	50.432
550.94	51.221
551.28	50.828
551.62	51.172
551.96	50.608
552.30	50.099
552.64	51.197
552.98	50.773
553.32	48.656
553.66	49.837
554.00	49.743
554.34	49.534
554.68	51.210
555.02	49.898
555.36	49.601
555.69	49.673
556.03	48.280
556.37	49.649
556.71	49.413
557.05	48.493
557.39	49.467
557.73	49.259
558.07	49.564
558.41	50.308
558.75	50.137
559.08	51.251
559.42	49.749
559.76	50.392
560.10	49.690
560.44	48.839
560.78	49.808
561.12	49.905
561.45	48.310
561.79	49.001
562.13	49.337
562.47	50.227
562.81	48.796
563.15	49.192
563.48	47.019
563.82	49.158
564.16	49.627
564.50	47.619
564.84	49.483
565.17	47.950
565.51	50.185
565.85	50.278
566.19	48.750
566.52	48.014
566.86	49.154
567.20	49.663
567.54	48.308
567.88	48.983
568.21	47.379
568.55	48.298
568.89	47.217
569.23	47.584
569.56	48.083
569.90	46.604
570.24	46.848
570.57	47.047
570.91	46.583
571.25	46.827
571.59	45.403
571.92	45.856
572.26	45.445
572.60	44.710
572.93	46.377
573.27	45.692
573.61	46.075
573.95	45.418
574.28	45.952
574.62	45.785
574.96	45.502
575.29	44.487
575.63	44.664
575.97	44.572
576.30	44.520
576.64	45.512
576.98	44.904
577.31	46.338
577.65	45.460
577.98	45.295
578.32	45.072
578.66	44.887
578.99	44.766
579.33	45.083
579.67	44.750
580.00	44.967
580.34	44.703
580.67	44.676
581.01	44.942
581.35	44.822
581.68	45.136
582.02	44.948
582.35	44.621
582.69	44.976
583.02	45.028
583.36	45.265
583.70	44.847
584.03	46.060
584.37	45.356
584.70	45.111
585.04	44.968
585.37	44.973
585.71	45.798
586.04	44.811
586.38	44.554
586.72	44.505
587.05	44.647
587.39	45.006
587.72	44.816
588.06	44.624
588.39	44.678
588.73	44.756
589.06	44.879
589.40	45.728
589.73	44.936
590.07	45.710
590.40	46.585
590.73	47.301
591.07	45.693
591.40	45.709
591.74	45.049
592.07	45.258
592.41	45.044
592.74	44.709
593.08	44.759
593.41	44.913
593.75	44.070
594.08	44.133
594.41	44.021
594.75	44.349
595.08	43.964
595.42	44.338
595.75	44.587
596.09	44.804
596.42	43.955
596.75	45.232
597.09	45.894
597.42	45.224
597.75	44.381
598.09	44.440
598.42	44.349
598.76	43.793
599.09	44.759
599.42	43.218
599.76	44.539
600.09	43.864
600.42	43.819
600.76	44.256
601.09	44.253
601.42	43.576
601.76	43.430
602.09	44.113
602.42	43.142
602.76	44.478
603.09	44.118
603.42	44.624
603.76	44.613
604.09	44.010
604.42	43.766
604.76	43.935
605.09	44.082
605.42	43.600
605.75	44.019
606.09	44.568
606.42	44.081
606.75	43.723
607.09	42.953
607.42	43.230
607.75	43.511
608.08	43.745
608.42	43.750
608.75	43.731
609.08	44.127
609.41	44.273
609.75	43.819
610.08	44.964
610.41	44.884
610.74	44.026
611.07	44.247
611.41	44.578
611.74	43.356
612.07	43.353
612.40	44.493
612.73	43.784
613.07	44.247
613.40	44.211
613.73	44.733
614.06	43.050
614.39	44.646
614.72	43.847
615.06	43.867
615.39	42.723
615.72	43.659
616.05	44.149
616.38	43.430
616.71	43.190
617.05	43.273
617.38	44.045
617.71	44.826
618.04	44.476
618.37	42.968
618.70	44.342
619.03	44.139
619.36	44.158
619.69	44.657
620.03	45.205
620.36	43.802
620.69	44.828
621.02	44.701
621.35	44.341
621.68	43.068
622.01	44.945
622.34	43.846
622.67	45.225
623.00	43.567
623.33	43.252
623.66	42.715
623.99	44.589
624.32	44.580
624.65	43.120
624.99	44.084
625.32	43.287
625.65	43.517
625.98	43.236
626.31	44.807
626.64	44.343
626.97	43.688
627.30	43.789
627.63	44.819
627.96	44.131
628.29	44.307
628.62	43.798
628.95	46.099
629.28	45.399
629.61	42.707
629.94	43.215
630.26	43.761
630.59	44.947
630.92	43.767
