SpectraSuite Data File
++++++++++++++++++++++++++++++++++++
Date: Tue May 12 16:49:55 PDT 2015
User: schluterlab
Dark Spectrum Present: Yes
Reference Spectrum Present: Yes
Number of Sampled Component Spectra: 1
Spectrometers: USB2E3373
Integration Time (usec): 3000 (USB2E3373)
Spectra Averaged: 3 (USB2E3373)
Boxcar Smoothing: 0 (USB2E3373)
Correct for Electrical Dark: No (USB2E3373)
Strobe/Lamp Enabled: No (USB2E3373)
Correct for Detector Non-linearity: No (USB2E3373)
Correct for Stray Light: No (USB2E3373)
Number of Pixels in Processed Spectrum: 2048
>>>>>Begin Processed Spectral Data<<<<<
178.53	0.000
178.91	-275.000
179.29	-1025.000
179.67	-4200.000
180.04	-200.000
180.42	850.000
180.80	1850.000
181.18	0.000
181.56	-362.500
181.94	0.000
182.31	1200.000
182.69	-4100.000
183.07	557.143
183.45	-3400.000
183.83	-1550.000
184.20	450.000
184.58	485.714
184.96	-238.462
185.34	-233.333
185.72	1500.000
186.09	-800.000
186.47	-3300.000
186.85	1033.333
187.23	640.000
187.61	1500.000
187.98	500.000
188.36	350.000
188.74	391.667
189.12	325.000
189.49	1000.000
189.87	0.000
190.25	500.000
190.63	2600.000
191.00	-266.667
191.38	-3200.000
191.76	-900.000
192.14	625.000
192.51	-1900.000
192.89	1850.000
193.27	1066.667
193.65	-1400.000
194.02	-920.000
194.40	471.429
194.78	-164.286
195.15	286.667
195.53	-3300.000
195.91	-460.000
196.29	4700.000
196.66	250.000
197.04	800.000
197.42	-1550.000
197.79	700.000
198.17	333.333
198.55	0.000
198.92	471.429
199.30	1433.333
199.68	2000.000
200.05	733.333
200.43	-450.000
200.81	211.111
201.18	3500.000
201.56	266.667
201.94	-675.000
202.31	-387.500
202.69	-440.000
203.07	4200.000
203.44	-516.667
203.82	366.667
204.19	620.000
204.57	-1100.000
204.95	-900.000
205.32	-600.000
205.70	600.000
206.08	975.000
206.45	-466.667
206.83	411.111
207.20	231.579
207.58	258.333
207.96	760.000
208.33	0.000
208.71	557.143
209.08	720.000
209.46	-3000.000
209.84	-900.000
210.21	960.000
210.59	-640.000
210.96	275.000
211.34	-950.000
211.71	418.182
212.09	825.000
212.46	2100.000
212.84	-300.000
213.22	411.111
213.59	-3000.000
213.97	260.000
214.34	1025.000
214.72	900.000
215.09	900.000
215.47	-3400.000
215.84	-280.000
216.22	-462.500
216.59	0.000
216.97	0.000
217.34	1650.000
217.72	-1850.000
218.09	1033.333
218.47	362.500
218.84	800.000
219.22	1166.667
219.59	1033.333
219.97	657.143
220.34	344.444
220.72	1400.000
221.09	3700.000
221.47	233.333
221.84	900.000
222.22	400.000
222.59	255.556
222.97	300.000
223.34	181.250
223.72	-1600.000
224.09	1033.333
224.46	246.154
224.84	-725.000
225.21	333.333
225.59	273.333
225.96	1266.667
226.34	-660.000
226.71	-700.000
227.08	-740.000
227.46	0.000
227.83	-566.667
228.21	-1350.000
228.58	383.333
228.95	1075.000
229.33	300.000
229.70	1025.000
230.08	369.231
230.45	3600.000
230.82	-1000.000
231.20	-766.667
231.57	-1166.667
231.95	660.000
232.32	283.333
232.69	633.333
233.07	308.333
233.44	-1700.000
233.81	253.333
234.19	140.741
234.56	281.250
234.93	188.235
235.31	230.000
235.68	300.000
236.05	153.571
236.43	129.630
236.80	228.571
237.17	151.724
237.55	106.250
237.92	97.500
238.29	133.333
238.67	137.500
239.04	102.439
239.41	75.000
239.79	97.500
240.16	102.083
240.53	75.410
240.91	68.116
241.28	69.492
241.65	66.667
242.02	78.873
242.40	70.000
242.77	64.835
243.14	48.101
243.51	57.576
243.89	53.271
244.26	43.925
244.63	51.485
245.00	43.119
245.38	44.068
245.75	45.455
246.12	50.370
246.49	50.355
246.87	40.164
247.24	45.333
247.61	41.250
247.98	42.177
248.36	38.182
248.73	42.857
249.10	39.286
249.47	35.500
249.84	31.343
250.22	35.135
250.59	31.500
250.96	35.443
251.33	29.302
251.70	33.036
252.08	35.294
252.45	31.474
252.82	30.798
253.19	25.296
253.56	29.615
253.94	33.696
254.31	32.946
254.68	30.662
255.05	32.759
255.42	31.752
255.79	32.248
256.16	29.153
256.54	32.468
256.91	29.412
257.28	28.428
257.65	28.213
258.02	28.614
258.39	32.665
258.76	30.145
259.14	25.429
259.51	30.904
259.88	29.787
260.25	27.473
260.62	29.315
260.99	27.273
261.36	29.805
261.73	30.053
262.10	25.393
262.47	27.750
262.85	25.600
263.22	26.992
263.59	28.645
263.96	29.825
264.33	27.654
264.70	27.518
265.07	27.805
265.44	25.917
265.81	28.066
266.18	24.714
266.55	23.877
266.92	23.043
267.29	27.412
267.66	24.664
268.03	22.646
268.40	25.159
268.77	25.110
269.14	25.813
269.51	23.831
269.88	25.714
270.25	22.246
270.62	22.747
270.99	25.963
271.36	24.797
271.73	22.222
272.10	24.444
272.47	24.405
272.84	22.555
273.21	24.380
273.58	23.684
273.95	21.355
274.32	24.903
274.69	26.575
275.06	23.679
275.43	24.713
275.80	22.453
276.17	22.794
276.54	22.056
276.91	24.254
277.28	22.445
277.65	24.354
278.02	21.875
278.39	22.662
278.76	22.931
279.13	23.132
279.50	22.909
279.87	20.298
280.23	20.810
280.60	21.715
280.97	20.690
281.34	22.112
281.71	21.217
282.08	22.735
282.45	21.115
282.82	23.411
283.19	22.893
283.56	22.479
283.92	20.847
284.29	22.962
284.66	20.672
285.03	21.725
285.40	21.157
285.77	19.753
286.14	21.053
286.51	22.086
286.87	19.937
287.24	21.171
287.61	19.909
287.98	21.045
288.35	20.889
288.72	19.423
289.08	21.471
289.45	22.713
289.82	21.250
290.19	20.791
290.56	21.689
290.93	20.288
291.29	18.370
291.66	16.808
292.03	19.074
292.40	19.241
292.77	20.195
293.13	18.402
293.50	18.354
293.87	16.938
294.24	18.601
294.60	17.497
294.97	19.021
295.34	19.124
295.71	17.871
296.08	18.667
296.44	17.662
296.81	17.246
297.18	15.843
297.55	18.596
297.91	16.502
298.28	19.324
298.65	17.669
299.02	17.732
299.38	16.906
299.75	17.805
300.12	17.661
300.48	17.213
300.85	17.998
301.22	17.093
301.59	15.566
301.95	17.153
302.32	15.832
302.69	16.063
303.05	16.835
303.42	16.928
303.79	17.226
304.15	15.622
304.52	15.645
304.89	16.205
305.25	15.573
305.62	15.991
305.99	15.217
306.35	15.579
306.72	16.545
307.09	16.356
307.45	14.995
307.82	16.564
308.19	17.010
308.55	16.200
308.92	15.015
309.29	15.680
309.65	15.362
310.02	15.923
310.38	14.457
310.75	14.947
311.12	13.889
311.48	16.313
311.85	15.649
312.22	15.950
312.58	14.674
312.95	15.825
313.31	15.918
313.68	14.822
314.05	15.568
314.41	14.618
314.78	14.583
315.14	15.355
315.51	15.989
315.87	14.964
316.24	15.593
316.61	16.473
316.97	14.128
317.34	16.173
317.70	16.769
318.07	15.214
318.43	15.290
318.80	16.287
319.16	15.647
319.53	15.133
319.89	14.606
320.26	16.294
320.62	15.201
320.99	14.490
321.35	14.935
321.72	16.509
322.08	16.713
322.45	15.895
322.81	15.188
323.18	15.098
323.54	16.202
323.91	16.863
324.27	16.269
324.64	14.879
325.00	16.293
325.37	15.261
325.73	16.105
326.10	15.824
326.46	16.680
326.83	14.800
327.19	16.948
327.56	15.815
327.92	16.311
328.29	16.448
328.65	16.866
329.01	16.424
329.38	16.244
329.74	15.457
330.11	16.681
330.47	16.539
330.84	14.409
331.20	15.821
331.56	16.753
331.93	15.997
332.29	15.476
332.66	15.986
333.02	14.003
333.38	15.707
333.75	16.764
334.11	15.520
334.48	15.470
334.84	15.372
335.20	15.483
335.57	14.526
335.93	15.643
336.29	15.091
336.66	15.952
337.02	15.227
337.38	14.359
337.75	15.963
338.11	16.034
338.47	14.649
338.84	15.411
339.20	14.286
339.56	15.055
339.93	14.465
340.29	14.034
340.65	15.004
341.02	16.171
341.38	14.696
341.74	15.365
342.11	14.274
342.47	14.356
342.83	14.438
343.20	15.117
343.56	13.900
343.92	14.121
344.28	14.753
344.65	15.240
345.01	14.762
345.37	14.423
345.73	14.524
346.10	14.183
346.46	14.115
346.82	13.735
347.19	15.688
347.55	14.208
347.91	13.520
348.27	13.788
348.63	14.082
349.00	14.014
349.36	14.553
349.72	15.214
350.08	14.907
350.45	14.395
350.81	13.761
351.17	13.020
351.53	14.088
351.89	14.141
352.26	13.757
352.62	13.952
352.98	14.264
353.34	14.946
353.70	13.838
354.07	14.154
354.43	14.055
354.79	13.212
355.15	14.242
355.51	13.595
355.87	14.608
356.24	14.781
356.60	13.242
356.96	12.434
357.32	13.338
357.68	14.170
358.04	14.210
358.40	14.468
358.77	14.801
359.13	12.613
359.49	12.973
359.85	13.775
360.21	13.150
360.57	13.577
360.93	14.141
361.29	13.420
361.66	14.169
362.02	13.352
362.38	14.358
362.74	13.376
363.10	13.955
363.46	13.605
363.82	14.586
364.18	12.945
364.54	13.448
364.90	13.788
365.26	13.255
365.62	13.674
365.98	14.109
366.35	12.483
366.71	14.018
367.07	14.198
367.43	13.835
367.79	14.162
368.15	12.144
368.51	14.197
368.87	13.383
369.23	14.345
369.59	12.879
369.95	13.776
370.31	12.526
370.67	13.185
371.03	13.866
371.39	13.504
371.75	12.980
372.11	13.664
372.47	13.767
372.83	12.576
373.19	13.160
373.55	13.402
373.91	12.293
374.27	13.161
374.63	13.627
374.99	13.208
375.35	12.836
375.71	12.929
376.07	13.329
376.42	12.660
376.78	12.524
377.14	13.565
377.50	12.921
377.86	12.748
378.22	13.650
378.58	13.983
378.94	12.311
379.30	13.038
379.66	12.944
380.02	13.255
380.38	12.119
380.74	13.956
381.09	12.442
381.45	13.006
381.81	12.943
382.17	12.515
382.53	12.597
382.89	13.010
383.25	12.611
383.61	13.545
383.97	13.197
384.32	13.502
384.68	14.320
385.04	13.306
385.40	13.405
385.76	12.697
386.12	12.863
386.48	12.888
386.83	13.570
387.19	12.603
387.55	13.958
387.91	12.182
388.27	13.325
388.62	13.439
388.98	12.653
389.34	12.731
389.70	12.854
390.06	13.232
390.42	12.647
390.77	12.592
391.13	12.432
391.49	12.644
391.85	12.923
392.20	12.872
392.56	13.620
392.92	12.577
393.28	12.948
393.64	12.385
393.99	13.219
394.35	12.655
394.71	12.606
395.07	12.530
395.42	12.471
395.78	13.325
396.14	13.735
396.50	12.575
396.85	12.805
397.21	12.274
397.57	12.791
397.92	11.381
398.28	11.969
398.64	13.322
399.00	12.293
399.35	11.863
399.71	13.245
400.07	12.728
400.42	12.955
400.78	12.903
401.14	12.683
401.49	12.788
401.85	12.920
402.21	12.244
402.57	12.448
402.92	12.788
403.28	12.828
403.63	13.420
403.99	13.028
404.35	13.482
404.70	13.585
405.06	12.353
405.42	12.926
405.77	12.569
406.13	12.419
406.49	12.507
406.84	12.465
407.20	12.957
407.55	12.369
407.91	13.401
408.27	12.978
408.62	13.187
408.98	12.951
409.34	13.326
409.69	11.948
410.05	12.761
410.40	12.014
410.76	12.650
411.11	13.152
411.47	12.593
411.83	12.712
412.18	12.258
412.54	13.033
412.89	12.271
413.25	12.657
413.60	12.325
413.96	12.867
414.31	12.751
414.67	12.477
415.03	12.516
415.38	12.997
415.74	12.950
416.09	12.929
416.45	14.286
416.80	13.214
417.16	12.349
417.51	13.185
417.87	11.952
418.22	13.001
418.58	12.166
418.93	12.731
419.29	12.138
419.64	12.962
420.00	12.768
420.35	12.485
420.71	12.252
421.06	11.713
421.42	12.493
421.77	12.160
422.12	12.293
422.48	11.813
422.83	12.221
423.19	12.419
423.54	12.178
423.90	11.948
424.25	11.888
424.61	12.826
424.96	11.971
425.31	12.534
425.67	11.785
426.02	12.114
426.38	11.960
426.73	12.551
427.09	12.633
427.44	11.649
427.79	11.950
428.15	12.787
428.50	12.571
428.85	12.640
429.21	12.156
429.56	11.565
429.92	11.686
430.27	11.998
430.62	11.601
430.98	11.826
431.33	11.643
431.68	11.506
432.04	11.950
432.39	11.910
432.74	12.529
433.10	12.458
433.45	12.119
433.80	13.127
434.16	12.034
434.51	12.487
434.86	12.520
435.22	11.615
435.57	12.567
435.92	12.578
436.28	12.442
436.63	12.966
436.98	12.275
437.34	12.728
437.69	11.646
438.04	12.312
438.39	12.026
438.75	12.973
439.10	11.819
439.45	12.380
439.81	12.261
440.16	12.273
440.51	12.050
440.86	12.764
441.22	12.392
441.57	11.916
441.92	12.142
442.27	11.907
442.63	11.687
442.98	12.662
443.33	12.641
443.68	11.620
444.03	11.640
444.39	12.147
444.74	12.060
445.09	12.164
445.44	12.221
445.79	11.111
446.15	11.842
446.50	11.973
446.85	11.952
447.20	11.493
447.55	11.691
447.91	12.254
448.26	12.780
448.61	12.051
448.96	12.200
449.31	11.331
449.66	12.458
450.02	12.210
450.37	12.604
450.72	12.837
451.07	11.926
451.42	11.915
451.77	12.829
452.12	12.933
452.47	12.454
452.83	12.676
453.18	12.733
453.53	12.789
453.88	12.171
454.23	12.958
454.58	12.238
454.93	12.324
455.28	12.729
455.63	12.352
455.98	12.634
456.34	12.888
456.69	12.988
457.04	11.993
457.39	12.286
457.74	13.401
458.09	11.960
458.44	12.596
458.79	12.679
459.14	12.439
459.49	12.627
459.84	12.935
460.19	12.712
460.54	13.390
460.89	12.420
461.24	12.199
461.59	12.642
461.94	12.648
462.29	13.272
462.64	12.437
462.99	13.052
463.34	12.962
463.69	13.672
464.04	13.011
464.39	12.593
464.74	11.489
465.09	12.826
465.44	12.731
465.79	11.813
466.14	12.295
466.49	11.720
466.84	12.040
467.19	12.537
467.54	12.733
467.89	13.263
468.24	12.044
468.59	13.095
468.94	12.923
469.29	12.889
469.64	13.119
469.99	13.817
470.34	12.840
470.68	12.897
471.03	12.542
471.38	12.914
471.73	12.867
472.08	12.459
472.43	12.725
472.78	13.764
473.13	12.641
473.48	12.103
473.83	12.780
474.17	13.435
474.52	12.737
474.87	12.678
475.22	12.564
475.57	12.907
475.92	11.804
476.27	12.078
476.61	12.118
476.96	13.271
477.31	12.442
477.66	12.829
478.01	12.584
478.36	12.770
478.70	11.911
479.05	12.134
479.40	12.599
479.75	13.208
480.10	12.343
480.45	11.998
480.79	12.488
481.14	11.222
481.49	11.985
481.84	11.609
482.19	12.052
482.53	12.077
482.88	12.142
483.23	12.269
483.58	11.894
483.92	12.569
484.27	11.772
484.62	12.267
484.97	11.804
485.31	11.545
485.66	10.912
486.01	10.789
486.36	10.191
486.70	10.192
487.05	10.477
487.40	11.135
487.75	11.463
488.09	11.506
488.44	11.536
488.79	11.420
489.13	12.169
489.48	12.026
489.83	12.177
490.17	12.180
490.52	12.145
490.87	12.586
491.22	12.677
491.56	12.604
491.91	12.590
492.26	12.339
492.60	12.620
492.95	12.007
493.30	12.329
493.64	12.040
493.99	12.433
494.34	12.416
494.68	11.731
495.03	12.528
495.37	12.877
495.72	12.494
496.07	11.995
496.41	12.381
496.76	12.157
497.11	12.853
497.45	12.495
497.80	13.392
498.14	12.853
498.49	12.071
498.84	13.224
499.18	12.112
499.53	12.356
499.87	12.129
500.22	12.345
500.56	12.210
500.91	13.590
501.26	13.045
501.60	12.614
501.95	11.649
502.29	12.756
502.64	12.880
502.98	12.272
503.33	12.695
503.67	12.494
504.02	12.450
504.36	12.715
504.71	13.576
505.06	12.529
505.40	12.541
505.75	12.254
506.09	12.739
506.44	12.594
506.78	12.240
507.13	12.603
507.47	12.324
507.82	12.944
508.16	13.033
508.51	12.754
508.85	12.773
509.19	13.363
509.54	12.793
509.88	12.829
510.23	13.186
510.57	12.790
510.92	13.137
511.26	12.952
511.61	12.900
511.95	12.942
512.30	12.650
512.64	13.292
512.98	13.480
513.33	12.756
513.67	13.516
514.02	12.675
514.36	13.551
514.70	12.960
515.05	12.094
515.39	12.993
515.74	13.942
516.08	13.344
516.42	13.770
516.77	13.227
517.11	12.747
517.46	12.931
517.80	12.889
518.14	13.465
518.49	13.451
518.83	12.857
519.17	13.644
519.52	14.200
519.86	13.842
520.20	13.808
520.55	13.058
520.89	13.333
521.23	13.493
521.58	14.056
521.92	13.120
522.26	13.922
522.61	13.904
522.95	12.853
523.29	13.216
523.64	13.642
523.98	13.732
524.32	13.437
524.66	13.275
525.01	13.254
525.35	13.553
525.69	14.509
526.04	14.277
526.38	13.655
526.72	13.902
527.06	13.483
527.41	14.268
527.75	13.816
528.09	13.185
528.43	13.789
528.78	13.417
529.12	13.907
529.46	13.735
529.80	13.843
530.15	13.789
530.49	14.079
530.83	13.772
531.17	13.592
531.51	13.918
531.86	13.587
532.20	14.091
532.54	13.120
532.88	13.429
533.22	14.321
533.57	13.789
533.91	13.345
534.25	13.560
534.59	13.626
534.93	13.254
535.27	12.180
535.62	13.594
535.96	13.593
536.30	14.199
536.64	14.037
536.98	13.971
537.32	15.000
537.66	13.202
538.01	14.365
538.35	14.036
538.69	13.350
539.03	12.998
539.37	13.350
539.71	13.519
540.05	12.800
540.39	14.214
540.73	13.671
541.07	13.300
541.42	13.433
541.76	13.687
542.10	13.317
542.44	13.279
542.78	13.090
543.12	12.883
543.46	13.409
543.80	13.596
544.14	13.560
544.48	13.321
544.82	13.028
545.16	13.358
545.50	14.075
545.84	13.826
546.18	15.020
546.52	14.164
546.86	13.798
547.20	13.566
547.54	13.680
547.88	13.443
548.22	13.661
548.56	13.907
548.90	13.464
549.24	13.266
549.58	13.209
549.92	13.883
550.26	13.725
550.60	13.706
550.94	14.450
551.28	14.414
551.62	15.103
551.96	13.784
552.30	12.788
552.64	13.851
552.98	12.822
553.32	13.380
553.66	13.616
554.00	13.642
554.34	14.647
554.68	13.508
555.02	14.053
555.36	12.899
555.69	12.893
556.03	13.503
556.37	13.512
556.71	14.472
557.05	12.385
557.39	14.133
557.73	14.016
558.07	14.487
558.41	13.777
558.75	14.501
559.08	14.939
559.42	13.243
559.76	14.897
560.10	13.489
560.44	13.935
560.78	13.811
561.12	14.367
561.45	12.891
561.79	14.107
562.13	13.203
562.47	12.979
562.81	13.012
563.15	12.864
563.48	12.981
563.82	14.161
564.16	13.433
564.50	12.598
564.84	13.252
565.17	13.012
565.51	13.916
565.85	13.572
566.19	12.857
566.52	12.876
566.86	13.777
567.20	13.820
567.54	13.046
567.88	12.937
568.21	12.581
568.55	12.597
568.89	12.819
569.23	11.864
569.56	12.300
569.90	11.930
570.24	11.993
570.57	11.356
570.91	10.983
571.25	11.299
571.59	10.829
571.92	11.060
572.26	10.997
572.60	10.691
572.93	11.041
573.27	11.057
573.61	11.153
573.95	10.732
574.28	10.713
574.62	10.736
574.96	10.353
575.29	10.528
575.63	10.695
575.97	10.638
576.30	10.731
576.64	10.557
576.98	10.448
577.31	10.907
577.65	10.600
577.98	9.871
578.32	10.099
578.66	10.692
578.99	10.971
579.33	10.510
579.67	10.316
580.00	10.640
580.34	10.438
580.67	10.291
581.01	10.643
581.35	10.296
581.68	10.018
582.02	9.870
582.35	10.156
582.69	10.169
583.02	10.403
583.36	10.715
583.70	10.629
584.03	11.111
584.37	10.828
584.70	10.848
585.04	10.540
585.37	10.167
585.71	10.629
586.04	10.378
586.38	10.797
586.72	10.528
587.05	11.117
587.39	10.771
587.72	10.759
588.06	10.430
588.39	10.619
588.73	10.760
589.06	10.651
589.40	10.610
589.73	11.177
590.07	11.462
590.40	11.707
590.73	12.119
591.07	11.765
591.40	12.056
591.74	11.567
592.07	10.857
592.41	11.191
592.74	10.985
593.08	11.068
593.41	10.622
593.75	10.805
594.08	10.964
594.41	11.404
594.75	11.267
595.08	10.837
595.42	11.323
595.75	11.089
596.09	11.436
596.42	10.706
596.75	11.819
597.09	11.308
597.42	11.388
597.75	11.521
598.09	11.325
598.42	11.873
598.76	10.871
599.09	11.217
599.42	10.554
599.76	11.330
600.09	10.881
600.42	11.050
600.76	10.571
601.09	10.770
601.42	11.158
601.76	10.884
602.09	11.185
602.42	11.017
602.76	11.385
603.09	11.501
603.42	11.743
603.76	11.208
604.09	11.618
604.42	11.073
604.76	11.497
605.09	11.551
605.42	11.946
605.75	11.133
606.09	11.056
606.42	11.424
606.75	11.660
607.09	11.370
607.42	11.410
607.75	11.425
608.08	11.535
608.42	11.116
608.75	11.297
609.08	11.175
609.41	11.818
609.75	12.088
610.08	12.050
610.41	11.682
610.74	11.645
611.07	11.551
611.41	11.863
611.74	11.568
612.07	12.042
612.40	12.476
612.73	11.932
613.07	11.911
613.40	12.030
613.73	12.132
614.06	10.900
614.39	12.727
614.72	12.155
615.06	11.474
615.39	12.327
615.72	12.052
616.05	12.757
616.38	11.466
616.71	11.720
617.05	11.642
617.38	11.629
617.71	12.486
618.04	12.170
618.37	12.118
618.70	12.991
619.03	12.149
619.36	12.688
619.69	13.918
620.03	13.960
620.36	12.653
620.69	13.346
621.02	14.130
621.35	13.109
621.68	14.749
622.01	14.539
622.34	13.765
622.67	13.062
623.00	13.206
623.33	13.158
623.66	13.041
623.99	12.808
624.32	12.669
624.65	12.903
624.99	13.658
625.32	12.625
625.65	12.207
625.98	13.180
626.31	13.427
626.64	12.604
626.97	13.925
627.30	13.121
627.63	13.815
627.96	13.067
628.29	14.026
628.62	12.489
628.95	14.184
629.28	14.286
629.61	13.972
629.94	14.002
630.26	14.471
630.59	14.716
630.92	14.978
631.25	14.325
