SpectraSuite Data File
++++++++++++++++++++++++++++++++++++
Date: Tue May 12 15:28:56 PDT 2015
User: schluterlab
Dark Spectrum Present: Yes
Reference Spectrum Present: Yes
Number of Sampled Component Spectra: 1
Spectrometers: USB2E3373
Integration Time (usec): 3000 (USB2E3373)
Spectra Averaged: 3 (USB2E3373)
Boxcar Smoothing: 0 (USB2E3373)
Correct for Electrical Dark: No (USB2E3373)
Strobe/Lamp Enabled: No (USB2E3373)
Correct for Detector Non-linearity: No (USB2E3373)
Correct for Stray Light: No (USB2E3373)
Number of Pixels in Processed Spectrum: 2048
>>>>>Begin Processed Spectral Data<<<<<
178.53	0.000
178.91	-150.000
179.29	-725.000
179.67	-5400.000
180.04	-200.000
180.42	650.000
180.80	1800.000
181.18	0.000
181.56	-262.500
181.94	0.000
182.31	1166.667
182.69	-3800.000
183.07	657.143
183.45	-4100.000
183.83	-1800.000
184.20	430.000
184.58	542.857
184.96	-238.462
185.34	-275.000
185.72	1850.000
186.09	-850.000
186.47	-3400.000
186.85	1000.000
187.23	740.000
187.61	1700.000
187.98	650.000
188.36	278.571
188.74	366.667
189.12	416.667
189.49	975.000
189.87	0.000
190.25	500.000
190.63	2900.000
191.00	-266.667
191.38	-3900.000
191.76	-975.000
192.14	662.500
192.51	-3100.000
192.89	1800.000
193.27	900.000
193.65	-1000.000
194.02	-700.000
194.40	528.571
194.78	-264.286
195.15	253.333
195.53	-3100.000
195.91	-660.000
196.29	4400.000
196.66	250.000
197.04	850.000
197.42	-1500.000
197.79	700.000
198.17	425.000
198.55	0.000
198.92	600.000
199.30	1233.333
199.68	2150.000
200.05	616.667
200.43	-533.333
200.81	161.111
201.18	4500.000
201.56	341.667
201.94	-750.000
202.31	-325.000
202.69	-620.000
203.07	3100.000
203.44	-533.333
203.82	375.000
204.19	840.000
204.57	-1500.000
204.95	-850.000
205.32	-920.000
205.70	683.333
206.08	825.000
206.45	-933.333
206.83	477.778
207.20	226.316
207.58	300.000
207.96	860.000
208.33	0.000
208.71	700.000
209.08	800.000
209.46	-2800.000
209.84	-825.000
210.21	940.000
210.59	-640.000
210.96	325.000
211.34	-1050.000
211.71	436.364
212.09	1050.000
212.46	1850.000
212.84	-633.333
213.22	444.444
213.59	-3900.000
213.97	400.000
214.34	925.000
214.72	1133.333
215.09	1166.667
215.47	-3800.000
215.84	-320.000
216.22	-512.500
216.59	0.000
216.97	0.000
217.34	2100.000
217.72	-1800.000
218.09	1133.333
218.47	500.000
218.84	1000.000
219.22	1466.667
219.59	1133.333
219.97	571.429
220.34	377.778
220.72	1650.000
221.09	3900.000
221.47	283.333
221.84	1233.333
222.22	370.000
222.59	261.111
222.97	214.286
223.34	256.250
223.72	-1950.000
224.09	1233.333
224.46	323.077
224.84	-950.000
225.21	411.111
225.59	220.000
225.96	1300.000
226.34	-840.000
226.71	-675.000
227.08	-620.000
227.46	0.000
227.83	-500.000
228.21	-2100.000
228.58	416.667
228.95	950.000
229.33	444.444
229.70	1200.000
230.08	384.615
230.45	3800.000
230.82	-925.000
231.20	-833.333
231.57	-1433.333
231.95	680.000
232.32	358.333
232.69	450.000
233.07	375.000
233.44	-1450.000
233.81	286.667
234.19	170.370
234.56	237.500
234.93	258.824
235.31	230.000
235.68	275.000
236.05	196.429
236.43	159.259
236.80	271.429
237.17	165.517
237.55	171.875
237.92	127.500
238.29	130.303
238.67	146.875
239.04	85.366
239.41	91.667
239.79	85.000
240.16	70.833
240.53	68.852
240.91	79.710
241.28	91.525
241.65	57.576
242.02	88.732
242.40	57.143
242.77	60.440
243.14	45.570
243.51	58.586
243.89	53.271
244.26	45.794
244.63	53.465
245.00	52.294
245.38	44.068
245.75	50.758
246.12	45.926
246.49	43.972
246.87	42.623
247.24	40.000
247.61	48.125
247.98	44.218
248.36	37.576
248.73	41.837
249.10	33.333
249.47	38.000
249.84	38.308
250.22	35.676
250.59	38.000
250.96	37.131
251.33	31.628
251.70	37.946
252.08	39.076
252.45	31.474
252.82	28.897
253.19	28.063
253.56	32.692
253.94	31.159
254.31	27.132
254.68	29.268
255.05	32.759
255.42	29.562
255.79	27.687
256.16	30.508
256.54	33.766
256.91	31.699
257.28	27.090
257.65	28.213
258.02	28.614
258.39	28.940
258.76	31.014
259.14	26.000
259.51	30.029
259.88	29.483
260.25	25.000
260.62	27.397
260.99	26.446
261.36	28.691
261.73	23.936
262.10	25.916
262.47	27.000
262.85	25.333
263.22	30.848
263.59	26.087
263.96	25.564
264.33	24.938
264.70	26.536
265.07	23.659
265.44	24.771
265.81	27.830
266.18	26.773
266.55	25.296
266.92	24.385
267.29	25.877
267.66	23.767
268.03	23.991
268.40	23.890
268.77	27.313
269.14	22.993
269.51	21.826
269.88	25.714
270.25	20.302
270.62	22.318
270.99	24.544
271.36	25.407
271.73	20.335
272.10	22.424
272.47	22.421
272.84	22.355
273.21	21.281
273.58	23.482
273.95	22.587
274.32	21.984
274.69	24.016
275.06	22.951
275.43	25.670
275.80	23.962
276.17	22.426
276.54	24.299
276.91	21.642
277.28	22.628
277.65	23.616
278.02	21.507
278.39	23.921
278.76	22.586
279.13	22.064
279.50	21.091
279.87	21.043
280.23	20.994
280.60	21.715
280.97	20.172
281.34	20.297
281.71	22.609
282.08	22.393
282.45	21.453
282.82	20.903
283.19	20.509
283.56	20.165
283.92	22.638
284.29	17.637
284.66	21.345
285.03	21.393
285.40	20.661
285.77	20.525
286.14	22.136
286.51	20.706
286.87	18.038
287.24	19.670
287.61	20.517
287.98	21.045
288.35	21.630
288.72	21.244
289.08	19.670
289.45	19.970
289.82	20.781
290.19	19.034
290.56	21.834
290.93	19.424
291.29	20.718
291.66	20.056
292.03	20.757
292.40	20.867
292.77	19.638
293.13	20.114
293.50	20.648
293.87	19.241
294.24	21.259
294.60	20.458
294.97	23.077
295.34	21.647
295.71	21.288
296.08	21.333
296.44	20.839
296.81	18.983
297.18	20.152
297.55	19.951
297.91	20.197
298.28	20.290
298.65	20.613
299.02	19.662
299.38	21.942
299.75	20.122
300.12	22.248
300.48	21.897
300.85	20.262
301.22	19.419
301.59	20.873
301.95	21.004
302.32	22.119
302.69	21.606
303.05	23.120
303.42	21.637
303.79	22.102
304.15	21.562
304.52	20.930
304.89	21.748
305.25	20.912
305.62	22.601
305.99	21.630
306.35	22.526
306.72	22.893
307.09	23.292
307.45	22.175
307.82	22.531
308.19	22.887
308.55	22.600
308.92	24.239
309.29	25.148
309.65	22.993
310.02	23.935
310.38	24.128
310.75	24.108
311.12	23.659
311.48	26.544
311.85	26.431
312.22	24.737
312.58	25.073
312.95	26.408
313.31	26.217
313.68	26.266
314.05	27.839
314.41	28.492
314.78	27.273
315.14	28.341
315.51	29.612
315.87	29.562
316.24	27.918
316.61	28.648
316.97	28.899
317.34	30.458
317.70	30.202
318.07	31.495
318.43	31.019
318.80	32.049
319.16	33.129
319.53	32.478
319.89	32.616
320.26	34.544
320.62	33.974
320.99	34.509
321.35	34.601
321.72	36.243
322.08	35.272
322.45	37.602
322.81	37.328
323.18	38.277
323.54	37.979
323.91	39.257
324.27	39.788
324.64	38.927
325.00	41.379
325.37	40.304
325.73	42.749
326.10	42.502
326.46	43.270
326.83	42.480
327.19	44.819
327.56	45.048
327.92	46.066
328.29	45.908
328.65	48.288
329.01	48.075
329.38	46.277
329.74	47.395
330.11	47.698
330.47	49.275
330.84	46.247
331.20	48.985
331.56	48.705
331.93	50.043
332.29	49.490
332.66	50.340
333.02	48.540
333.38	50.524
333.75	49.708
334.11	48.993
334.48	50.598
334.84	48.986
335.20	51.155
335.57	49.790
335.93	50.126
336.29	49.254
336.66	51.715
337.02	50.470
337.38	50.043
337.75	50.422
338.11	49.536
338.47	51.566
338.84	50.974
339.20	51.342
339.56	50.631
339.93	51.003
340.29	49.244
340.65	52.137
341.02	49.960
341.38	51.888
341.74	51.661
342.11	51.085
342.47	49.549
342.83	52.584
343.20	50.606
343.56	49.245
343.92	51.610
344.28	51.595
344.65	51.426
345.01	49.365
345.37	50.240
345.73	50.317
346.10	51.713
346.46	53.030
346.82	50.849
347.19	51.932
347.55	51.756
347.91	51.737
348.27	50.813
348.63	51.978
349.00	50.419
349.36	53.385
349.72	51.911
350.08	52.950
350.45	51.104
350.81	52.370
351.17	51.849
351.53	52.733
351.89	52.448
352.26	51.172
352.62	52.413
352.98	51.994
353.34	53.775
353.70	51.147
354.07	53.769
354.43	53.763
354.79	51.860
355.15	52.833
355.51	52.644
355.87	52.636
356.24	52.733
356.60	52.511
356.96	52.161
357.32	51.922
357.68	51.248
358.04	53.495
358.40	53.823
358.77	53.569
359.13	54.054
359.49	51.816
359.85	53.909
360.21	54.012
360.57	54.015
360.93	53.391
361.29	53.319
361.66	55.108
362.02	52.344
362.38	52.814
362.74	53.362
363.10	53.787
363.46	53.453
363.82	52.945
364.18	54.339
364.54	55.222
364.90	53.347
365.26	54.823
365.62	53.936
365.98	52.306
366.35	54.069
366.71	54.407
367.07	54.676
367.43	54.130
367.79	53.657
368.15	53.392
368.51	55.065
368.87	52.921
369.23	53.846
369.59	54.484
369.95	55.385
370.31	54.141
370.67	55.795
371.03	54.692
371.39	55.263
371.75	55.618
372.11	56.152
372.47	54.589
372.83	54.929
373.19	56.066
373.55	55.670
373.91	55.041
374.27	54.497
374.63	54.034
374.99	56.536
375.35	55.578
375.71	55.937
376.07	56.764
376.42	55.499
376.78	55.684
377.14	55.767
377.50	54.494
377.86	56.118
378.22	56.185
378.58	56.416
378.94	55.763
379.30	56.701
379.66	56.653
380.02	55.484
380.38	55.621
380.74	56.228
381.09	55.958
381.45	56.301
381.81	55.556
382.17	56.471
382.53	57.948
382.89	55.707
383.25	55.536
383.61	54.063
383.97	56.749
384.32	57.505
384.68	57.873
385.04	56.800
385.40	56.940
385.76	56.934
386.12	56.586
386.48	57.386
386.83	57.579
387.19	56.773
387.55	55.006
387.91	57.737
388.27	57.347
388.62	56.279
388.98	55.102
389.34	55.384
389.70	55.660
390.06	57.195
390.42	55.830
390.77	56.511
391.13	56.910
391.49	56.987
391.85	57.292
392.20	56.317
392.56	55.675
392.92	56.148
393.28	54.933
393.64	56.078
393.99	55.542
394.35	55.209
394.71	54.524
395.07	55.474
395.42	55.738
395.78	55.768
396.14	57.048
396.50	56.197
396.85	56.159
397.21	55.656
397.57	54.094
397.92	54.939
398.28	54.109
398.64	54.916
399.00	53.982
399.35	54.750
399.71	54.139
400.07	53.539
400.42	55.104
400.78	53.724
401.14	55.666
401.49	53.859
401.85	54.056
402.21	53.720
402.57	55.177
402.92	54.606
403.28	52.625
403.63	53.031
403.99	53.197
404.35	53.927
404.70	54.046
405.06	52.723
405.42	53.022
405.77	52.150
406.13	52.007
406.49	51.620
406.84	52.397
407.20	53.824
407.55	52.000
407.91	54.116
408.27	53.062
408.62	52.632
408.98	52.513
409.34	51.081
409.69	52.645
410.05	50.984
410.40	51.826
410.76	51.288
411.11	50.533
411.47	52.407
411.83	49.736
412.18	50.060
412.54	50.871
412.89	50.265
413.25	52.623
413.60	50.175
413.96	51.346
414.31	50.826
414.67	51.583
415.03	51.916
415.38	51.987
415.74	51.927
416.09	51.718
416.45	52.295
416.80	52.149
417.16	51.496
417.51	51.465
417.87	51.940
418.22	51.397
418.58	52.484
418.93	51.755
419.29	50.339
419.64	50.454
420.00	52.983
420.35	50.697
420.71	51.750
421.06	51.442
421.42	51.526
421.77	51.749
422.12	51.654
422.48	51.669
422.83	51.339
423.19	51.836
423.54	50.960
423.90	52.435
424.25	52.559
424.61	52.176
424.96	51.722
425.31	52.381
425.67	53.816
426.02	53.001
426.38	52.275
426.73	53.094
427.09	53.855
427.44	52.504
427.79	53.802
428.15	54.095
428.50	53.371
428.85	52.969
429.21	52.782
429.56	53.290
429.92	53.506
430.27	52.588
430.62	52.276
430.98	53.293
431.33	52.621
431.68	51.556
432.04	52.768
432.39	54.446
432.74	53.454
433.10	54.097
433.45	54.854
433.80	54.992
434.16	52.496
434.51	53.870
434.86	54.709
435.22	54.727
435.57	55.068
435.92	55.777
436.28	54.090
436.63	54.349
436.98	54.842
437.34	55.023
437.69	54.143
438.04	54.462
438.39	54.816
438.75	54.733
439.10	55.640
439.45	54.324
439.81	54.887
440.16	55.146
440.51	54.842
440.86	54.302
441.22	53.842
441.57	55.118
441.92	54.294
442.27	55.412
442.63	54.624
442.98	54.203
443.33	54.472
443.68	54.628
444.03	54.807
444.39	54.991
444.74	54.865
445.09	55.556
445.44	55.260
445.79	55.604
446.15	55.789
446.50	54.589
446.85	55.329
447.20	55.423
447.55	54.758
447.91	56.367
448.26	55.218
448.61	55.556
448.96	56.318
449.31	55.941
449.66	55.426
450.02	54.673
450.37	56.802
450.72	56.529
451.07	56.952
451.42	56.846
451.77	56.701
452.12	55.814
452.47	56.197
452.83	56.000
453.18	56.036
453.53	57.075
453.88	55.771
454.23	56.479
454.58	55.594
454.93	55.733
455.28	56.977
455.63	56.383
455.98	55.386
456.34	55.745
456.69	57.012
457.04	56.683
457.39	56.400
457.74	56.194
458.09	55.587
458.44	55.750
458.79	55.597
459.14	55.319
459.49	56.455
459.84	57.337
460.19	55.198
460.54	56.752
460.89	57.249
461.24	55.899
461.59	55.385
461.94	56.442
462.29	57.895
462.64	57.601
462.99	57.070
463.34	57.680
463.69	56.685
464.04	57.168
464.39	56.268
464.74	56.272
465.09	56.297
465.44	56.311
465.79	55.906
466.14	55.326
466.49	56.593
466.84	55.964
467.19	56.063
467.54	55.556
467.89	57.453
468.24	56.688
468.59	56.429
468.94	57.246
469.29	56.078
469.64	56.656
469.99	57.391
470.34	57.052
470.68	56.966
471.03	58.239
471.38	56.821
471.73	58.001
472.08	58.774
472.43	58.970
472.78	57.362
473.13	57.322
473.48	58.191
473.83	59.187
474.17	58.723
474.52	57.464
474.87	56.623
475.22	58.766
475.57	57.345
475.92	57.741
476.27	56.202
476.61	57.051
476.96	57.001
477.31	57.532
477.66	58.991
478.01	57.607
478.36	57.673
478.70	57.072
479.05	58.787
479.40	56.696
479.75	58.292
480.10	58.325
480.45	57.283
480.79	57.373
481.14	58.440
481.49	56.542
481.84	56.245
482.19	57.598
482.53	57.049
482.88	57.796
483.23	56.969
483.58	57.406
483.92	58.272
484.27	56.892
484.62	57.216
484.97	56.564
485.31	56.121
485.66	56.458
486.01	54.501
486.36	53.503
486.70	53.000
487.05	52.812
487.40	53.965
487.75	55.135
488.09	54.517
488.44	55.258
488.79	56.161
489.13	57.036
489.48	56.492
489.83	57.465
490.17	56.936
490.52	57.192
490.87	57.414
491.22	57.934
491.56	58.322
491.91	56.676
492.26	56.659
492.60	57.540
492.95	57.771
493.30	57.416
493.64	57.367
493.99	57.335
494.34	57.553
494.68	56.884
495.03	57.387
495.37	57.812
495.72	58.555
496.07	57.996
496.41	57.515
496.76	57.788
497.11	57.326
497.45	57.256
497.80	58.109
498.14	58.021
498.49	57.567
498.84	59.953
499.18	56.627
499.53	58.291
499.87	58.491
500.22	58.959
500.56	57.939
500.91	59.647
501.26	59.486
501.60	59.335
501.95	57.527
502.29	58.133
502.64	57.433
502.98	58.248
503.33	58.708
503.67	57.969
504.02	58.621
504.36	58.597
504.71	59.697
505.06	58.517
505.40	59.008
505.75	59.121
506.09	58.983
506.44	60.103
506.78	60.397
507.13	60.349
507.47	60.408
507.82	60.195
508.16	60.951
508.51	60.531
508.85	60.114
509.19	61.282
509.54	61.426
509.88	60.517
510.23	59.951
510.57	59.604
510.92	61.489
511.26	62.701
511.61	60.512
511.95	60.478
512.30	60.400
512.64	60.384
512.98	61.558
513.33	62.141
513.67	61.730
514.02	60.675
514.36	61.786
514.70	62.187
515.05	62.653
515.39	62.774
515.74	64.079
516.08	63.453
516.42	65.355
516.77	62.720
517.11	63.787
517.46	62.500
517.80	63.135
518.14	63.775
518.49	62.183
518.83	62.418
519.17	63.672
519.52	63.190
519.86	62.834
520.20	64.548
520.55	64.047
520.89	63.851
521.23	65.771
521.58	64.487
521.92	64.723
522.26	64.633
522.61	65.122
522.95	65.826
523.29	65.497
523.64	64.335
523.98	64.965
524.32	64.360
524.66	64.290
525.01	64.497
525.35	65.056
525.69	66.225
526.04	66.746
526.38	65.333
526.72	64.976
527.06	63.808
527.41	66.082
527.75	65.916
528.09	65.081
528.43	65.406
528.78	65.474
529.12	66.466
529.46	66.160
529.80	64.953
530.15	65.174
530.49	64.741
530.83	65.935
531.17	66.175
531.51	66.156
531.86	64.553
532.20	64.957
532.54	65.035
532.88	66.771
533.22	64.656
533.57	65.772
533.91	64.219
534.25	63.531
534.59	65.088
534.93	64.619
535.27	62.208
535.62	64.936
535.96	64.480
536.30	66.849
536.64	64.658
536.98	65.324
537.32	64.625
537.66	65.434
538.01	65.201
538.35	66.812
538.69	63.835
539.03	65.361
539.37	64.381
539.71	65.370
540.05	64.062
540.39	66.226
540.73	66.582
541.07	65.056
541.42	65.983
541.76	64.612
542.10	64.612
542.44	65.025
542.78	64.821
543.12	63.742
543.46	64.286
543.80	66.228
544.14	66.316
544.48	64.477
544.82	64.954
545.16	64.177
545.50	65.458
545.84	65.783
546.18	68.270
546.52	67.016
546.86	66.925
547.20	64.729
547.54	64.218
547.88	64.538
548.22	65.634
548.56	63.760
548.90	65.006
549.24	65.824
549.58	64.175
549.92	65.553
550.26	67.884
550.60	66.001
550.94	65.875
551.28	68.000
551.62	67.379
551.96	66.149
552.30	64.403
552.64	65.113
552.98	65.399
553.32	65.493
553.66	65.277
554.00	65.573
554.34	67.244
554.68	67.070
555.02	66.463
555.36	66.423
555.69	64.856
556.03	64.777
556.37	65.647
556.71	66.819
557.05	64.744
557.39	65.267
557.73	66.375
558.07	66.063
558.41	67.375
558.75	67.100
559.08	68.120
559.42	69.363
559.76	67.356
560.10	64.625
560.44	66.025
560.78	67.327
561.12	66.434
561.45	65.582
561.79	64.544
562.13	66.203
562.47	66.321
562.81	66.168
563.15	65.999
563.48	64.534
563.82	65.876
564.16	66.169
564.50	65.280
564.84	67.720
565.17	64.706
565.51	67.980
565.85	66.996
566.19	66.071
566.52	66.065
566.86	66.959
567.20	65.899
567.54	64.520
567.88	65.154
568.21	64.004
568.55	64.397
568.89	63.914
569.23	62.252
569.56	62.859
569.90	61.121
570.24	61.567
570.57	60.805
570.91	60.655
571.25	60.202
571.59	58.686
571.92	59.257
572.26	59.003
572.60	58.373
572.93	59.804
573.27	59.765
573.61	58.798
573.95	59.437
574.28	59.937
574.62	58.291
574.96	57.844
575.29	57.460
575.63	57.668
575.97	57.863
576.30	57.960
576.64	58.258
576.98	58.184
577.31	58.791
577.65	57.893
577.98	58.187
578.32	57.537
578.66	57.426
578.99	57.709
579.33	57.781
579.67	57.697
580.00	58.610
580.34	58.292
580.67	57.740
581.01	58.306
581.35	58.835
581.68	57.577
582.02	57.686
582.35	57.504
582.69	57.618
583.02	58.332
583.36	58.173
583.70	58.128
584.03	59.906
584.37	59.642
584.70	59.244
585.04	58.720
585.37	58.837
585.71	59.708
586.04	59.326
586.38	59.205
586.72	59.485
587.05	59.573
587.39	59.545
587.72	59.795
588.06	59.647
588.39	60.466
588.73	59.384
589.06	60.840
589.40	60.814
589.73	60.046
590.07	62.114
590.40	61.742
590.73	62.688
591.07	62.808
591.40	62.196
591.74	62.662
592.07	61.938
592.41	61.671
592.74	60.820
593.08	60.938
593.41	61.101
593.75	59.883
594.08	60.117
594.41	60.769
594.75	60.685
595.08	61.248
595.42	60.961
595.75	60.612
596.09	62.113
596.42	61.799
596.75	63.702
597.09	62.732
597.42	62.367
597.75	62.596
598.09	61.182
598.42	62.056
598.76	60.987
599.09	61.787
599.42	60.381
599.76	60.176
600.09	60.136
600.42	61.291
600.76	60.809
601.09	61.132
601.42	61.492
601.76	61.654
602.09	61.626
602.42	60.702
602.76	62.011
603.09	62.821
603.42	62.018
603.76	62.111
604.09	61.165
604.42	61.846
604.76	63.335
605.09	62.980
605.42	62.617
605.75	62.258
606.09	62.777
606.42	62.195
606.75	63.350
607.09	62.100
607.42	62.515
607.75	61.863
608.08	61.982
608.42	61.745
608.75	62.302
609.08	62.560
609.41	63.909
609.75	64.744
610.08	64.299
610.41	63.109
610.74	62.381
611.07	64.347
611.41	63.670
611.74	63.958
612.07	65.077
612.40	65.107
612.73	64.953
613.07	65.180
613.40	65.063
613.73	64.853
614.06	63.700
614.39	65.000
614.72	63.134
615.06	63.056
615.39	63.663
615.72	63.601
616.05	63.737
616.38	63.014
616.71	65.654
617.05	64.635
617.38	65.674
617.71	65.242
618.04	65.620
618.37	64.369
618.70	64.723
619.03	67.460
619.36	66.394
619.69	66.887
620.03	68.493
620.36	68.080
620.69	67.752
621.02	68.071
621.35	67.335
621.68	69.174
622.01	69.742
622.34	69.847
622.67	68.610
623.00	66.984
623.33	66.397
623.66	66.667
623.99	67.808
624.32	67.886
624.65	67.084
624.99	69.168
625.32	69.205
625.65	67.241
625.98	66.667
626.31	70.030
626.64	68.945
626.97	69.396
627.30	69.798
627.63	70.487
627.96	68.153
628.29	70.545
628.62	69.718
628.95	71.188
629.28	73.532
629.61	71.090
629.94	71.392
630.26	71.317
630.59	70.833
630.92	72.287
631.25	73.255
