SpectraSuite Data File
++++++++++++++++++++++++++++++++++++
Date: Tue May 12 16:05:50 PDT 2015
User: schluterlab
Dark Spectrum Present: Yes
Reference Spectrum Present: Yes
Number of Sampled Component Spectra: 1
Spectrometers: USB2E3373
Integration Time (usec): 3000 (USB2E3373)
Spectra Averaged: 3 (USB2E3373)
Boxcar Smoothing: 0 (USB2E3373)
Correct for Electrical Dark: No (USB2E3373)
Strobe/Lamp Enabled: No (USB2E3373)
Correct for Detector Non-linearity: No (USB2E3373)
Correct for Stray Light: No (USB2E3373)
Number of Pixels in Processed Spectrum: 2048
>>>>>Begin Processed Spectral Data<<<<<
178.53	0.000
178.91	-291.667
179.29	-1025.000
179.67	-4100.000
180.04	-140.000
180.42	800.000
180.80	1850.000
181.18	0.000
181.56	-425.000
181.94	0.000
182.31	1333.333
182.69	-3700.000
183.07	585.714
183.45	-3200.000
183.83	-1850.000
184.20	470.000
184.58	414.286
184.96	-269.231
185.34	-200.000
185.72	1950.000
186.09	-625.000
186.47	-2800.000
186.85	1233.333
187.23	640.000
187.61	1800.000
187.98	400.000
188.36	264.286
188.74	400.000
189.12	333.333
189.49	825.000
189.87	0.000
190.25	500.000
190.63	3200.000
191.00	-341.667
191.38	-3100.000
191.76	-625.000
192.14	475.000
192.51	-3500.000
192.89	1400.000
193.27	1300.000
193.65	-1066.667
194.02	-720.000
194.40	614.286
194.78	-200.000
195.15	320.000
195.53	-2700.000
195.91	-840.000
196.29	3800.000
196.66	287.500
197.04	700.000
197.42	-2100.000
197.79	825.000
198.17	225.000
198.55	0.000
198.92	600.000
199.30	1133.333
199.68	2000.000
200.05	600.000
200.43	-516.667
200.81	194.444
201.18	3700.000
201.56	358.333
201.94	-750.000
202.31	-287.500
202.69	-640.000
203.07	3500.000
203.44	-566.667
203.82	366.667
204.19	820.000
204.57	-1850.000
204.95	-950.000
205.32	-780.000
205.70	516.667
206.08	750.000
206.45	-1033.333
206.83	422.222
207.20	194.737
207.58	325.000
207.96	820.000
208.33	0.000
208.71	514.286
209.08	860.000
209.46	-3500.000
209.84	-1025.000
210.21	900.000
210.59	-460.000
210.96	333.333
211.34	-950.000
211.71	363.636
212.09	1175.000
212.46	1850.000
212.84	-366.667
213.22	466.667
213.59	-2800.000
213.97	380.000
214.34	1000.000
214.72	1100.000
215.09	1300.000
215.47	-3100.000
215.84	-400.000
216.22	-475.000
216.59	0.000
216.97	0.000
217.34	1450.000
217.72	-1850.000
218.09	1100.000
218.47	412.500
218.84	950.000
219.22	1266.667
219.59	933.333
219.97	542.857
220.34	400.000
220.72	1750.000
221.09	4400.000
221.47	300.000
221.84	1433.333
222.22	240.000
222.59	277.778
222.97	264.286
223.34	256.250
223.72	-1150.000
224.09	1266.667
224.46	307.692
224.84	-775.000
225.21	411.111
225.59	286.667
225.96	1133.333
226.34	-620.000
226.71	-675.000
227.08	-540.000
227.46	0.000
227.83	-550.000
228.21	-1500.000
228.58	433.333
228.95	1050.000
229.33	411.111
229.70	1075.000
230.08	384.615
230.45	4100.000
230.82	-1000.000
231.20	-600.000
231.57	-1033.333
231.95	720.000
232.32	325.000
232.69	566.667
233.07	316.667
233.44	-1500.000
233.81	280.000
234.19	207.407
234.56	175.000
234.93	247.059
235.31	235.000
235.68	225.000
236.05	153.571
236.43	144.444
236.80	250.000
237.17	148.276
237.55	115.625
237.92	107.500
238.29	112.121
238.67	128.125
239.04	104.878
239.41	87.500
239.79	97.500
240.16	79.167
240.53	77.049
240.91	78.261
241.28	79.661
241.65	72.727
242.02	87.324
242.40	71.429
242.77	61.538
243.14	69.620
243.51	67.677
243.89	57.944
244.26	48.598
244.63	58.416
245.00	55.963
245.38	35.593
245.75	46.212
246.12	51.852
246.49	44.681
246.87	39.344
247.24	44.667
247.61	47.500
247.98	48.299
248.36	35.152
248.73	43.878
249.10	40.476
249.47	37.000
249.84	40.796
250.22	38.919
250.59	34.500
250.96	39.241
251.33	35.814
251.70	36.607
252.08	31.933
252.45	33.466
252.82	33.460
253.19	30.435
253.56	31.923
253.94	31.159
254.31	35.659
254.68	32.056
255.05	35.517
255.42	33.942
255.79	32.248
256.16	33.220
256.54	34.091
256.91	33.660
257.28	30.769
257.65	29.467
258.02	32.153
258.39	32.378
258.76	33.913
259.14	28.571
259.51	31.487
259.88	27.964
260.25	26.648
260.62	32.329
260.99	25.895
261.36	28.134
261.73	27.394
262.10	26.440
262.47	27.750
262.85	29.067
263.22	29.563
263.59	29.923
263.96	28.822
264.33	27.407
264.70	30.221
265.07	28.780
265.44	27.752
265.81	28.302
266.18	28.833
266.55	26.478
266.92	25.727
267.29	27.851
267.66	27.130
268.03	23.991
268.40	28.541
268.77	27.533
269.14	25.813
269.51	27.617
269.88	30.816
270.25	25.918
270.62	25.322
270.99	27.586
271.36	28.659
271.73	26.625
272.10	25.859
272.47	25.397
272.84	26.547
273.21	27.273
273.58	26.923
273.95	24.846
274.32	27.043
274.69	27.559
275.06	26.776
275.43	26.628
275.80	23.396
276.17	24.816
276.54	28.224
276.91	25.373
277.28	25.730
277.65	26.937
278.02	23.713
278.39	24.820
278.76	25.517
279.13	24.377
279.50	25.818
279.87	24.581
280.23	24.678
280.60	24.818
280.97	24.138
281.34	23.102
281.71	24.696
282.08	24.615
282.45	24.155
282.82	23.913
283.19	24.165
283.56	22.975
283.92	22.638
284.29	24.792
284.66	22.017
285.03	23.881
285.40	21.818
285.77	22.531
286.14	22.136
286.51	22.853
286.87	22.468
287.24	21.021
287.61	24.620
287.98	22.687
288.35	22.667
288.72	22.610
289.08	21.922
289.45	23.476
289.82	21.875
290.19	21.523
290.56	23.726
290.93	21.583
291.29	20.994
291.66	21.045
292.03	21.178
292.40	20.190
292.77	20.195
293.13	20.970
293.50	20.513
293.87	17.886
294.24	20.839
294.60	20.323
294.97	19.720
295.34	19.389
295.71	20.237
296.08	20.667
296.44	20.712
296.81	18.859
297.18	18.378
297.55	19.581
297.91	17.365
298.28	18.357
298.65	19.141
299.02	17.973
299.38	18.705
299.75	18.902
300.12	18.693
300.48	19.204
300.85	17.759
301.22	19.186
301.59	17.571
301.95	18.670
302.32	18.277
302.69	17.986
303.05	19.192
303.42	17.377
303.79	18.310
304.15	16.502
304.52	17.653
304.89	18.124
305.25	17.130
305.62	17.164
305.99	18.478
306.35	16.316
306.72	17.482
307.09	16.356
307.45	17.529
307.82	16.358
308.19	17.835
308.55	16.700
308.92	18.057
309.29	18.738
309.65	17.939
310.02	17.140
310.38	17.049
310.75	16.297
311.12	16.188
311.48	17.568
311.85	17.653
312.22	17.192
312.58	16.327
312.95	17.379
313.31	16.667
313.68	17.542
314.05	18.223
314.41	16.853
314.78	18.087
315.14	18.768
315.51	17.597
315.87	18.157
316.24	17.647
316.61	16.831
316.97	18.073
317.34	19.677
317.70	18.086
318.07	19.751
318.43	19.332
318.80	19.352
319.16	19.668
319.53	20.088
319.89	18.459
320.26	20.670
320.62	20.421
320.99	20.591
321.35	19.944
321.72	21.347
322.08	21.053
322.45	22.343
322.81	21.500
323.18	22.558
323.54	23.258
323.91	23.753
324.27	22.900
324.64	22.924
325.00	24.138
325.37	24.199
325.73	25.126
326.10	25.352
326.46	26.342
326.83	25.120
327.19	25.944
327.56	25.399
327.92	27.623
328.29	27.823
328.65	28.082
329.01	28.144
329.38	28.257
329.74	27.754
330.11	28.236
330.47	29.497
330.84	27.265
331.20	28.257
331.56	30.225
331.93	29.598
332.29	29.082
332.66	30.357
333.02	29.038
333.38	29.319
333.75	30.692
334.11	30.537
334.48	32.051
334.84	29.223
335.20	30.539
335.57	30.898
335.93	30.278
336.29	30.100
336.66	31.990
337.02	30.881
337.38	31.384
337.75	30.321
338.11	32.152
338.47	31.499
338.84	30.991
339.20	32.035
339.56	30.278
339.93	31.187
340.29	30.252
340.65	31.098
341.02	31.939
341.38	30.213
341.74	31.229
342.11	30.217
342.47	31.009
342.83	31.747
343.20	32.336
343.56	29.786
343.92	31.379
344.28	31.818
344.65	32.600
345.01	31.429
345.37	29.888
345.73	30.794
346.10	31.076
346.46	32.057
346.82	30.941
347.19	31.607
347.55	31.304
347.91	31.571
348.27	30.829
348.63	31.171
349.00	31.150
349.36	32.374
349.72	32.416
350.08	32.531
350.45	31.379
350.81	33.180
351.17	30.971
351.53	31.794
351.89	31.469
352.26	30.915
352.62	31.523
352.98	31.902
353.34	32.357
353.70	31.346
354.07	32.846
354.43	32.181
354.79	31.131
355.15	32.619
355.51	32.553
355.87	32.154
356.24	32.871
356.60	31.583
356.96	31.691
357.32	30.972
357.68	32.673
358.04	33.511
358.40	32.984
358.77	32.832
359.13	31.682
359.49	32.543
359.85	33.135
360.21	31.055
360.57	32.117
360.93	33.261
361.29	33.045
361.66	33.632
362.02	31.392
362.38	32.468
362.74	32.979
363.10	33.590
363.46	32.320
363.82	33.590
364.18	34.068
364.54	33.119
364.90	33.601
365.26	33.865
365.62	32.804
365.98	32.209
366.35	32.759
366.71	34.282
367.07	33.720
367.43	33.983
367.79	32.846
368.15	32.022
368.51	33.632
368.87	32.337
369.23	32.848
369.59	33.513
369.95	33.147
370.31	32.991
370.67	33.796
371.03	33.543
371.39	33.934
371.75	33.985
372.11	33.447
372.47	33.425
372.83	32.835
373.19	34.681
373.55	33.814
373.91	33.564
374.27	33.267
374.63	33.356
374.99	33.760
375.35	34.207
375.71	33.905
376.07	32.891
376.42	33.696
376.78	34.040
377.14	33.748
377.50	33.583
377.86	32.992
378.22	34.065
378.58	33.717
378.94	34.037
379.30	34.081
379.66	33.594
380.02	33.724
380.38	33.607
380.74	33.968
381.09	33.995
381.45	33.237
381.81	33.097
382.17	33.455
382.53	34.013
382.89	32.880
383.25	33.393
383.61	32.334
383.97	33.593
384.32	33.092
384.68	34.403
385.04	32.356
385.40	33.630
385.76	33.119
386.12	34.447
386.48	34.286
386.83	33.863
387.19	34.099
387.55	33.628
387.91	33.025
388.27	33.789
388.62	33.627
388.98	33.294
389.34	32.362
389.70	33.432
390.06	33.659
390.42	32.943
390.77	32.924
391.13	33.615
391.49	33.696
391.85	33.846
392.20	33.194
392.56	32.378
392.92	32.847
393.28	32.567
393.64	32.798
393.99	32.958
394.35	32.490
394.71	33.414
395.07	32.117
395.42	32.670
395.78	33.004
396.14	33.434
396.50	32.371
396.85	32.866
397.21	32.371
397.57	31.680
397.92	32.351
398.28	31.605
398.64	32.752
399.00	30.999
399.35	31.025
399.71	31.623
400.07	31.450
400.42	31.104
400.78	32.434
401.14	32.237
401.49	31.682
401.85	31.750
402.21	30.990
402.57	32.376
402.92	31.576
403.28	30.549
403.63	31.077
403.99	31.001
404.35	31.887
404.70	31.778
405.06	30.208
405.42	31.538
405.77	31.312
406.13	30.640
406.49	29.847
406.84	30.852
407.20	30.822
407.55	31.385
407.91	32.100
408.27	31.534
408.62	30.633
408.98	30.396
409.34	31.151
409.69	30.803
410.05	29.934
410.40	30.389
410.76	29.651
411.11	29.917
411.47	30.123
411.83	29.350
412.18	29.891
412.54	30.811
412.89	30.088
413.25	30.901
413.60	29.147
413.96	29.623
414.31	29.221
414.67	30.912
415.03	30.779
415.38	30.221
415.74	30.575
416.09	31.668
416.45	31.028
416.80	31.302
417.16	29.726
417.51	30.000
417.87	30.288
418.22	29.769
418.58	30.191
418.93	30.161
419.29	29.452
419.64	30.648
420.00	31.504
420.35	30.197
420.71	30.513
421.06	29.841
421.42	30.109
421.77	30.816
422.12	30.485
422.48	30.252
422.83	30.413
423.19	30.400
423.54	30.005
423.90	30.464
424.25	31.040
424.61	30.934
424.96	30.717
425.31	30.816
425.67	31.257
426.02	30.791
426.38	30.805
426.73	31.695
427.09	31.435
427.44	30.670
427.79	30.646
428.15	31.291
428.50	32.171
428.85	31.452
429.21	30.902
429.56	31.456
429.92	30.781
430.27	30.382
430.62	29.711
430.98	31.637
431.33	29.688
431.68	30.123
432.04	30.264
432.39	32.108
432.74	31.850
433.10	31.118
433.45	31.936
433.80	31.660
434.16	31.056
434.51	31.373
434.86	32.063
435.22	31.821
435.57	31.891
435.92	32.271
436.28	32.316
436.63	32.199
436.98	33.671
437.34	32.078
437.69	31.859
438.04	32.419
438.39	32.983
438.75	32.071
439.10	32.704
439.45	32.504
439.81	33.430
440.16	31.480
440.51	32.770
440.86	33.504
441.22	32.468
441.57	32.703
441.92	32.626
442.27	32.474
442.63	32.774
442.98	31.573
443.33	33.262
443.68	32.746
444.03	32.375
444.39	32.580
444.74	32.971
445.09	31.754
445.44	33.103
445.79	33.285
446.15	33.105
446.50	33.703
446.85	32.122
447.20	31.990
447.55	32.191
447.91	33.458
448.26	32.854
448.61	33.167
448.96	33.442
449.31	33.113
449.66	33.776
450.02	33.874
450.37	33.648
450.72	33.939
451.07	34.264
451.42	33.847
451.77	33.219
452.12	35.224
452.47	32.564
452.83	34.366
453.18	34.535
453.53	34.399
453.88	33.886
454.23	33.992
454.58	33.159
454.93	34.825
455.28	34.149
455.63	34.220
455.98	33.728
456.34	34.590
456.69	35.122
457.04	33.771
457.39	34.229
457.74	34.459
458.09	33.240
458.44	33.516
458.79	33.369
459.14	33.879
459.49	34.202
459.84	34.022
460.19	33.559
460.54	34.872
460.89	33.635
461.24	33.963
461.59	34.297
461.94	34.397
462.29	34.554
462.64	33.668
462.99	33.781
463.34	34.608
463.69	34.483
464.04	35.060
464.39	33.887
464.74	33.939
465.09	34.243
465.44	33.678
465.79	33.805
466.14	33.651
466.49	33.804
466.84	33.835
467.19	35.911
467.54	34.715
467.89	34.038
468.24	33.990
468.59	33.929
468.94	35.266
469.29	34.270
469.64	34.984
469.99	34.769
470.34	35.041
470.68	35.172
471.03	35.757
471.38	34.172
471.73	34.553
472.08	35.877
472.43	35.754
472.78	35.147
473.13	33.917
473.48	34.902
473.83	34.452
474.17	34.468
474.52	34.893
474.87	34.792
475.22	33.409
475.57	34.208
475.92	33.572
476.27	33.188
476.61	33.941
476.96	34.744
477.31	34.653
477.66	35.105
478.01	34.348
478.36	35.170
478.70	33.747
479.05	35.303
479.40	34.226
479.75	35.551
480.10	35.140
480.45	34.500
480.79	34.562
481.14	34.617
481.49	34.035
481.84	33.465
482.19	34.716
482.53	33.641
482.88	33.826
483.23	34.371
483.58	34.605
483.92	34.918
484.27	33.776
484.62	35.314
484.97	34.086
485.31	32.892
485.66	32.894
486.01	31.845
486.36	31.117
486.70	31.054
487.05	31.208
487.40	32.312
487.75	33.039
488.09	32.727
488.44	33.078
488.79	33.738
489.13	34.565
489.48	33.959
489.83	34.028
490.17	34.434
490.52	34.367
490.87	34.224
491.22	34.973
491.56	35.837
491.91	35.081
492.26	34.610
492.60	35.444
492.95	34.934
493.30	34.713
493.64	34.546
493.99	34.481
494.34	34.783
494.68	34.838
495.03	34.890
495.37	35.029
495.72	35.012
496.07	35.310
496.41	34.535
496.76	34.740
497.11	34.876
497.45	34.897
497.80	35.310
498.14	34.628
498.49	35.190
498.84	35.467
499.18	34.963
499.53	35.645
499.87	35.220
500.22	34.684
500.56	35.005
500.91	35.575
501.26	35.645
501.60	36.384
501.95	34.946
502.29	35.289
502.64	35.112
502.98	34.860
503.33	35.902
503.67	35.188
504.02	34.931
504.36	35.792
504.71	35.336
505.06	35.664
505.40	35.751
505.75	35.454
506.09	35.558
506.44	36.043
506.78	36.531
507.13	36.112
507.47	36.439
507.82	37.226
508.16	37.286
508.51	36.135
508.85	36.847
509.19	36.907
509.54	37.305
509.88	38.041
510.23	36.127
510.57	35.811
510.92	37.463
511.26	37.801
511.61	36.337
511.95	37.481
512.30	35.850
512.64	36.864
512.98	37.468
513.33	38.320
513.67	37.494
514.02	38.286
514.36	37.643
514.70	38.347
515.05	37.720
515.39	38.871
515.74	39.147
516.08	38.889
516.42	39.727
516.77	37.760
517.11	39.147
517.46	39.440
517.80	38.012
518.14	38.648
518.49	38.699
518.83	38.791
519.17	38.935
519.52	38.667
519.86	38.910
520.20	39.123
520.55	39.853
520.89	39.195
521.23	40.245
521.58	39.357
521.92	40.875
522.26	40.640
522.61	40.939
522.95	40.541
523.29	39.649
523.64	39.827
523.98	40.669
524.32	39.792
524.66	40.406
525.01	40.592
525.35	40.071
525.69	41.722
526.04	40.809
526.38	40.494
526.72	39.976
527.06	38.912
527.41	41.778
527.75	40.110
528.09	39.916
528.43	40.268
528.78	40.608
529.12	41.481
529.46	40.503
529.80	39.486
530.15	39.953
530.49	39.832
530.83	40.158
531.17	39.791
531.51	40.343
531.86	39.915
532.20	41.038
532.54	40.427
532.88	41.849
533.22	40.280
533.57	39.597
533.91	39.977
534.25	39.873
534.59	40.292
534.93	39.420
535.27	38.987
535.62	38.973
535.96	40.307
536.30	40.951
536.64	40.745
536.98	40.214
537.32	40.688
537.66	40.944
538.01	41.300
538.35	41.859
538.69	39.320
539.03	40.485
539.37	39.563
539.71	40.802
540.05	40.246
540.39	41.258
540.73	40.949
541.07	39.962
541.42	40.174
541.76	40.629
542.10	39.766
542.44	41.147
542.78	40.025
543.12	39.632
543.46	41.040
543.80	41.291
544.14	41.362
544.48	40.937
544.82	41.529
545.16	39.769
545.50	40.688
545.84	41.288
546.18	42.198
546.52	41.967
546.86	41.651
547.20	40.245
547.54	41.545
547.88	40.998
548.22	42.259
548.56	40.837
548.90	40.747
549.24	41.630
549.58	41.559
549.92	42.305
550.26	42.258
550.60	41.583
550.94	42.741
551.28	42.414
551.62	42.207
551.96	42.568
552.30	40.277
552.64	41.359
552.98	40.657
553.32	40.717
553.66	41.042
554.00	41.441
554.34	43.076
554.68	41.935
555.02	41.684
555.36	41.955
555.69	42.539
556.03	41.783
556.37	41.236
556.71	42.960
557.05	41.678
557.39	41.533
557.73	41.779
558.07	42.455
558.41	43.180
558.75	42.134
559.08	42.816
559.42	44.381
559.76	43.906
560.10	41.844
560.44	42.137
560.78	42.583
561.12	41.831
561.45	41.302
561.79	41.885
562.13	40.809
562.47	43.089
562.81	42.550
563.15	41.888
563.48	39.627
563.82	42.670
564.16	41.791
564.50	41.230
564.84	41.277
565.17	42.484
565.51	42.365
565.85	42.628
566.19	41.607
566.52	41.215
566.86	42.557
567.20	41.629
567.54	41.648
567.88	41.575
568.21	39.690
568.55	41.002
568.89	39.507
569.23	39.387
569.56	39.816
569.90	37.981
570.24	38.705
570.57	38.417
570.91	38.066
571.25	37.544
571.59	36.943
571.92	36.975
572.26	37.251
572.60	37.212
572.93	38.355
573.27	38.225
573.61	37.006
573.95	36.778
574.28	37.421
574.62	36.819
574.96	36.279
575.29	36.314
575.63	36.631
575.97	35.589
576.30	36.624
576.64	36.804
576.98	36.127
577.31	37.200
577.65	36.464
577.98	36.155
578.32	36.155
578.66	36.100
578.99	36.543
579.33	37.348
579.67	36.718
580.00	37.056
580.34	37.059
580.67	36.264
581.01	37.217
581.35	36.732
581.68	36.257
582.02	36.479
582.35	36.824
582.69	36.897
583.02	36.572
583.36	37.524
583.70	38.137
584.03	38.553
584.37	38.566
584.70	37.870
585.04	37.973
585.37	37.015
585.71	38.157
586.04	37.350
586.38	37.419
586.72	37.658
587.05	38.266
587.39	38.357
587.72	38.936
588.06	37.596
588.39	38.357
588.73	38.464
589.06	39.276
589.40	39.812
589.73	39.757
590.07	40.357
590.40	39.547
590.73	41.131
591.07	41.063
591.40	40.559
591.74	40.909
592.07	40.058
592.41	40.488
592.74	40.132
593.08	39.876
593.41	39.168
593.75	38.712
594.08	38.897
594.41	39.492
594.75	39.589
595.08	40.158
595.42	40.257
595.75	39.552
596.09	40.216
596.42	40.969
596.75	41.707
597.09	41.973
597.42	41.388
597.75	40.974
598.09	41.444
598.42	40.922
598.76	40.015
599.09	40.309
599.42	39.273
599.76	40.163
600.09	39.864
600.42	40.849
600.76	41.027
601.09	40.559
601.42	40.303
601.76	40.458
602.09	39.809
602.42	40.591
602.76	39.924
603.09	41.063
603.42	41.248
603.76	40.962
604.09	40.753
604.42	41.544
604.76	41.486
605.09	41.184
605.42	41.731
605.75	40.426
606.09	41.201
606.42	40.849
606.75	41.275
607.09	40.584
607.42	40.980
607.75	41.919
608.08	41.105
608.42	42.366
608.75	41.121
609.08	40.915
609.41	42.545
609.75	42.216
610.08	42.311
610.41	43.127
610.74	42.381
611.07	42.565
611.41	42.493
611.74	43.499
612.07	43.064
612.40	42.544
612.73	43.185
613.07	43.943
613.40	44.010
613.73	43.135
614.06	42.200
614.39	43.939
614.72	43.596
615.06	41.939
615.39	43.168
615.72	42.594
616.05	43.546
616.38	43.227
616.71	44.004
617.05	43.053
617.38	42.753
617.71	45.219
618.04	44.083
618.37	44.636
618.70	43.418
619.03	44.567
619.36	45.101
619.69	45.844
620.03	47.815
620.36	46.243
620.69	46.360
621.02	46.739
621.35	45.559
621.68	47.493
622.01	47.823
622.34	45.885
622.67	45.787
623.00	45.133
623.33	44.602
623.66	46.440
623.99	46.096
624.32	46.951
624.65	45.820
624.99	45.707
625.32	46.159
625.65	45.793
625.98	45.955
626.31	47.329
626.64	46.697
626.97	46.289
627.30	47.593
627.63	48.666
627.96	47.418
628.29	47.855
628.62	47.990
628.95	50.443
629.28	49.518
629.61	47.452
629.94	49.006
630.26	50.000
630.59	48.582
630.92	49.596
