SpectraSuite Data File
++++++++++++++++++++++++++++++++++++
Date: Tue May 12 16:29:41 PDT 2015
User: schluterlab
Dark Spectrum Present: Yes
Reference Spectrum Present: Yes
Number of Sampled Component Spectra: 1
Spectrometers: USB2E3373
Integration Time (usec): 3000 (USB2E3373)
Spectra Averaged: 3 (USB2E3373)
Boxcar Smoothing: 0 (USB2E3373)
Correct for Electrical Dark: No (USB2E3373)
Strobe/Lamp Enabled: No (USB2E3373)
Correct for Detector Non-linearity: No (USB2E3373)
Correct for Stray Light: No (USB2E3373)
Number of Pixels in Processed Spectrum: 2048
>>>>>Begin Processed Spectral Data<<<<<
178.53	0.000
178.91	-258.333
179.29	-725.000
179.67	-3300.000
180.04	-106.667
180.42	775.000
180.80	1400.000
181.18	0.000
181.56	-362.500
181.94	0.000
182.31	900.000
182.69	-3300.000
183.07	542.857
183.45	-2900.000
183.83	-2000.000
184.20	440.000
184.58	428.571
184.96	-261.538
185.34	-200.000
185.72	1300.000
186.09	-900.000
186.47	-3900.000
186.85	866.667
187.23	640.000
187.61	1900.000
187.98	462.500
188.36	250.000
188.74	325.000
189.12	316.667
189.49	800.000
189.87	0.000
190.25	550.000
190.63	2500.000
191.00	-308.333
191.38	-2800.000
191.76	-550.000
192.14	512.500
192.51	-2900.000
192.89	2200.000
193.27	1066.667
193.65	-1133.333
194.02	-820.000
194.40	514.286
194.78	-164.286
195.15	260.000
195.53	-3300.000
195.91	-480.000
196.29	4000.000
196.66	206.250
197.04	750.000
197.42	-1150.000
197.79	625.000
198.17	341.667
198.55	0.000
198.92	614.286
199.30	1066.667
199.68	2050.000
200.05	566.667
200.43	-383.333
200.81	222.222
201.18	3900.000
201.56	291.667
201.94	-775.000
202.31	-287.500
202.69	-400.000
203.07	3000.000
203.44	-483.333
203.82	258.333
204.19	540.000
204.57	-1500.000
204.95	-750.000
205.32	-640.000
205.70	650.000
206.08	975.000
206.45	-700.000
206.83	300.000
207.20	200.000
207.58	283.333
207.96	760.000
208.33	0.000
208.71	614.286
209.08	600.000
209.46	-3200.000
209.84	-750.000
210.21	780.000
210.59	-480.000
210.96	250.000
211.34	-825.000
211.71	327.273
212.09	1000.000
212.46	1700.000
212.84	-516.667
213.22	466.667
213.59	-2900.000
213.97	330.000
214.34	850.000
214.72	1366.667
215.09	1066.667
215.47	-3700.000
215.84	-240.000
216.22	-325.000
216.59	0.000
216.97	0.000
217.34	1450.000
217.72	-1450.000
218.09	1366.667
218.47	425.000
218.84	700.000
219.22	1033.333
219.59	1100.000
219.97	485.714
220.34	455.556
220.72	1450.000
221.09	3300.000
221.47	241.667
221.84	1033.333
222.22	310.000
222.59	250.000
222.97	207.143
223.34	218.750
223.72	-1450.000
224.09	1266.667
224.46	300.000
224.84	-875.000
225.21	433.333
225.59	213.333
225.96	1200.000
226.34	-620.000
226.71	-775.000
227.08	-480.000
227.46	0.000
227.83	-516.667
228.21	-1750.000
228.58	300.000
228.95	950.000
229.33	311.111
229.70	950.000
230.08	315.385
230.45	4000.000
230.82	-825.000
231.20	-633.333
231.57	-866.667
231.95	480.000
232.32	291.667
232.69	550.000
233.07	241.667
233.44	-1900.000
233.81	293.333
234.19	144.444
234.56	225.000
234.93	235.294
235.31	170.000
235.68	231.250
236.05	150.000
236.43	170.370
236.80	207.143
237.17	151.724
237.55	134.375
237.92	107.500
238.29	133.333
238.67	106.250
239.04	124.390
239.41	106.250
239.79	112.500
240.16	79.167
240.53	68.852
240.91	75.362
241.28	83.051
241.65	78.788
242.02	77.465
242.40	64.286
242.77	52.747
243.14	56.962
243.51	76.768
243.89	48.598
244.26	58.879
244.63	52.475
245.00	52.294
245.38	41.525
245.75	47.727
246.12	53.333
246.49	45.390
246.87	49.180
247.24	50.000
247.61	43.125
247.98	48.299
248.36	38.788
248.73	45.918
249.10	38.690
249.47	34.500
249.84	36.318
250.22	42.162
250.59	37.500
250.96	37.553
251.33	38.140
251.70	36.607
252.08	37.815
252.45	33.068
252.82	39.924
253.19	34.783
253.56	34.615
253.94	36.594
254.31	34.884
254.68	32.753
255.05	35.862
255.42	37.591
255.79	32.573
256.16	34.237
256.54	34.740
256.91	34.967
257.28	31.104
257.65	29.467
258.02	30.678
258.39	35.817
258.76	34.493
259.14	29.429
259.51	33.528
259.88	33.131
260.25	28.846
260.62	28.219
260.99	29.752
261.36	34.540
261.73	30.053
262.10	31.937
262.47	31.750
262.85	28.533
263.22	30.591
263.59	29.412
263.96	30.075
264.33	30.617
264.70	29.730
265.07	35.610
265.44	27.523
265.81	29.953
266.18	30.206
266.55	29.078
266.92	29.530
267.29	30.044
267.66	28.475
268.03	27.578
268.40	27.273
268.77	33.040
269.14	27.766
269.51	28.285
269.88	29.388
270.25	25.270
270.62	27.039
270.99	31.846
271.36	28.252
271.73	26.205
272.10	28.687
272.47	27.381
272.84	24.750
273.21	28.719
273.58	27.935
273.95	25.667
274.32	27.432
274.69	29.331
275.06	27.505
275.43	26.437
275.80	25.283
276.17	27.022
276.54	28.972
276.91	28.918
277.28	26.825
277.65	28.044
278.02	27.206
278.39	26.799
278.76	26.379
279.13	24.199
279.50	27.818
279.87	26.816
280.23	26.335
280.60	27.737
280.97	26.552
281.34	27.228
281.71	25.565
282.08	24.274
282.45	25.000
282.82	24.247
283.19	24.642
283.56	25.455
283.92	25.081
284.29	25.957
284.66	25.042
285.03	26.202
285.40	24.628
285.77	24.691
286.14	25.851
286.51	26.534
286.87	23.101
287.24	23.273
287.61	24.316
287.98	26.418
288.35	24.444
288.72	22.003
289.08	24.474
289.45	26.372
289.82	25.781
290.19	23.426
290.56	25.910
290.93	24.892
291.29	23.619
291.66	22.740
292.03	25.105
292.40	23.171
292.77	22.006
293.13	22.682
293.50	23.887
293.87	22.493
294.24	22.937
294.60	23.015
294.97	22.657
295.34	23.240
295.71	22.996
296.08	23.733
296.44	23.888
296.81	22.457
297.18	22.814
297.55	22.414
297.91	20.690
298.28	21.135
298.65	22.577
299.02	20.507
299.38	21.703
299.75	20.366
300.12	22.133
300.48	23.770
300.85	22.288
301.22	21.512
301.59	21.580
301.95	21.937
302.32	22.002
302.69	22.285
303.05	23.008
303.42	21.413
303.79	23.185
304.15	20.902
304.52	21.670
304.89	20.682
305.25	21.468
305.62	22.921
305.99	22.609
306.35	22.316
306.72	22.581
307.09	23.085
307.45	23.126
307.82	21.708
308.19	23.918
308.55	22.300
308.92	23.356
309.29	23.964
309.65	23.489
310.02	25.761
310.38	23.031
310.75	23.047
311.12	23.180
311.48	25.193
311.85	24.237
312.22	26.552
312.58	25.170
312.95	26.019
313.31	26.873
313.68	26.454
314.05	27.839
314.41	27.374
314.78	28.409
315.14	29.289
315.51	29.328
315.87	29.197
316.24	31.186
316.61	28.738
316.97	30.183
317.34	31.806
317.70	31.694
318.07	31.762
318.43	31.898
318.80	32.925
319.16	34.266
319.53	33.982
319.89	34.409
320.26	35.661
320.62	38.095
320.99	36.130
321.35	36.735
321.72	39.658
322.08	38.873
322.45	39.237
322.81	40.988
323.18	40.497
323.54	42.596
323.91	44.243
324.27	42.440
324.64	44.291
325.00	45.172
325.37	45.278
325.73	47.386
326.10	49.627
326.46	49.381
326.83	48.640
327.19	51.486
327.56	50.719
327.92	52.705
328.29	54.419
328.65	55.565
329.01	55.004
329.38	55.245
329.74	54.227
330.11	56.473
330.47	56.692
330.84	54.443
331.20	56.853
331.56	59.413
331.93	59.880
332.29	57.483
332.66	60.629
333.02	58.505
333.38	60.995
333.75	59.383
334.11	60.319
334.48	60.171
334.84	60.304
335.20	60.137
335.57	60.285
335.93	61.985
336.29	60.282
336.66	65.009
337.02	59.966
337.38	61.651
337.75	62.162
338.11	62.447
338.47	62.151
338.84	61.050
339.20	63.030
339.56	61.564
339.93	63.462
340.29	60.840
340.65	62.783
341.02	62.912
341.38	62.151
341.74	64.452
342.11	62.020
342.47	63.249
342.83	64.889
343.20	62.167
343.56	61.398
343.92	64.905
344.28	63.238
344.65	65.118
345.01	64.524
345.37	64.583
345.73	63.413
346.10	63.187
346.46	64.115
346.82	60.957
347.19	63.679
347.55	63.778
347.91	63.595
348.27	65.376
348.63	64.953
349.00	62.757
349.36	65.681
349.72	66.208
350.08	66.071
350.45	65.499
350.81	64.144
351.17	64.484
351.53	65.281
351.89	64.413
352.26	63.416
352.62	65.686
352.98	64.494
353.34	66.949
353.70	64.526
354.07	65.154
354.43	65.207
354.79	64.085
355.15	67.152
355.51	65.861
355.87	67.319
356.24	67.436
356.60	65.830
356.96	67.854
357.32	65.486
357.68	66.226
358.04	67.021
358.40	65.967
358.77	67.693
359.13	66.517
359.49	65.159
359.85	67.461
360.21	66.493
360.57	67.591
360.93	67.100
361.29	66.811
361.66	69.500
362.02	65.412
362.38	67.821
362.74	68.082
363.10	68.303
363.46	67.472
363.82	66.269
364.18	68.208
364.54	68.169
364.90	67.336
365.26	69.327
365.62	68.923
365.98	67.515
366.35	67.862
366.71	69.396
367.07	68.055
367.43	67.965
367.79	68.085
368.15	68.792
368.51	68.436
368.87	69.022
369.23	67.845
369.59	68.510
369.95	68.042
370.31	68.309
370.67	68.425
371.03	69.818
371.39	69.183
371.75	69.644
372.11	69.001
372.47	69.384
372.83	70.428
373.19	70.870
373.55	69.072
373.91	69.130
374.27	68.452
374.63	70.237
374.99	68.733
375.35	70.497
375.71	70.383
376.07	70.491
376.42	69.118
376.78	70.584
377.14	71.625
377.50	67.353
377.86	69.122
378.22	71.298
378.58	71.126
378.94	70.308
379.30	71.316
379.66	70.741
380.02	70.557
380.38	70.492
380.74	71.050
381.09	71.145
381.45	69.133
381.81	70.213
382.17	70.085
382.53	71.806
382.89	71.851
383.25	70.219
383.61	69.741
383.97	70.486
384.32	70.705
384.68	71.182
385.04	69.637
385.40	70.937
385.76	69.631
386.12	70.748
386.48	70.699
386.83	70.599
387.19	71.614
387.55	71.084
387.91	71.882
388.27	72.040
388.62	70.070
388.98	70.496
389.34	70.315
389.70	70.224
390.06	71.402
390.42	71.129
390.77	71.499
391.13	70.911
391.49	70.962
391.85	71.569
392.20	70.918
392.56	70.609
392.92	70.298
393.28	70.011
393.64	68.635
393.99	69.354
394.35	70.806
394.71	70.929
395.07	70.499
395.42	69.965
395.78	71.684
396.14	70.723
396.50	69.434
396.85	70.122
397.21	69.976
397.57	70.652
397.92	68.920
398.28	69.774
398.64	68.761
399.00	68.145
399.35	68.116
399.71	69.095
400.07	68.893
400.42	70.030
400.78	69.091
401.14	68.937
401.49	70.161
401.85	69.119
402.21	68.776
402.57	69.420
402.92	69.576
403.28	67.900
403.63	68.040
403.99	68.516
404.35	68.640
404.70	69.640
405.06	68.332
405.42	69.300
405.77	67.585
406.13	68.113
406.49	67.709
406.84	67.061
407.20	67.295
407.55	68.123
407.91	68.666
408.27	69.375
408.62	68.185
408.98	68.303
409.34	68.089
409.69	67.144
410.05	67.263
410.40	68.257
410.76	67.831
411.11	66.943
411.47	66.420
411.83	66.842
412.18	66.727
412.54	68.048
412.89	66.195
413.25	66.762
413.60	67.465
413.96	68.282
414.31	69.185
414.67	69.088
415.03	68.072
415.38	67.886
415.74	69.172
416.09	67.083
416.45	68.520
416.80	70.045
417.16	67.791
417.51	68.280
417.87	68.023
418.22	66.889
418.58	69.299
418.93	68.590
419.29	68.392
419.64	68.322
420.00	68.974
420.35	67.886
420.71	68.728
421.06	68.982
421.42	67.645
421.77	69.350
422.12	68.523
422.48	68.516
422.83	70.089
423.19	69.546
423.54	68.349
423.90	69.196
424.25	69.950
424.61	69.298
424.96	69.339
425.31	70.662
425.67	71.549
426.02	69.938
426.38	69.895
426.73	70.677
427.09	71.530
427.44	70.062
427.79	71.298
428.15	71.126
428.50	71.371
428.85	70.723
429.21	71.529
429.56	70.937
429.92	70.612
430.27	69.908
430.62	70.142
430.98	71.257
431.33	70.514
431.68	68.988
432.04	71.236
432.39	71.625
432.74	71.546
433.10	72.148
433.45	72.889
433.80	71.704
434.16	71.519
434.51	72.549
434.86	71.802
435.22	72.393
435.57	73.266
435.92	72.567
436.28	73.099
436.63	72.393
436.98	73.705
437.34	72.203
437.69	72.900
438.04	71.989
438.39	73.380
438.75	71.882
439.10	73.179
439.45	73.036
439.81	73.973
440.16	73.418
440.51	72.691
440.86	74.245
441.22	72.835
441.57	73.071
441.92	74.284
442.27	73.247
442.63	73.730
442.98	72.522
443.33	73.326
443.68	74.698
444.03	73.657
444.39	74.011
444.74	74.120
445.09	73.828
445.44	74.973
445.79	75.146
446.15	74.000
446.50	74.262
446.85	75.050
447.20	73.333
447.55	75.150
447.91	74.267
448.26	74.228
448.61	75.843
448.96	75.599
449.31	76.733
449.66	75.914
450.02	74.230
450.37	76.624
450.72	75.923
451.07	75.160
451.42	75.756
451.77	76.117
452.12	74.872
452.47	75.273
452.83	76.451
453.18	75.916
453.53	75.903
453.88	76.457
454.23	76.002
454.58	75.291
454.93	75.475
455.28	76.499
455.63	76.182
455.98	75.522
456.34	77.264
456.69	75.793
457.04	75.358
457.39	75.771
457.74	76.408
458.09	75.407
458.44	74.918
458.79	75.703
459.14	76.323
459.49	76.048
459.84	75.815
460.19	75.537
460.54	75.670
460.89	75.853
461.24	74.971
461.59	75.680
461.94	75.709
462.29	75.629
462.64	76.633
462.99	76.328
463.34	77.382
463.69	76.588
464.04	77.432
464.39	74.928
464.74	73.740
465.09	74.579
465.44	74.755
465.79	76.102
466.14	75.040
466.49	76.289
466.84	74.080
467.19	75.981
467.54	75.435
467.89	76.408
468.24	75.796
468.59	75.357
468.94	75.664
469.29	75.199
469.64	75.884
469.99	76.478
470.34	77.293
470.68	76.276
471.03	77.385
471.38	77.086
471.73	76.943
472.08	77.430
472.43	77.405
472.78	75.480
473.13	74.343
473.48	77.445
473.83	76.384
474.17	77.690
474.52	75.474
474.87	76.293
475.22	75.614
475.57	75.603
475.92	74.808
476.27	74.266
476.61	75.764
476.96	75.026
477.31	76.864
477.66	76.973
478.01	75.348
478.36	76.313
478.70	74.739
479.05	76.726
479.40	75.248
479.75	76.068
480.10	76.234
480.45	75.117
480.79	75.069
481.14	75.416
481.49	74.565
481.84	74.714
482.19	74.279
482.53	74.704
482.88	75.045
483.23	75.823
483.58	75.898
483.92	75.366
484.27	73.759
484.62	75.127
484.97	73.705
485.31	73.247
485.66	72.430
486.01	69.978
486.36	69.955
486.70	68.963
487.05	70.294
487.40	71.700
487.75	71.992
488.09	72.415
488.44	72.339
488.79	74.002
489.13	73.834
489.48	75.669
489.83	73.853
490.17	74.030
490.52	74.849
490.87	74.397
491.22	75.044
491.56	75.143
491.91	74.194
492.26	75.323
492.60	76.310
492.95	75.306
493.30	74.841
493.64	75.067
493.99	75.805
494.34	73.375
494.68	74.679
495.03	75.438
495.37	75.867
495.72	75.758
496.07	74.438
496.41	74.631
496.76	74.631
497.11	75.064
497.45	75.055
497.80	75.579
498.14	73.648
498.49	74.280
498.84	74.766
499.18	74.223
499.53	76.206
499.87	73.944
500.22	75.587
500.56	75.209
500.91	74.583
501.26	75.241
501.60	74.863
501.95	74.194
502.29	73.956
502.64	72.475
502.98	74.033
503.33	74.298
503.67	74.260
504.02	74.250
504.36	74.253
504.71	75.118
505.06	75.317
505.40	74.029
505.75	74.275
506.09	74.755
506.44	74.530
506.78	75.000
507.13	75.618
507.47	75.400
507.82	75.134
508.16	75.355
508.51	74.976
508.85	74.406
509.19	76.505
509.54	74.756
509.88	74.988
510.23	75.147
510.57	74.131
510.92	76.274
511.26	75.151
511.61	73.806
511.95	74.365
512.30	74.150
512.64	75.130
512.98	75.448
513.33	74.641
513.67	75.246
514.02	75.792
514.36	75.286
514.70	76.533
515.05	74.694
515.39	76.919
515.74	76.599
516.08	74.619
516.42	77.377
516.77	75.413
517.11	74.933
517.46	75.162
517.80	75.478
518.14	77.408
518.49	75.854
518.83	75.385
519.17	75.430
519.52	77.499
519.86	77.221
520.20	76.767
520.55	75.410
520.89	75.747
521.23	77.570
521.58	75.445
521.92	76.793
522.26	77.429
522.61	77.362
522.95	77.417
523.29	76.901
523.64	75.723
523.98	77.641
524.32	75.548
524.66	75.826
525.01	76.331
525.35	77.136
525.69	76.580
526.04	75.848
526.38	75.397
526.72	76.134
527.06	75.458
527.41	77.630
527.75	77.358
528.09	76.099
528.43	76.266
528.78	74.896
529.12	79.109
529.46	76.154
529.80	74.825
530.15	75.722
530.49	75.451
530.83	75.990
531.17	76.076
531.51	76.824
531.86	75.362
532.20	76.267
532.54	76.146
532.88	76.452
533.22	75.259
533.57	75.595
533.91	73.893
534.25	74.495
534.59	74.795
534.93	73.891
535.27	73.250
535.62	73.629
535.96	75.059
536.30	75.320
536.64	73.478
536.98	75.079
537.32	74.437
537.66	75.957
538.01	74.613
538.35	75.234
538.69	72.755
539.03	74.938
539.37	73.786
539.71	73.951
540.05	73.846
540.39	74.528
540.73	74.810
541.07	74.529
541.42	74.316
541.76	74.599
542.10	74.168
542.44	74.938
542.78	74.890
543.12	73.865
543.46	73.935
543.80	74.812
544.14	73.375
544.48	75.000
544.82	73.823
545.16	72.617
545.50	74.493
545.84	74.369
546.18	76.723
546.52	76.197
546.86	73.823
547.20	73.514
547.54	74.414
547.88	72.567
548.22	74.438
548.56	71.951
548.90	72.598
549.24	73.658
549.58	73.776
549.92	74.591
550.26	74.510
550.60	73.653
550.94	76.594
551.28	74.483
551.62	76.414
551.96	74.595
552.30	74.357
552.64	74.628
552.98	73.776
553.32	73.175
553.66	73.355
554.00	74.260
554.34	74.900
554.68	74.933
555.02	73.999
555.36	72.872
555.69	74.476
556.03	72.102
556.37	73.614
556.71	74.902
557.05	72.149
557.39	73.867
557.73	73.652
558.07	74.447
558.41	74.914
558.75	73.393
559.08	75.197
559.42	77.452
559.76	75.339
560.10	73.847
560.44	73.524
560.78	74.233
561.12	74.062
561.45	72.841
561.79	73.283
562.13	74.416
562.47	74.432
562.81	73.650
563.15	73.432
563.48	70.124
563.82	74.423
564.16	72.326
564.50	70.524
564.84	72.948
565.17	71.777
565.51	75.369
565.85	73.535
566.19	72.440
566.52	74.368
566.86	74.139
567.20	72.135
567.54	71.397
567.88	72.405
568.21	70.145
568.55	71.060
568.89	69.389
569.23	67.472
569.56	69.848
569.90	67.409
570.24	67.734
570.57	67.164
570.91	65.554
571.25	65.125
571.59	65.003
571.92	64.370
572.26	64.151
572.60	64.149
572.93	66.216
573.27	65.508
573.61	64.510
573.95	65.239
574.28	64.784
574.62	63.670
574.96	63.088
575.29	63.233
575.63	63.180
575.97	62.853
576.30	63.908
576.64	64.437
576.98	63.199
577.31	64.076
577.65	63.515
577.98	62.324
578.32	62.737
578.66	61.975
578.99	63.205
579.33	63.239
579.67	63.351
580.00	63.518
580.34	63.277
580.67	62.729
581.01	63.353
581.35	62.512
581.68	62.604
582.02	62.554
582.35	62.088
582.69	62.493
583.02	62.932
583.36	63.805
583.70	64.192
584.03	65.449
584.37	64.109
584.70	64.270
585.04	63.145
585.37	63.751
585.71	64.112
586.04	62.853
586.38	62.940
586.72	64.324
587.05	63.767
587.39	64.223
587.72	64.821
588.06	63.919
588.39	64.048
588.73	64.424
589.06	65.276
589.40	66.448
589.73	66.175
590.07	67.021
590.40	67.526
590.73	67.756
591.07	67.400
591.40	67.265
591.74	68.060
592.07	66.847
592.41	66.067
592.74	65.471
593.08	64.746
593.41	65.021
593.75	64.422
594.08	64.152
594.41	64.223
594.75	65.616
595.08	65.158
595.42	65.438
595.75	64.166
596.09	66.180
596.42	65.732
596.75	67.989
597.09	67.643
597.42	66.163
597.75	66.207
598.09	66.968
598.42	66.503
598.76	66.114
599.09	66.127
599.42	63.910
599.76	64.417
600.09	64.339
600.42	64.088
600.76	64.480
601.09	64.550
601.42	65.048
601.76	65.951
602.09	66.188
602.42	64.325
602.76	65.389
603.09	66.290
603.42	65.688
603.76	64.931
604.09	65.436
604.42	65.574
604.76	65.626
605.09	65.837
605.42	65.746
605.75	65.693
606.09	65.953
606.42	65.351
606.75	66.148
607.09	65.377
607.42	66.653
607.75	65.924
608.08	65.435
608.42	65.814
608.75	65.854
609.08	65.904
609.41	66.318
609.75	67.399
610.08	66.547
610.41	66.930
610.74	66.494
611.07	67.167
611.41	67.563
611.74	67.017
612.07	67.823
612.40	66.959
612.73	68.847
613.07	68.120
613.40	68.421
613.73	67.748
614.06	65.950
614.39	67.677
614.72	67.303
615.06	66.518
615.39	66.040
615.72	66.505
616.05	66.901
616.38	66.616
616.71	67.499
617.05	67.216
617.38	68.539
617.71	68.616
618.04	67.919
618.37	67.426
618.70	68.591
619.03	67.888
619.36	68.530
619.69	69.195
620.03	70.907
620.36	69.685
620.69	70.051
621.02	69.769
621.35	69.341
621.68	71.460
622.01	72.325
622.34	70.940
622.67	69.733
623.00	69.435
623.33	68.826
623.66	70.526
623.99	70.548
624.32	68.902
624.65	69.059
624.99	70.250
625.32	69.673
625.65	70.759
625.98	69.386
626.31	71.662
626.64	70.843
626.97	69.931
627.30	72.748
627.63	72.214
627.96	72.066
628.29	74.422
628.62	73.225
628.95	74.113
629.28	75.986
629.61	71.178
629.94	74.589
630.26	73.137
630.59	75.709
630.92	74.170
631.25	73.436
