SpectraSuite Data File
++++++++++++++++++++++++++++++++++++
Date: Tue May 12 16:35:43 PDT 2015
User: schluterlab
Dark Spectrum Present: Yes
Reference Spectrum Present: Yes
Number of Sampled Component Spectra: 1
Spectrometers: USB2E3373
Integration Time (usec): 3000 (USB2E3373)
Spectra Averaged: 3 (USB2E3373)
Boxcar Smoothing: 0 (USB2E3373)
Correct for Electrical Dark: No (USB2E3373)
Strobe/Lamp Enabled: No (USB2E3373)
Correct for Detector Non-linearity: No (USB2E3373)
Correct for Stray Light: No (USB2E3373)
Number of Pixels in Processed Spectrum: 2048
>>>>>Begin Processed Spectral Data<<<<<
178.53	0.000
178.91	-200.000
179.29	-800.000
179.67	-3000.000
180.04	-140.000
180.42	675.000
180.80	1500.000
181.18	0.000
181.56	-350.000
181.94	0.000
182.31	833.333
182.69	-2600.000
183.07	600.000
183.45	-3900.000
183.83	-1200.000
184.20	290.000
184.58	542.857
184.96	-230.769
185.34	-166.667
185.72	1850.000
186.09	-750.000
186.47	-3200.000
186.85	1000.000
187.23	540.000
187.61	1450.000
187.98	412.500
188.36	300.000
188.74	383.333
189.12	375.000
189.49	750.000
189.87	0.000
190.25	350.000
190.63	2100.000
191.00	-150.000
191.38	-2400.000
191.76	-750.000
192.14	525.000
192.51	-2100.000
192.89	1750.000
193.27	1200.000
193.65	-1200.000
194.02	-600.000
194.40	628.571
194.78	-171.429
195.15	173.333
195.53	-3000.000
195.91	-400.000
196.29	3700.000
196.66	212.500
197.04	775.000
197.42	-1400.000
197.79	750.000
198.17	275.000
198.55	0.000
198.92	285.714
199.30	1033.333
199.68	1450.000
200.05	650.000
200.43	-250.000
200.81	161.111
201.18	3700.000
201.56	275.000
201.94	-675.000
202.31	-312.500
202.69	-740.000
203.07	3200.000
203.44	-416.667
203.82	391.667
204.19	620.000
204.57	-1350.000
204.95	-675.000
205.32	-860.000
205.70	483.333
206.08	775.000
206.45	-933.333
206.83	433.333
207.20	168.421
207.58	241.667
207.96	740.000
208.33	0.000
208.71	557.143
209.08	440.000
209.46	-2300.000
209.84	-600.000
210.21	880.000
210.59	-560.000
210.96	325.000
211.34	-700.000
211.71	427.273
212.09	800.000
212.46	1700.000
212.84	-566.667
213.22	433.333
213.59	-1400.000
213.97	300.000
214.34	1050.000
214.72	1166.667
215.09	900.000
215.47	-2300.000
215.84	-290.000
216.22	-312.500
216.59	0.000
216.97	0.000
217.34	1150.000
217.72	-1100.000
218.09	1266.667
218.47	450.000
218.84	400.000
219.22	1266.667
219.59	1033.333
219.97	442.857
220.34	433.333
220.72	1300.000
221.09	2200.000
221.47	250.000
221.84	733.333
222.22	310.000
222.59	211.111
222.97	285.714
223.34	212.500
223.72	-1500.000
224.09	966.667
224.46	284.615
224.84	-900.000
225.21	288.889
225.59	206.667
225.96	1233.333
226.34	-620.000
226.71	-800.000
227.08	-420.000
227.46	0.000
227.83	-333.333
228.21	-1300.000
228.58	308.333
228.95	850.000
229.33	388.889
229.70	1075.000
230.08	261.538
230.45	2500.000
230.82	-725.000
231.20	-766.667
231.57	-633.333
231.95	540.000
232.32	308.333
232.69	683.333
233.07	350.000
233.44	-1100.000
233.81	180.000
234.19	129.630
234.56	225.000
234.93	176.471
235.31	170.000
235.68	206.250
236.05	146.429
236.43	140.741
236.80	242.857
237.17	134.483
237.55	125.000
237.92	112.500
238.29	118.182
238.67	112.500
239.04	102.439
239.41	68.750
239.79	97.500
240.16	87.500
240.53	55.738
240.91	50.725
241.28	47.458
241.65	43.939
242.02	56.338
242.40	68.571
242.77	56.044
243.14	35.443
243.51	50.505
243.89	44.860
244.26	26.168
244.63	46.535
245.00	34.862
245.38	30.508
245.75	34.848
246.12	31.111
246.49	37.589
246.87	33.607
247.24	34.000
247.61	37.500
247.98	35.374
248.36	24.848
248.73	36.224
249.10	27.976
249.47	33.000
249.84	26.368
250.22	28.649
250.59	29.500
250.96	26.582
251.33	26.047
251.70	29.018
252.08	26.471
252.45	23.904
252.82	25.475
253.19	26.087
253.56	21.923
253.94	24.275
254.31	20.543
254.68	22.648
255.05	25.862
255.42	23.723
255.79	24.430
256.16	21.356
256.54	21.104
256.91	20.261
257.28	23.411
257.65	19.122
258.02	18.584
258.39	23.782
258.76	22.319
259.14	20.571
259.51	24.490
259.88	23.100
260.25	19.780
260.62	21.644
260.99	17.906
261.36	17.270
261.73	20.213
262.10	19.110
262.47	20.250
262.85	19.733
263.22	18.252
263.59	24.041
263.96	20.301
264.33	18.519
264.70	20.147
265.07	18.780
265.44	21.330
265.81	20.283
266.18	19.451
266.55	17.258
266.92	19.016
267.29	17.763
267.66	18.386
268.03	18.386
268.40	19.027
268.77	19.824
269.14	17.787
269.51	17.817
269.88	18.163
270.25	14.687
270.62	17.382
270.99	19.878
271.36	15.041
271.73	16.352
272.10	18.990
272.47	17.857
272.84	15.170
273.21	17.562
273.58	19.028
273.95	20.329
274.32	17.704
274.69	18.701
275.06	18.033
275.43	17.433
275.80	15.660
276.17	18.382
276.54	18.505
276.91	19.403
277.28	17.153
277.65	16.052
278.02	17.096
278.39	18.705
278.76	16.552
279.13	16.904
279.50	15.818
279.87	16.574
280.23	17.311
280.60	16.241
280.97	16.034
281.34	15.182
281.71	19.130
282.08	15.726
282.45	15.541
282.82	16.890
283.19	15.103
283.56	14.380
283.92	17.915
284.29	16.639
284.66	15.630
285.03	15.589
285.40	15.041
285.77	14.198
286.14	17.183
286.51	15.337
286.87	15.665
287.24	13.964
287.61	15.046
287.98	14.030
288.35	15.556
288.72	14.112
289.08	16.216
289.45	14.787
289.82	15.313
290.19	15.813
290.56	17.031
290.93	14.532
291.29	13.122
291.66	13.701
292.03	15.147
292.40	15.447
292.77	14.067
293.13	16.405
293.50	14.035
293.87	13.144
294.24	14.126
294.60	15.478
294.97	14.545
295.34	14.077
295.71	14.717
296.08	14.000
296.44	14.740
296.81	13.275
297.18	13.054
297.55	13.547
297.91	12.315
298.28	13.406
298.65	13.006
299.02	12.666
299.38	13.909
299.75	12.683
300.12	13.073
300.48	13.934
300.85	13.826
301.22	13.605
301.59	11.203
301.95	12.019
302.32	12.806
302.69	13.575
303.05	13.131
303.42	13.117
303.79	13.868
304.15	12.321
304.52	13.002
304.89	14.072
305.25	13.014
305.62	11.940
305.99	11.957
306.35	11.895
306.72	11.342
307.09	12.319
307.45	12.672
307.82	11.111
308.19	12.577
308.55	11.700
308.92	13.346
309.29	13.116
309.65	12.289
310.02	13.489
310.38	11.665
310.75	12.825
311.12	12.356
311.48	12.838
311.85	13.359
312.22	12.703
312.58	12.731
312.95	12.816
313.31	13.483
313.68	12.852
314.05	13.828
314.41	13.128
314.78	11.648
315.14	13.555
315.51	13.529
315.87	12.956
316.24	14.846
316.61	12.355
316.97	12.752
317.34	13.657
317.70	12.994
318.07	14.235
318.43	13.620
318.80	14.098
319.16	13.811
319.53	14.248
319.89	13.172
320.26	14.618
320.62	16.026
320.99	15.348
321.35	16.419
321.72	16.224
322.08	15.974
322.45	16.440
322.81	14.456
323.18	15.719
323.54	17.422
323.91	16.591
324.27	15.385
324.64	15.311
325.00	16.724
325.37	18.212
325.73	17.116
326.10	17.730
326.46	17.836
326.83	16.320
327.19	17.510
327.56	16.853
327.92	18.033
328.29	19.067
328.65	18.579
329.01	17.622
329.38	18.528
329.74	17.336
330.11	18.071
330.47	17.562
330.84	16.739
331.20	18.866
331.56	19.085
331.93	19.333
332.29	17.687
332.66	18.707
333.02	17.698
333.38	17.976
333.75	19.933
334.11	18.708
334.48	17.607
334.84	18.074
335.20	19.675
335.57	18.052
335.93	17.746
336.29	17.910
336.66	18.868
337.02	17.707
337.38	18.057
337.75	18.834
338.11	18.143
338.47	17.443
338.84	17.866
339.20	17.576
339.56	18.335
339.93	18.478
340.29	17.311
340.65	19.195
341.02	18.986
341.38	18.227
341.74	19.020
342.11	18.280
342.47	17.637
342.83	17.801
343.20	18.432
343.56	17.156
343.92	18.084
344.28	18.900
344.65	17.604
345.01	18.413
345.37	17.628
345.73	17.460
346.10	17.689
346.46	18.660
346.82	18.210
347.19	18.547
347.55	17.564
347.91	17.749
348.27	17.583
348.63	17.563
349.00	18.355
349.36	17.198
349.72	18.731
350.08	18.556
350.45	19.040
350.81	18.731
351.17	16.333
351.53	17.398
351.89	18.493
352.26	16.704
352.62	18.627
352.98	17.561
353.34	18.336
353.70	15.826
354.07	18.615
354.43	18.049
354.79	17.388
355.15	18.070
355.51	17.749
355.87	18.223
356.24	17.398
356.60	17.047
356.96	17.210
357.32	17.182
357.68	17.988
358.04	16.869
358.40	18.741
358.77	18.032
359.13	17.793
359.49	17.569
359.85	17.647
360.21	17.608
360.57	18.686
360.93	16.955
361.29	17.965
361.66	17.897
362.02	16.406
362.38	17.965
362.74	18.117
363.10	18.093
363.46	16.989
363.82	18.022
364.18	17.212
364.54	18.169
364.90	18.005
365.26	17.488
365.62	17.610
365.98	16.999
366.35	16.759
366.71	17.349
367.07	17.133
367.43	17.864
367.79	17.021
368.15	16.621
368.51	17.781
368.87	16.101
369.23	17.186
369.59	17.869
369.95	18.601
370.31	17.043
370.67	17.280
371.03	18.137
371.39	16.967
371.75	17.097
372.11	17.539
372.47	17.397
372.83	17.811
373.19	17.958
373.55	17.663
373.91	16.367
374.27	17.857
374.63	17.559
374.99	17.655
375.35	17.137
375.71	17.216
376.07	17.706
376.42	16.688
376.78	17.983
377.14	17.890
377.50	17.478
377.86	17.809
378.22	17.367
378.58	17.797
378.94	18.407
379.30	17.041
379.66	17.821
380.02	18.240
380.38	17.272
380.74	18.166
381.09	18.400
381.45	17.746
381.81	17.435
382.17	17.766
382.53	17.936
382.89	17.504
383.25	17.348
383.61	17.867
383.97	17.337
384.32	17.480
384.68	18.479
385.04	18.171
385.40	17.200
385.76	17.554
386.12	18.120
386.48	17.082
386.83	17.726
387.19	17.727
387.55	17.786
387.91	17.667
388.27	17.728
388.62	18.016
388.98	16.968
389.34	16.597
389.70	16.981
390.06	17.378
390.42	17.212
390.77	17.752
391.13	17.984
391.49	17.907
391.85	17.415
392.20	17.938
392.56	18.399
392.92	17.181
393.28	17.545
393.64	17.431
393.99	17.546
394.35	17.599
394.71	16.707
395.07	16.727
395.42	17.213
395.78	17.890
396.14	17.892
396.50	16.847
396.85	17.683
397.21	17.208
397.57	17.992
397.92	17.042
398.28	16.878
398.64	18.092
399.00	16.462
399.35	16.694
399.71	17.329
400.07	17.009
400.42	17.015
400.78	16.891
401.14	16.853
401.49	16.359
401.85	17.092
402.21	16.813
402.57	17.654
402.92	17.152
403.28	17.243
403.63	16.833
403.99	17.672
404.35	17.526
404.70	17.484
405.06	16.395
405.42	16.457
405.77	16.097
406.13	16.757
406.49	16.543
406.84	16.187
407.20	16.267
407.55	17.600
407.91	17.167
408.27	17.101
408.62	16.617
408.98	17.268
409.34	16.832
409.69	17.050
410.05	15.742
410.40	16.843
410.76	16.256
411.11	16.114
411.47	16.975
411.83	15.173
412.18	15.580
412.54	16.396
412.89	16.460
413.25	16.705
413.60	16.472
413.96	17.475
414.31	15.939
414.67	17.753
415.03	17.178
415.38	16.088
415.74	16.298
416.09	16.240
416.45	18.100
416.80	17.383
417.16	16.741
417.51	16.369
417.87	15.707
418.22	17.193
418.58	16.369
418.93	15.883
419.29	16.143
419.64	16.475
420.00	17.422
420.35	15.912
420.71	16.453
421.06	16.480
421.42	16.350
421.77	16.269
422.12	16.262
422.48	16.538
422.83	16.629
423.19	16.631
423.54	16.840
423.90	16.591
424.25	16.236
424.61	17.063
424.96	16.431
425.31	16.858
425.67	16.891
426.02	16.601
426.38	16.336
426.73	17.004
427.09	17.497
427.44	16.995
427.79	16.409
428.15	17.148
428.50	16.971
428.85	16.931
429.21	16.153
429.56	16.600
429.92	16.857
430.27	16.207
430.62	16.642
430.98	16.218
431.33	17.087
431.68	16.247
432.04	16.813
432.39	17.234
432.74	17.506
433.10	16.611
433.45	17.231
433.80	17.540
434.16	16.448
434.51	17.492
434.86	17.910
435.22	16.478
435.57	17.190
435.92	17.814
436.28	18.260
436.63	17.234
436.98	17.849
437.34	17.066
437.69	16.685
438.04	17.742
438.39	17.513
438.75	16.871
439.10	16.838
439.45	17.694
439.81	17.929
440.16	17.116
440.51	16.779
440.86	17.721
441.22	17.478
441.57	17.480
441.92	17.177
442.27	16.392
442.63	16.768
442.98	16.810
443.33	16.979
443.68	17.103
444.03	17.059
444.39	17.750
444.74	17.288
445.09	17.167
445.44	17.216
445.79	16.715
446.15	17.000
446.50	17.563
446.85	17.580
447.20	16.816
447.55	17.129
447.91	18.380
448.26	17.412
448.61	17.966
448.96	17.484
449.31	17.547
449.66	17.497
450.02	16.586
450.37	16.269
450.72	17.631
451.07	17.743
451.42	17.487
451.77	17.640
452.12	17.811
452.47	17.740
452.83	17.746
453.18	16.997
453.53	17.821
453.88	18.057
454.23	17.664
454.58	17.657
454.93	17.535
455.28	18.543
455.63	17.612
455.98	17.992
456.34	17.933
456.69	17.561
457.04	17.601
457.39	17.371
457.74	18.468
458.09	17.687
458.44	17.744
458.79	17.719
459.14	17.567
459.49	18.007
459.84	18.098
460.19	17.684
460.54	17.721
460.89	17.164
461.24	17.698
461.59	18.424
461.94	17.553
462.29	17.849
462.64	18.656
462.99	18.298
463.34	18.730
463.69	18.330
464.04	18.077
464.39	18.432
464.74	17.409
465.09	18.224
465.44	17.247
465.79	17.039
466.14	17.329
466.49	16.983
466.84	17.781
467.19	18.161
467.54	17.718
467.89	17.899
468.24	18.066
468.59	17.679
468.94	17.935
469.29	18.326
469.64	18.264
469.99	17.609
470.34	17.774
470.68	18.621
471.03	18.212
471.38	18.079
471.73	17.636
472.08	19.374
472.43	17.877
472.78	18.630
473.13	18.210
473.48	18.154
473.83	18.080
474.17	18.055
474.52	18.306
474.87	18.192
475.22	17.590
475.57	18.206
475.92	17.578
476.27	17.737
476.61	17.265
476.96	17.555
477.31	18.046
477.66	18.143
478.01	17.999
478.36	17.302
478.70	16.625
479.05	17.207
479.40	17.560
479.75	17.875
480.10	17.183
480.45	17.554
480.79	17.880
481.14	17.594
481.49	17.521
481.84	17.414
482.19	17.860
482.53	17.962
482.88	17.697
483.23	17.095
483.58	17.190
483.92	18.236
484.27	16.866
484.62	17.317
484.97	16.985
485.31	16.672
485.66	16.315
486.01	15.383
486.36	15.504
486.70	15.453
487.05	15.695
487.40	16.406
487.75	16.260
488.09	16.477
488.44	16.699
488.79	16.418
489.13	17.357
489.48	16.940
489.83	17.598
490.17	17.052
490.52	17.399
490.87	17.845
491.22	17.332
491.56	18.226
491.91	17.742
492.26	17.996
492.60	18.132
492.95	18.124
493.30	18.016
493.64	17.385
493.99	17.487
494.34	17.078
494.68	17.486
495.03	18.051
495.37	18.505
495.72	17.855
496.07	17.385
496.41	17.376
496.76	16.969
497.11	17.352
497.45	17.887
497.80	17.563
498.14	18.031
498.49	18.013
498.84	18.271
499.18	17.093
499.53	17.869
499.87	17.296
500.22	17.457
500.56	17.084
500.91	18.646
501.26	18.006
501.60	17.942
501.95	17.339
502.29	17.511
502.64	17.292
502.98	16.630
503.33	17.595
503.67	17.307
504.02	17.510
504.36	18.054
504.71	17.975
505.06	17.738
505.40	17.642
505.75	17.680
506.09	18.105
506.44	17.434
506.78	17.769
507.13	17.547
507.47	17.855
507.82	18.248
508.16	18.079
508.51	18.116
508.85	18.376
509.19	17.670
509.54	18.115
509.88	18.399
510.23	17.696
510.57	17.471
510.92	18.581
511.26	17.520
511.61	17.725
511.95	18.118
512.30	17.600
512.64	17.757
512.98	17.940
513.33	18.340
513.67	18.488
514.02	17.974
514.36	17.965
514.70	17.867
515.05	17.315
515.39	17.928
515.74	18.535
516.08	18.246
516.42	18.798
516.77	18.613
517.11	18.187
517.46	18.319
517.80	17.859
518.14	19.099
518.49	18.026
518.83	18.352
519.17	18.525
519.52	18.733
519.86	17.548
520.20	18.575
520.55	18.768
520.89	18.506
521.23	18.224
521.58	18.703
521.92	18.426
522.26	18.780
522.61	18.598
522.95	18.498
523.29	19.474
523.64	17.861
523.98	19.190
524.32	18.570
524.66	18.609
525.01	17.988
525.35	18.680
525.69	19.506
526.04	19.274
526.38	18.717
526.72	17.900
527.06	18.391
527.41	19.468
527.75	18.381
528.09	18.122
528.43	18.426
528.78	18.843
529.12	19.205
529.46	18.936
529.80	18.049
530.15	18.150
530.49	17.990
530.83	18.891
531.17	18.758
531.51	19.436
531.86	18.297
532.20	17.553
532.54	18.895
532.88	18.988
533.22	18.586
533.57	19.097
533.91	17.133
534.25	17.657
534.59	18.772
534.93	18.373
535.27	17.245
535.62	17.911
535.96	17.849
536.30	18.830
536.64	18.199
536.98	18.565
537.32	18.375
537.66	18.304
538.01	18.824
538.35	18.715
538.69	17.658
539.03	17.537
539.37	18.204
539.71	18.457
540.05	18.400
540.39	19.308
540.73	18.797
541.07	17.378
541.42	17.724
541.76	18.927
542.10	18.557
542.44	19.264
542.78	17.684
543.12	17.853
543.46	18.672
543.80	18.421
544.14	18.762
544.48	17.944
544.82	19.205
545.16	16.697
545.50	18.623
545.84	18.687
546.18	19.051
546.52	19.213
546.86	18.053
547.20	17.700
547.54	18.936
547.88	17.822
548.22	18.458
548.56	18.562
548.90	17.734
549.24	18.762
549.58	18.686
549.92	18.533
550.26	18.323
550.60	18.297
550.94	17.775
551.28	19.379
551.62	19.517
551.96	17.703
552.30	17.732
552.64	19.029
552.98	18.363
553.32	18.118
553.66	18.567
554.00	18.468
554.34	19.174
554.68	18.481
555.02	18.398
555.36	18.285
555.69	18.783
556.03	18.917
556.37	18.356
556.71	18.709
557.05	17.693
557.39	18.733
557.73	19.542
558.07	18.578
558.41	18.369
558.75	19.220
559.08	18.370
559.42	19.112
559.76	19.173
560.10	18.307
560.44	18.115
560.78	19.246
561.12	19.326
561.45	18.711
561.79	18.664
562.13	17.941
562.47	17.716
562.81	18.738
563.15	17.841
563.48	17.019
563.82	18.840
564.16	17.848
564.50	18.746
564.84	18.359
565.17	18.360
565.51	18.411
565.85	18.939
566.19	18.631
566.52	17.208
566.86	18.097
567.20	17.697
567.54	17.740
567.88	17.684
568.21	16.925
568.55	17.121
568.89	17.153
569.23	17.688
569.56	16.933
569.90	16.349
570.24	16.525
570.57	16.450
570.91	16.131
571.25	15.777
571.59	15.877
571.92	15.178
572.26	15.283
572.60	15.357
572.93	15.699
573.27	15.049
573.61	15.512
573.95	15.637
574.28	15.487
574.62	15.184
574.96	15.212
575.29	14.716
575.63	14.912
575.97	15.019
576.30	14.933
576.64	14.887
576.98	14.883
577.31	15.633
577.65	15.015
577.98	14.682
578.32	14.530
578.66	14.794
578.99	14.663
579.33	14.953
579.67	14.909
580.00	14.859
580.34	14.819
580.67	15.101
581.01	15.317
581.35	14.868
581.68	14.647
582.02	14.555
582.35	14.690
582.69	14.627
583.02	14.888
583.36	14.934
583.70	15.103
584.03	15.188
584.37	15.295
584.70	15.302
585.04	15.299
585.37	14.540
585.71	15.371
586.04	15.261
586.38	14.891
586.72	15.573
587.05	15.440
587.39	15.499
587.72	15.248
588.06	14.974
588.39	15.507
588.73	15.364
589.06	15.524
589.40	15.336
589.73	15.339
590.07	16.369
590.40	16.272
590.73	16.379
591.07	16.395
591.40	15.848
591.74	15.828
592.07	15.433
592.41	16.427
592.74	15.233
593.08	15.462
593.41	15.171
593.75	15.256
594.08	15.830
594.41	15.314
594.75	15.411
595.08	15.844
595.42	15.866
595.75	15.597
596.09	15.885
596.42	15.368
596.75	16.506
597.09	16.467
597.42	15.796
597.75	15.700
598.09	15.962
598.42	16.524
598.76	15.960
599.09	16.182
599.42	15.433
599.76	15.943
600.09	15.831
600.42	15.504
600.76	15.092
601.09	15.568
601.42	15.769
601.76	15.288
602.09	15.820
602.42	15.601
602.76	15.750
603.09	15.988
603.42	15.817
603.76	16.197
604.09	15.671
604.42	15.631
604.76	16.120
605.09	16.082
605.42	15.969
605.75	15.989
606.09	15.761
606.42	15.596
606.75	15.585
607.09	15.792
607.42	15.830
607.75	16.003
608.08	15.719
608.42	16.275
608.75	15.233
609.08	16.102
609.41	16.091
609.75	16.438
610.08	16.862
610.41	15.810
610.74	16.061
611.07	16.462
611.41	16.728
611.74	16.300
612.07	15.848
612.40	16.277
612.73	16.475
613.07	16.878
613.40	16.341
613.73	16.276
614.06	15.850
614.39	16.465
614.72	16.675
615.06	16.271
615.39	16.782
615.72	15.102
616.05	16.424
616.38	16.591
616.71	16.983
617.05	16.529
617.38	16.573
617.71	17.042
618.04	17.050
618.37	16.454
618.70	15.647
619.03	16.422
619.36	17.337
619.69	16.689
620.03	18.395
620.36	17.277
620.69	18.008
621.02	17.527
621.35	17.622
621.68	17.699
622.01	18.450
622.34	17.844
622.67	17.697
623.00	17.699
623.33	17.679
623.66	17.099
623.99	16.712
624.32	17.954
624.65	17.709
624.99	17.715
625.32	17.435
625.65	17.172
625.98	17.573
626.31	17.433
626.64	16.325
626.97	18.057
627.30	17.780
627.63	18.289
627.96	18.310
628.29	17.904
628.62	17.879
628.95	19.681
629.28	20.508
629.61	17.575
629.94	18.669
630.26	18.804
630.59	18.794
630.92	18.834
631.25	19.583
