SpectraSuite Data File
++++++++++++++++++++++++++++++++++++
Date: Tue May 12 16:55:11 PDT 2015
User: schluterlab
Dark Spectrum Present: Yes
Reference Spectrum Present: Yes
Number of Sampled Component Spectra: 1
Spectrometers: USB2E3373
Integration Time (usec): 3000 (USB2E3373)
Spectra Averaged: 3 (USB2E3373)
Boxcar Smoothing: 0 (USB2E3373)
Correct for Electrical Dark: No (USB2E3373)
Strobe/Lamp Enabled: No (USB2E3373)
Correct for Detector Non-linearity: No (USB2E3373)
Correct for Stray Light: No (USB2E3373)
Number of Pixels in Processed Spectrum: 2048
>>>>>Begin Processed Spectral Data<<<<<
178.53	0.000
178.91	-225.000
179.29	-550.000
179.67	-4400.000
180.04	-113.333
180.42	775.000
180.80	1700.000
181.18	0.000
181.56	-237.500
181.94	0.000
182.31	1133.333
182.69	-2700.000
183.07	585.714
183.45	-4900.000
183.83	-1650.000
184.20	290.000
184.58	485.714
184.96	-284.615
185.34	-175.000
185.72	1750.000
186.09	-775.000
186.47	-2500.000
186.85	900.000
187.23	560.000
187.61	1350.000
187.98	437.500
188.36	278.571
188.74	275.000
189.12	283.333
189.49	900.000
189.87	0.000
190.25	462.500
190.63	2700.000
191.00	-233.333
191.38	-3600.000
191.76	-775.000
192.14	612.500
192.51	-3300.000
192.89	1800.000
193.27	1200.000
193.65	-866.667
194.02	-620.000
194.40	514.286
194.78	-250.000
195.15	206.667
195.53	-2200.000
195.91	-540.000
196.29	4100.000
196.66	168.750
197.04	900.000
197.42	-900.000
197.79	700.000
198.17	350.000
198.55	0.000
198.92	414.286
199.30	1266.667
199.68	2450.000
200.05	650.000
200.43	-516.667
200.81	200.000
201.18	3600.000
201.56	266.667
201.94	-800.000
202.31	-275.000
202.69	-300.000
203.07	3200.000
203.44	-433.333
203.82	300.000
204.19	560.000
204.57	-1750.000
204.95	-625.000
205.32	-660.000
205.70	600.000
206.08	825.000
206.45	-933.333
206.83	455.556
207.20	163.158
207.58	233.333
207.96	520.000
208.33	0.000
208.71	500.000
209.08	660.000
209.46	-2700.000
209.84	-950.000
210.21	700.000
210.59	-540.000
210.96	275.000
211.34	-1000.000
211.71	345.455
212.09	875.000
212.46	1350.000
212.84	-450.000
213.22	444.444
213.59	-2400.000
213.97	260.000
214.34	1075.000
214.72	933.333
215.09	1100.000
215.47	-3100.000
215.84	-270.000
216.22	-350.000
216.59	0.000
216.97	0.000
217.34	1550.000
217.72	-1700.000
218.09	1366.667
218.47	500.000
218.84	950.000
219.22	1100.000
219.59	1000.000
219.97	557.143
220.34	433.333
220.72	1150.000
221.09	3300.000
221.47	283.333
221.84	1000.000
222.22	270.000
222.59	272.222
222.97	200.000
223.34	181.250
223.72	-1750.000
224.09	900.000
224.46	200.000
224.84	-825.000
225.21	244.444
225.59	260.000
225.96	1200.000
226.34	-720.000
226.71	-575.000
227.08	-620.000
227.46	0.000
227.83	-516.667
228.21	-1650.000
228.58	341.667
228.95	800.000
229.33	300.000
229.70	900.000
230.08	284.615
230.45	3500.000
230.82	-625.000
231.20	-800.000
231.57	-833.333
231.95	700.000
232.32	250.000
232.69	550.000
233.07	258.333
233.44	-1300.000
233.81	173.333
234.19	148.148
234.56	225.000
234.93	111.765
235.31	190.000
235.68	212.500
236.05	185.714
236.43	125.926
236.80	207.143
237.17	134.483
237.55	134.375
237.92	130.000
238.29	112.121
238.67	140.625
239.04	82.927
239.41	72.917
239.79	102.500
240.16	70.833
240.53	77.049
240.91	59.420
241.28	79.661
241.65	51.515
242.02	77.465
242.40	71.429
242.77	56.044
243.14	51.899
243.51	59.596
243.89	46.729
244.26	37.383
244.63	46.535
245.00	43.119
245.38	39.831
245.75	45.455
246.12	46.667
246.49	41.844
246.87	33.607
247.24	40.000
247.61	36.875
247.98	38.776
248.36	34.545
248.73	38.265
249.10	33.929
249.47	29.000
249.84	33.333
250.22	34.595
250.59	31.000
250.96	30.802
251.33	24.651
251.70	31.696
252.08	27.731
252.45	25.498
252.82	30.418
253.19	32.806
253.56	28.077
253.94	30.797
254.31	33.333
254.68	30.314
255.05	31.379
255.42	28.102
255.79	26.384
256.16	27.119
256.54	30.519
256.91	24.510
257.28	29.097
257.65	24.451
258.02	21.534
258.39	27.507
258.76	24.638
259.14	23.714
259.51	27.697
259.88	25.228
260.25	23.901
260.62	24.658
260.99	24.793
261.36	24.513
261.73	27.128
262.10	25.916
262.47	25.500
262.85	23.200
263.22	25.964
263.59	23.018
263.96	26.817
264.33	24.444
264.70	27.273
265.07	23.902
265.44	23.394
265.81	22.170
266.18	22.426
266.55	23.641
266.92	25.951
267.29	23.465
267.66	23.991
268.03	20.179
268.40	25.581
268.77	25.330
269.14	20.824
269.51	20.713
269.88	24.694
270.25	20.950
270.62	22.532
270.99	22.110
271.36	23.171
271.73	22.222
272.10	21.414
272.47	23.611
272.84	20.958
273.21	21.901
273.58	21.255
273.95	20.329
274.32	21.206
274.69	21.063
275.06	23.133
275.43	22.605
275.80	20.755
276.17	21.691
276.54	21.869
276.91	24.067
277.28	18.978
277.65	22.509
278.02	22.426
278.39	23.022
278.76	20.000
279.13	19.039
279.50	20.909
279.87	19.553
280.23	19.337
280.60	20.620
280.97	21.897
281.34	18.977
281.71	21.043
282.08	20.342
282.45	21.284
282.82	20.401
283.19	20.986
283.56	19.339
283.92	19.870
284.29	18.968
284.66	20.000
285.03	19.735
285.40	17.851
285.77	18.827
286.14	19.659
286.51	21.319
286.87	18.987
287.24	19.219
287.61	19.605
287.98	19.701
288.35	18.963
288.72	17.602
289.08	20.270
289.45	19.512
289.82	18.750
290.19	18.302
290.56	19.942
290.93	17.842
291.29	18.094
291.66	18.785
292.03	17.111
292.40	18.699
292.77	18.802
293.13	19.116
293.50	17.139
293.87	17.751
294.24	19.301
294.60	17.766
294.97	18.462
295.34	17.264
295.71	18.660
296.08	18.400
296.44	18.424
296.81	17.122
297.18	16.984
297.55	16.872
297.91	17.241
298.28	17.754
298.65	16.687
299.02	17.370
299.38	17.866
299.75	18.049
300.12	17.775
300.48	17.213
300.85	17.402
301.22	17.791
301.59	16.981
301.95	17.153
302.32	17.462
302.69	17.421
303.05	19.753
303.42	17.825
303.79	17.876
304.15	18.262
304.52	17.230
304.89	17.377
305.25	18.576
305.62	18.230
305.99	18.152
306.35	16.947
306.72	18.314
307.09	18.530
307.45	17.846
307.82	17.181
308.19	18.247
308.55	18.300
308.92	18.057
309.29	18.738
309.65	17.047
310.02	19.878
310.38	18.943
310.75	16.779
311.12	18.295
311.48	20.270
311.85	20.038
312.22	20.248
312.58	18.076
312.95	19.126
313.31	19.195
313.68	18.856
314.05	20.238
314.41	19.739
314.78	20.265
315.14	19.526
315.51	20.530
315.87	20.620
316.24	20.728
316.61	20.322
316.97	20.000
317.34	21.114
317.70	20.632
318.07	22.509
318.43	22.408
318.80	21.541
319.16	21.154
319.53	21.239
319.89	21.864
320.26	23.277
320.62	23.535
320.99	23.642
321.35	23.377
321.72	24.668
322.08	23.823
322.45	22.797
322.81	23.788
323.18	23.268
323.54	25.610
323.91	24.751
324.27	25.376
324.64	24.394
325.00	25.086
325.37	25.379
325.73	24.958
326.10	26.761
326.46	26.177
326.83	25.200
327.19	26.988
327.56	27.236
327.92	26.803
328.29	27.578
328.65	28.767
329.01	27.973
329.38	27.327
329.74	27.156
330.11	28.758
330.47	27.962
330.84	26.833
331.20	28.765
331.56	29.879
331.93	28.657
332.29	27.976
332.66	27.636
333.02	27.062
333.38	28.796
333.75	28.941
334.11	27.349
334.48	29.145
334.84	28.970
335.20	29.683
335.57	28.463
335.93	28.427
336.29	29.270
336.66	29.846
337.02	28.999
337.38	29.407
337.75	28.970
338.11	29.451
338.47	29.297
338.84	28.874
339.20	28.831
339.56	29.437
339.93	28.930
340.29	29.160
340.65	29.254
341.02	29.204
341.38	29.064
341.74	28.654
342.11	29.633
342.47	28.548
342.83	29.122
343.20	29.830
343.56	26.688
343.92	29.149
344.28	29.426
344.65	29.258
345.01	28.254
345.37	29.647
345.73	29.524
346.10	29.163
346.46	28.947
346.82	28.781
347.19	28.748
347.55	29.664
347.91	28.776
348.27	28.660
348.63	28.165
349.00	28.789
349.36	29.650
349.72	30.199
350.08	29.658
350.45	28.180
350.81	29.664
351.17	29.892
351.53	29.407
351.89	28.671
352.26	28.496
352.62	28.431
352.98	30.521
353.34	30.508
353.70	29.434
354.07	30.154
354.43	29.647
354.79	29.233
355.15	29.479
355.51	28.852
355.87	30.196
356.24	29.869
356.60	29.224
356.96	29.492
357.32	29.691
357.68	29.515
358.04	29.635
358.40	29.910
358.77	29.226
359.13	28.979
359.49	29.503
359.85	29.039
360.21	28.232
360.57	29.708
360.93	29.798
361.29	29.726
361.66	29.381
362.02	28.054
362.38	29.942
362.74	29.866
363.10	30.154
363.46	29.351
363.82	30.575
364.18	30.299
364.54	29.614
364.90	30.522
365.26	30.604
365.62	29.420
365.98	29.250
366.35	30.069
366.71	29.355
367.07	30.512
367.43	30.289
367.79	30.120
368.15	28.562
368.51	29.841
368.87	29.552
369.23	29.868
369.59	30.007
369.95	29.580
370.31	30.664
370.67	30.187
371.03	29.972
371.39	29.986
371.75	30.356
372.11	30.184
372.47	30.411
372.83	29.572
373.19	30.500
373.55	30.172
373.91	29.213
374.27	30.820
374.63	30.305
374.99	30.256
375.35	30.511
375.71	30.475
376.07	30.305
376.42	29.731
376.78	30.315
377.14	30.537
377.50	29.713
377.86	29.853
378.22	29.616
378.58	30.448
378.94	30.296
379.30	29.594
379.66	30.283
380.02	30.323
380.38	29.684
380.74	31.084
381.09	30.783
381.45	29.364
381.81	29.255
382.17	29.915
382.53	29.994
382.89	29.982
383.25	30.491
383.61	28.934
383.97	29.214
384.32	30.018
384.68	30.719
385.04	29.719
385.40	30.190
385.76	29.315
386.12	30.550
386.48	29.970
386.83	30.196
387.19	29.270
387.55	29.859
387.91	29.388
388.27	29.030
388.62	29.930
388.98	28.921
389.34	28.554
389.70	28.656
390.06	29.329
390.42	28.563
390.77	29.300
391.13	29.330
391.49	29.099
391.85	29.969
392.20	28.010
392.56	29.689
392.92	27.906
393.28	28.083
393.64	27.179
393.99	27.623
394.35	27.604
394.71	27.925
395.07	28.589
395.42	27.693
395.78	28.192
396.14	28.554
396.50	28.099
396.85	27.927
397.21	27.617
397.57	28.213
397.92	26.690
398.28	27.413
398.64	27.923
399.00	27.365
399.35	27.160
399.71	27.263
400.07	27.568
400.42	26.866
400.78	27.331
401.14	27.892
401.49	26.901
401.85	27.404
402.21	27.299
402.57	27.110
402.92	26.364
403.28	26.671
403.63	25.898
403.99	25.754
404.35	26.612
404.70	26.580
405.06	25.267
405.42	25.135
405.77	26.351
406.13	25.217
406.49	25.469
406.84	26.960
407.20	26.142
407.55	25.292
407.91	26.037
408.27	25.227
408.62	25.547
408.98	26.138
409.34	25.132
409.69	25.451
410.05	24.747
410.40	25.677
410.76	25.014
411.11	24.763
411.47	25.185
411.83	23.140
412.18	24.940
412.54	24.144
412.89	24.779
413.25	25.200
413.60	24.241
413.96	25.494
414.31	24.144
414.67	25.078
415.03	25.415
415.38	24.038
415.74	25.774
416.09	25.297
416.45	26.503
416.80	26.106
417.16	25.080
417.51	25.032
417.87	24.906
418.22	25.638
418.58	25.669
418.93	24.866
419.29	25.570
419.64	25.621
420.00	26.193
420.35	25.900
420.71	25.496
421.06	24.897
421.42	24.986
421.77	25.319
422.12	25.910
422.48	25.937
422.83	26.786
423.19	25.810
423.54	26.166
423.90	26.387
424.25	26.747
424.61	27.278
424.96	26.369
425.31	26.765
425.67	26.880
426.02	27.201
426.38	27.188
426.73	26.663
427.09	28.233
427.44	27.687
427.79	27.616
428.15	28.108
428.50	28.800
428.85	28.571
429.21	27.553
429.56	28.166
429.92	29.040
430.27	27.963
430.62	28.243
430.98	28.343
431.33	29.183
431.68	28.346
432.04	28.557
432.39	29.254
432.74	29.859
433.10	28.516
433.45	29.581
433.80	29.730
434.16	28.429
434.51	30.289
434.86	30.321
435.22	28.903
435.57	30.646
435.92	30.677
436.28	30.876
436.63	30.902
436.98	31.025
437.34	30.708
437.69	30.459
438.04	30.376
438.39	29.072
438.75	30.958
439.10	30.815
439.45	30.582
439.81	31.463
440.16	31.205
440.51	31.137
440.86	31.282
441.22	30.628
441.57	31.076
441.92	30.898
442.27	31.959
442.63	31.250
442.98	30.927
443.33	32.084
443.68	31.489
444.03	30.867
444.39	32.250
444.74	31.936
445.09	31.964
445.44	32.465
445.79	32.310
446.15	32.526
446.50	31.857
446.85	31.972
447.20	31.095
447.55	32.463
447.91	32.978
448.26	32.375
448.61	32.062
448.96	33.007
449.31	31.958
449.66	33.001
450.02	32.361
450.37	33.259
450.72	33.829
451.07	32.926
451.42	32.899
451.77	33.219
452.12	32.558
452.47	33.414
452.83	33.127
453.18	33.514
453.53	33.097
453.88	32.800
454.23	33.353
454.58	33.566
454.93	33.967
455.28	33.599
455.63	34.043
455.98	32.600
456.34	34.225
456.69	34.146
457.04	32.876
457.39	33.657
457.74	34.291
458.09	33.071
458.44	33.023
458.79	34.005
459.14	32.733
459.49	33.296
459.84	34.185
460.19	32.429
460.54	33.903
460.89	33.635
461.24	33.620
461.59	34.297
461.94	34.634
462.29	33.810
462.64	34.485
462.99	33.845
463.34	34.025
463.69	35.088
464.04	34.139
464.39	34.574
464.74	33.236
465.09	34.417
465.44	33.079
465.79	33.587
466.14	32.909
466.49	33.749
466.84	34.392
467.19	33.509
467.54	33.754
467.89	33.509
468.24	34.337
468.59	33.690
468.94	34.783
469.29	34.331
469.64	34.148
469.99	34.704
470.34	34.978
470.68	34.276
471.03	36.024
471.38	35.430
471.73	34.814
472.08	35.160
472.43	34.823
472.78	34.827
473.13	34.543
473.48	34.413
473.83	34.452
474.17	35.258
474.52	35.782
474.87	34.792
475.22	34.495
475.57	34.627
475.92	34.083
476.27	33.243
476.61	34.799
476.96	33.856
477.31	35.064
477.66	35.319
478.01	34.141
478.36	34.243
478.70	33.846
479.05	34.571
479.40	34.524
479.75	34.757
480.10	34.511
480.45	33.987
480.79	35.207
481.14	34.427
481.49	33.806
481.84	33.861
482.19	34.236
482.53	34.387
482.88	34.633
483.23	34.145
483.58	33.348
483.92	34.826
484.27	33.647
484.62	34.932
484.97	33.892
485.31	32.961
485.66	33.263
486.01	32.292
486.36	31.894
486.70	31.744
487.05	32.629
487.40	31.956
487.75	32.547
488.09	33.551
488.44	33.493
488.79	33.842
489.13	33.968
489.48	34.279
489.83	33.611
490.17	34.476
490.52	34.238
490.87	33.922
491.22	34.530
491.56	34.343
491.91	34.722
492.26	33.898
492.60	35.672
492.95	34.844
493.30	35.168
493.64	34.546
493.99	34.481
494.34	34.469
494.68	34.130
495.03	34.486
495.37	35.029
495.72	34.592
496.07	35.490
496.41	34.144
496.76	34.360
497.11	34.662
497.45	34.722
497.80	35.218
498.14	35.136
498.49	34.262
498.84	35.421
499.18	33.729
499.53	34.359
499.87	34.412
500.22	35.053
500.56	34.819
500.91	35.853
501.26	35.370
501.60	34.836
501.95	34.364
502.29	33.911
502.64	35.112
502.98	34.860
503.33	34.610
503.67	34.084
504.02	33.856
504.36	34.661
504.71	35.620
505.06	35.242
505.40	35.798
505.75	35.220
506.09	34.904
506.44	35.338
506.78	35.870
507.13	36.112
507.47	35.565
507.82	35.328
508.16	35.914
508.51	35.604
508.85	34.853
509.19	36.417
509.54	35.742
509.88	36.450
510.23	34.902
510.57	35.232
510.92	37.463
511.26	36.596
511.61	35.057
511.95	36.436
512.30	36.250
512.64	35.774
512.98	36.084
513.33	36.424
513.67	36.458
514.02	36.519
514.36	36.345
514.70	36.693
515.05	36.761
515.39	37.226
515.74	36.304
516.08	37.309
516.42	38.634
516.77	36.160
517.11	36.533
517.46	35.884
517.80	37.193
518.14	37.465
518.49	36.494
518.83	36.374
519.17	37.659
519.52	37.411
519.86	37.766
520.20	37.808
520.55	37.083
520.89	37.586
521.23	37.792
521.58	36.948
521.92	37.551
522.26	37.500
522.61	38.027
522.95	38.258
523.29	37.953
523.64	36.012
523.98	37.617
524.32	36.967
524.66	36.638
525.01	37.041
525.35	37.478
525.69	37.628
526.04	38.192
526.38	37.022
526.72	36.933
527.06	36.783
527.41	38.694
527.75	37.858
528.09	37.989
528.43	37.828
528.78	37.507
529.12	38.290
529.46	36.762
529.80	36.974
530.15	37.655
530.49	36.703
530.83	38.087
531.17	37.392
531.51	37.707
531.86	36.836
532.20	36.094
532.54	37.288
532.88	38.101
533.22	37.355
533.57	38.194
533.91	37.005
534.25	37.276
534.59	37.368
534.93	36.519
535.27	35.970
535.62	36.056
535.96	37.293
536.30	37.965
536.64	36.894
536.98	37.382
537.32	37.125
537.66	37.245
538.01	36.966
538.35	37.430
538.69	36.226
539.03	37.127
539.37	36.529
539.71	37.901
540.05	35.815
540.39	38.302
540.73	37.342
541.07	35.947
541.42	36.629
541.76	36.436
542.10	35.327
542.44	37.469
542.78	36.627
543.12	37.055
543.46	36.717
543.80	37.406
544.14	36.656
544.48	36.861
544.82	37.003
545.16	36.612
545.50	36.878
545.84	37.879
546.18	38.166
546.52	37.639
546.86	37.524
547.20	37.145
547.54	36.605
547.88	36.740
548.22	37.219
548.56	36.358
548.90	36.002
549.24	36.766
549.58	37.500
549.92	37.656
550.26	37.593
550.60	37.126
550.94	38.806
551.28	37.862
551.62	39.448
551.96	37.905
552.30	36.651
552.64	38.317
552.98	37.693
553.32	37.324
553.66	37.394
554.00	37.387
554.34	39.747
554.68	37.836
555.02	37.610
555.36	37.168
555.69	37.042
556.03	37.261
556.37	37.731
556.71	38.657
557.05	37.156
557.39	38.133
557.73	38.881
558.07	38.498
558.41	39.616
558.75	38.714
559.08	38.956
559.42	39.442
559.76	40.128
560.10	38.128
560.44	37.359
560.78	38.491
561.12	37.572
561.45	37.359
561.79	37.016
562.13	38.345
562.47	37.638
562.81	38.386
563.15	38.332
563.48	37.391
563.82	39.488
564.16	37.998
564.50	38.216
564.84	37.933
565.17	36.780
565.51	38.362
565.85	38.742
566.19	36.607
566.52	37.665
566.86	38.120
567.20	38.483
567.54	37.009
567.88	38.237
568.21	35.946
568.55	36.333
568.89	36.268
569.23	35.505
569.56	35.503
569.90	34.819
570.24	35.196
570.57	34.685
570.91	33.853
571.25	34.312
571.59	33.644
571.92	33.046
572.26	33.504
572.60	33.963
572.93	34.531
573.27	34.032
573.61	33.351
573.95	33.815
574.28	33.301
574.62	33.256
574.96	33.002
575.29	32.850
575.63	33.121
575.97	33.155
576.30	33.030
576.64	33.033
576.98	33.179
577.31	33.886
577.65	33.090
577.98	32.961
578.32	32.551
578.66	32.193
578.99	32.872
579.33	33.356
579.67	32.910
580.00	32.355
580.34	33.035
580.67	32.998
581.01	33.509
581.35	33.393
581.68	32.604
582.02	33.294
582.35	33.612
582.69	33.084
583.02	33.556
583.36	33.643
583.70	34.240
584.03	35.024
584.37	35.411
584.70	34.412
585.04	33.785
585.37	34.017
585.71	34.742
586.04	33.891
586.38	34.642
586.72	34.595
587.05	35.512
587.39	35.171
587.72	35.570
588.06	35.237
588.39	35.133
588.73	35.849
589.06	35.979
589.40	35.994
589.73	35.923
590.07	36.925
590.40	37.073
590.73	37.202
591.07	37.268
591.40	36.687
591.74	36.688
592.07	37.105
592.41	37.410
592.74	36.653
593.08	36.296
593.41	36.056
593.75	35.608
594.08	35.848
594.41	36.461
594.75	36.096
595.08	36.694
595.42	37.031
595.75	36.361
596.09	37.365
596.42	37.400
596.75	38.381
597.09	37.928
597.42	37.061
597.75	37.323
598.09	37.874
598.42	37.699
598.76	36.584
599.09	37.330
599.42	36.540
599.76	36.601
600.09	37.085
600.42	36.568
600.76	36.812
601.09	37.038
601.42	36.677
601.76	37.057
602.09	37.123
602.42	36.155
602.76	37.419
603.09	36.953
603.42	36.917
603.76	36.949
604.09	36.989
604.42	37.476
604.76	38.048
605.09	37.306
605.42	37.546
605.75	37.544
606.09	37.261
606.42	36.753
606.75	37.427
607.09	37.308
607.42	37.887
607.75	37.341
608.08	37.530
608.42	37.206
608.75	36.885
609.08	37.088
609.41	38.682
609.75	37.912
610.08	37.860
610.41	38.120
610.74	37.619
611.07	38.745
611.41	38.693
611.74	39.484
612.07	38.150
612.40	38.450
612.73	39.041
613.07	38.875
613.40	39.298
613.73	39.191
614.06	38.150
614.39	38.838
614.72	38.071
615.06	38.526
615.39	38.861
615.72	38.238
616.05	38.473
616.38	37.747
616.71	39.447
617.05	38.056
617.38	39.213
617.71	40.214
618.04	39.540
618.37	39.411
618.70	38.915
619.03	39.866
619.36	40.201
619.69	39.380
620.03	41.292
620.36	40.334
620.69	40.485
621.02	41.304
621.35	41.476
621.68	40.782
622.01	42.214
622.34	40.714
622.67	40.730
623.00	40.163
623.33	40.148
623.66	40.652
623.99	40.822
624.32	39.905
624.65	40.026
624.99	40.838
625.32	39.880
625.65	39.724
625.98	39.191
626.31	42.433
626.64	40.774
626.97	40.245
627.30	42.003
627.63	42.151
627.96	40.532
628.29	42.162
628.62	41.574
628.95	43.174
629.28	43.558
629.61	43.146
629.94	42.264
630.26	42.288
630.59	43.440
630.92	43.408
631.25	42.974
