SpectraSuite Data File
++++++++++++++++++++++++++++++++++++
Date: Tue May 12 16:35:51 PDT 2015
User: schluterlab
Dark Spectrum Present: Yes
Reference Spectrum Present: Yes
Number of Sampled Component Spectra: 1
Spectrometers: USB2E3373
Integration Time (usec): 3000 (USB2E3373)
Spectra Averaged: 3 (USB2E3373)
Boxcar Smoothing: 0 (USB2E3373)
Correct for Electrical Dark: No (USB2E3373)
Strobe/Lamp Enabled: No (USB2E3373)
Correct for Detector Non-linearity: No (USB2E3373)
Correct for Stray Light: No (USB2E3373)
Number of Pixels in Processed Spectrum: 2048
>>>>>Begin Processed Spectral Data<<<<<
178.53	0.000
178.91	-233.333
179.29	-625.000
179.67	-2800.000
180.04	-106.667
180.42	700.000
180.80	1700.000
181.18	0.000
181.56	-350.000
181.94	0.000
182.31	1166.667
182.69	-3200.000
183.07	442.857
183.45	-3100.000
183.83	-1450.000
184.20	360.000
184.58	528.571
184.96	-138.462
185.34	-141.667
185.72	1350.000
186.09	-750.000
186.47	-3300.000
186.85	1000.000
187.23	540.000
187.61	1300.000
187.98	400.000
188.36	278.571
188.74	325.000
189.12	333.333
189.49	775.000
189.87	0.000
190.25	412.500
190.63	2000.000
191.00	-191.667
191.38	-3400.000
191.76	-500.000
192.14	537.500
192.51	-2100.000
192.89	1800.000
193.27	900.000
193.65	-1100.000
194.02	-620.000
194.40	442.857
194.78	-228.571
195.15	266.667
195.53	-2900.000
195.91	-400.000
196.29	3100.000
196.66	193.750
197.04	900.000
197.42	-1400.000
197.79	700.000
198.17	333.333
198.55	0.000
198.92	500.000
199.30	1033.333
199.68	1250.000
200.05	633.333
200.43	-483.333
200.81	194.444
201.18	4300.000
201.56	216.667
201.94	-625.000
202.31	-337.500
202.69	-440.000
203.07	2800.000
203.44	-400.000
203.82	300.000
204.19	580.000
204.57	-1200.000
204.95	-575.000
205.32	-680.000
205.70	566.667
206.08	725.000
206.45	-800.000
206.83	300.000
207.20	142.105
207.58	258.333
207.96	740.000
208.33	0.000
208.71	671.429
209.08	540.000
209.46	-3100.000
209.84	-550.000
210.21	700.000
210.59	-580.000
210.96	300.000
211.34	-900.000
211.71	263.636
212.09	775.000
212.46	1600.000
212.84	-383.333
213.22	400.000
213.59	-2100.000
213.97	330.000
214.34	950.000
214.72	933.333
215.09	1300.000
215.47	-3000.000
215.84	-300.000
216.22	-350.000
216.59	0.000
216.97	0.000
217.34	1500.000
217.72	-1600.000
218.09	1033.333
218.47	387.500
218.84	800.000
219.22	900.000
219.59	700.000
219.97	414.286
220.34	222.222
220.72	1150.000
221.09	2100.000
221.47	225.000
221.84	933.333
222.22	340.000
222.59	216.667
222.97	192.857
223.34	243.750
223.72	-1500.000
224.09	1000.000
224.46	253.846
224.84	-625.000
225.21	400.000
225.59	280.000
225.96	1200.000
226.34	-460.000
226.71	-600.000
227.08	-360.000
227.46	0.000
227.83	-533.333
228.21	-1500.000
228.58	341.667
228.95	825.000
229.33	311.111
229.70	1050.000
230.08	261.538
230.45	3100.000
230.82	-725.000
231.20	-466.667
231.57	-900.000
231.95	400.000
232.32	258.333
232.69	450.000
233.07	250.000
233.44	-1250.000
233.81	266.667
234.19	148.148
234.56	162.500
234.93	147.059
235.31	200.000
235.68	193.750
236.05	146.429
236.43	114.815
236.80	185.714
237.17	137.931
237.55	109.375
237.92	102.500
238.29	115.152
238.67	115.625
239.04	65.854
239.41	81.250
239.79	67.500
240.16	62.500
240.53	52.459
240.91	49.275
241.28	64.407
241.65	53.030
242.02	52.113
242.40	31.429
242.77	45.055
243.14	35.443
243.51	35.354
243.89	34.579
244.26	28.972
244.63	32.673
245.00	34.862
245.38	19.492
245.75	25.758
246.12	29.630
246.49	31.206
246.87	16.393
247.24	25.333
247.61	25.625
247.98	17.687
248.36	20.000
248.73	26.020
249.10	16.667
249.47	24.500
249.84	22.886
250.22	18.919
250.59	21.000
250.96	16.456
251.33	19.535
251.70	20.536
252.08	19.328
252.45	18.725
252.82	17.490
253.19	16.206
253.56	17.308
253.94	12.319
254.31	14.729
254.68	17.422
255.05	16.897
255.42	14.599
255.79	12.378
256.16	12.203
256.54	14.610
256.91	11.438
257.28	9.699
257.65	10.972
258.02	12.389
258.39	14.900
258.76	13.333
259.14	9.429
259.51	16.618
259.88	11.550
260.25	9.066
260.62	11.781
260.99	10.193
261.36	12.256
261.73	10.106
262.10	13.351
262.47	10.750
262.85	9.333
263.22	12.596
263.59	13.555
263.96	15.288
264.33	9.877
264.70	13.514
265.07	10.244
265.44	9.862
265.81	12.028
266.18	10.755
266.55	8.511
266.92	9.620
267.29	12.281
267.66	9.417
268.03	7.175
268.40	12.474
268.77	12.775
269.14	9.111
269.51	9.354
269.88	11.633
270.25	7.343
270.62	8.155
270.99	10.345
271.36	9.959
271.73	7.757
272.10	8.081
272.47	9.127
272.84	8.982
273.21	9.504
273.58	10.526
273.95	9.651
274.32	9.922
274.69	11.220
275.06	10.747
275.43	9.579
275.80	12.075
276.17	11.765
276.54	11.402
276.91	9.328
277.28	8.942
277.65	11.439
278.02	9.375
278.39	10.072
278.76	8.621
279.13	10.142
279.50	8.545
279.87	7.635
280.23	9.392
280.60	8.394
280.97	8.966
281.34	8.746
281.71	9.913
282.08	10.085
282.45	9.459
282.82	7.860
283.19	8.744
283.56	6.942
283.92	9.121
284.29	8.652
284.66	6.723
285.03	9.784
285.40	8.926
285.77	8.179
286.14	10.372
286.51	8.742
286.87	7.278
287.24	8.559
287.61	8.359
287.98	10.448
288.35	8.741
288.72	9.256
289.08	8.258
289.45	8.232
289.82	8.125
290.19	8.053
290.56	9.898
290.93	8.921
291.29	8.149
291.66	8.475
292.03	9.257
292.40	9.214
292.77	8.914
293.13	8.417
293.50	8.367
293.87	8.672
294.24	8.951
294.60	10.094
294.97	9.510
295.34	9.163
295.71	10.118
296.08	9.467
296.44	10.546
296.81	8.313
297.18	8.872
297.55	8.744
297.91	8.005
298.28	9.420
298.65	9.816
299.02	9.530
299.38	9.712
299.75	9.268
300.12	10.550
300.48	10.890
300.85	11.204
301.22	10.349
301.59	10.142
301.95	11.435
302.32	10.244
302.69	10.860
303.05	11.897
303.42	10.650
303.79	10.834
304.15	10.231
304.52	10.359
304.89	11.194
305.25	11.568
305.62	11.407
305.99	10.435
306.35	10.421
306.72	11.655
307.09	10.870
307.45	11.932
307.82	11.214
308.19	11.753
308.55	12.500
308.92	12.071
309.29	13.116
309.65	11.893
310.02	12.170
310.38	12.164
310.75	12.247
311.12	11.686
311.48	12.741
311.85	12.214
312.22	13.658
312.58	12.828
312.95	13.107
313.31	13.764
313.68	12.477
314.05	14.835
314.41	13.408
314.78	13.731
315.14	14.882
315.51	15.421
315.87	14.234
316.24	15.126
316.61	14.772
316.97	13.578
317.34	16.891
317.70	15.803
318.07	17.438
318.43	16.432
318.80	16.112
319.16	16.346
319.53	16.106
319.89	16.935
320.26	18.808
320.62	18.040
320.99	18.112
321.35	16.976
321.72	19.260
322.08	18.283
322.45	18.892
322.81	19.213
323.18	20.870
323.54	20.209
323.91	20.036
324.27	20.778
324.64	20.502
325.00	21.379
325.37	22.428
325.73	21.248
326.10	23.281
326.46	23.287
326.83	23.120
327.19	23.614
327.56	24.281
327.92	25.246
328.29	25.041
328.65	26.027
329.01	25.406
329.38	25.381
329.74	24.253
330.11	25.977
330.47	26.087
330.84	24.418
331.20	25.973
331.56	26.425
331.93	26.518
332.29	25.935
332.66	26.276
333.02	25.687
333.38	26.003
333.75	26.188
334.11	26.426
334.48	26.239
334.84	25.169
335.20	25.749
335.57	26.364
335.93	26.409
336.29	25.124
336.66	27.358
337.02	26.604
337.38	26.139
337.75	27.027
338.11	26.329
338.47	25.487
338.84	26.842
339.20	25.628
339.56	25.904
339.93	26.421
340.29	25.630
340.65	26.572
341.02	27.192
341.38	26.108
341.74	25.748
342.11	24.791
342.47	26.169
342.83	26.415
343.20	26.435
343.56	24.146
343.92	26.012
344.28	26.236
344.65	25.754
345.01	25.397
345.37	24.840
345.73	24.921
346.10	25.418
346.46	25.837
346.82	24.537
347.19	25.580
347.55	24.980
347.91	23.943
348.27	25.329
348.63	24.921
349.00	24.448
349.36	25.759
349.72	26.070
350.08	25.311
350.45	25.286
350.81	26.300
351.17	24.499
351.53	24.018
351.89	24.553
352.26	24.490
352.62	24.811
352.98	25.077
353.34	24.576
353.70	24.771
354.07	26.077
354.43	24.501
354.79	24.450
355.15	25.498
355.51	25.000
355.87	23.645
356.24	25.404
356.60	24.049
356.96	24.488
357.32	24.416
357.68	24.596
358.04	24.848
358.40	25.112
358.77	24.418
359.13	24.625
359.49	24.907
359.85	24.795
360.21	23.774
360.57	23.212
360.93	24.675
361.29	23.954
361.66	24.832
362.02	23.011
362.38	24.675
362.74	24.841
363.10	24.895
363.46	23.135
363.82	24.404
364.18	24.609
364.54	24.106
364.90	24.632
365.26	25.191
365.62	24.033
365.98	24.295
366.35	24.000
366.71	24.219
367.07	24.300
367.43	24.110
367.79	24.003
368.15	23.338
368.51	23.846
368.87	23.641
369.23	24.116
369.59	23.871
369.95	24.895
370.31	23.888
370.67	23.942
371.03	24.160
371.39	24.861
371.75	23.866
372.11	24.065
372.47	23.630
372.83	23.589
373.19	23.715
373.55	23.849
373.91	23.273
374.27	24.339
374.63	22.983
374.99	24.191
375.35	24.261
375.71	24.472
376.07	23.939
376.42	23.529
376.78	24.277
377.14	23.919
377.50	23.845
377.86	22.806
378.22	23.766
378.58	25.726
378.94	23.537
379.30	23.408
379.66	23.540
380.02	24.692
380.38	23.770
380.74	24.279
381.09	24.065
381.45	22.890
381.81	23.404
382.17	23.748
382.53	24.295
382.89	24.423
383.25	23.327
383.61	22.709
383.97	23.155
384.32	23.689
384.68	24.361
385.04	23.974
385.40	23.547
385.76	23.054
386.12	23.562
386.48	23.283
386.83	23.227
387.19	23.852
387.55	23.145
387.91	23.499
388.27	23.319
388.62	23.474
388.98	22.624
389.34	22.725
389.70	22.347
390.06	22.805
390.42	23.381
390.77	23.096
391.13	23.597
391.49	22.686
391.85	23.200
392.20	22.706
392.56	22.820
392.92	21.336
393.28	23.094
393.64	22.477
393.99	22.466
394.35	22.660
394.71	22.799
395.07	22.202
395.42	23.244
395.78	22.764
396.14	23.373
396.50	22.924
396.85	22.134
397.21	21.360
397.57	22.415
397.92	21.837
398.28	22.173
398.64	22.513
399.00	21.325
399.35	21.793
399.71	21.744
400.07	22.146
400.42	21.731
400.78	21.760
401.14	22.079
401.49	21.544
401.85	22.132
402.21	21.383
402.57	21.963
402.92	20.788
403.28	21.122
403.63	21.836
403.99	21.834
404.35	22.040
404.70	21.796
405.06	20.101
405.42	21.724
405.77	21.389
406.13	20.445
406.49	20.750
406.84	20.756
407.20	21.689
407.55	21.600
407.91	21.825
408.27	21.286
408.62	21.053
408.98	21.171
409.34	20.807
409.69	20.846
410.05	21.348
410.40	20.377
410.76	20.263
411.11	20.912
411.47	21.235
411.83	20.211
412.18	20.592
412.54	20.961
412.89	20.295
413.25	20.924
413.60	19.977
413.96	21.065
414.31	20.366
414.67	21.105
415.03	20.307
415.38	21.451
415.74	21.289
416.09	20.737
416.45	21.526
416.80	21.552
417.16	20.433
417.51	20.764
417.87	20.776
418.22	20.535
418.58	21.401
418.93	20.761
419.29	20.702
419.64	21.139
420.00	21.897
420.35	20.557
420.71	20.945
421.06	20.541
421.42	20.150
421.77	20.766
422.12	21.775
422.48	20.288
422.83	20.536
423.19	21.058
423.54	20.790
423.90	20.951
424.25	21.739
424.61	21.474
424.96	21.062
425.31	21.018
425.67	21.100
426.02	21.032
426.38	21.354
426.73	21.862
427.09	21.530
427.44	21.553
427.79	21.098
428.15	21.862
428.50	21.143
428.85	22.046
429.21	21.340
429.56	21.286
429.92	21.382
430.27	21.432
430.62	20.166
430.98	21.058
431.33	21.371
431.68	20.889
432.04	21.055
432.39	22.393
432.74	21.019
433.10	22.536
433.45	22.056
433.80	22.504
434.16	21.545
434.51	21.362
434.86	22.972
435.22	21.826
435.57	21.932
435.92	22.311
436.28	22.062
436.63	22.366
436.98	22.016
437.34	22.603
437.69	21.613
438.04	22.258
438.39	22.650
438.75	22.383
439.10	21.802
439.45	21.877
439.81	22.499
440.16	22.345
440.51	22.297
440.86	23.533
441.22	22.294
441.57	21.890
441.92	21.619
442.27	20.928
442.63	21.951
442.98	21.821
443.33	22.067
443.68	22.586
444.03	21.913
444.39	22.316
444.74	21.946
445.09	21.906
445.44	22.423
445.79	21.832
446.15	22.000
446.50	21.783
446.85	22.510
447.20	21.791
447.55	22.893
447.91	22.429
448.26	22.843
448.61	23.273
448.96	22.658
449.31	22.332
449.66	22.591
450.02	23.015
450.37	22.821
450.72	23.416
451.07	22.920
451.42	22.584
451.77	23.196
452.12	22.745
452.47	23.086
452.83	23.380
453.18	22.643
453.53	23.623
453.88	23.314
454.23	23.184
454.58	23.019
454.93	23.299
455.28	23.195
455.63	23.463
455.98	23.068
456.34	22.857
456.69	22.805
457.04	22.673
457.39	22.800
457.74	23.255
458.09	22.515
458.44	22.289
458.79	22.865
459.14	22.040
459.49	23.046
459.84	22.989
460.19	23.051
460.54	23.077
460.89	23.134
461.24	22.165
461.59	23.129
461.94	22.813
462.29	22.826
462.64	23.869
462.99	23.544
463.34	23.331
463.69	23.714
464.04	22.855
464.39	23.068
464.74	22.098
465.09	23.389
465.44	23.123
465.79	23.244
466.14	22.258
466.49	23.114
466.84	22.520
467.19	24.019
467.54	22.462
467.89	23.357
468.24	22.930
468.59	23.214
468.94	22.766
469.29	23.580
469.64	23.023
469.99	23.072
470.34	22.960
470.68	22.897
471.03	23.616
471.38	22.715
471.73	23.514
472.08	24.397
472.43	23.526
472.78	23.496
473.13	22.778
473.48	22.922
473.83	23.204
474.17	23.040
474.52	23.223
474.87	22.229
475.22	23.015
475.57	22.246
475.92	22.279
476.27	22.470
476.61	21.448
476.96	22.780
477.31	22.674
477.66	22.169
478.01	22.847
478.36	23.018
478.70	22.184
479.05	22.646
479.40	22.173
479.75	22.691
480.10	22.798
480.45	22.409
480.79	22.350
481.14	21.969
481.49	22.187
481.84	21.944
482.19	22.707
482.53	21.739
482.88	22.088
483.23	22.282
483.58	22.846
483.92	23.126
484.27	22.003
484.62	21.944
484.97	22.127
485.31	21.660
485.66	20.506
486.01	20.071
486.36	19.668
486.70	19.776
487.05	20.122
487.40	20.204
487.75	20.902
488.09	20.369
488.44	20.969
488.79	20.722
489.13	21.538
489.48	21.454
489.83	21.309
490.17	21.470
490.52	21.835
490.87	21.810
491.22	22.296
491.56	22.398
491.91	22.267
492.26	22.272
492.60	22.642
492.95	22.157
493.30	22.338
493.64	22.013
493.99	22.451
494.34	21.829
494.68	21.780
495.03	22.721
495.37	22.332
495.72	22.471
496.07	22.282
496.41	22.111
496.76	21.781
497.11	22.708
497.45	22.139
497.80	21.872
498.14	22.099
498.49	22.377
498.84	22.383
499.18	21.252
499.53	21.452
499.87	21.563
500.22	21.971
500.56	22.052
500.91	22.866
501.26	22.646
501.60	21.630
501.95	21.550
502.29	21.822
502.64	21.570
502.98	21.521
503.33	22.227
503.67	21.854
504.02	21.720
504.36	22.760
504.71	22.848
505.06	22.102
505.40	21.666
505.75	22.123
506.09	22.492
506.44	22.838
506.78	22.259
507.13	22.007
507.47	21.494
507.82	22.384
508.16	22.489
508.51	21.787
508.85	22.412
509.19	22.075
509.54	22.412
509.88	22.775
510.23	21.373
510.57	22.153
510.92	22.527
511.26	21.837
511.61	21.664
511.95	21.951
512.30	22.300
512.64	21.651
512.98	21.835
513.33	22.285
513.67	22.061
514.02	22.130
514.36	22.066
514.70	22.080
515.05	22.483
515.39	22.752
515.74	22.417
516.08	22.495
516.42	22.459
516.77	21.973
517.11	22.827
517.46	22.252
517.80	21.846
518.14	22.028
518.49	22.326
518.83	21.319
519.17	22.851
519.52	22.993
519.86	22.561
520.20	22.685
520.55	22.668
520.89	22.069
521.23	22.430
521.58	23.121
521.92	21.516
522.26	22.275
522.61	22.341
522.95	23.003
523.29	22.690
523.64	22.254
523.98	22.477
524.32	22.261
524.66	22.841
525.01	22.426
525.35	22.098
525.69	22.336
526.04	22.487
526.38	21.954
526.72	22.494
527.06	21.821
527.41	23.337
527.75	23.068
528.09	22.517
528.43	22.941
528.78	22.421
529.12	23.660
529.46	22.034
529.80	21.612
530.15	22.923
530.49	22.142
530.83	22.669
531.17	22.571
531.51	22.685
531.86	22.464
532.20	22.559
532.54	21.783
532.88	22.548
533.22	22.243
533.57	22.148
533.91	20.338
534.25	21.639
534.59	22.749
534.93	21.274
535.27	21.059
535.62	22.229
535.96	22.163
536.30	22.669
536.64	21.366
536.98	21.334
537.32	22.750
537.66	21.173
538.01	22.353
538.35	21.522
538.69	21.663
539.03	21.455
539.37	21.966
539.71	21.914
540.05	21.600
540.39	21.824
540.73	21.962
541.07	20.075
541.42	21.331
541.76	21.517
542.10	21.147
542.44	21.883
542.78	22.026
543.12	21.902
543.46	22.368
543.80	21.178
544.14	21.796
544.48	21.655
544.82	21.529
545.16	21.494
545.50	21.512
545.84	21.907
546.18	23.017
546.52	21.902
546.86	21.341
547.20	20.930
547.54	21.913
547.88	21.898
548.22	21.311
548.56	21.332
548.90	20.996
549.24	21.857
549.58	20.747
549.92	21.022
550.26	22.042
550.60	20.958
550.94	21.913
551.28	22.345
551.62	22.414
551.96	21.757
552.30	20.831
552.64	22.136
552.98	20.361
553.32	21.127
553.66	21.238
554.00	21.236
554.34	21.638
554.68	22.177
555.02	22.267
555.36	20.545
555.69	20.942
556.03	21.529
556.37	21.542
556.71	22.034
557.05	20.118
557.39	21.867
557.73	21.765
558.07	21.596
558.41	21.590
558.75	21.409
559.08	21.801
559.42	22.405
559.76	22.096
560.10	21.679
560.44	20.703
560.78	20.396
561.12	21.551
561.45	20.651
561.79	20.787
562.13	20.783
562.47	20.506
562.81	21.080
563.15	20.362
563.48	19.503
563.82	21.273
564.16	20.647
564.50	20.253
564.84	20.790
565.17	20.143
565.51	21.059
565.85	20.605
566.19	20.060
566.52	20.578
566.86	21.191
567.20	20.506
567.54	19.269
567.88	20.657
568.21	19.720
568.55	19.893
568.89	19.297
569.23	18.637
569.56	19.529
569.90	18.074
570.24	18.365
570.57	18.105
570.91	17.691
571.25	17.289
571.59	16.864
571.92	17.115
572.26	17.062
572.60	17.356
572.93	17.194
573.27	16.743
573.61	16.784
573.95	16.982
574.28	16.893
574.62	16.535
574.96	15.913
575.29	16.346
575.63	16.490
575.97	16.164
576.30	16.679
576.64	16.298
576.98	16.415
577.31	16.506
577.65	16.410
577.98	16.009
578.32	15.825
578.66	15.941
578.99	16.509
579.33	16.396
579.67	16.270
580.00	16.304
580.34	15.802
580.67	16.622
581.01	16.392
581.35	16.080
581.68	15.533
582.02	15.739
582.35	15.827
582.69	15.932
583.02	16.167
583.36	15.988
583.70	16.094
584.03	16.679
584.37	16.658
584.70	16.173
585.04	16.203
585.37	16.186
585.71	16.742
586.04	16.165
586.38	16.280
586.72	16.345
587.05	16.830
587.39	16.233
587.72	16.101
588.06	16.116
588.39	16.351
588.73	16.453
589.06	16.633
589.40	17.089
589.73	16.847
590.07	16.918
590.40	17.422
590.73	18.142
591.07	18.027
591.40	17.246
591.74	17.979
592.07	17.180
592.41	18.185
592.74	17.100
593.08	16.439
593.41	16.308
593.75	16.252
594.08	16.785
594.41	16.390
594.75	16.678
595.08	17.215
595.42	17.051
595.75	17.078
596.09	17.066
596.42	17.407
596.75	17.228
597.09	17.251
597.42	16.612
597.75	17.688
598.09	17.522
598.42	17.177
598.76	16.962
599.09	17.065
599.42	16.401
599.76	16.893
600.09	16.542
600.42	17.127
600.76	16.621
601.09	16.810
601.42	17.318
601.76	16.899
602.09	17.071
602.42	16.673
602.76	17.306
603.09	16.855
603.42	17.615
603.76	16.450
604.09	16.902
604.42	16.460
604.76	16.752
605.09	16.653
605.42	16.741
605.75	17.292
606.09	17.100
606.42	16.949
606.75	17.295
607.09	16.857
607.42	16.673
607.75	16.799
608.08	16.084
608.42	17.114
608.75	16.175
609.08	17.202
609.41	17.409
609.75	17.949
610.08	16.817
610.41	17.523
610.74	17.835
611.07	17.872
611.41	17.609
611.74	17.256
612.07	17.919
612.40	18.080
612.73	18.173
613.07	18.500
613.40	17.293
613.73	17.274
614.06	17.200
614.39	17.475
614.72	17.981
615.06	17.755
615.39	18.020
615.72	17.038
616.05	17.780
616.38	17.453
616.71	17.634
617.05	16.859
617.38	18.258
617.71	18.110
618.04	18.172
618.37	16.954
618.70	17.667
619.03	18.437
619.36	18.028
619.69	17.876
620.03	19.765
620.36	19.268
620.69	19.668
621.02	18.818
621.35	18.911
621.68	19.174
622.01	19.114
622.34	18.718
622.67	19.312
623.00	18.993
623.33	18.421
623.66	18.297
623.99	18.767
624.32	18.902
624.65	17.512
624.99	18.256
625.32	19.238
625.65	18.345
625.98	17.713
626.31	19.955
626.64	18.071
626.97	20.275
627.30	18.711
627.63	18.681
627.96	18.623
628.29	19.224
628.62	18.477
628.95	20.479
629.28	20.245
629.61	19.947
629.94	18.583
630.26	20.711
630.59	20.479
630.92	19.731
631.25	20.036
631.58	20.154
631.91	20.076
632.24	19.436
632.57	19.941
632.90	21.325
