SpectraSuite Data File
++++++++++++++++++++++++++++++++++++
Date: Tue May 12 15:16:10 PDT 2015
User: schluterlab
Dark Spectrum Present: Yes
Reference Spectrum Present: Yes
Number of Sampled Component Spectra: 1
Spectrometers: USB2E3373
Integration Time (usec): 3000 (USB2E3373)
Spectra Averaged: 3 (USB2E3373)
Boxcar Smoothing: 0 (USB2E3373)
Correct for Electrical Dark: No (USB2E3373)
Strobe/Lamp Enabled: No (USB2E3373)
Correct for Detector Non-linearity: No (USB2E3373)
Correct for Stray Light: No (USB2E3373)
Number of Pixels in Processed Spectrum: 2048
>>>>>Begin Processed Spectral Data<<<<<
178.53	0.000
178.91	-200.000
179.29	-675.000
179.67	-3100.000
180.04	-146.667
180.42	575.000
180.80	1450.000
181.18	0.000
181.56	-350.000
181.94	0.000
182.31	1033.333
182.69	-3100.000
183.07	528.571
183.45	-3300.000
183.83	-1500.000
184.20	420.000
184.58	528.571
184.96	-192.308
185.34	-200.000
185.72	1300.000
186.09	-600.000
186.47	-2200.000
186.85	1066.667
187.23	440.000
187.61	1650.000
187.98	387.500
188.36	185.714
188.74	275.000
189.12	366.667
189.49	700.000
189.87	0.000
190.25	437.500
190.63	2100.000
191.00	-133.333
191.38	-2400.000
191.76	-500.000
192.14	462.500
192.51	-1600.000
192.89	1100.000
193.27	833.333
193.65	-500.000
194.02	-560.000
194.40	457.143
194.78	-185.714
195.15	193.333
195.53	-2700.000
195.91	-620.000
196.29	3400.000
196.66	181.250
197.04	875.000
197.42	-1250.000
197.79	575.000
198.17	300.000
198.55	0.000
198.92	528.571
199.30	866.667
199.68	1950.000
200.05	533.333
200.43	-483.333
200.81	144.444
201.18	2700.000
201.56	175.000
201.94	-600.000
202.31	-250.000
202.69	-520.000
203.07	2900.000
203.44	-450.000
203.82	283.333
204.19	700.000
204.57	-1550.000
204.95	-500.000
205.32	-640.000
205.70	566.667
206.08	475.000
206.45	-666.667
206.83	266.667
207.20	147.368
207.58	250.000
207.96	540.000
208.33	0.000
208.71	442.857
209.08	560.000
209.46	-3100.000
209.84	-650.000
210.21	900.000
210.59	-620.000
210.96	258.333
211.34	-875.000
211.71	281.818
212.09	700.000
212.46	1050.000
212.84	-366.667
213.22	433.333
213.59	-2900.000
213.97	240.000
214.34	500.000
214.72	966.667
215.09	866.667
215.47	-2400.000
215.84	-230.000
216.22	-362.500
216.59	0.000
216.97	0.000
217.34	650.000
217.72	-1100.000
218.09	900.000
218.47	362.500
218.84	650.000
219.22	700.000
219.59	666.667
219.97	442.857
220.34	333.333
220.72	1700.000
221.09	2000.000
221.47	225.000
221.84	600.000
222.22	330.000
222.59	194.444
222.97	150.000
223.34	193.750
223.72	-1350.000
224.09	1000.000
224.46	292.308
224.84	-725.000
225.21	344.444
225.59	193.333
225.96	1200.000
226.34	-620.000
226.71	-650.000
227.08	-500.000
227.46	0.000
227.83	-433.333
228.21	-1100.000
228.58	325.000
228.95	700.000
229.33	388.889
229.70	825.000
230.08	323.077
230.45	3300.000
230.82	-475.000
231.20	-733.333
231.57	-800.000
231.95	260.000
232.32	283.333
232.69	416.667
233.07	183.333
233.44	-800.000
233.81	166.667
234.19	144.444
234.56	137.500
234.93	164.706
235.31	190.000
235.68	256.250
236.05	114.286
236.43	125.926
236.80	178.571
237.17	124.138
237.55	90.625
237.92	97.500
238.29	63.636
238.67	71.875
239.04	80.488
239.41	54.167
239.79	65.000
240.16	68.750
240.53	52.459
240.91	40.580
241.28	64.407
241.65	34.848
242.02	43.662
242.40	34.286
242.77	38.462
243.14	44.304
243.51	33.333
243.89	34.579
244.26	31.776
244.63	24.752
245.00	24.771
245.38	22.034
245.75	22.727
246.12	34.074
246.49	23.404
246.87	18.852
247.24	25.333
247.61	21.875
247.98	15.646
248.36	15.758
248.73	22.449
249.10	9.524
249.47	23.500
249.84	16.418
250.22	15.676
250.59	17.000
250.96	20.253
251.33	17.209
251.70	17.411
252.08	18.908
252.45	14.343
252.82	15.970
253.19	13.043
253.56	13.846
253.94	14.130
254.31	16.667
254.68	16.028
255.05	11.379
255.42	14.964
255.79	14.984
256.16	14.915
256.54	12.662
256.91	12.418
257.28	14.381
257.65	7.524
258.02	10.914
258.39	12.321
258.76	14.203
259.14	10.286
259.51	12.828
259.88	13.982
260.25	11.538
260.62	11.233
260.99	8.540
261.36	9.192
261.73	11.170
262.10	13.874
262.47	8.500
262.85	9.600
263.22	10.797
263.59	8.184
263.96	10.526
264.33	7.654
264.70	10.811
265.07	12.683
265.44	9.174
265.81	10.849
266.18	8.696
266.55	6.619
266.92	6.711
267.29	9.649
267.66	8.969
268.03	6.502
268.40	10.994
268.77	10.132
269.14	7.592
269.51	7.572
269.88	8.776
270.25	7.343
270.62	10.730
270.99	10.548
271.36	10.366
271.73	6.709
272.10	8.889
272.47	8.135
272.84	7.784
273.21	8.058
273.58	8.502
273.95	7.187
274.32	7.782
274.69	11.024
275.06	9.290
275.43	8.046
275.80	8.302
276.17	8.456
276.54	10.654
276.91	9.142
277.28	9.489
277.65	9.410
278.02	9.191
278.39	7.194
278.76	7.586
279.13	8.007
279.50	8.182
279.87	5.587
280.23	8.103
280.60	7.847
280.97	6.897
281.34	8.416
281.71	9.565
282.08	7.350
282.45	6.081
282.82	8.027
283.19	8.426
283.56	7.273
283.92	7.329
284.29	8.153
284.66	7.563
285.03	8.126
285.40	4.959
285.77	5.556
286.14	9.907
286.51	7.669
286.87	6.804
287.24	6.006
287.61	7.751
287.98	8.507
288.35	7.259
288.72	7.739
289.08	7.958
289.45	7.622
289.82	6.094
290.19	6.296
290.56	7.715
290.93	7.770
291.29	8.287
291.66	8.051
292.03	7.433
292.40	9.079
292.77	6.546
293.13	8.987
293.50	7.962
293.87	7.724
294.24	8.112
294.60	8.748
294.97	8.811
295.34	7.968
295.71	8.804
296.08	9.067
296.44	7.878
296.81	8.065
297.18	7.858
297.55	9.483
297.91	8.005
298.28	8.937
298.65	8.957
299.02	7.841
299.38	8.753
299.75	8.171
300.12	9.060
300.48	9.133
300.85	9.416
301.22	8.372
301.59	8.373
301.95	8.051
302.32	9.662
302.69	8.937
303.05	10.550
303.42	9.081
303.79	9.209
304.15	9.131
304.52	10.465
304.89	9.382
305.25	9.900
305.62	9.915
305.99	9.457
306.35	9.579
306.72	10.094
307.09	9.627
307.45	10.348
307.82	9.465
308.19	10.825
308.55	9.900
308.92	10.304
309.29	11.834
309.65	11.397
310.02	11.156
310.38	10.768
310.75	11.186
311.12	10.920
311.48	12.741
311.85	11.546
312.22	11.748
312.58	12.439
312.95	12.233
313.31	12.172
313.68	11.820
314.05	11.722
314.41	11.732
314.78	12.311
315.14	14.313
315.51	14.191
315.87	12.774
316.24	14.006
316.61	14.145
316.97	13.578
317.34	15.274
317.70	14.486
318.07	15.925
318.43	14.851
318.80	15.587
319.16	14.336
319.53	15.221
319.89	15.233
320.26	16.387
320.62	15.659
320.99	16.683
321.35	16.234
321.72	17.457
322.08	17.267
322.45	17.530
322.81	16.834
323.18	18.561
323.54	18.293
323.91	19.492
324.27	18.656
324.64	18.426
325.00	18.621
325.37	19.899
325.73	20.236
326.10	20.215
326.46	20.644
326.83	20.000
327.19	21.044
327.56	20.847
327.92	20.656
328.29	21.849
328.65	21.233
329.01	21.215
329.38	22.166
329.74	22.203
330.11	21.981
330.47	21.824
330.84	20.708
331.20	22.166
331.56	22.884
331.93	21.814
332.29	20.068
332.66	22.279
333.02	20.275
333.38	21.553
333.75	21.768
334.11	22.735
334.48	22.222
334.84	21.030
335.20	21.300
335.57	21.579
335.93	20.437
336.29	21.144
336.66	22.985
337.02	20.616
337.38	20.034
337.75	21.453
338.11	21.181
338.47	20.491
338.84	20.914
339.20	21.472
339.56	20.774
339.93	20.318
340.29	20.504
340.65	20.704
341.02	21.400
341.38	20.443
341.74	20.930
342.11	20.117
342.47	21.165
342.83	21.165
343.20	22.393
343.56	20.334
343.92	21.635
344.28	20.096
344.65	20.212
345.01	20.635
345.37	19.712
345.73	20.079
346.10	20.876
346.46	21.531
346.82	20.139
347.19	20.015
347.55	19.048
347.91	20.619
348.27	20.294
348.63	20.649
349.00	20.259
349.36	20.623
349.72	20.413
350.08	19.953
350.45	20.640
350.81	20.260
351.17	19.492
351.53	18.938
351.89	20.668
352.26	20.862
352.62	20.136
352.98	20.859
353.34	21.803
353.70	19.801
354.07	19.923
354.43	19.816
354.79	19.058
355.15	20.214
355.51	19.335
355.87	20.407
356.24	20.554
356.60	20.091
356.96	19.788
357.32	20.422
357.68	20.044
358.04	20.289
358.40	19.490
358.77	20.135
359.13	19.745
359.49	19.644
359.85	19.657
360.21	19.911
360.57	20.146
360.93	19.841
361.29	20.058
361.66	20.134
362.02	18.395
362.38	19.697
362.74	19.038
363.10	20.477
363.46	19.890
363.82	20.196
364.18	20.057
364.54	19.957
364.90	19.210
365.26	19.639
365.62	20.304
365.98	18.651
366.35	19.172
366.71	20.472
367.07	19.386
367.43	19.946
367.79	19.947
368.15	18.453
368.51	20.813
368.87	20.041
369.23	19.127
369.59	19.622
369.95	19.441
370.31	19.028
370.67	18.876
371.03	19.398
371.39	19.321
371.75	18.772
372.11	20.190
372.47	20.205
372.83	19.579
373.19	20.151
373.55	20.000
373.91	19.406
374.27	20.040
374.63	19.458
374.99	20.822
375.35	19.691
375.71	19.195
376.07	19.562
376.42	18.478
376.78	20.167
377.14	19.725
377.50	19.226
377.86	19.859
378.22	19.744
378.58	21.005
378.94	20.036
379.30	19.709
379.66	19.928
380.02	19.238
380.38	18.501
380.74	20.531
381.09	20.561
381.45	18.728
381.81	19.799
382.17	19.658
382.53	18.596
382.89	19.633
383.25	19.420
383.61	18.790
383.97	19.256
384.32	19.289
384.68	19.727
385.04	20.281
385.40	20.047
385.76	19.075
386.12	19.604
386.48	19.392
386.83	19.621
387.19	18.905
387.55	19.906
387.91	19.919
388.27	19.393
388.62	19.660
388.98	18.659
389.34	18.977
389.70	18.986
390.06	20.183
390.42	19.001
390.77	19.349
391.13	19.614
391.49	19.359
391.85	19.446
392.20	20.024
392.56	19.295
392.92	19.371
393.28	19.170
393.64	18.979
393.99	18.613
394.35	18.423
394.71	17.551
395.07	19.100
395.42	18.501
395.78	19.741
396.14	18.675
396.50	18.953
396.85	18.598
397.21	19.675
397.57	18.530
397.92	18.775
398.28	18.753
398.64	19.081
399.00	18.065
399.35	18.519
399.71	19.316
400.07	18.779
400.42	18.388
400.78	18.827
401.14	18.614
401.49	18.260
401.85	18.888
402.21	18.219
402.57	18.432
402.92	19.091
403.28	18.616
403.63	18.187
403.99	18.094
404.35	18.406
404.70	18.724
405.06	18.024
405.42	17.714
405.77	18.302
406.13	17.787
406.49	17.681
406.84	17.654
407.20	18.208
407.55	18.462
407.91	17.613
408.27	18.132
408.62	18.214
408.98	18.037
409.34	17.650
409.69	17.424
410.05	17.710
410.40	18.433
410.76	17.802
411.11	17.180
411.47	17.593
411.83	17.750
412.18	17.391
412.54	18.679
412.89	17.758
413.25	17.446
413.60	17.640
413.96	17.953
414.31	17.355
414.67	18.250
415.03	16.922
415.38	18.423
415.74	18.383
416.09	18.114
416.45	19.005
416.80	18.409
417.16	17.696
417.51	17.516
417.87	17.835
418.22	17.679
418.58	17.962
418.93	18.084
419.29	17.006
419.64	18.171
420.00	18.019
420.35	17.364
420.71	17.620
421.06	17.599
421.42	18.423
421.77	17.157
422.12	17.310
422.48	18.130
422.83	18.136
423.19	18.089
423.54	18.431
423.90	17.950
424.25	17.997
424.61	17.411
424.96	17.165
425.31	18.281
425.67	17.508
426.02	17.499
426.38	16.803
426.73	18.334
427.09	17.972
427.44	16.939
427.79	17.496
428.15	18.798
428.50	18.229
428.85	17.989
429.21	17.936
429.56	17.498
429.92	18.399
430.27	17.707
430.62	17.621
430.98	18.164
431.33	17.893
431.68	17.086
432.04	17.693
432.39	18.222
432.74	18.443
433.10	17.165
433.45	18.265
433.80	19.084
434.16	18.129
434.51	18.473
434.86	18.944
435.22	18.314
435.57	17.961
435.92	19.237
436.28	19.182
436.63	18.314
436.98	18.975
437.34	18.436
437.69	18.085
438.04	18.441
438.39	18.856
438.75	19.098
439.10	18.888
439.45	18.598
439.81	19.260
440.16	19.097
440.51	18.637
440.86	20.000
441.22	18.939
441.57	18.320
441.92	18.806
442.27	18.711
442.63	18.801
442.98	17.942
443.33	19.389
443.68	19.014
444.03	18.850
444.39	18.691
444.74	18.427
445.09	19.431
445.44	19.288
445.79	18.470
446.15	19.368
446.50	18.302
446.85	18.924
447.20	18.557
447.55	18.434
447.91	19.925
448.26	19.542
448.61	19.237
448.96	19.281
449.31	20.682
449.66	20.044
450.02	19.071
450.37	19.378
450.72	19.780
451.07	20.012
451.42	20.332
451.77	19.817
452.12	19.796
452.47	19.016
452.83	20.056
453.18	19.820
453.53	19.420
453.88	20.114
454.23	20.221
454.58	19.289
454.93	18.823
455.28	19.890
455.63	20.213
455.98	19.571
456.34	20.122
456.69	19.878
457.04	19.630
457.39	19.886
457.74	19.764
458.09	19.876
458.44	19.934
458.79	20.053
459.14	18.712
459.49	19.649
459.84	18.913
460.19	20.226
460.54	20.114
460.89	20.362
461.24	19.817
461.59	20.238
461.94	20.449
462.29	20.252
462.64	20.791
462.99	20.601
463.34	20.091
463.69	21.355
464.04	21.244
464.39	20.378
464.74	19.285
465.09	20.952
465.44	20.729
465.79	20.359
466.14	19.396
466.49	19.967
466.84	19.844
467.19	20.211
467.54	19.700
467.89	20.599
468.24	20.382
468.59	19.940
468.94	19.928
469.29	20.342
469.64	21.222
469.99	20.758
470.34	20.114
470.68	21.172
471.03	20.881
471.38	20.861
471.73	20.836
472.08	21.853
472.43	21.043
472.78	20.807
473.13	20.213
473.48	20.599
473.83	21.437
474.17	20.912
474.52	20.438
474.87	20.864
475.22	20.217
475.57	20.672
475.92	20.031
476.27	20.348
476.61	20.697
476.96	20.376
477.31	21.440
477.66	20.880
478.01	20.887
478.36	20.958
478.70	20.496
479.05	20.188
479.40	20.585
479.75	21.450
480.10	20.958
480.45	20.682
480.79	20.645
481.14	20.780
481.49	19.396
481.84	20.712
482.19	21.179
482.53	20.422
482.88	20.520
483.23	20.478
483.58	20.916
483.92	21.298
484.27	20.163
484.62	19.949
484.97	20.452
485.31	18.975
485.66	19.241
486.01	18.564
486.36	18.269
486.70	18.083
487.05	18.091
487.40	19.397
487.75	19.606
488.09	19.602
488.44	19.567
488.79	20.097
489.13	20.418
489.48	20.416
489.83	20.100
490.17	20.438
490.52	21.275
490.87	20.560
491.22	20.833
491.56	21.036
491.91	20.699
492.26	20.401
492.60	20.774
492.95	21.069
493.30	21.702
493.64	20.665
493.99	20.259
494.34	21.246
494.68	21.071
495.03	20.521
495.37	21.567
495.72	20.606
496.07	20.620
496.41	20.765
496.76	20.684
497.11	20.994
497.45	20.956
497.80	21.177
498.14	21.359
498.49	21.031
498.84	21.075
499.18	20.475
499.53	21.084
499.87	20.934
500.22	21.188
500.56	21.356
500.91	21.707
501.26	22.003
501.60	21.903
501.95	21.013
502.29	21.511
502.64	21.041
502.98	20.676
503.33	20.802
503.67	21.501
504.02	21.137
504.36	21.403
504.71	21.192
505.06	21.351
505.40	21.479
505.75	21.562
506.09	22.165
506.44	22.180
506.78	22.023
507.13	21.231
507.47	22.465
507.82	22.628
508.16	22.440
508.51	21.063
508.85	22.840
509.19	22.320
509.54	21.680
509.88	22.228
510.23	22.206
510.57	21.766
510.92	22.677
511.26	22.339
511.61	22.157
511.95	22.748
512.30	22.550
512.64	22.118
512.98	22.553
513.33	23.309
513.67	22.993
514.02	22.442
514.36	22.845
514.70	23.093
515.05	22.536
515.39	23.081
515.74	24.822
516.08	24.074
516.42	24.372
516.77	23.413
517.11	23.360
517.46	23.761
517.80	24.249
518.14	24.225
518.49	23.594
518.83	23.407
519.17	24.016
519.52	24.522
519.86	24.033
520.20	24.658
520.55	24.081
520.89	23.851
521.23	24.825
521.58	23.752
521.92	23.907
522.26	24.052
522.61	24.599
522.95	24.745
523.29	24.854
523.64	23.642
523.98	24.765
524.32	24.510
524.66	25.101
525.01	24.201
525.35	25.162
525.69	24.804
526.04	25.877
526.38	25.191
526.72	24.642
527.06	24.305
527.41	25.514
527.75	24.650
528.09	23.961
528.43	25.320
528.78	25.045
529.12	25.707
529.46	24.898
529.80	24.241
530.15	25.280
530.49	25.090
530.83	25.655
531.17	24.293
531.51	25.506
531.86	25.543
532.20	24.845
532.54	24.922
532.88	24.984
533.22	25.168
533.57	25.015
533.91	24.009
534.25	23.601
534.59	24.503
534.93	24.573
535.27	24.417
535.62	24.037
535.96	24.409
536.30	26.143
536.64	25.031
536.98	24.544
537.32	25.125
537.66	24.298
538.01	25.015
538.35	24.579
538.69	25.000
539.03	23.881
539.37	23.604
539.71	25.494
540.05	24.369
540.39	25.157
540.73	25.949
541.07	25.910
541.42	24.440
541.76	24.229
542.10	24.784
542.44	25.436
542.78	25.173
543.12	23.742
543.46	24.248
543.80	24.812
544.14	25.263
544.48	25.061
544.82	25.015
545.16	23.072
545.50	24.892
545.84	25.063
546.18	26.788
546.52	24.656
546.86	24.823
547.20	25.258
547.54	25.269
547.88	25.000
548.22	24.529
548.56	23.807
548.90	24.199
549.24	24.889
549.58	23.711
549.92	24.754
550.26	25.152
550.60	25.083
550.94	25.373
551.28	26.966
551.62	25.931
551.96	25.405
552.30	24.852
552.64	24.919
552.98	24.291
553.32	24.456
553.66	24.300
554.00	24.003
554.34	25.233
554.68	25.605
555.02	25.187
555.36	24.734
555.69	25.131
556.03	24.013
556.37	24.538
556.71	25.489
557.05	23.984
557.39	25.267
557.73	24.528
558.07	25.218
558.41	24.537
558.75	25.445
559.08	25.447
559.42	24.911
559.76	25.303
560.10	25.877
560.44	24.088
560.78	25.000
561.12	24.793
561.45	24.406
561.79	24.282
562.13	23.500
562.47	24.010
562.81	24.593
563.15	24.047
563.48	23.230
563.82	24.392
564.16	23.881
564.50	23.327
564.84	24.134
565.17	24.124
565.51	24.692
565.85	24.429
566.19	23.274
566.52	23.526
566.86	24.577
567.20	24.270
567.54	23.035
567.88	23.370
568.21	22.916
568.55	22.957
568.89	22.536
569.23	21.527
569.56	21.885
569.90	21.703
570.24	20.784
570.57	21.285
570.91	20.936
571.25	21.204
571.59	20.474
571.92	20.479
572.26	20.350
572.60	20.328
572.93	20.500
573.27	20.534
573.61	20.384
573.95	20.144
574.28	19.825
574.62	19.842
574.96	19.304
575.29	19.629
575.63	19.623
575.97	19.377
576.30	19.717
576.64	19.606
576.98	19.735
577.31	19.866
577.65	19.950
577.98	19.146
578.32	19.354
578.66	18.915
578.99	19.299
579.33	19.215
579.67	19.271
580.00	19.606
580.34	19.066
580.67	19.306
581.01	20.101
581.35	19.201
581.68	18.788
582.02	18.756
582.35	19.040
582.69	18.788
583.02	19.030
583.36	19.426
583.70	19.668
584.03	19.861
584.37	20.369
584.70	19.980
585.04	19.248
585.37	18.913
585.71	19.618
586.04	19.263
586.38	19.583
586.72	19.202
587.05	19.840
587.39	19.317
587.72	19.639
588.06	19.394
588.39	19.473
588.73	19.777
589.06	19.463
589.40	20.219
589.73	19.961
590.07	20.796
590.40	20.732
590.73	21.080
591.07	20.645
591.40	20.160
591.74	20.252
592.07	20.341
592.41	21.063
592.74	20.176
593.08	19.466
593.41	19.689
593.75	19.473
594.08	19.618
594.41	19.387
594.75	20.308
595.08	20.096
595.42	20.309
595.75	20.303
596.09	20.334
596.42	21.012
596.75	21.394
597.09	21.131
597.42	21.061
597.75	20.406
598.09	19.943
598.42	20.277
598.76	19.931
599.09	20.265
599.42	19.446
599.76	20.081
600.09	19.492
600.42	19.820
600.76	19.103
601.09	19.537
601.42	20.239
601.76	19.943
602.09	20.383
602.42	20.074
602.76	19.962
603.09	20.551
603.42	20.624
603.76	19.306
604.09	19.834
604.42	19.661
604.76	20.071
605.09	20.000
605.42	19.829
605.75	19.897
606.09	19.549
606.42	19.504
606.75	20.326
607.09	19.384
607.42	19.526
607.75	19.586
608.08	19.659
608.42	19.463
608.75	20.197
609.08	20.194
609.41	20.182
609.75	21.200
610.08	20.099
610.41	19.763
610.74	20.346
611.07	20.146
611.41	21.038
611.74	20.793
612.07	20.472
612.40	20.760
612.73	20.719
613.07	20.172
613.40	20.602
613.73	20.819
614.06	20.100
614.39	20.758
614.72	20.643
615.06	20.030
615.39	20.941
615.72	20.232
616.05	20.342
616.38	20.142
616.71	20.347
617.05	20.483
617.38	20.393
617.71	21.485
618.04	20.247
618.37	21.012
618.70	20.612
619.03	21.245
619.36	21.671
619.69	21.900
620.03	21.853
620.36	20.873
620.69	21.903
621.02	21.807
621.35	21.418
621.68	22.640
622.01	23.026
622.34	21.777
622.67	22.261
623.00	21.375
623.33	21.053
623.66	21.956
623.99	21.712
624.32	21.341
624.65	21.198
624.99	21.366
625.32	21.443
625.65	19.793
625.98	20.084
626.31	21.291
626.64	20.653
626.97	22.494
627.30	21.739
627.63	22.606
627.96	22.144
628.29	22.525
628.62	21.985
628.95	23.316
629.28	23.926
629.61	22.759
629.94	23.336
630.26	22.877
630.59	23.138
630.92	22.960
631.25	23.844
631.58	23.819
631.91	23.692
632.24	22.838
632.57	23.084
632.90	24.845
633.23	23.715
633.56	23.815
633.89	24.223
