SpectraSuite Data File
++++++++++++++++++++++++++++++++++++
Date: Tue May 12 15:22:28 PDT 2015
User: schluterlab
Dark Spectrum Present: Yes
Reference Spectrum Present: Yes
Number of Sampled Component Spectra: 1
Spectrometers: USB2E3373
Integration Time (usec): 3000 (USB2E3373)
Spectra Averaged: 3 (USB2E3373)
Boxcar Smoothing: 0 (USB2E3373)
Correct for Electrical Dark: No (USB2E3373)
Strobe/Lamp Enabled: No (USB2E3373)
Correct for Detector Non-linearity: No (USB2E3373)
Correct for Stray Light: No (USB2E3373)
Number of Pixels in Processed Spectrum: 2048
>>>>>Begin Processed Spectral Data<<<<<
178.53	0.000
178.91	-175.000
179.29	-675.000
179.67	-3600.000
180.04	-86.667
180.42	625.000
180.80	1500.000
181.18	0.000
181.56	-225.000
181.94	0.000
182.31	1000.000
182.69	-2800.000
183.07	657.143
183.45	-3500.000
183.83	-1300.000
184.20	280.000
184.58	442.857
184.96	-176.923
185.34	-183.333
185.72	1900.000
186.09	-650.000
186.47	-3000.000
186.85	1033.333
187.23	500.000
187.61	1500.000
187.98	525.000
188.36	264.286
188.74	300.000
189.12	291.667
189.49	875.000
189.87	0.000
190.25	462.500
190.63	2500.000
191.00	-233.333
191.38	-2700.000
191.76	-500.000
192.14	612.500
192.51	-3700.000
192.89	1900.000
193.27	1166.667
193.65	-933.333
194.02	-660.000
194.40	471.429
194.78	-142.857
195.15	220.000
195.53	-2200.000
195.91	-640.000
196.29	3900.000
196.66	206.250
197.04	725.000
197.42	-1100.000
197.79	525.000
198.17	416.667
198.55	0.000
198.92	628.571
199.30	866.667
199.68	2150.000
200.05	750.000
200.43	-583.333
200.81	155.556
201.18	4200.000
201.56	291.667
201.94	-700.000
202.31	-325.000
202.69	-380.000
203.07	2900.000
203.44	-466.667
203.82	308.333
204.19	640.000
204.57	-1250.000
204.95	-850.000
205.32	-600.000
205.70	483.333
206.08	850.000
206.45	-1133.333
206.83	333.333
207.20	194.737
207.58	175.000
207.96	760.000
208.33	0.000
208.71	628.571
209.08	620.000
209.46	-3600.000
209.84	-550.000
210.21	900.000
210.59	-400.000
210.96	266.667
211.34	-900.000
211.71	309.091
212.09	875.000
212.46	1500.000
212.84	-383.333
213.22	277.778
213.59	-2500.000
213.97	310.000
214.34	800.000
214.72	800.000
215.09	800.000
215.47	-3400.000
215.84	-300.000
216.22	-400.000
216.59	0.000
216.97	0.000
217.34	1150.000
217.72	-1000.000
218.09	1400.000
218.47	387.500
218.84	1075.000
219.22	1300.000
219.59	900.000
219.97	514.286
220.34	555.556
220.72	1400.000
221.09	3000.000
221.47	291.667
221.84	933.333
222.22	430.000
222.59	227.778
222.97	221.429
223.34	237.500
223.72	-1650.000
224.09	1266.667
224.46	238.462
224.84	-775.000
225.21	433.333
225.59	293.333
225.96	1466.667
226.34	-700.000
226.71	-750.000
227.08	-460.000
227.46	0.000
227.83	-583.333
228.21	-1450.000
228.58	358.333
228.95	925.000
229.33	400.000
229.70	900.000
230.08	276.923
230.45	3800.000
230.82	-725.000
231.20	-666.667
231.57	-800.000
231.95	340.000
232.32	308.333
232.69	383.333
233.07	233.333
233.44	-1700.000
233.81	240.000
234.19	155.556
234.56	181.250
234.93	194.118
235.31	175.000
235.68	243.750
236.05	135.714
236.43	162.963
236.80	242.857
237.17	148.276
237.55	143.750
237.92	127.500
238.29	109.091
238.67	109.375
239.04	92.683
239.41	70.833
239.79	105.000
240.16	95.833
240.53	60.656
240.91	78.261
241.28	83.051
241.65	69.697
242.02	59.155
242.40	65.714
242.77	62.637
243.14	70.886
243.51	58.586
243.89	57.009
244.26	56.075
244.63	61.386
245.00	54.128
245.38	39.831
245.75	46.970
246.12	52.593
246.49	46.809
246.87	49.180
247.24	45.333
247.61	45.000
247.98	42.177
248.36	36.364
248.73	46.429
249.10	38.690
249.47	43.000
249.84	41.294
250.22	42.703
250.59	43.000
250.96	40.084
251.33	37.674
251.70	38.839
252.08	35.294
252.45	37.849
252.82	37.262
253.19	32.806
253.56	34.615
253.94	30.797
254.31	36.822
254.68	33.449
255.05	34.483
255.42	41.971
255.79	39.088
256.16	34.576
256.54	31.169
256.91	33.987
257.28	37.124
257.65	29.781
258.02	35.988
258.39	31.805
258.76	33.333
259.14	30.857
259.51	33.236
259.88	34.954
260.25	31.044
260.62	34.247
260.99	27.548
261.36	34.262
261.73	32.181
262.10	31.937
262.47	32.000
262.85	33.867
263.22	31.362
263.59	30.946
263.96	34.586
264.33	29.877
264.70	30.221
265.07	32.439
265.44	30.275
265.81	28.066
266.18	30.435
266.55	29.551
266.92	32.886
267.29	28.728
267.66	28.700
268.03	29.148
268.40	28.753
268.77	30.176
269.14	26.247
269.51	28.508
269.88	30.408
270.25	24.190
270.62	29.614
270.99	31.440
271.36	28.862
271.73	28.512
272.10	28.081
272.47	25.000
272.84	27.146
273.21	30.785
273.58	28.745
273.95	28.747
274.32	30.934
274.69	29.331
275.06	29.508
275.43	30.077
275.80	28.679
276.17	30.331
276.54	29.346
276.91	28.918
277.28	29.015
277.65	28.229
278.02	27.941
278.39	25.719
278.76	28.448
279.13	27.224
279.50	29.273
279.87	27.374
280.23	28.729
280.60	28.832
280.97	27.414
281.34	26.073
281.71	27.304
282.08	27.863
282.45	26.182
282.82	28.595
283.19	28.140
283.56	25.124
283.92	28.990
284.29	26.622
284.66	25.546
285.03	28.192
285.40	28.099
285.77	25.000
286.14	25.232
286.51	24.540
286.87	25.633
287.24	25.375
287.61	26.140
287.98	25.373
288.35	24.593
288.72	27.011
289.08	25.676
289.45	22.866
289.82	23.906
290.19	25.183
290.56	24.600
290.93	24.460
291.29	24.586
291.66	25.565
292.03	24.544
292.40	24.255
292.77	23.259
293.13	25.250
293.50	22.942
293.87	22.629
294.24	22.657
294.60	23.822
294.97	22.937
295.34	21.780
295.71	23.127
296.08	21.867
296.44	23.761
296.81	21.340
297.18	19.518
297.55	23.153
297.91	19.828
298.28	21.739
298.65	20.982
299.02	21.472
299.38	21.583
299.75	21.585
300.12	21.789
300.48	20.375
300.85	21.454
301.22	20.581
301.59	19.811
301.95	20.420
302.32	21.071
302.69	20.475
303.05	21.773
303.42	18.610
303.79	20.910
304.15	19.692
304.52	19.662
304.89	20.149
305.25	20.578
305.62	19.723
305.99	20.109
306.35	19.789
306.72	19.043
307.09	17.805
307.45	19.535
307.82	18.827
308.19	19.485
308.55	18.700
308.92	20.412
309.29	19.921
309.65	18.930
310.02	19.067
310.38	17.946
310.75	19.190
311.12	18.008
311.48	19.208
311.85	18.511
312.22	19.198
312.58	17.881
312.95	19.903
313.31	18.727
313.68	18.668
314.05	19.597
314.41	18.715
314.78	17.708
315.14	19.621
315.51	18.827
315.87	18.704
316.24	18.394
316.61	18.532
316.97	18.257
317.34	18.329
317.70	18.349
318.07	18.505
318.43	18.541
318.80	18.564
319.16	17.657
319.53	17.522
319.89	18.011
320.26	18.994
320.62	18.407
320.99	18.494
321.35	18.182
321.72	19.450
322.08	19.021
322.45	17.530
322.81	16.560
323.18	18.206
323.54	18.815
323.91	18.314
324.27	17.772
324.64	16.609
325.00	18.017
325.37	17.538
325.73	17.791
326.10	18.393
326.46	18.580
326.83	17.280
327.19	16.867
327.56	16.294
327.92	17.213
328.29	19.149
328.65	17.723
329.01	17.793
329.38	17.597
329.74	17.677
330.11	18.679
330.47	18.500
330.84	16.825
331.20	17.513
331.56	17.789
331.93	17.879
332.29	16.582
332.66	18.027
333.02	16.495
333.38	16.579
333.75	18.265
334.11	17.030
334.48	17.692
334.84	16.892
335.20	16.852
335.57	16.793
335.93	16.989
336.29	16.169
336.66	17.581
337.02	16.766
337.38	16.767
337.75	16.216
338.11	17.553
338.47	16.427
338.84	16.511
339.20	16.537
339.56	16.569
339.93	15.719
340.29	15.966
340.65	17.100
341.02	17.216
341.38	17.159
341.74	16.777
342.11	15.776
342.47	16.407
342.83	16.817
343.20	16.249
343.56	16.124
343.92	16.020
344.28	17.305
344.65	17.196
345.01	15.952
345.37	17.308
345.73	15.714
346.10	17.291
346.46	15.789
346.82	16.049
347.19	16.770
347.55	16.159
347.91	15.634
348.27	15.182
348.63	17.563
349.00	16.603
349.36	17.121
349.72	16.590
350.08	16.304
350.45	17.060
350.81	16.361
351.17	15.562
351.53	16.551
351.89	14.918
352.26	15.646
352.62	15.460
352.98	16.181
353.34	15.716
353.70	14.373
354.07	15.615
354.43	15.591
354.79	14.730
355.15	15.926
355.51	15.937
355.87	16.340
356.24	15.012
356.60	15.906
356.96	14.708
357.32	15.448
357.68	15.859
358.04	15.578
358.40	15.667
358.77	15.702
359.13	16.141
359.49	15.641
359.85	15.562
360.21	15.305
360.57	15.182
360.93	15.079
361.29	15.512
361.66	16.406
362.02	13.565
362.38	15.152
362.74	14.650
363.10	16.199
363.46	15.470
363.82	15.217
364.18	15.647
364.54	15.093
364.90	15.462
365.26	15.961
365.62	14.434
365.98	14.797
366.35	15.103
366.71	15.475
367.07	14.676
367.43	15.648
367.79	15.492
368.15	13.908
368.51	15.507
368.87	14.334
369.23	15.800
369.59	14.835
369.95	15.734
370.31	14.168
370.67	14.643
371.03	14.986
371.39	15.512
371.75	14.794
372.11	16.111
372.47	15.616
372.83	14.888
373.19	15.147
373.55	14.296
373.91	13.605
374.27	14.616
374.63	13.966
374.99	14.286
375.35	15.390
375.71	15.501
376.07	14.456
376.42	13.747
376.78	15.414
377.14	15.465
377.50	15.044
377.86	13.197
378.22	14.930
378.58	15.073
378.94	14.484
379.30	14.069
379.66	14.449
380.02	14.428
380.38	14.344
380.74	15.167
381.09	13.960
381.45	14.393
381.81	15.071
382.17	14.347
382.53	14.337
382.89	14.488
383.25	14.328
383.61	14.063
383.97	13.857
384.32	14.045
384.68	15.270
385.04	15.416
385.40	15.480
385.76	14.394
386.12	14.533
386.48	14.590
386.83	13.998
387.19	14.547
387.55	14.488
387.91	14.203
388.27	14.218
388.62	14.261
388.98	14.344
389.34	14.277
389.70	13.856
390.06	15.061
390.42	14.744
390.77	14.066
391.13	14.605
391.49	15.366
391.85	14.954
392.20	14.779
392.56	14.636
392.92	13.981
393.28	14.462
393.64	13.532
393.99	14.108
394.35	14.361
394.71	14.415
395.07	14.234
395.42	14.344
395.78	14.621
396.14	15.542
396.50	14.501
396.85	14.756
397.21	14.982
397.57	14.405
397.92	14.731
398.28	13.844
398.64	14.718
399.00	14.217
399.35	14.278
399.71	14.845
400.07	15.240
400.42	13.493
400.78	14.135
401.14	14.680
401.49	14.459
401.85	15.411
402.21	14.236
402.57	13.944
402.92	14.061
403.28	13.783
403.63	13.596
403.99	14.294
404.35	14.420
404.70	14.176
405.06	14.655
405.42	15.141
405.77	14.498
406.13	14.262
406.49	14.667
406.84	14.270
407.20	15.011
407.55	14.769
407.91	14.295
408.27	14.312
408.62	15.257
408.98	13.897
409.34	14.027
409.69	13.690
410.05	14.609
410.40	13.840
410.76	13.623
411.11	13.863
411.47	14.074
411.83	13.943
412.18	13.708
412.54	14.775
412.89	13.982
413.25	14.253
413.60	13.785
413.96	14.183
414.31	14.581
414.67	15.208
415.03	14.049
415.38	14.069
415.74	14.782
416.09	14.553
416.45	15.514
416.80	14.432
417.16	14.449
417.51	14.522
417.87	15.144
418.22	14.399
418.58	13.949
418.93	14.039
419.29	13.863
419.64	14.294
420.00	14.797
420.35	13.357
420.71	14.469
421.06	13.184
421.42	14.220
421.77	13.881
422.12	14.664
422.48	13.457
422.83	14.565
423.19	13.661
423.54	14.427
423.90	14.213
424.25	13.979
424.61	14.684
424.96	12.705
425.31	14.286
425.67	14.198
426.02	13.909
426.38	14.586
426.73	14.459
427.09	14.413
427.44	14.012
427.79	13.665
428.15	14.084
428.50	14.286
428.85	14.227
429.21	14.749
429.56	13.609
429.92	14.222
430.27	13.691
430.62	14.097
430.98	13.922
431.33	13.558
431.68	13.284
432.04	13.554
432.39	14.544
432.74	14.578
433.10	14.120
433.45	14.417
433.80	14.782
434.16	14.136
434.51	13.674
434.86	14.099
435.22	13.074
435.57	13.515
435.92	14.286
436.28	14.516
436.63	14.533
436.98	14.527
437.34	14.726
437.69	13.438
438.04	14.570
438.39	14.419
438.75	14.365
439.10	14.247
439.45	14.245
439.81	14.054
440.16	14.254
440.51	13.795
440.86	15.214
441.22	14.069
441.57	14.173
441.92	13.820
442.27	13.351
442.63	14.228
442.98	13.793
443.33	14.140
443.68	14.135
444.03	13.666
444.39	13.748
444.74	14.182
445.09	13.797
445.44	14.346
445.79	14.035
446.15	13.789
446.50	14.188
446.85	14.044
447.20	13.980
447.55	12.670
447.91	14.864
448.26	14.483
448.61	14.317
448.96	14.325
449.31	14.136
449.66	15.227
450.02	13.560
450.37	14.270
450.72	14.270
451.07	14.369
451.42	14.049
451.77	14.318
452.12	14.464
452.47	15.249
452.83	14.761
453.18	13.874
453.53	14.742
453.88	14.857
454.23	15.166
454.58	14.685
454.93	14.776
455.28	15.055
455.63	14.539
455.98	15.172
456.34	14.833
456.69	13.841
457.04	14.141
457.39	14.914
457.74	15.935
458.09	14.430
458.44	14.458
458.79	14.801
459.14	14.239
459.49	15.289
459.84	14.891
460.19	14.576
460.54	14.758
460.89	14.979
461.24	13.975
461.59	14.229
461.94	14.716
462.29	14.817
462.64	15.327
462.99	15.099
463.34	16.137
463.69	15.789
464.04	14.796
464.39	14.539
464.74	14.068
465.09	14.219
465.44	14.744
465.79	14.317
466.14	14.361
466.49	14.107
466.84	15.217
467.19	15.056
467.54	14.474
467.89	14.906
468.24	15.055
468.59	14.345
468.94	15.278
469.29	15.883
469.64	15.113
469.99	15.167
470.34	15.180
470.68	16.069
471.03	14.810
471.38	14.901
471.73	15.349
472.08	15.003
472.43	15.891
472.78	15.365
473.13	14.268
473.48	14.364
473.83	14.664
474.17	14.833
474.52	14.988
474.87	14.611
475.22	15.306
475.57	15.163
475.92	14.461
476.27	14.200
476.61	14.799
476.96	15.047
477.31	14.859
477.66	15.030
478.01	15.008
478.36	14.933
478.70	14.392
479.05	14.331
479.40	14.087
479.75	15.541
480.10	14.134
480.45	15.079
480.79	14.378
481.14	14.456
481.49	14.547
481.84	14.996
482.19	14.760
482.53	14.361
482.88	14.382
483.23	14.659
483.58	14.318
483.92	15.037
484.27	14.555
484.62	15.110
484.97	14.531
485.31	14.057
485.66	12.994
486.01	13.132
486.36	12.413
486.70	12.297
487.05	12.548
487.40	13.367
487.75	13.667
488.09	13.949
488.44	14.340
488.79	13.884
489.13	14.147
489.48	14.622
489.83	14.887
490.17	14.368
490.52	14.427
490.87	14.741
491.22	15.160
491.56	15.152
491.91	14.471
492.26	14.833
492.60	14.806
492.95	14.771
493.30	15.696
493.64	14.690
493.99	14.758
494.34	14.119
494.68	14.830
495.03	15.312
495.37	15.714
495.72	14.592
496.07	14.870
496.41	14.770
496.76	15.196
497.11	14.867
497.45	14.950
497.80	15.153
498.14	15.488
498.49	15.320
498.84	15.748
499.18	14.991
499.53	14.929
499.87	14.735
500.22	15.707
500.56	15.181
500.91	15.399
501.26	15.296
501.60	14.709
501.95	14.606
502.29	14.978
502.64	14.910
502.98	15.162
503.33	14.744
503.67	15.055
504.02	14.913
504.36	15.520
504.71	15.421
505.06	15.110
505.40	15.536
505.75	15.388
506.09	15.632
506.44	15.085
506.78	15.926
507.13	15.221
507.47	15.381
507.82	16.448
508.16	15.728
508.51	15.314
508.85	15.812
509.19	15.223
509.54	16.016
509.88	15.614
510.23	15.343
510.57	15.106
510.92	15.984
511.26	15.512
511.61	15.362
511.95	16.078
512.30	16.050
512.64	15.628
512.98	16.094
513.33	16.342
513.67	15.898
514.02	15.584
514.36	15.992
514.70	16.107
515.05	16.143
515.39	16.283
515.74	16.512
516.08	16.285
516.42	16.393
516.77	16.373
517.11	15.573
517.46	16.164
517.80	15.893
518.14	16.901
518.49	15.821
518.83	15.385
519.17	16.306
519.52	16.548
519.86	16.403
520.20	16.712
520.55	16.733
520.89	15.690
521.23	16.998
521.58	17.384
521.92	17.668
522.26	16.884
522.61	17.172
522.95	16.697
523.29	16.784
523.64	16.474
523.98	16.667
524.32	15.975
524.66	16.638
525.01	16.331
525.35	16.853
525.69	16.496
526.04	17.728
526.38	16.539
526.72	17.064
527.06	16.854
527.41	17.715
527.75	17.346
528.09	16.677
528.43	17.572
528.78	17.293
529.12	17.821
529.46	17.124
529.80	17.523
530.15	17.501
530.49	16.125
530.83	16.514
531.17	17.405
531.51	17.413
531.86	16.787
532.20	16.749
532.54	16.133
532.88	17.489
533.22	16.880
533.57	17.572
533.91	16.142
534.25	16.042
534.59	16.667
534.93	16.610
535.27	16.164
535.62	16.394
535.96	17.258
536.30	17.367
536.64	16.025
536.98	16.740
537.32	17.125
537.66	15.944
538.01	17.028
538.35	17.717
538.69	16.201
539.03	16.107
539.37	16.080
539.71	16.790
540.05	16.677
540.39	17.044
540.73	16.709
541.07	16.562
541.42	16.294
541.76	16.831
542.10	16.584
542.44	16.771
542.78	16.174
543.12	17.423
543.46	16.667
543.80	16.291
544.14	17.214
544.48	16.971
544.82	15.841
545.16	15.604
545.50	16.902
545.84	16.667
546.18	17.685
546.52	17.377
546.86	17.602
547.20	16.990
547.54	16.719
547.88	16.302
548.22	15.847
548.56	16.912
548.90	16.489
549.24	17.688
549.58	16.366
549.92	16.765
550.26	16.836
550.60	16.766
550.94	17.164
551.28	16.966
551.62	18.000
551.96	16.959
552.30	15.821
552.64	17.087
552.98	16.237
553.32	16.453
553.66	15.765
554.00	17.375
554.34	17.643
554.68	16.734
555.02	16.633
555.36	15.824
555.69	17.539
556.03	16.624
556.37	16.571
556.71	17.731
557.05	17.366
557.39	17.533
557.73	16.981
558.07	17.103
558.41	18.095
558.75	17.852
559.08	17.798
559.42	17.609
559.76	18.033
560.10	16.724
560.44	16.921
560.78	17.839
561.12	17.292
561.45	16.583
561.79	16.854
562.13	15.856
562.47	16.937
562.81	16.916
563.15	17.518
563.48	16.957
563.82	16.781
564.16	16.169
564.50	17.300
564.84	16.657
565.17	16.875
565.51	16.933
565.85	16.533
566.19	16.369
566.52	15.764
566.86	16.346
567.20	16.011
567.54	15.229
567.88	16.536
568.21	15.726
568.55	15.661
568.89	15.146
569.23	14.840
569.56	15.016
569.90	14.265
570.24	14.957
570.57	14.731
570.91	13.822
571.25	13.701
571.59	13.254
571.92	13.375
572.26	13.100
572.60	13.468
572.93	13.571
573.27	13.584
573.61	13.184
573.95	13.147
574.28	13.330
574.62	12.878
574.96	13.065
575.29	12.701
575.63	12.744
575.97	13.096
576.30	13.111
576.64	13.087
576.98	13.281
577.31	13.214
577.65	12.745
577.98	12.700
578.32	12.371
578.66	12.500
578.99	12.482
579.33	12.652
579.67	12.647
580.00	12.543
580.34	12.941
580.67	12.908
581.01	13.232
581.35	12.821
581.68	11.863
582.02	12.021
582.35	12.364
582.69	12.537
583.02	12.579
583.36	12.613
583.70	12.682
584.03	13.249
584.37	12.998
584.70	12.988
585.04	12.777
585.37	12.218
585.71	12.921
586.04	12.774
586.38	12.904
586.72	12.921
587.05	13.201
587.39	12.870
587.72	12.954
588.06	12.441
588.39	13.050
588.73	13.675
589.06	13.481
589.40	13.521
589.73	13.602
590.07	13.727
590.40	14.251
590.73	14.653
591.07	14.763
591.40	14.451
591.74	14.692
592.07	13.852
592.41	14.189
592.74	13.402
593.08	13.216
593.41	12.837
593.75	13.001
594.08	13.181
594.41	13.881
594.75	13.664
595.08	13.717
595.42	13.792
595.75	13.755
596.09	13.591
596.42	13.729
596.75	14.263
597.09	14.651
597.42	14.245
597.75	14.361
598.09	13.993
598.42	14.076
598.76	13.261
599.09	14.601
599.42	13.564
599.76	13.467
600.09	13.051
600.42	13.191
600.76	13.256
601.09	13.359
601.42	13.305
601.76	13.963
602.09	13.944
602.42	13.900
602.76	13.890
603.09	13.763
603.42	14.312
603.76	14.172
604.09	13.753
604.42	13.672
604.76	14.184
605.09	13.837
605.42	14.588
605.75	13.660
606.09	14.040
606.42	13.454
606.75	13.991
607.09	14.133
607.42	13.901
607.75	14.490
608.08	14.094
608.42	13.842
608.75	13.393
609.08	13.682
609.41	14.682
609.75	14.652
610.08	14.433
610.41	14.054
610.74	14.589
611.07	14.643
611.41	14.458
611.74	14.245
612.07	14.644
612.40	15.010
612.73	14.928
613.07	14.952
613.40	14.787
613.73	15.177
614.06	14.100
614.39	14.899
614.72	14.967
615.06	15.035
615.39	14.901
615.72	14.327
616.05	14.716
616.38	14.764
616.71	14.759
617.05	15.102
617.38	14.438
617.71	15.523
618.04	15.536
618.37	15.453
618.70	15.473
619.03	15.263
619.36	16.332
619.69	15.435
620.03	16.112
620.36	15.735
620.69	16.347
621.02	17.052
621.35	16.619
621.68	16.888
622.01	16.827
622.34	16.679
622.67	17.135
623.00	16.474
623.33	16.262
623.66	16.234
623.99	16.575
624.32	16.328
624.65	15.273
624.99	16.092
625.32	16.700
625.65	15.448
625.98	16.388
626.31	17.211
626.64	16.781
626.97	17.751
627.30	17.314
627.63	18.681
627.96	16.275
628.29	16.997
628.62	17.879
628.95	18.617
629.28	19.106
629.61	16.257
629.94	17.632
630.26	16.724
630.59	19.060
630.92	18.655
631.25	19.311
