SpectraSuite Data File
++++++++++++++++++++++++++++++++++++
Date: Tue May 12 15:20:10 PDT 2015
User: schluterlab
Dark Spectrum Present: Yes
Reference Spectrum Present: Yes
Number of Sampled Component Spectra: 1
Spectrometers: USB2E3373
Integration Time (usec): 3000 (USB2E3373)
Spectra Averaged: 3 (USB2E3373)
Boxcar Smoothing: 0 (USB2E3373)
Correct for Electrical Dark: No (USB2E3373)
Strobe/Lamp Enabled: No (USB2E3373)
Correct for Detector Non-linearity: No (USB2E3373)
Correct for Stray Light: No (USB2E3373)
Number of Pixels in Processed Spectrum: 2048
>>>>>Begin Processed Spectral Data<<<<<
178.53	0.000
178.91	-183.333
179.29	-700.000
179.67	-3000.000
180.04	-160.000
180.42	575.000
180.80	1450.000
181.18	0.000
181.56	-300.000
181.94	0.000
182.31	1100.000
182.69	-3600.000
183.07	571.429
183.45	-3800.000
183.83	-1400.000
184.20	370.000
184.58	371.429
184.96	-153.846
185.34	-291.667
185.72	1750.000
186.09	-575.000
186.47	-3700.000
186.85	1166.667
187.23	640.000
187.61	1650.000
187.98	362.500
188.36	278.571
188.74	275.000
189.12	341.667
189.49	875.000
189.87	0.000
190.25	437.500
190.63	1700.000
191.00	-183.333
191.38	-3200.000
191.76	-600.000
192.14	525.000
192.51	-2400.000
192.89	1650.000
193.27	866.667
193.65	-966.667
194.02	-580.000
194.40	457.143
194.78	-214.286
195.15	193.333
195.53	-2800.000
195.91	-340.000
196.29	2900.000
196.66	237.500
197.04	525.000
197.42	-800.000
197.79	475.000
198.17	266.667
198.55	0.000
198.92	271.429
199.30	1066.667
199.68	1600.000
200.05	666.667
200.43	-550.000
200.81	250.000
201.18	3800.000
201.56	275.000
201.94	-925.000
202.31	-300.000
202.69	-480.000
203.07	2500.000
203.44	-416.667
203.82	333.333
204.19	660.000
204.57	-700.000
204.95	-775.000
205.32	-620.000
205.70	483.333
206.08	750.000
206.45	-566.667
206.83	288.889
207.20	194.737
207.58	316.667
207.96	660.000
208.33	0.000
208.71	428.571
209.08	620.000
209.46	-3600.000
209.84	-825.000
210.21	800.000
210.59	-540.000
210.96	308.333
211.34	-825.000
211.71	345.455
212.09	750.000
212.46	1500.000
212.84	-500.000
213.22	477.778
213.59	-3400.000
213.97	300.000
214.34	925.000
214.72	1400.000
215.09	900.000
215.47	-3500.000
215.84	-290.000
216.22	-350.000
216.59	0.000
216.97	0.000
217.34	1500.000
217.72	-1350.000
218.09	1000.000
218.47	500.000
218.84	925.000
219.22	1233.333
219.59	666.667
219.97	300.000
220.34	266.667
220.72	1850.000
221.09	3200.000
221.47	308.333
221.84	1000.000
222.22	330.000
222.59	244.444
222.97	185.714
223.34	237.500
223.72	-1700.000
224.09	866.667
224.46	307.692
224.84	-650.000
225.21	411.111
225.59	240.000
225.96	1033.333
226.34	-780.000
226.71	-550.000
227.08	-420.000
227.46	0.000
227.83	-533.333
228.21	-1550.000
228.58	316.667
228.95	800.000
229.33	277.778
229.70	775.000
230.08	292.308
230.45	2600.000
230.82	-875.000
231.20	-866.667
231.57	-800.000
231.95	420.000
232.32	250.000
232.69	500.000
233.07	225.000
233.44	-1600.000
233.81	200.000
234.19	148.148
234.56	237.500
234.93	176.471
235.31	190.000
235.68	206.250
236.05	114.286
236.43	100.000
236.80	200.000
237.17	144.828
237.55	109.375
237.92	110.000
238.29	121.212
238.67	106.250
239.04	100.000
239.41	66.667
239.79	87.500
240.16	64.583
240.53	57.377
240.91	63.768
241.28	62.712
241.65	56.061
242.02	66.197
242.40	60.000
242.77	56.044
243.14	41.772
243.51	67.677
243.89	41.121
244.26	46.729
244.63	48.515
245.00	39.450
245.38	38.136
245.75	35.606
246.12	42.222
246.49	34.752
246.87	37.705
247.24	42.667
247.61	40.000
247.98	37.415
248.36	27.879
248.73	42.857
249.10	27.976
249.47	35.500
249.84	26.866
250.22	34.595
250.59	29.500
250.96	28.692
251.33	33.953
251.70	31.250
252.08	31.933
252.45	27.490
252.82	26.616
253.19	26.087
253.56	24.231
253.94	28.261
254.31	26.357
254.68	28.223
255.05	28.621
255.42	25.912
255.79	29.642
256.16	28.136
256.54	28.571
256.91	26.144
257.28	25.084
257.65	18.809
258.02	23.304
258.39	24.642
258.76	24.928
259.14	23.143
259.51	25.364
259.88	25.836
260.25	20.055
260.62	26.849
260.99	20.937
261.36	22.563
261.73	23.138
262.10	23.822
262.47	23.500
262.85	21.600
263.22	22.879
263.59	24.552
263.96	24.060
264.33	20.988
264.70	24.079
265.07	24.390
265.44	24.083
265.81	22.406
266.18	23.112
266.55	22.695
266.92	19.239
267.29	23.026
267.66	21.973
268.03	21.749
268.40	20.085
268.77	22.687
269.14	21.475
269.51	19.599
269.88	20.816
270.25	17.711
270.62	21.674
270.99	23.327
271.36	23.171
271.73	19.287
272.10	19.596
272.47	20.437
272.84	20.958
273.21	22.107
273.58	24.291
273.95	17.454
274.32	23.346
274.69	21.063
275.06	20.036
275.43	21.648
275.80	21.132
276.17	20.772
276.54	20.561
276.91	20.709
277.28	18.978
277.65	18.635
278.02	21.875
278.39	17.986
278.76	21.207
279.13	19.929
279.50	19.455
279.87	18.808
280.23	20.258
280.60	18.796
280.97	20.172
281.34	19.472
281.71	21.739
282.08	19.145
282.45	18.919
282.82	20.736
283.19	20.668
283.56	18.347
283.92	19.218
284.29	19.967
284.66	19.160
285.03	19.237
285.40	20.331
285.77	18.364
286.14	21.517
286.51	16.871
286.87	18.987
287.24	18.018
287.61	18.541
287.98	20.299
288.35	17.333
288.72	17.451
289.08	19.219
289.45	19.360
289.82	18.281
290.19	18.009
290.56	20.670
290.93	20.000
291.29	17.680
291.66	17.232
292.03	19.074
292.40	18.022
292.77	16.017
293.13	18.402
293.50	17.274
293.87	15.989
294.24	17.622
294.60	16.689
294.97	19.161
295.34	15.538
295.71	16.294
296.08	17.333
296.44	17.027
296.81	17.122
297.18	15.082
297.55	17.241
297.91	15.517
298.28	17.512
298.65	15.583
299.02	16.526
299.38	16.906
299.75	17.073
300.12	16.514
300.48	16.862
300.85	17.998
301.22	16.744
301.59	14.623
301.95	15.869
302.32	17.229
302.69	17.081
303.05	17.957
303.42	18.049
303.79	16.685
304.15	16.612
304.52	16.279
304.89	16.738
305.25	18.242
305.62	17.697
305.99	16.196
306.35	16.842
306.72	16.233
307.09	17.702
307.45	16.895
307.82	15.535
308.19	16.804
308.55	17.200
308.92	17.566
309.29	17.850
309.65	16.848
310.02	16.836
310.38	15.952
310.75	16.297
311.12	16.379
311.48	18.050
311.85	17.271
312.22	17.765
312.58	17.007
312.95	16.505
313.31	17.884
313.68	18.668
314.05	18.590
314.41	17.225
314.78	17.235
315.14	17.441
315.51	19.300
315.87	17.701
316.24	17.834
316.61	18.174
316.97	16.972
317.34	18.329
317.70	19.666
318.07	18.950
318.43	19.596
318.80	19.877
319.16	19.580
319.53	18.673
319.89	17.652
320.26	20.019
320.62	19.963
320.99	19.256
321.35	19.202
321.72	20.398
322.08	20.037
322.45	20.163
322.81	18.847
323.18	20.249
323.54	21.690
323.91	20.580
324.27	21.220
324.64	20.069
325.00	21.121
325.37	21.501
325.73	21.164
326.10	21.624
326.46	22.048
326.83	21.200
327.19	23.133
327.56	21.645
327.92	23.770
328.29	23.732
328.65	22.432
329.01	23.097
329.38	22.927
329.74	22.374
330.11	22.850
330.47	22.762
330.84	22.261
331.20	24.196
331.56	23.661
331.93	23.610
332.29	23.384
332.66	23.469
333.02	23.540
333.38	23.037
333.75	24.854
334.11	22.903
334.48	23.419
334.84	23.142
335.20	23.097
335.57	23.762
335.93	23.045
336.29	23.051
336.66	24.357
337.02	23.867
337.38	23.044
337.75	24.916
338.11	23.966
338.47	23.370
338.84	23.455
339.20	22.338
339.56	24.222
339.93	23.997
340.29	23.782
340.65	25.063
341.02	23.492
341.38	23.481
341.74	24.502
342.11	22.538
342.47	23.134
342.83	24.856
343.20	23.686
343.56	21.446
343.92	23.369
344.28	24.003
344.65	23.798
345.01	24.206
345.37	23.077
345.73	24.048
346.10	23.506
346.46	24.402
346.82	22.685
347.19	24.111
347.55	23.341
347.91	22.734
348.27	22.696
348.63	23.259
349.00	23.077
349.36	22.802
349.72	23.165
350.08	22.360
350.45	22.468
350.81	23.394
351.17	23.035
351.53	24.249
351.89	22.922
352.26	23.356
352.62	23.906
352.98	23.926
353.34	24.268
353.70	23.242
354.07	23.846
354.43	22.581
354.79	23.462
355.15	23.277
355.51	23.489
355.87	24.322
356.24	23.941
356.60	22.679
356.96	21.607
357.32	23.662
357.68	23.201
358.04	23.708
358.40	23.463
358.77	23.666
359.13	23.348
359.49	23.573
359.85	23.380
360.21	21.842
360.57	23.212
360.93	24.098
361.29	24.603
361.66	24.310
362.02	22.940
362.38	23.593
362.74	24.062
363.10	24.053
363.46	21.823
363.82	24.264
364.18	23.613
364.54	24.320
364.90	24.230
365.26	24.080
365.62	24.378
365.98	23.675
366.35	23.793
366.71	24.289
367.07	22.935
367.43	24.043
367.79	23.737
368.15	23.202
368.51	24.604
368.87	23.302
369.23	23.493
369.59	24.073
369.95	24.685
370.31	22.861
370.67	24.705
371.03	24.440
371.39	24.238
371.75	23.796
372.11	24.609
372.47	24.315
372.83	24.337
373.19	24.469
373.55	24.605
373.91	23.826
374.27	24.206
374.63	24.881
374.99	24.730
375.35	24.328
375.71	24.472
376.07	24.005
376.42	23.529
376.78	25.112
377.14	23.788
377.50	24.220
377.86	23.959
378.22	24.497
378.58	25.303
378.94	24.804
379.30	23.772
379.66	24.865
380.02	24.751
380.38	23.361
380.74	25.087
381.09	24.766
381.45	23.699
381.81	23.818
382.17	23.810
382.53	24.475
382.89	24.187
383.25	23.683
383.61	24.323
383.97	23.515
384.32	24.111
384.68	25.550
385.04	24.853
385.40	24.792
385.76	24.400
386.12	25.046
386.48	24.924
386.83	25.061
387.19	24.912
387.55	24.146
387.91	24.654
388.27	24.390
388.62	24.237
388.98	24.023
389.34	24.271
389.70	23.998
390.06	25.000
390.42	24.059
390.77	25.307
391.13	24.200
391.49	24.259
391.85	24.738
392.20	24.315
392.56	25.508
392.92	23.695
393.28	24.215
393.64	24.140
393.99	24.600
394.35	23.661
394.71	23.764
395.07	24.757
395.42	25.000
395.78	24.923
396.14	25.602
396.50	24.910
396.85	23.902
397.21	24.729
397.57	24.507
397.92	22.935
398.28	24.214
398.64	24.316
399.00	23.731
399.35	24.369
399.71	24.448
400.07	24.030
400.42	24.179
400.78	24.457
401.14	25.073
401.49	23.790
401.85	24.392
402.21	24.194
402.57	25.494
402.92	24.485
403.28	23.866
403.63	24.779
403.99	24.548
404.35	24.385
404.70	25.103
405.06	23.638
405.42	24.117
405.77	24.201
406.13	23.482
406.49	23.707
406.84	23.858
407.20	24.543
407.55	23.754
407.91	23.357
408.27	24.378
408.62	24.897
408.98	24.128
409.34	22.618
409.69	24.020
410.05	23.792
410.40	23.793
410.76	23.354
411.11	23.460
411.47	23.580
411.83	22.906
412.18	24.155
412.54	24.144
412.89	23.127
413.25	23.831
413.60	23.773
413.96	24.476
414.31	23.495
414.67	24.643
415.03	23.946
415.38	24.795
415.74	23.816
416.09	25.047
416.45	26.180
416.80	24.952
417.16	23.106
417.51	24.522
417.87	24.969
418.22	24.362
418.58	25.605
418.93	24.450
419.29	23.475
419.64	24.531
420.00	24.642
420.35	23.984
420.71	24.154
421.06	24.132
421.42	24.064
421.77	24.375
422.12	24.421
422.48	24.191
422.83	24.107
423.19	24.136
423.54	25.069
423.90	24.689
424.25	25.041
424.61	24.956
424.96	24.845
425.31	24.521
425.67	24.860
426.02	24.173
426.38	23.921
426.73	24.986
427.09	25.208
427.44	24.817
427.79	25.901
428.15	26.753
428.50	25.829
428.85	25.162
429.21	24.959
429.56	24.925
429.92	25.162
430.27	24.577
430.62	24.180
430.98	25.200
431.33	25.202
431.68	24.543
432.04	25.091
432.39	25.741
432.74	26.698
433.10	26.024
433.45	26.134
433.80	26.310
434.16	25.171
434.51	25.748
434.86	26.293
435.22	26.040
435.57	25.430
435.92	26.864
436.28	26.152
436.63	26.472
436.98	26.914
437.34	26.998
437.69	26.204
438.04	26.290
438.39	26.795
438.75	25.947
439.10	26.012
439.45	25.947
439.81	26.489
440.16	26.692
440.51	25.845
440.86	27.236
441.22	26.515
441.57	26.247
441.92	25.469
442.27	26.082
442.63	26.423
442.98	25.862
443.33	26.567
443.68	26.761
444.03	26.107
444.39	27.307
444.74	26.035
445.09	26.646
445.44	26.567
445.79	26.413
446.15	27.000
446.50	26.160
446.85	26.394
447.20	25.572
447.55	26.754
447.91	27.064
448.26	26.677
448.61	27.308
448.96	26.198
449.31	26.788
449.66	27.187
450.02	25.770
450.37	26.541
450.72	27.163
451.07	26.411
451.42	27.386
451.77	28.064
452.12	26.659
452.47	28.250
452.83	26.704
453.18	27.568
453.53	27.590
453.88	27.314
454.23	28.239
454.58	27.273
454.93	27.468
455.28	27.662
455.63	27.719
455.98	28.144
456.34	27.842
456.69	27.073
457.04	27.387
457.39	27.086
457.74	27.872
458.09	26.670
458.44	26.616
458.79	27.480
459.14	26.732
459.49	27.123
459.84	27.283
460.19	28.023
460.54	27.350
460.89	26.866
461.24	26.919
461.59	28.118
461.94	28.014
462.29	27.460
462.64	27.701
462.99	27.703
463.34	28.321
463.69	27.949
464.04	28.152
464.39	27.647
464.74	27.022
465.09	27.046
465.44	27.040
465.79	26.892
466.14	26.497
466.49	26.750
466.84	27.759
467.19	28.237
467.54	26.246
467.89	28.228
468.24	28.025
468.59	27.024
468.94	27.053
469.29	27.734
469.64	27.910
469.99	27.506
470.34	27.451
470.68	28.138
471.03	28.552
471.38	27.881
471.73	28.478
472.08	28.115
472.43	28.243
472.78	29.385
473.13	26.783
473.48	27.873
473.83	27.150
474.17	28.571
474.52	27.251
474.87	27.288
475.22	28.212
475.57	28.017
475.92	27.236
476.27	26.659
476.61	26.810
476.96	27.847
477.31	27.763
477.66	28.288
478.01	27.746
478.36	27.858
478.70	26.898
479.05	27.929
479.40	27.381
479.75	27.706
480.10	27.928
480.45	26.844
480.79	27.788
481.14	26.914
481.49	26.304
481.84	27.133
482.19	26.681
482.53	26.921
482.88	27.195
483.23	27.018
483.58	26.840
483.92	28.062
484.27	26.670
484.62	27.377
484.97	27.425
485.31	26.404
485.66	26.252
486.01	24.442
486.36	24.080
486.70	23.623
487.05	24.122
487.40	24.573
487.75	25.441
488.09	26.165
488.44	25.844
488.79	25.963
489.13	27.548
489.48	27.727
489.83	26.981
490.17	26.755
490.52	27.347
490.87	27.371
491.22	27.881
491.56	27.712
491.91	26.927
492.26	27.439
492.60	27.927
492.95	27.685
493.30	27.798
493.64	27.853
493.99	27.996
494.34	27.163
494.68	27.003
495.03	28.020
495.37	27.870
495.72	27.692
496.07	27.179
496.41	26.890
496.76	26.889
497.11	27.335
497.45	27.488
497.80	27.201
498.14	27.693
498.49	27.252
498.84	28.458
499.18	27.559
499.53	28.571
499.87	27.987
500.22	28.374
500.56	27.623
500.91	28.803
501.26	27.974
501.60	27.869
501.95	27.016
502.29	28.000
502.64	26.687
502.98	27.168
503.33	27.528
503.67	27.815
504.02	27.049
504.36	27.964
504.71	28.004
505.06	27.546
505.40	27.375
505.75	27.830
506.09	28.371
506.44	28.148
506.78	28.544
507.13	27.193
507.47	28.675
507.82	28.516
508.16	29.201
508.51	28.164
508.85	27.255
509.19	28.390
509.54	28.174
509.88	28.991
510.23	27.549
510.57	27.944
510.92	29.121
511.26	28.765
511.61	27.523
511.95	27.974
512.30	28.450
512.64	28.089
512.98	28.549
513.33	28.432
513.67	29.052
514.02	28.571
514.36	28.349
514.70	29.120
515.05	28.343
515.39	28.838
515.74	28.595
516.08	29.248
516.42	30.383
516.77	28.960
517.11	29.387
517.46	28.394
517.80	28.291
518.14	29.014
518.49	28.721
518.83	28.132
519.17	29.395
519.52	29.929
519.86	28.883
520.20	29.534
520.55	29.395
520.89	28.793
521.23	30.023
521.58	30.178
521.92	29.854
522.26	28.851
522.61	30.125
522.95	30.030
523.29	29.649
523.64	28.844
523.98	29.401
524.32	29.181
524.66	28.928
525.01	28.698
525.35	28.874
525.69	30.223
526.04	29.030
526.38	29.488
526.72	30.012
527.06	29.273
527.41	30.109
527.75	30.432
528.09	29.561
528.43	30.567
528.78	29.278
529.12	29.862
529.46	29.398
529.80	29.614
530.15	29.405
530.49	29.422
530.83	29.616
531.17	30.258
531.51	30.043
531.86	28.140
532.20	28.863
532.54	29.504
532.88	29.919
533.22	29.372
533.57	29.469
533.91	28.555
534.25	28.909
534.59	29.942
534.93	29.295
535.27	29.084
535.62	28.588
535.96	28.191
536.30	30.469
536.64	29.068
536.98	29.452
537.32	29.937
537.66	29.018
538.01	29.474
538.35	29.570
538.69	28.277
539.03	29.540
539.37	29.369
539.71	28.827
540.05	29.354
540.39	29.560
540.73	28.861
541.07	29.109
541.42	27.736
541.76	28.422
542.10	28.052
542.44	28.865
542.78	29.264
543.12	28.589
543.46	28.947
543.80	28.571
544.14	29.659
544.48	28.285
544.82	28.379
545.16	28.355
545.50	28.334
545.84	28.662
546.18	29.584
546.52	29.508
546.86	29.723
547.20	28.230
547.54	29.322
547.88	28.467
548.22	28.415
548.56	27.814
548.90	28.173
549.24	29.248
549.58	29.059
549.92	29.731
550.26	29.750
550.60	29.275
550.94	30.054
551.28	30.621
551.62	30.621
551.96	30.000
552.30	28.477
552.64	28.803
552.98	27.835
553.32	27.785
553.66	28.469
554.00	29.086
554.34	29.694
554.68	29.570
555.02	28.785
555.36	28.191
555.69	29.058
556.03	28.981
556.37	28.681
556.71	29.009
557.05	27.851
557.39	29.000
557.73	30.323
558.07	29.779
558.41	29.815
558.75	29.001
559.08	30.307
559.42	31.067
559.76	30.150
560.10	29.525
560.44	28.401
560.78	29.795
561.12	29.180
561.45	27.660
561.79	28.402
562.13	27.922
562.47	29.786
562.81	29.213
563.15	28.830
563.48	27.267
563.82	28.883
564.16	28.918
564.50	28.813
564.84	28.085
565.17	27.926
565.51	28.571
565.85	29.180
566.19	26.964
566.52	27.617
566.86	28.838
567.20	28.202
567.54	27.511
567.88	27.856
568.21	26.510
568.55	26.751
568.89	26.414
569.23	26.186
569.56	25.919
569.90	24.757
570.24	24.089
570.57	24.627
570.91	24.056
571.25	23.517
571.59	23.350
571.92	23.116
572.26	23.100
572.60	22.716
572.93	23.692
573.27	23.521
573.61	22.036
573.95	22.659
574.28	23.243
574.62	22.240
574.96	22.175
575.29	22.164
575.63	22.426
575.97	21.714
576.30	22.880
576.64	22.768
576.98	22.127
577.31	22.665
577.65	22.220
577.98	21.628
578.32	21.382
578.66	21.656
578.99	22.236
579.33	22.485
579.67	22.040
580.00	22.036
580.34	21.726
580.67	21.812
581.01	22.164
581.35	21.546
581.68	21.627
582.02	20.990
582.35	21.599
582.69	21.644
583.02	21.550
583.36	21.725
583.70	22.688
584.03	23.192
584.37	23.044
584.70	22.394
585.04	22.413
585.37	21.776
585.71	22.157
586.04	21.727
586.38	22.337
586.72	22.497
587.05	23.031
587.39	21.795
587.72	22.566
588.06	22.200
588.39	22.416
588.73	22.637
589.06	23.315
589.40	23.224
589.73	23.664
590.07	23.988
590.40	24.495
590.73	24.826
591.07	24.402
591.40	24.032
591.74	24.878
592.07	23.918
592.41	25.140
592.74	23.435
593.08	23.926
593.41	22.920
593.75	23.045
594.08	23.375
594.41	23.395
594.75	23.973
595.08	23.971
595.42	23.799
595.75	23.429
596.09	24.157
596.42	23.889
596.75	25.160
597.09	24.763
597.42	24.286
597.75	24.422
598.09	24.169
598.42	24.153
598.76	24.017
599.09	24.127
599.42	23.564
599.76	23.440
600.09	23.017
600.42	23.584
600.76	22.876
601.09	23.714
601.42	23.407
601.76	23.487
602.09	23.915
602.42	23.623
602.76	24.023
603.09	23.906
603.42	23.927
603.76	23.427
604.09	23.887
604.42	23.390
604.76	23.627
605.09	23.755
605.42	23.324
605.75	24.043
606.09	23.948
606.42	23.525
606.75	23.747
607.09	23.687
607.42	24.669
607.75	23.567
608.08	24.208
608.42	24.832
608.75	24.433
609.08	25.033
609.41	24.591
609.75	25.275
610.08	24.326
610.41	24.550
610.74	23.983
611.07	24.920
611.41	24.282
611.74	24.283
612.07	24.518
612.40	25.828
612.73	26.011
613.07	24.785
613.40	25.113
613.73	24.563
614.06	24.600
614.39	25.051
614.72	25.816
615.06	24.580
615.39	25.099
615.72	24.831
616.05	24.862
616.38	24.911
616.71	24.362
617.05	24.876
617.38	26.124
617.71	25.872
618.04	25.294
618.37	25.625
618.70	25.751
619.03	27.167
619.36	27.136
619.69	26.319
620.03	27.984
620.36	26.654
620.69	26.820
621.02	27.853
621.35	27.722
621.68	27.360
622.01	28.930
622.34	26.948
622.67	28.722
623.00	27.434
623.33	27.463
623.66	27.345
623.99	26.918
624.32	26.084
624.65	27.189
624.99	27.721
625.32	27.856
625.65	26.345
625.98	26.987
626.31	28.116
626.64	27.715
626.97	28.080
627.30	28.882
627.63	27.786
627.96	28.638
628.29	28.960
628.62	28.657
628.95	28.989
629.28	31.639
629.61	29.613
629.94	30.337
630.26	29.376
630.59	30.762
630.92	29.417
631.25	31.006
