SpectraSuite Data File
++++++++++++++++++++++++++++++++++++
Date: Tue May 12 16:26:02 PDT 2015
User: schluterlab
Dark Spectrum Present: Yes
Reference Spectrum Present: Yes
Number of Sampled Component Spectra: 1
Spectrometers: USB2E3373
Integration Time (usec): 3000 (USB2E3373)
Spectra Averaged: 3 (USB2E3373)
Boxcar Smoothing: 0 (USB2E3373)
Correct for Electrical Dark: No (USB2E3373)
Strobe/Lamp Enabled: No (USB2E3373)
Correct for Detector Non-linearity: No (USB2E3373)
Correct for Stray Light: No (USB2E3373)
Number of Pixels in Processed Spectrum: 2048
>>>>>Begin Processed Spectral Data<<<<<
178.53	0.000
178.91	-225.000
179.29	-875.000
179.67	-3700.000
180.04	-66.667
180.42	725.000
180.80	1550.000
181.18	0.000
181.56	-350.000
181.94	0.000
182.31	1000.000
182.69	-3300.000
183.07	571.429
183.45	-3900.000
183.83	-1650.000
184.20	390.000
184.58	385.714
184.96	-269.231
185.34	-241.667
185.72	1700.000
186.09	-600.000
186.47	-3100.000
186.85	933.333
187.23	640.000
187.61	1500.000
187.98	437.500
188.36	192.857
188.74	391.667
189.12	383.333
189.49	1000.000
189.87	0.000
190.25	437.500
190.63	2500.000
191.00	-275.000
191.38	-3000.000
191.76	-700.000
192.14	575.000
192.51	-3200.000
192.89	1700.000
193.27	1133.333
193.65	-1166.667
194.02	-500.000
194.40	571.429
194.78	-164.286
195.15	253.333
195.53	-3000.000
195.91	-620.000
196.29	3100.000
196.66	162.500
197.04	750.000
197.42	-1450.000
197.79	575.000
198.17	283.333
198.55	0.000
198.92	471.429
199.30	1200.000
199.68	2350.000
200.05	716.667
200.43	-400.000
200.81	233.333
201.18	4800.000
201.56	316.667
201.94	-725.000
202.31	-337.500
202.69	-560.000
203.07	3900.000
203.44	-500.000
203.82	375.000
204.19	740.000
204.57	-1600.000
204.95	-850.000
205.32	-700.000
205.70	600.000
206.08	850.000
206.45	-1133.333
206.83	433.333
207.20	194.737
207.58	308.333
207.96	680.000
208.33	0.000
208.71	585.714
209.08	700.000
209.46	-3000.000
209.84	-850.000
210.21	840.000
210.59	-600.000
210.96	333.333
211.34	-650.000
211.71	327.273
212.09	825.000
212.46	1500.000
212.84	-433.333
213.22	422.222
213.59	-2900.000
213.97	320.000
214.34	850.000
214.72	1433.333
215.09	866.667
215.47	-2900.000
215.84	-360.000
216.22	-400.000
216.59	0.000
216.97	0.000
217.34	1300.000
217.72	-1150.000
218.09	1266.667
218.47	362.500
218.84	800.000
219.22	1300.000
219.59	1300.000
219.97	414.286
220.34	400.000
220.72	1650.000
221.09	2900.000
221.47	275.000
221.84	1033.333
222.22	340.000
222.59	216.667
222.97	285.714
223.34	250.000
223.72	-1300.000
224.09	1266.667
224.46	307.692
224.84	-950.000
225.21	333.333
225.59	260.000
225.96	1133.333
226.34	-660.000
226.71	-425.000
227.08	-440.000
227.46	0.000
227.83	-550.000
228.21	-1150.000
228.58	416.667
228.95	950.000
229.33	333.333
229.70	950.000
230.08	400.000
230.45	3200.000
230.82	-750.000
231.20	-766.667
231.57	-900.000
231.95	540.000
232.32	291.667
232.69	483.333
233.07	316.667
233.44	-1700.000
233.81	233.333
234.19	155.556
234.56	231.250
234.93	123.529
235.31	200.000
235.68	262.500
236.05	185.714
236.43	133.333
236.80	192.857
237.17	141.379
237.55	109.375
237.92	135.000
238.29	118.182
238.67	100.000
239.04	82.927
239.41	56.250
239.79	62.500
240.16	81.250
240.53	63.934
240.91	52.174
241.28	54.237
241.65	48.485
242.02	60.563
242.40	52.857
242.77	49.451
243.14	35.443
243.51	59.596
243.89	30.841
244.26	36.449
244.63	28.713
245.00	33.028
245.38	17.797
245.75	31.061
246.12	31.111
246.49	33.333
246.87	21.311
247.24	26.667
247.61	28.125
247.98	25.850
248.36	15.152
248.73	31.122
249.10	23.214
249.47	21.500
249.84	21.891
250.22	25.946
250.59	16.000
250.96	17.300
251.33	14.884
251.70	21.875
252.08	15.546
252.45	16.335
252.82	19.011
253.19	13.834
253.56	16.154
253.94	17.754
254.31	16.279
254.68	13.937
255.05	16.207
255.42	13.869
255.79	12.052
256.16	14.576
256.54	16.234
256.91	12.418
257.28	12.040
257.65	9.718
258.02	10.029
258.39	12.321
258.76	16.232
259.14	12.000
259.51	14.869
259.88	13.374
260.25	10.714
260.62	11.507
260.99	9.642
261.36	12.256
261.73	11.436
262.10	14.921
262.47	12.000
262.85	9.600
263.22	13.625
263.59	14.066
263.96	10.276
264.33	9.877
264.70	10.811
265.07	13.659
265.44	10.550
265.81	10.142
266.18	11.442
266.55	9.220
266.92	8.949
267.29	10.307
267.66	9.193
268.03	11.435
268.40	9.514
268.77	12.115
269.14	9.978
269.51	9.131
269.88	11.020
270.25	9.071
270.62	8.584
270.99	10.345
271.36	11.789
271.73	9.853
272.10	8.485
272.47	8.929
272.84	9.581
273.21	8.471
273.58	8.907
273.95	9.856
274.32	11.479
274.69	12.008
275.06	11.475
275.43	10.728
275.80	8.302
276.17	10.478
276.54	10.093
276.91	9.515
277.28	9.854
277.65	9.779
278.02	9.191
278.39	8.094
278.76	10.172
279.13	9.075
279.50	9.818
279.87	7.821
280.23	7.366
280.60	9.672
280.97	9.483
281.34	9.571
281.71	8.348
282.08	9.573
282.45	9.122
282.82	10.033
283.19	9.221
283.56	9.256
283.92	7.818
284.29	9.151
284.66	8.571
285.03	8.624
285.40	8.926
285.77	8.333
286.14	8.669
286.51	9.049
286.87	7.753
287.24	6.757
287.61	10.334
287.98	10.448
288.35	9.481
288.72	7.891
289.08	6.757
289.45	8.384
289.82	8.750
290.19	7.467
290.56	9.461
290.93	8.921
291.29	8.702
291.66	7.345
292.03	10.098
292.40	9.079
292.77	8.078
293.13	8.845
293.50	7.827
293.87	8.808
294.24	8.252
294.60	8.345
294.97	8.112
295.34	9.827
295.71	9.330
296.08	9.600
296.44	9.276
296.81	8.933
297.18	9.125
297.55	10.961
297.91	8.498
298.28	10.024
298.65	10.429
299.02	10.736
299.38	10.432
299.75	10.976
300.12	11.353
300.48	10.539
300.85	11.800
301.22	11.279
301.59	10.142
301.95	10.735
302.32	11.758
302.69	11.538
303.05	13.019
303.42	11.659
303.79	12.676
304.15	12.981
304.52	12.579
304.89	12.687
305.25	12.013
305.62	12.580
305.99	12.609
306.35	13.368
306.72	12.071
307.09	13.665
307.45	13.200
307.82	13.786
308.19	14.330
308.55	14.100
308.92	15.309
309.29	17.160
309.65	15.857
310.02	15.416
310.38	15.254
310.75	15.815
311.12	15.996
311.48	18.436
311.85	16.985
312.22	18.529
312.58	17.979
312.95	18.641
313.31	19.288
313.68	18.949
314.05	21.612
314.41	19.926
314.78	20.739
315.14	20.664
315.51	21.570
315.87	21.533
316.24	22.129
316.61	21.934
316.97	21.468
317.34	23.720
317.70	25.110
318.07	25.623
318.43	26.889
318.80	26.708
319.16	26.661
319.53	26.903
319.89	26.703
320.26	28.864
320.62	29.487
320.99	29.933
321.35	30.334
321.72	31.309
322.08	31.487
322.45	32.698
322.81	34.126
323.18	34.725
323.54	35.889
323.91	36.809
324.27	37.135
324.64	37.111
325.00	38.621
325.37	39.545
325.73	40.219
326.10	40.928
326.46	42.114
326.83	42.720
327.19	44.498
327.56	44.169
327.92	45.984
328.29	47.218
328.65	48.116
329.01	47.648
329.38	48.393
329.74	48.335
330.11	50.565
330.47	49.361
330.84	47.972
331.20	51.184
331.56	50.950
331.93	50.984
332.29	50.340
332.66	52.041
333.02	49.656
333.38	52.792
333.75	51.460
334.11	50.503
334.48	53.675
334.84	50.338
335.20	51.668
335.57	51.469
335.93	51.640
336.29	51.078
336.66	53.431
337.02	52.695
337.38	52.623
337.75	51.943
338.11	53.671
338.47	53.091
338.84	52.752
339.20	52.554
339.56	51.724
339.93	52.759
340.29	52.521
340.65	52.976
341.02	54.385
341.38	53.941
341.74	53.488
342.11	53.005
342.47	52.666
342.83	54.307
343.20	54.002
343.56	53.773
343.92	55.161
344.28	53.429
344.65	54.279
345.01	53.254
345.37	51.923
345.73	53.730
346.10	52.271
346.46	54.864
346.82	52.701
347.19	54.946
347.55	53.474
347.91	53.248
348.27	53.215
348.63	53.085
349.00	54.151
349.36	56.109
349.72	54.740
350.08	56.056
350.45	54.303
350.81	55.505
351.17	53.082
351.53	54.196
351.89	54.312
352.26	55.404
352.62	54.827
352.98	56.058
353.34	55.624
353.70	54.128
354.07	54.615
354.43	57.373
354.79	54.973
355.15	56.508
355.51	55.136
355.87	54.970
356.24	56.967
356.60	55.403
356.96	56.027
357.32	56.518
357.68	56.388
358.04	57.827
358.40	56.372
358.77	56.349
359.13	56.907
359.49	55.819
359.85	56.515
360.21	56.315
360.57	56.496
360.93	56.061
361.29	57.143
361.66	57.867
362.02	56.108
362.38	57.792
362.74	56.971
363.10	57.644
363.46	57.182
363.82	57.714
364.18	57.539
364.54	58.941
364.90	58.701
365.26	59.889
365.62	58.771
365.98	58.913
366.35	58.414
366.71	58.987
367.07	58.362
367.43	59.234
367.79	57.713
368.15	57.870
368.51	59.683
368.87	58.152
369.23	59.044
369.59	58.665
369.95	61.119
370.31	58.658
370.67	57.183
371.03	58.613
371.39	60.180
371.75	60.363
372.11	60.095
372.47	60.274
372.83	60.435
373.19	60.795
373.55	61.168
373.91	60.497
374.27	59.127
374.63	60.203
374.99	60.580
375.35	61.358
375.71	61.016
376.07	59.682
376.42	60.422
376.78	62.171
377.14	61.075
377.50	59.176
377.86	61.115
378.22	61.365
378.58	60.835
378.94	61.557
379.30	60.946
379.66	62.673
380.02	61.584
380.38	61.593
380.74	61.707
381.09	61.098
381.45	59.711
381.81	60.284
382.17	61.416
382.53	60.948
382.89	61.561
383.25	61.812
383.61	61.441
383.97	60.828
384.32	61.302
384.68	63.042
385.04	61.782
385.40	61.329
385.76	61.381
386.12	61.286
386.48	60.973
386.83	62.469
387.19	62.191
387.55	61.425
387.91	62.760
388.27	63.296
388.62	62.148
388.98	60.408
389.34	60.916
389.70	60.377
390.06	62.134
390.42	62.554
390.77	61.916
391.13	61.738
391.49	60.859
391.85	61.785
392.20	60.846
392.56	61.111
392.92	61.651
393.28	61.043
393.64	61.869
393.99	61.292
394.35	60.565
394.71	60.856
395.07	61.983
395.42	61.417
395.78	62.307
396.14	61.928
396.50	62.034
396.85	61.280
397.21	61.131
397.57	61.566
397.92	60.196
398.28	61.611
398.64	61.606
399.00	60.663
399.35	61.192
399.71	61.203
400.07	59.589
400.42	62.269
400.78	60.821
401.14	61.891
401.49	59.965
401.85	59.965
402.21	59.930
402.57	61.341
402.92	60.970
403.28	60.322
403.63	60.035
403.99	61.158
404.35	60.258
404.70	61.488
405.06	60.022
405.42	59.964
405.77	60.254
406.13	58.731
406.49	59.693
406.84	58.545
407.20	59.189
407.55	59.938
407.91	61.200
408.27	59.673
408.62	60.733
408.98	60.260
409.34	58.679
409.69	60.050
410.05	59.928
410.40	58.952
410.76	57.241
411.11	58.412
411.47	57.407
411.83	58.699
412.18	59.360
412.54	60.060
412.89	58.938
413.25	59.635
413.60	58.879
413.96	59.725
414.31	59.622
414.67	59.839
415.03	58.812
415.38	59.558
415.74	59.507
416.09	59.963
416.45	60.246
416.80	60.487
417.16	57.861
417.51	59.745
417.87	59.512
418.22	58.931
418.58	59.554
418.93	59.369
419.29	57.671
419.64	57.662
420.00	59.547
420.35	59.756
420.71	57.468
421.06	59.800
421.42	58.664
421.77	59.245
422.12	59.757
422.48	58.295
422.83	58.929
423.19	58.693
423.54	59.078
423.90	58.381
424.25	59.714
424.61	59.315
424.96	59.176
425.31	58.730
425.67	60.213
426.02	60.011
426.38	58.926
426.73	59.861
427.09	59.846
427.44	59.313
427.79	59.863
428.15	61.049
428.50	60.286
428.85	59.083
429.21	59.103
429.56	58.923
429.92	59.423
430.27	59.652
430.62	57.709
430.98	58.034
431.33	58.317
431.68	57.235
432.04	58.614
432.39	60.373
432.74	59.719
433.10	59.801
433.45	59.793
433.80	61.224
434.16	59.432
434.51	59.082
434.86	59.118
435.22	59.697
435.57	59.870
435.92	60.159
436.28	59.447
436.63	59.914
436.98	60.304
437.34	58.733
437.69	59.015
438.04	59.409
438.39	60.595
438.75	59.020
439.10	60.065
439.45	58.734
439.81	60.671
440.16	59.769
440.51	58.615
440.86	60.171
441.22	60.660
441.57	59.790
441.92	59.131
442.27	59.948
442.63	58.791
442.98	58.567
443.33	60.150
443.68	59.256
444.03	57.870
444.39	59.557
444.74	58.851
445.09	59.874
445.44	59.777
445.79	59.649
446.15	59.316
446.50	58.861
446.85	59.512
447.20	59.104
447.55	60.685
447.91	60.735
448.26	58.839
448.61	60.862
448.96	59.804
449.31	60.451
449.66	60.410
450.02	60.400
450.37	59.578
450.72	60.606
451.07	59.046
451.42	60.462
451.77	60.367
452.12	59.784
452.47	59.417
452.83	59.718
453.18	60.420
453.53	60.332
453.88	60.286
454.23	61.592
454.58	59.207
454.93	60.392
455.28	60.832
455.63	59.752
455.98	59.955
456.34	61.824
456.69	61.463
457.04	61.396
457.39	60.229
457.74	60.698
458.09	60.135
458.44	58.981
458.79	60.000
459.14	59.356
459.49	60.079
459.84	60.978
460.19	59.774
460.54	59.487
460.89	60.341
461.24	58.935
461.59	60.771
461.94	60.047
462.29	60.011
462.64	60.490
462.99	59.885
463.34	59.689
463.69	60.012
464.04	60.794
464.39	59.588
464.74	59.261
465.09	59.315
465.44	59.140
465.79	58.356
466.14	58.718
466.49	58.654
466.84	59.643
467.19	59.695
467.54	59.219
467.89	60.270
468.24	61.089
468.59	58.810
468.94	60.930
469.29	61.026
469.64	60.514
469.99	60.154
470.34	60.089
470.68	60.552
471.03	60.574
471.38	60.066
471.73	60.026
472.08	61.448
472.43	61.701
472.78	60.948
473.13	59.074
473.48	59.597
473.83	60.718
474.17	59.939
474.52	59.775
474.87	59.807
475.22	59.223
475.57	58.762
475.92	58.508
476.27	58.705
476.61	58.499
476.96	59.300
477.31	60.154
477.66	60.064
478.01	59.103
478.36	58.908
478.70	58.213
479.05	60.303
479.40	59.821
479.75	59.533
480.10	59.777
480.45	59.337
480.79	59.539
481.14	59.249
481.49	57.502
481.84	58.135
482.19	58.996
482.53	59.903
482.88	58.871
483.23	58.142
483.58	58.797
483.92	59.918
484.27	58.390
484.62	59.593
484.97	58.707
485.31	57.517
485.66	56.168
486.01	55.022
486.36	54.062
486.70	54.513
487.05	54.843
487.40	55.318
487.75	55.705
488.09	55.994
488.44	57.234
488.79	57.515
489.13	58.156
489.48	57.851
489.83	58.424
490.17	58.216
490.52	58.312
490.87	58.147
491.22	60.106
491.56	59.113
491.91	58.557
492.26	58.441
492.60	59.226
492.95	58.677
493.30	59.145
493.64	58.850
493.99	59.392
494.34	58.404
494.68	58.831
495.03	59.767
495.37	58.757
495.72	59.580
496.07	59.524
496.41	59.166
496.76	58.337
497.11	58.869
497.45	58.132
497.80	60.565
498.14	59.454
498.49	59.006
498.84	60.935
499.18	58.912
499.53	58.613
499.87	59.030
500.22	59.604
500.56	59.378
500.91	59.833
501.26	59.072
501.60	58.561
501.95	58.781
502.29	58.400
502.64	58.580
502.98	58.604
503.33	58.976
503.67	59.161
504.02	57.680
504.36	58.054
504.71	59.508
505.06	59.127
505.40	59.102
505.75	58.513
506.09	60.243
506.44	59.774
506.78	60.681
507.13	60.349
507.47	59.340
507.82	59.611
508.16	60.118
508.51	59.710
508.85	58.974
509.19	59.863
509.54	58.398
509.88	60.965
510.23	59.265
510.57	58.832
510.92	59.441
511.26	59.388
511.61	58.740
511.95	58.985
512.30	59.200
512.64	59.917
512.98	59.764
513.33	59.990
513.67	59.244
514.02	59.688
514.36	60.125
514.70	60.373
515.05	60.096
515.39	61.239
515.74	60.470
516.08	60.240
516.42	61.093
516.77	59.627
517.11	61.280
517.46	59.429
517.80	59.858
518.14	62.873
518.49	60.695
518.83	60.000
519.17	60.732
519.52	60.732
519.86	60.545
520.20	60.822
520.55	61.221
520.89	60.862
521.23	62.033
521.58	60.126
521.92	60.875
522.26	61.315
522.61	61.260
522.95	62.583
523.29	61.345
523.64	60.173
523.98	61.209
524.32	61.015
524.66	60.870
525.01	61.420
525.35	60.224
525.69	60.927
526.04	61.689
526.38	61.036
526.72	61.396
527.06	60.792
527.41	61.971
527.75	61.229
528.09	60.084
528.43	60.220
528.78	60.584
529.12	61.228
529.46	59.848
529.80	60.631
530.15	60.165
530.49	61.252
530.83	61.060
531.17	60.209
531.51	61.680
531.86	59.118
532.20	59.580
532.54	61.959
532.88	62.336
533.22	59.963
533.57	61.257
533.91	59.033
534.25	58.280
534.59	59.357
534.93	58.077
535.27	57.427
535.62	58.226
535.96	58.865
536.30	61.243
536.64	59.441
536.98	59.283
537.32	60.438
537.66	59.758
538.01	60.000
538.35	60.262
538.69	59.466
539.03	59.950
539.37	58.010
539.71	60.000
540.05	58.708
540.39	59.560
540.73	59.557
541.07	59.410
541.42	58.706
541.76	59.988
542.10	57.398
542.44	59.663
542.78	59.849
543.12	58.160
543.46	57.895
543.80	59.023
544.14	58.885
544.48	58.394
544.82	58.043
545.16	56.831
545.50	58.328
545.84	58.965
546.18	60.988
546.52	58.820
546.86	58.478
547.20	58.463
547.54	58.771
547.88	57.847
548.22	58.470
548.56	56.511
548.90	57.592
549.24	58.686
549.58	57.345
549.92	59.725
550.26	59.162
550.60	58.217
550.94	59.769
551.28	59.931
551.62	61.241
551.96	60.000
552.30	58.273
552.64	58.058
552.98	57.345
553.32	58.067
553.66	57.980
554.00	57.658
554.34	59.055
554.68	58.737
555.02	59.335
555.36	57.513
555.69	57.068
556.03	57.707
556.37	58.445
556.71	58.279
557.05	57.798
557.39	57.467
557.73	58.491
558.07	57.612
558.41	59.836
558.75	57.524
559.08	60.114
559.42	60.988
559.76	59.088
560.10	56.848
560.44	57.532
560.78	59.463
561.12	58.805
561.45	57.134
561.79	58.177
562.13	56.854
562.47	57.495
562.81	57.515
563.15	57.207
563.48	56.273
563.82	57.205
564.16	57.898
564.50	54.973
564.84	55.562
565.17	56.150
565.51	58.128
565.85	58.482
566.19	56.548
566.52	56.378
566.86	57.326
567.20	55.169
567.54	54.749
567.88	54.251
568.21	53.869
568.55	53.988
568.89	52.692
569.23	52.934
569.56	52.636
569.90	51.527
570.24	51.005
570.57	51.201
570.91	50.702
571.25	50.148
571.59	49.549
571.92	48.251
572.26	48.760
572.60	48.264
572.93	50.086
573.27	49.253
573.61	49.053
573.95	48.830
574.28	48.788
574.62	48.137
574.96	47.197
575.29	47.272
575.63	47.774
575.97	46.908
576.30	47.937
576.64	48.090
576.98	47.945
577.31	48.242
577.65	47.688
577.98	47.470
578.32	46.649
578.66	46.287
578.99	47.011
579.33	47.519
579.67	47.311
580.00	47.053
580.34	47.430
580.67	47.248
581.01	47.575
581.35	47.048
581.68	46.148
582.02	45.932
582.35	46.060
582.69	46.700
583.02	46.574
583.36	47.184
583.70	47.245
584.03	47.850
584.37	48.082
584.70	47.947
585.04	47.775
585.37	46.619
585.71	46.899
586.04	46.552
586.38	46.756
586.72	47.130
587.05	47.092
587.39	47.585
587.72	47.670
588.06	47.480
588.39	48.081
588.73	47.916
589.06	47.680
589.40	48.545
589.73	49.000
590.07	49.073
590.40	48.955
590.73	50.129
591.07	49.677
591.40	49.341
591.74	49.432
592.07	48.378
592.41	48.761
592.74	48.663
593.08	47.754
593.41	46.679
593.75	47.408
594.08	46.720
594.41	47.638
594.75	48.699
595.08	47.462
595.42	47.663
595.75	48.009
596.09	48.036
596.42	47.087
596.75	49.519
597.09	49.814
597.42	48.980
597.75	47.911
598.09	48.174
598.42	48.511
598.76	47.880
599.09	47.738
599.42	46.886
599.76	46.744
600.09	46.949
600.42	47.514
600.76	47.247
601.09	47.083
601.42	46.850
601.76	47.834
602.09	48.712
602.42	47.579
602.76	47.780
603.09	48.793
603.42	48.110
603.76	47.361
604.09	46.507
604.42	47.646
604.76	48.084
605.09	48.653
605.42	47.257
605.75	47.493
606.09	47.360
606.42	47.012
606.75	47.182
607.09	47.217
607.42	47.168
607.75	47.174
608.08	46.548
608.42	47.651
608.75	46.983
609.08	46.898
609.41	47.455
609.75	47.711
610.08	48.336
610.41	47.694
610.74	48.139
611.07	47.476
611.41	48.981
611.74	47.514
612.07	48.410
612.40	48.587
612.73	48.777
613.07	49.012
613.40	49.173
613.73	48.128
614.06	48.000
614.39	47.778
614.72	48.217
615.06	46.785
615.39	48.218
615.72	47.628
616.05	48.016
616.38	47.742
616.71	48.237
617.05	48.105
617.38	48.427
617.71	48.313
618.04	47.112
618.37	48.972
618.70	47.748
619.03	49.878
619.36	50.000
619.69	50.726
620.03	50.554
620.36	49.711
620.69	49.425
621.02	50.136
621.35	50.860
621.68	52.360
622.01	52.694
622.34	50.910
622.67	50.983
623.00	49.081
623.33	49.258
623.66	49.900
623.99	51.644
624.32	50.949
624.65	49.375
624.99	51.183
625.32	50.167
625.65	48.276
625.98	48.675
626.31	51.113
626.64	50.418
626.97	50.268
627.30	50.233
627.63	51.805
627.96	51.408
628.29	51.650
628.62	51.069
628.95	53.280
629.28	53.637
629.61	53.076
629.94	50.821
630.26	52.253
630.59	53.369
630.92	51.928
631.25	52.765
631.58	53.520
631.91	54.710
632.24	52.478
632.57	51.375
632.90	53.209
