SpectraSuite Data File
++++++++++++++++++++++++++++++++++++
Date: Tue May 12 16:35:36 PDT 2015
User: schluterlab
Dark Spectrum Present: Yes
Reference Spectrum Present: Yes
Number of Sampled Component Spectra: 1
Spectrometers: USB2E3373
Integration Time (usec): 3000 (USB2E3373)
Spectra Averaged: 3 (USB2E3373)
Boxcar Smoothing: 0 (USB2E3373)
Correct for Electrical Dark: No (USB2E3373)
Strobe/Lamp Enabled: No (USB2E3373)
Correct for Detector Non-linearity: No (USB2E3373)
Correct for Stray Light: No (USB2E3373)
Number of Pixels in Processed Spectrum: 2048
>>>>>Begin Processed Spectral Data<<<<<
178.53	0.000
178.91	-225.000
179.29	-625.000
179.67	-3800.000
180.04	-180.000
180.42	700.000
180.80	1250.000
181.18	0.000
181.56	-312.500
181.94	0.000
182.31	1033.333
182.69	-2100.000
183.07	485.714
183.45	-3300.000
183.83	-1550.000
184.20	380.000
184.58	428.571
184.96	-261.538
185.34	-158.333
185.72	1650.000
186.09	-775.000
186.47	-2900.000
186.85	866.667
187.23	520.000
187.61	1650.000
187.98	575.000
188.36	221.429
188.74	316.667
189.12	333.333
189.49	775.000
189.87	0.000
190.25	400.000
190.63	1500.000
191.00	-191.667
191.38	-2800.000
191.76	-675.000
192.14	575.000
192.51	-2900.000
192.89	1950.000
193.27	1066.667
193.65	-900.000
194.02	-820.000
194.40	771.429
194.78	-185.714
195.15	260.000
195.53	-2500.000
195.91	-480.000
196.29	3600.000
196.66	212.500
197.04	975.000
197.42	-1250.000
197.79	700.000
198.17	241.667
198.55	0.000
198.92	542.857
199.30	833.333
199.68	2200.000
200.05	650.000
200.43	-550.000
200.81	188.889
201.18	3000.000
201.56	266.667
201.94	-550.000
202.31	-250.000
202.69	-540.000
203.07	2600.000
203.44	-383.333
203.82	291.667
204.19	520.000
204.57	-1250.000
204.95	-675.000
205.32	-540.000
205.70	600.000
206.08	825.000
206.45	-1000.000
206.83	366.667
207.20	152.632
207.58	250.000
207.96	820.000
208.33	0.000
208.71	385.714
209.08	660.000
209.46	-2600.000
209.84	-525.000
210.21	760.000
210.59	-600.000
210.96	200.000
211.34	-650.000
211.71	281.818
212.09	1050.000
212.46	1500.000
212.84	-433.333
213.22	466.667
213.59	-2000.000
213.97	270.000
214.34	725.000
214.72	1100.000
215.09	1066.667
215.47	-3100.000
215.84	-320.000
216.22	-400.000
216.59	0.000
216.97	0.000
217.34	1300.000
217.72	-1550.000
218.09	1333.333
218.47	450.000
218.84	750.000
219.22	1000.000
219.59	1000.000
219.97	542.857
220.34	400.000
220.72	1300.000
221.09	2700.000
221.47	291.667
221.84	833.333
222.22	280.000
222.59	227.778
222.97	185.714
223.34	168.750
223.72	-1500.000
224.09	1266.667
224.46	230.769
224.84	-525.000
225.21	400.000
225.59	220.000
225.96	866.667
226.34	-420.000
226.71	-750.000
227.08	-480.000
227.46	0.000
227.83	-483.333
228.21	-1600.000
228.58	416.667
228.95	725.000
229.33	344.444
229.70	1050.000
230.08	276.923
230.45	3600.000
230.82	-775.000
231.20	-1000.000
231.57	-733.333
231.95	500.000
232.32	308.333
232.69	566.667
233.07	300.000
233.44	-1650.000
233.81	220.000
234.19	140.741
234.56	200.000
234.93	188.235
235.31	130.000
235.68	262.500
236.05	135.714
236.43	129.630
236.80	264.286
237.17	168.966
237.55	121.875
237.92	105.000
238.29	127.273
238.67	106.250
239.04	129.268
239.41	89.583
239.79	92.500
240.16	91.667
240.53	62.295
240.91	73.913
241.28	88.136
241.65	78.788
242.02	76.056
242.40	71.429
242.77	71.429
243.14	68.354
243.51	76.768
243.89	46.729
244.26	63.551
244.63	63.366
245.00	54.128
245.38	44.068
245.75	50.000
246.12	62.222
246.49	51.064
246.87	45.902
247.24	51.333
247.61	57.500
247.98	57.143
248.36	47.273
248.73	55.102
249.10	50.000
249.47	49.500
249.84	45.274
250.22	50.811
250.59	45.000
250.96	46.414
251.33	47.442
251.70	48.214
252.08	42.437
252.45	42.629
252.82	39.163
253.19	38.735
253.56	43.077
253.94	40.217
254.31	42.248
254.68	45.296
255.05	43.448
255.42	44.161
255.79	42.671
256.16	43.051
256.54	42.532
256.91	43.464
257.28	40.134
257.65	34.796
258.02	37.758
258.39	44.413
258.76	42.609
259.14	38.000
259.51	39.650
259.88	41.641
260.25	35.440
260.62	39.452
260.99	39.945
261.36	37.883
261.73	40.957
262.10	40.576
262.47	39.750
262.85	39.200
263.22	37.532
263.59	39.130
263.96	39.599
264.33	37.284
264.70	37.101
265.07	35.366
265.44	37.615
265.81	38.915
266.18	36.156
266.55	37.589
266.92	38.031
267.29	38.816
267.66	36.996
268.03	37.668
268.40	34.884
268.77	38.106
269.14	37.744
269.51	38.085
269.88	37.959
270.25	36.069
270.62	36.266
270.99	37.525
271.36	39.634
271.73	38.155
272.10	36.364
272.47	35.317
272.84	34.731
273.21	35.124
273.58	37.045
273.95	36.345
274.32	35.992
274.69	35.827
275.06	36.612
275.43	36.973
275.80	35.849
276.17	33.640
276.54	35.701
276.91	36.754
277.28	34.672
277.65	35.240
278.02	36.397
278.39	35.252
278.76	35.690
279.13	34.875
279.50	34.727
279.87	33.147
280.23	34.991
280.60	33.942
280.97	34.310
281.34	36.304
281.71	34.609
282.08	35.897
282.45	32.095
282.82	32.776
283.19	32.750
283.56	32.893
283.92	36.645
284.29	34.276
284.66	34.118
285.03	33.997
285.40	33.058
285.77	33.642
286.14	32.972
286.51	32.669
286.87	33.544
287.24	29.429
287.61	32.675
287.98	31.045
288.35	32.444
288.72	29.439
289.08	32.583
289.45	32.774
289.82	30.938
290.19	30.015
290.56	34.207
290.93	31.079
291.29	31.492
291.66	30.932
292.03	30.295
292.40	29.404
292.77	29.248
293.13	28.959
293.50	29.825
293.87	28.862
294.24	29.650
294.60	28.668
294.97	27.972
295.34	27.756
295.71	27.464
296.08	28.400
296.44	28.971
296.81	26.675
297.18	26.236
297.55	26.847
297.91	26.232
298.28	28.623
298.65	26.626
299.02	24.487
299.38	26.739
299.75	25.366
300.12	26.491
300.48	26.464
300.85	25.626
301.22	24.419
301.59	24.410
301.95	24.271
302.32	25.495
302.69	26.357
303.05	26.824
303.42	23.543
303.79	26.111
304.15	23.212
304.52	24.736
304.89	23.987
305.25	25.250
305.62	24.520
305.99	24.022
306.35	23.053
306.72	25.286
307.09	23.706
307.45	23.654
307.82	23.457
308.19	24.536
308.55	23.900
308.92	23.454
309.29	25.049
309.65	23.092
310.02	24.645
310.38	23.230
310.75	22.951
311.12	23.946
311.48	23.745
311.85	24.046
312.22	23.496
312.58	22.643
312.95	22.621
313.31	23.315
313.68	22.983
314.05	23.810
314.41	23.091
314.78	22.254
315.14	22.559
315.51	24.219
315.87	22.719
316.24	23.623
316.61	23.008
316.97	23.119
317.34	23.720
317.70	23.354
318.07	24.377
318.43	23.902
318.80	23.205
319.16	23.601
319.53	21.327
319.89	21.505
320.26	24.581
320.62	23.535
320.99	23.165
321.35	22.542
321.72	23.435
322.08	22.438
322.45	23.887
322.81	22.781
323.18	23.446
323.54	23.606
323.91	23.844
324.27	22.281
324.64	22.059
325.00	23.966
325.37	22.850
325.73	22.007
326.10	24.524
326.46	22.130
326.83	21.680
327.19	23.454
327.56	20.687
327.92	23.279
328.29	23.568
328.65	23.716
329.01	22.156
329.38	23.604
329.74	22.289
330.11	23.110
330.47	22.677
330.84	22.778
331.20	21.997
331.56	22.884
331.93	22.840
332.29	22.364
332.66	22.959
333.02	22.165
333.38	22.339
333.75	21.435
334.11	23.154
334.48	21.795
334.84	21.875
335.20	21.386
335.57	21.662
335.93	22.456
336.29	21.973
336.66	23.585
337.02	20.787
337.38	20.378
337.75	23.311
338.11	22.616
338.47	21.169
338.84	22.269
339.20	21.126
339.56	22.288
339.93	22.575
340.29	20.840
340.65	22.632
341.02	21.963
341.38	22.085
341.74	21.512
342.11	20.868
342.47	21.903
342.83	22.477
343.20	22.555
343.56	19.380
343.92	20.892
344.28	22.249
344.65	21.190
345.01	20.794
345.37	19.952
345.73	20.317
346.10	21.195
346.46	21.053
346.82	20.293
347.19	21.175
347.55	20.453
347.91	20.015
348.27	20.682
348.63	20.886
349.00	21.554
349.36	21.012
349.72	20.948
350.08	21.351
350.45	21.097
350.81	21.330
351.17	19.646
351.53	20.400
351.89	20.435
352.26	20.559
352.62	19.683
352.98	21.089
353.34	21.263
353.70	19.113
354.07	20.538
354.43	21.121
354.79	19.666
355.15	20.368
355.51	20.166
355.87	20.783
356.24	20.708
356.60	20.700
356.96	20.091
357.32	20.196
357.68	20.705
358.04	20.517
358.40	20.690
358.77	19.985
359.13	20.420
359.49	20.163
359.85	20.030
360.21	19.539
360.57	19.416
360.93	20.202
361.29	19.481
361.66	19.761
362.02	19.034
362.38	20.635
362.74	20.241
363.10	20.547
363.46	19.475
363.82	19.565
364.18	19.488
364.54	20.029
364.90	20.482
365.26	20.194
365.62	19.682
365.98	19.064
366.35	19.862
366.71	19.292
367.07	18.976
367.43	20.148
367.79	19.681
368.15	19.199
368.51	19.986
368.87	19.158
369.23	19.265
369.59	20.634
369.95	19.021
370.31	19.849
370.67	19.223
371.03	20.798
371.39	19.875
371.75	18.702
372.11	19.035
372.47	20.890
372.83	20.054
373.19	19.808
373.55	19.175
373.91	18.232
374.27	19.378
374.63	19.051
374.99	19.542
375.35	19.758
375.71	19.723
376.07	19.032
376.42	19.501
376.78	19.846
377.14	19.856
377.50	19.663
377.86	18.834
378.22	19.805
378.58	20.036
378.94	20.036
379.30	19.284
379.66	19.627
380.02	19.648
380.38	18.560
380.74	19.723
381.09	19.334
381.45	19.133
381.81	18.440
382.17	18.681
382.53	19.136
382.89	18.805
383.25	19.183
383.61	19.251
383.97	18.056
384.32	20.675
384.68	20.380
385.04	18.875
385.40	19.514
385.76	18.958
386.12	19.666
386.48	19.878
386.83	19.499
387.19	19.317
387.55	18.905
387.91	19.053
388.27	18.977
388.62	18.662
388.98	18.834
389.34	18.263
389.70	18.691
390.06	19.451
390.42	18.939
390.77	19.472
391.13	19.312
391.49	18.633
391.85	19.692
392.20	19.130
392.56	19.235
392.92	18.529
393.28	19.170
393.64	18.234
393.99	19.324
394.35	18.540
394.71	18.396
395.07	18.674
395.42	18.326
395.78	20.419
396.14	20.000
396.50	19.434
396.85	19.146
397.21	18.953
397.57	19.426
397.92	17.851
398.28	19.084
398.64	18.732
399.00	18.653
399.35	19.002
399.71	18.377
400.07	18.607
400.42	18.806
400.78	19.413
401.14	18.790
401.49	19.009
401.85	19.235
402.21	18.864
402.57	18.851
402.92	18.848
403.28	18.377
403.63	18.481
403.99	19.300
404.35	18.406
404.70	19.492
405.06	18.080
405.42	18.791
405.77	19.074
406.13	19.306
406.49	18.192
406.84	18.387
407.20	19.235
407.55	19.138
407.91	19.336
408.27	19.891
408.62	18.983
408.98	19.219
409.34	19.053
409.69	19.851
410.05	18.247
410.40	17.903
410.76	17.287
411.11	18.602
411.47	18.148
411.83	18.571
412.18	18.357
412.54	18.138
412.89	17.994
413.25	18.358
413.60	18.633
413.96	18.253
414.31	18.831
414.67	19.367
415.03	18.455
415.38	18.675
415.74	18.951
416.09	18.801
416.45	18.293
416.80	19.564
417.16	18.014
417.51	19.682
417.87	18.711
418.22	19.016
418.58	19.490
418.93	18.739
419.29	17.868
419.64	19.200
420.00	19.332
420.35	18.409
420.71	18.611
421.06	18.246
421.42	19.113
421.77	18.656
422.12	17.861
422.48	18.028
422.83	18.806
423.19	19.384
423.54	18.815
423.90	19.026
424.25	17.777
424.61	19.095
424.96	18.408
425.31	18.008
425.67	18.462
426.02	18.452
426.38	18.261
426.73	18.450
427.09	18.565
427.44	17.952
427.79	18.239
428.15	18.621
428.50	19.200
428.85	19.400
429.21	18.314
429.56	18.295
429.92	18.399
430.27	17.997
430.62	18.355
430.98	17.914
431.33	18.095
431.68	17.778
432.04	18.210
432.39	19.319
432.74	19.087
433.10	18.328
433.45	18.495
433.80	18.753
434.16	18.024
434.51	18.266
434.86	18.291
435.22	17.288
435.57	18.020
435.92	19.010
436.28	19.412
436.63	18.747
436.98	19.257
437.34	18.265
437.69	17.917
438.04	17.849
438.39	19.440
438.75	18.931
439.10	18.834
439.45	18.146
439.81	19.028
440.16	17.997
440.51	18.806
440.86	19.316
441.22	17.587
441.57	18.793
441.92	18.164
442.27	18.196
442.63	17.785
442.98	18.588
443.33	17.836
443.68	18.863
444.03	18.332
444.39	18.032
444.74	18.375
445.09	18.273
445.44	18.172
445.79	18.226
446.15	18.158
446.50	18.882
446.85	18.875
447.20	17.363
447.55	17.836
447.91	18.594
448.26	18.051
448.61	18.795
448.96	18.083
449.31	18.757
449.66	19.380
450.02	17.828
450.37	18.379
450.72	19.229
451.07	18.848
451.42	19.265
451.77	19.187
452.12	18.832
452.47	18.773
452.83	19.662
453.18	19.399
453.53	19.183
453.88	18.457
454.23	19.465
454.58	18.648
454.93	19.497
455.28	19.706
455.63	18.617
455.98	17.992
456.34	19.088
456.69	18.110
457.04	19.093
457.39	18.971
457.74	19.538
458.09	19.147
458.44	18.839
458.79	18.992
459.14	18.494
459.49	19.762
459.84	18.967
460.19	18.757
460.54	19.829
460.89	18.763
461.24	17.927
461.59	18.764
461.94	18.144
462.29	19.165
462.64	19.912
462.99	19.194
463.34	19.443
463.69	20.085
464.04	19.113
464.39	19.118
464.74	17.995
465.09	18.398
465.44	19.423
465.79	17.801
466.14	18.177
466.49	19.045
466.84	18.673
467.19	19.391
467.54	19.159
467.89	19.425
468.24	19.224
468.59	18.333
468.94	19.263
469.29	19.853
469.64	20.129
469.99	19.280
470.34	19.418
470.68	18.414
471.03	19.546
471.38	19.669
471.73	18.681
472.08	19.765
472.43	19.491
472.78	19.334
473.13	18.899
473.48	18.949
473.83	19.552
474.17	19.331
474.52	19.491
474.87	19.102
475.22	18.675
475.57	18.888
475.92	18.702
476.27	18.118
476.61	18.552
476.96	19.175
477.31	19.332
477.66	19.431
478.01	19.134
478.36	18.744
478.70	18.660
479.05	18.305
479.40	19.097
479.75	19.017
480.10	18.925
480.45	18.721
480.79	17.972
481.14	18.212
481.49	17.566
481.84	18.250
482.19	18.428
482.53	18.489
482.88	18.862
483.23	17.997
483.58	18.582
483.92	19.333
484.27	17.723
484.62	18.973
484.97	18.387
485.31	17.649
485.66	17.343
486.01	17.001
486.36	16.887
486.70	16.784
487.05	17.056
487.40	17.545
487.75	17.376
488.09	17.926
488.44	18.005
488.79	17.876
489.13	18.664
489.48	18.138
489.83	18.432
490.17	18.043
490.52	18.260
490.87	18.664
491.22	18.883
491.56	18.401
491.91	18.324
492.26	18.486
492.60	18.907
492.95	18.487
493.30	18.926
493.64	18.553
493.99	18.694
494.34	17.974
494.68	18.371
495.03	18.904
495.37	19.271
495.72	18.555
496.07	17.610
496.41	18.115
496.76	18.024
497.11	18.466
497.45	17.931
497.80	18.721
498.14	18.678
498.49	19.034
498.84	18.505
499.18	18.144
499.53	17.823
499.87	17.835
500.22	18.102
500.56	18.524
500.91	18.785
501.26	19.109
501.60	18.443
501.95	18.056
502.29	18.489
502.64	17.865
502.98	18.097
503.33	18.085
503.67	18.896
504.02	17.465
504.36	18.507
504.71	18.732
505.06	18.442
505.40	17.829
505.75	18.382
506.09	19.179
506.44	18.327
506.78	17.958
507.13	18.808
507.47	18.923
507.82	19.416
508.16	18.569
508.51	18.406
508.85	18.661
509.19	18.257
509.54	19.385
509.88	19.244
510.23	18.529
510.57	17.954
510.92	19.231
511.26	18.976
511.61	18.661
511.95	18.716
512.30	18.950
512.64	18.484
512.98	18.760
513.33	17.982
513.67	18.643
514.02	19.584
514.36	19.003
514.70	18.507
515.05	18.647
515.39	19.408
515.74	19.191
516.08	18.682
516.42	19.563
516.77	19.253
517.11	19.093
517.46	19.881
517.80	18.569
518.14	19.042
518.49	18.798
518.83	19.121
519.17	19.301
519.52	19.880
519.86	18.965
520.20	19.726
520.55	18.598
520.89	19.828
521.23	19.334
521.58	19.220
521.92	18.659
522.26	18.720
522.61	19.311
522.95	18.979
523.29	19.708
523.64	19.422
523.98	19.542
524.32	19.262
524.66	19.072
525.01	19.349
525.35	19.623
525.69	19.868
526.04	19.631
526.38	19.129
526.72	18.735
527.06	18.924
527.41	18.924
527.75	19.963
528.09	19.446
528.43	19.097
528.78	18.843
529.12	20.590
529.46	18.878
529.80	19.509
530.15	19.446
530.49	18.652
530.83	18.769
531.17	19.188
531.51	19.375
531.86	19.082
532.20	18.974
532.54	18.707
532.88	18.364
533.22	19.927
533.57	19.463
533.91	18.065
534.25	17.830
534.59	19.006
534.93	18.146
535.27	18.668
535.62	18.378
535.96	18.735
536.30	19.561
536.64	19.317
536.98	18.943
537.32	19.562
537.66	19.005
538.01	18.452
538.35	18.902
538.69	19.114
539.03	18.035
539.37	18.871
539.71	19.568
540.05	18.646
540.39	18.931
540.73	19.241
541.07	18.130
541.42	19.030
541.76	19.236
542.10	18.557
542.44	19.638
542.78	17.747
543.12	19.202
543.46	18.922
543.80	19.048
544.14	19.257
544.48	18.674
544.82	19.083
545.16	18.579
545.50	18.992
545.84	19.571
546.18	20.611
546.52	19.541
546.86	19.729
547.20	19.186
547.54	18.556
547.88	18.917
548.22	19.308
548.56	18.621
548.90	18.921
549.24	19.078
549.58	18.041
549.92	19.974
550.26	18.999
550.60	17.831
550.94	19.403
551.28	19.241
551.62	19.517
551.96	18.378
552.30	18.523
552.64	20.129
552.98	17.977
553.32	18.886
553.66	18.371
554.00	18.082
554.34	19.174
554.68	19.220
555.02	18.737
555.36	18.750
555.69	19.306
556.03	18.217
556.37	18.037
556.71	19.622
557.05	18.152
557.39	19.133
557.73	19.340
558.07	19.852
558.41	18.780
558.75	19.699
559.08	19.514
559.42	20.043
559.76	20.100
560.10	19.133
560.44	19.044
560.78	18.926
561.12	19.008
561.45	18.023
561.79	18.664
562.13	17.751
562.47	18.365
562.81	18.933
563.15	19.005
563.48	18.696
563.82	19.214
564.16	19.092
564.50	17.842
564.84	18.419
565.17	18.598
565.51	18.842
565.85	19.432
566.19	18.095
566.52	17.990
566.86	18.155
567.20	18.596
567.54	18.286
567.88	18.153
568.21	17.174
568.55	17.267
568.89	17.609
569.23	17.127
569.56	17.532
569.90	16.780
570.24	16.763
570.57	17.099
570.91	16.630
571.25	16.548
571.59	16.074
571.92	16.442
572.26	16.388
572.60	16.718
572.93	16.878
573.27	16.686
573.61	16.378
573.95	16.484
574.28	16.190
574.62	16.069
574.96	15.981
575.29	16.006
575.63	15.948
575.97	16.188
576.30	16.452
576.64	16.857
576.98	16.020
577.31	16.282
577.65	16.410
577.98	15.836
578.32	15.806
578.66	15.921
578.99	16.572
579.33	16.464
579.67	16.594
580.00	16.166
580.34	16.384
580.67	15.794
581.01	16.151
581.35	15.643
581.68	15.642
582.02	15.655
582.35	15.794
582.69	16.037
583.02	15.957
583.36	15.988
583.70	16.647
584.03	16.679
584.37	16.305
584.70	16.173
585.04	16.131
585.37	15.893
585.71	16.449
586.04	16.188
586.38	15.633
586.72	16.036
587.05	16.418
587.39	16.106
587.72	16.101
588.06	16.290
588.39	16.351
588.73	16.344
589.06	16.195
589.40	16.964
589.73	16.912
590.07	17.193
590.40	17.387
590.73	17.224
591.07	18.027
591.40	17.285
591.74	17.248
592.07	16.597
592.41	17.026
592.74	16.075
593.08	16.146
593.41	16.098
593.75	16.369
594.08	16.538
594.41	16.422
594.75	16.644
595.08	17.147
595.42	16.886
595.75	16.453
596.09	16.545
596.42	16.679
596.75	17.548
597.09	17.375
597.42	16.980
597.75	17.282
598.09	16.988
598.42	16.687
598.76	16.345
599.09	17.065
599.42	16.436
599.76	16.825
600.09	16.068
600.42	16.920
600.76	16.553
601.09	16.845
601.42	16.543
601.76	17.007
602.09	17.182
602.42	16.488
602.76	16.584
603.09	16.968
603.42	17.284
603.76	16.052
604.09	16.106
604.42	16.347
604.76	16.239
605.09	16.816
605.42	16.822
605.75	16.581
606.09	17.215
606.42	16.573
606.75	16.595
607.09	16.542
607.42	16.472
607.75	16.879
608.08	16.978
608.42	16.611
608.75	16.988
609.08	16.454
609.41	17.591
609.75	17.308
610.08	17.221
610.41	16.469
610.74	16.840
611.07	16.735
611.41	17.146
611.74	17.400
612.07	17.197
612.40	17.154
612.73	17.873
613.07	17.739
613.40	17.093
613.73	17.024
614.06	16.650
614.39	17.121
614.72	17.328
615.06	17.211
615.39	17.030
615.72	16.747
616.05	16.775
616.38	16.794
616.71	17.092
617.05	17.628
617.38	17.416
617.71	17.829
618.04	17.891
618.37	17.232
618.70	17.206
619.03	16.728
619.36	17.462
619.69	17.480
620.03	18.787
620.36	18.433
620.69	18.455
621.02	19.158
621.35	17.264
621.68	17.552
622.01	18.967
622.34	17.480
622.67	18.539
623.00	17.563
623.33	18.151
623.66	18.031
623.99	18.973
624.32	17.547
624.65	17.907
624.99	18.120
625.32	18.771
625.65	17.655
625.98	17.643
626.31	18.546
626.64	18.831
626.97	18.516
627.30	17.547
627.63	18.760
627.96	17.449
628.29	16.832
628.62	18.563
628.95	18.440
629.28	19.281
629.61	18.278
629.94	19.706
630.26	19.497
630.59	19.947
630.92	18.296
631.25	19.674
