SpectraSuite Data File
++++++++++++++++++++++++++++++++++++
Date: Tue May 12 15:15:48 PDT 2015
User: schluterlab
Dark Spectrum Present: Yes
Reference Spectrum Present: Yes
Number of Sampled Component Spectra: 1
Spectrometers: USB2E3373
Integration Time (usec): 3000 (USB2E3373)
Spectra Averaged: 3 (USB2E3373)
Boxcar Smoothing: 0 (USB2E3373)
Correct for Electrical Dark: No (USB2E3373)
Strobe/Lamp Enabled: No (USB2E3373)
Correct for Detector Non-linearity: No (USB2E3373)
Correct for Stray Light: No (USB2E3373)
Number of Pixels in Processed Spectrum: 2048
>>>>>Begin Processed Spectral Data<<<<<
178.53	0.000
178.91	-183.333
179.29	-650.000
179.67	-3900.000
180.04	-166.667
180.42	575.000
180.80	1250.000
181.18	0.000
181.56	-237.500
181.94	0.000
182.31	866.667
182.69	-2500.000
183.07	628.571
183.45	-3800.000
183.83	-1400.000
184.20	300.000
184.58	371.429
184.96	-207.692
185.34	-141.667
185.72	1700.000
186.09	-825.000
186.47	-2300.000
186.85	700.000
187.23	580.000
187.61	1800.000
187.98	237.500
188.36	257.143
188.74	266.667
189.12	275.000
189.49	750.000
189.87	0.000
190.25	362.500
190.63	1600.000
191.00	-158.333
191.38	-2400.000
191.76	-600.000
192.14	412.500
192.51	-1900.000
192.89	1900.000
193.27	900.000
193.65	-1100.000
194.02	-460.000
194.40	400.000
194.78	-135.714
195.15	233.333
195.53	-2300.000
195.91	-500.000
196.29	3900.000
196.66	175.000
197.04	475.000
197.42	-950.000
197.79	650.000
198.17	258.333
198.55	0.000
198.92	514.286
199.30	1033.333
199.68	1200.000
200.05	300.000
200.43	-416.667
200.81	161.111
201.18	2500.000
201.56	250.000
201.94	-500.000
202.31	-212.500
202.69	-380.000
203.07	2300.000
203.44	-450.000
203.82	283.333
204.19	660.000
204.57	-1100.000
204.95	-650.000
205.32	-400.000
205.70	450.000
206.08	700.000
206.45	-600.000
206.83	300.000
207.20	157.895
207.58	175.000
207.96	620.000
208.33	0.000
208.71	385.714
209.08	640.000
209.46	-2600.000
209.84	-775.000
210.21	640.000
210.59	-360.000
210.96	225.000
211.34	-550.000
211.71	272.727
212.09	775.000
212.46	1100.000
212.84	-266.667
213.22	311.111
213.59	-2400.000
213.97	260.000
214.34	925.000
214.72	900.000
215.09	1033.333
215.47	-2300.000
215.84	-330.000
216.22	-425.000
216.59	0.000
216.97	0.000
217.34	650.000
217.72	-1250.000
218.09	1133.333
218.47	375.000
218.84	850.000
219.22	900.000
219.59	666.667
219.97	428.571
220.34	333.333
220.72	1500.000
221.09	2400.000
221.47	216.667
221.84	966.667
222.22	290.000
222.59	183.333
222.97	200.000
223.34	168.750
223.72	-1700.000
224.09	833.333
224.46	261.538
224.84	-800.000
225.21	277.778
225.59	193.333
225.96	1400.000
226.34	-560.000
226.71	-375.000
227.08	-540.000
227.46	0.000
227.83	-483.333
228.21	-1150.000
228.58	316.667
228.95	750.000
229.33	333.333
229.70	900.000
230.08	376.923
230.45	2500.000
230.82	-900.000
231.20	-433.333
231.57	-633.333
231.95	380.000
232.32	275.000
232.69	583.333
233.07	208.333
233.44	-1200.000
233.81	213.333
234.19	107.407
234.56	162.500
234.93	129.412
235.31	100.000
235.68	125.000
236.05	121.429
236.43	137.037
236.80	192.857
237.17	124.138
237.55	56.250
237.92	85.000
238.29	93.939
238.67	100.000
239.04	70.732
239.41	62.500
239.79	57.500
240.16	58.333
240.53	63.934
240.91	43.478
241.28	54.237
241.65	40.909
242.02	59.155
242.40	47.143
242.77	41.758
243.14	32.911
243.51	43.434
243.89	36.449
244.26	36.449
244.63	31.683
245.00	17.431
245.38	16.102
245.75	27.273
246.12	34.815
246.49	24.113
246.87	11.475
247.24	21.333
247.61	22.500
247.98	30.612
248.36	15.152
248.73	26.020
249.10	9.524
249.47	20.500
249.84	21.393
250.22	14.595
250.59	20.500
250.96	18.143
251.33	16.279
251.70	17.857
252.08	16.387
252.45	19.124
252.82	13.308
253.19	12.648
253.56	15.385
253.94	16.304
254.31	12.016
254.68	14.983
255.05	14.483
255.42	11.314
255.79	11.726
256.16	15.593
256.54	13.961
256.91	13.399
257.28	14.716
257.65	10.031
258.02	10.619
258.39	11.175
258.76	15.942
259.14	12.571
259.51	13.411
259.88	8.815
260.25	9.341
260.62	10.411
260.99	8.540
261.36	11.978
261.73	11.436
262.10	11.257
262.47	11.500
262.85	9.067
263.22	12.082
263.59	11.509
263.96	12.531
264.33	7.654
264.70	13.759
265.07	10.976
265.44	9.862
265.81	9.434
266.18	10.984
266.55	9.693
266.92	9.396
267.29	10.965
267.66	10.538
268.03	7.399
268.40	11.416
268.77	11.674
269.14	9.328
269.51	10.022
269.88	10.816
270.25	9.071
270.62	8.798
270.99	10.953
271.36	11.585
271.73	8.595
272.10	9.899
272.47	8.929
272.84	10.180
273.21	8.471
273.58	10.526
273.95	8.214
274.32	9.533
274.69	11.024
275.06	10.018
275.43	9.195
275.80	8.868
276.17	9.743
276.54	9.159
276.91	9.888
277.28	8.394
277.65	8.303
278.02	7.537
278.39	8.453
278.76	8.966
279.13	6.940
279.50	7.818
279.87	5.959
280.23	7.551
280.60	8.029
280.97	8.621
281.34	8.251
281.71	9.739
282.08	9.915
282.45	6.757
282.82	9.532
283.19	8.108
283.56	8.099
283.92	8.143
284.29	8.652
284.66	7.731
285.03	9.453
285.40	8.099
285.77	6.636
286.14	7.740
286.51	8.129
286.87	7.595
287.24	7.808
287.61	6.839
287.98	7.910
288.35	7.407
288.72	6.980
289.08	8.859
289.45	7.622
289.82	8.438
290.19	6.881
290.56	8.879
290.93	7.770
291.29	7.735
291.66	7.203
292.03	6.452
292.40	6.911
292.77	5.989
293.13	7.846
293.50	6.478
293.87	7.046
294.24	7.413
294.60	7.672
294.97	7.552
295.34	7.835
295.71	8.541
296.08	8.000
296.44	8.386
296.81	6.948
297.18	5.830
297.55	7.143
297.91	4.803
298.28	7.488
298.65	7.362
299.02	6.876
299.38	6.715
299.75	6.585
300.12	7.339
300.48	7.377
300.85	6.555
301.22	6.977
301.59	5.307
301.95	6.884
302.32	7.683
302.69	7.014
303.05	7.295
303.42	8.072
303.79	6.284
304.15	6.381
304.52	6.660
304.89	6.930
305.25	6.897
305.62	6.077
305.99	5.435
306.35	5.684
306.72	6.452
307.09	6.625
307.45	5.597
307.82	6.379
308.19	6.804
308.55	6.100
308.92	6.379
309.29	7.101
309.65	5.748
310.02	6.187
310.38	6.481
310.75	5.689
311.12	5.364
311.48	6.660
311.85	6.489
312.22	6.972
312.58	6.317
312.95	5.825
313.31	5.618
313.68	5.629
314.05	6.136
314.41	4.749
314.78	6.913
315.14	6.256
315.51	6.906
315.87	5.748
316.24	5.976
316.61	6.625
316.97	6.239
317.34	6.020
317.70	5.619
318.07	7.206
318.43	6.591
318.80	5.867
319.16	6.731
319.53	5.752
319.89	5.466
320.26	6.890
320.62	6.227
320.99	6.387
321.35	6.401
321.72	6.831
322.08	6.464
322.45	6.630
322.81	5.764
323.18	7.194
323.54	7.143
323.91	5.893
324.27	7.958
324.64	5.882
325.00	5.517
325.37	6.071
325.73	5.396
326.10	6.794
326.46	6.689
326.83	6.320
327.19	6.988
327.56	5.990
327.92	6.393
328.29	7.692
328.65	7.192
329.01	6.330
329.38	6.768
329.74	5.380
330.11	6.516
330.47	6.905
330.84	5.349
331.20	5.838
331.56	7.686
331.93	7.442
332.29	5.782
332.66	6.463
333.02	7.216
333.38	5.410
333.75	7.006
334.11	6.628
334.48	6.496
334.84	6.081
335.20	7.186
335.57	6.381
335.93	6.056
336.29	6.882
336.66	6.432
337.02	5.902
337.38	6.535
337.75	7.010
338.11	7.342
338.47	5.334
338.84	6.689
339.20	5.974
339.56	6.056
339.93	5.518
340.29	6.050
340.65	7.041
341.02	6.919
341.38	6.322
341.74	5.731
342.11	5.843
342.47	6.071
342.83	6.891
343.20	7.518
343.56	5.560
343.92	5.863
344.28	6.858
344.65	5.786
345.01	6.111
345.37	5.609
345.73	6.032
346.10	5.179
346.46	7.097
346.82	5.710
347.19	7.110
347.55	5.543
347.91	5.589
348.27	5.112
348.63	6.013
349.00	6.550
349.36	5.447
349.72	6.193
350.08	6.444
350.45	6.398
350.81	7.034
351.17	5.624
351.53	5.389
351.89	5.905
352.26	5.442
352.62	5.732
352.98	6.595
353.34	6.780
353.70	6.193
354.07	6.385
354.43	5.991
354.79	4.708
355.15	6.126
355.51	4.909
355.87	7.003
356.24	6.313
356.60	5.632
356.96	5.459
357.32	5.878
357.68	5.800
358.04	5.699
358.40	5.622
358.77	6.086
359.13	5.180
359.49	5.782
359.85	5.659
360.21	4.978
360.57	6.058
360.93	5.556
361.29	5.556
361.66	5.891
362.02	5.043
362.38	5.267
362.74	5.096
363.10	6.101
363.46	6.146
363.82	6.031
364.18	5.903
364.54	5.866
364.90	5.957
365.26	5.621
365.62	6.077
365.98	5.781
366.35	5.517
366.71	5.899
367.07	5.666
367.43	6.246
367.79	6.117
368.15	5.020
368.51	5.513
368.87	4.823
369.23	5.059
369.59	5.462
369.95	5.524
370.31	5.544
370.67	6.037
371.03	6.513
371.39	5.540
371.75	5.164
372.11	5.642
372.47	6.164
372.83	5.235
373.19	6.306
373.55	6.048
373.91	4.765
374.27	5.952
374.63	4.949
374.99	5.121
375.35	4.906
375.71	5.673
376.07	4.775
376.42	5.371
376.78	5.138
377.14	5.505
377.50	5.243
377.86	5.445
378.22	6.155
378.58	6.538
378.94	5.914
379.30	4.912
379.66	5.599
380.02	6.041
380.38	4.801
380.74	6.517
381.09	6.075
381.45	5.665
381.81	5.260
382.17	4.823
382.53	5.339
382.89	5.500
383.25	5.092
383.61	5.360
383.97	5.099
384.32	5.244
384.68	5.823
385.04	5.158
385.40	5.219
385.76	5.793
386.12	5.875
386.48	4.438
386.83	4.462
387.19	5.241
387.55	5.241
387.91	5.543
388.27	5.294
388.62	5.399
388.98	5.248
389.34	4.997
389.70	4.953
390.06	5.427
390.42	5.429
390.77	5.528
391.13	4.647
391.49	5.263
391.85	5.600
392.20	5.185
392.56	5.795
392.92	5.446
393.28	5.157
393.64	4.759
393.99	5.631
394.35	5.297
394.71	4.946
395.07	4.866
395.42	4.684
395.78	5.922
396.14	5.843
396.50	5.235
396.85	4.878
397.21	4.994
397.57	5.380
397.92	5.142
398.28	4.909
398.64	6.748
399.00	4.703
399.35	5.475
399.71	5.464
400.07	5.422
400.42	4.955
400.78	4.985
401.14	4.932
401.49	5.300
401.85	5.794
402.21	4.687
402.57	5.027
402.92	5.515
403.28	4.773
403.63	5.415
403.99	5.911
404.35	5.158
404.70	5.139
405.06	4.604
405.42	4.847
405.77	5.072
406.13	5.477
406.49	4.775
406.84	5.245
407.20	5.137
407.55	4.615
407.91	5.680
408.27	5.215
408.62	5.322
408.98	5.322
409.34	5.319
409.69	4.605
410.05	4.770
410.40	4.888
410.76	4.751
411.11	4.799
411.47	4.753
411.83	4.979
412.18	5.254
412.54	5.345
412.89	4.248
413.25	5.644
413.60	4.790
413.96	4.488
414.31	4.841
414.67	5.649
415.03	5.683
415.38	5.868
415.74	4.359
416.09	5.184
416.45	5.818
416.80	5.709
417.16	5.856
417.51	4.968
417.87	5.507
418.22	5.468
418.58	5.223
418.93	5.116
419.29	4.744
419.64	5.027
420.00	5.788
420.35	4.413
420.71	4.667
421.06	5.062
421.42	4.721
421.77	5.108
422.12	4.906
422.48	4.879
422.83	5.469
423.19	4.752
423.54	4.663
423.90	5.040
424.25	4.733
424.61	5.107
424.96	4.348
425.31	4.871
425.67	4.602
426.02	4.879
426.38	4.667
426.73	5.263
427.09	5.694
427.44	4.333
427.79	4.460
428.15	5.362
428.50	5.314
428.85	5.173
429.21	4.700
429.56	5.184
429.92	4.227
430.27	5.612
430.62	3.867
430.98	4.990
431.33	4.536
431.68	3.852
432.04	4.449
432.39	4.555
432.74	5.094
433.10	4.374
433.45	5.227
433.80	4.688
434.16	4.992
434.51	4.489
434.86	5.171
435.22	4.700
435.57	4.861
435.92	5.692
436.28	5.415
436.63	4.646
436.98	5.405
437.34	5.251
437.69	4.255
438.04	5.215
438.39	4.670
438.75	5.178
439.10	4.425
439.45	4.409
439.81	4.280
440.16	4.458
440.51	4.617
440.86	4.843
441.22	4.816
441.57	4.409
441.92	5.281
442.27	4.381
442.63	4.980
442.98	4.580
443.33	5.356
443.68	4.980
444.03	4.194
444.39	5.320
444.74	4.710
445.09	4.739
445.44	4.888
445.79	4.776
446.15	4.211
446.50	4.800
446.85	4.930
447.20	4.328
447.55	3.915
447.91	5.381
448.26	4.473
448.61	4.422
448.96	4.956
449.31	4.675
449.66	5.039
450.02	3.944
450.37	5.053
450.72	4.793
451.07	5.352
451.42	5.276
451.77	5.326
452.12	5.389
452.47	5.407
452.83	5.352
453.18	5.465
453.53	5.447
453.88	5.029
454.23	5.811
454.58	5.128
454.93	4.844
455.28	4.957
455.63	5.496
455.98	5.471
456.34	5.532
456.69	5.488
457.04	4.952
457.39	4.457
457.74	5.800
458.09	4.660
458.44	4.765
458.79	4.721
459.14	5.019
459.49	5.153
459.84	4.185
460.19	4.463
460.54	5.014
460.89	6.183
461.24	4.926
461.59	5.102
461.94	4.905
462.29	5.092
462.64	5.214
462.99	4.671
463.34	5.509
463.69	5.384
464.04	5.642
464.39	4.522
464.74	3.869
465.09	4.701
465.44	5.005
465.79	4.246
466.14	4.769
466.49	4.829
466.84	4.794
467.19	5.565
467.54	5.345
467.89	5.516
468.24	4.227
468.59	4.405
468.94	5.435
469.29	5.498
469.64	5.273
469.99	5.077
470.34	5.060
470.68	4.966
471.03	5.604
471.38	5.629
471.73	5.552
472.08	5.153
472.43	5.462
472.78	5.314
473.13	4.881
473.48	5.134
473.83	4.535
474.17	4.377
474.52	5.450
474.87	5.458
475.22	4.969
475.57	5.247
475.92	4.905
476.27	4.570
476.61	4.343
476.96	5.068
477.31	4.627
477.66	4.831
478.01	5.364
478.36	4.634
478.70	4.864
479.05	4.236
479.40	4.762
479.75	5.362
480.10	4.937
480.45	4.622
480.79	5.023
481.14	4.327
481.49	4.712
481.84	4.398
482.19	4.891
482.53	4.611
482.88	4.391
483.23	4.375
483.58	4.174
483.92	5.347
484.27	4.923
484.62	4.414
484.97	4.012
485.31	3.593
485.66	3.954
486.01	3.943
486.36	3.573
486.70	3.732
487.05	3.797
487.40	3.751
487.75	4.020
488.09	3.949
488.44	3.888
488.79	4.026
489.13	4.181
489.48	4.475
489.83	4.671
490.17	4.583
490.52	4.866
490.87	5.086
491.22	4.521
491.56	5.314
491.91	4.301
492.26	4.454
492.60	5.148
492.95	4.350
493.30	5.050
493.64	4.537
493.99	4.785
494.34	4.034
494.68	4.825
495.03	5.254
495.37	5.223
495.72	5.315
496.07	4.537
496.41	4.909
496.76	5.234
497.11	5.356
497.45	4.603
497.80	4.680
498.14	4.669
498.49	4.735
498.84	5.327
499.18	4.250
499.53	4.915
499.87	4.537
500.22	4.468
500.56	4.364
500.91	4.917
501.26	4.869
501.60	4.189
501.95	4.211
502.29	4.889
502.64	4.543
502.98	4.891
503.33	4.454
503.67	4.857
504.02	4.747
504.36	4.615
504.71	4.730
505.06	4.646
505.40	4.960
505.75	4.630
506.09	5.366
506.44	4.840
506.78	5.057
507.13	4.363
507.47	4.221
507.82	4.964
508.16	5.634
508.51	4.541
508.85	5.176
509.19	4.699
509.54	4.932
509.88	5.719
510.23	4.951
510.57	5.116
510.92	5.345
511.26	5.171
511.61	5.022
511.95	4.928
512.30	4.900
512.64	4.465
512.98	5.023
513.33	5.686
513.67	4.764
514.02	4.935
514.36	4.933
514.70	4.373
515.05	4.688
515.39	4.879
515.74	5.413
516.08	5.719
516.42	5.355
516.77	5.227
517.11	5.440
517.46	4.687
517.80	5.079
518.14	4.620
518.49	4.796
518.83	4.011
519.17	5.324
519.52	5.352
519.86	5.341
520.20	5.753
520.55	5.088
520.89	5.172
521.23	5.666
521.58	4.418
521.92	5.656
522.26	4.976
522.61	4.991
522.95	5.165
523.29	4.678
523.64	4.740
523.98	5.751
524.32	5.536
524.66	4.638
525.01	4.675
525.35	4.773
525.69	5.117
526.04	5.532
526.38	5.238
526.72	4.475
527.06	4.731
527.41	6.167
527.75	4.687
528.09	4.997
528.43	5.674
528.78	5.903
529.12	4.937
529.46	5.026
529.80	5.023
530.15	5.834
530.49	4.633
530.83	4.814
531.17	5.166
531.51	5.334
531.86	6.280
532.20	5.068
532.54	5.022
532.88	5.372
533.22	5.789
533.57	4.698
533.91	3.963
534.25	4.962
534.59	4.854
534.93	5.006
535.27	4.553
535.62	5.426
535.96	5.024
536.30	4.936
536.64	4.286
536.98	5.286
537.32	6.063
537.66	5.357
538.01	5.077
538.35	5.864
538.69	5.461
539.03	5.535
539.37	4.976
539.71	5.000
540.05	4.615
540.39	5.346
540.73	5.316
541.07	4.893
541.42	4.291
541.76	5.734
542.10	5.055
542.44	5.860
542.78	4.972
543.12	5.521
543.46	6.078
543.80	5.514
544.14	5.201
544.48	5.414
544.82	4.771
545.16	4.493
545.50	6.023
545.84	5.114
546.18	5.397
546.52	5.705
546.86	5.609
547.20	4.199
547.54	6.143
547.88	4.805
548.22	5.282
548.56	5.539
548.90	5.635
549.24	5.243
549.58	4.768
549.92	5.305
550.26	5.747
550.60	5.522
550.94	5.495
551.28	5.931
551.62	5.517
551.96	4.662
552.30	4.746
552.64	5.243
552.98	4.832
553.32	5.058
553.66	5.407
554.00	5.792
554.34	5.659
554.68	4.973
555.02	5.092
555.36	5.452
555.69	6.414
556.03	5.159
556.37	5.609
556.71	5.346
557.05	5.242
557.39	5.533
557.73	5.728
558.07	5.567
558.41	5.141
558.75	6.566
559.08	6.004
559.42	5.655
559.76	5.417
560.10	5.162
560.44	5.309
560.78	6.010
561.12	5.467
561.45	5.194
561.79	5.056
562.13	4.359
562.47	4.737
562.81	5.205
563.15	5.495
563.48	4.907
563.82	4.928
564.16	4.540
564.50	4.762
564.84	4.924
565.17	5.585
565.51	4.865
565.85	5.120
566.19	4.821
566.52	4.633
566.86	5.779
567.20	5.281
567.54	4.531
567.88	5.112
568.21	4.543
568.55	4.815
568.89	4.745
569.23	4.616
569.56	4.233
569.90	4.815
570.24	4.532
570.57	4.413
570.91	4.243
571.25	4.211
571.59	4.033
571.92	4.010
572.26	3.666
572.60	3.749
572.93	4.313
573.27	4.164
573.61	3.763
573.95	3.835
574.28	3.611
574.62	3.586
574.96	3.820
575.29	3.713
575.63	4.099
575.97	3.627
576.30	3.822
576.64	3.795
576.98	3.854
577.31	3.897
577.65	3.957
577.98	3.502
578.32	3.379
578.66	3.596
578.99	3.839
579.33	3.947
579.67	3.577
580.00	3.371
580.34	3.755
580.67	3.915
581.01	4.147
581.35	3.955
581.68	3.454
582.02	3.735
582.35	3.530
582.69	3.831
583.02	3.627
583.36	3.586
583.70	3.735
584.03	4.027
584.37	4.013
584.70	3.832
585.04	3.878
585.37	3.629
585.71	3.865
586.04	3.776
586.38	3.687
586.72	3.887
587.05	3.963
587.39	4.197
587.72	3.684
588.06	3.849
588.39	4.069
588.73	3.868
589.06	3.618
589.40	4.225
589.73	4.195
590.07	4.187
590.40	4.704
590.73	4.811
591.07	4.402
591.40	4.671
591.74	4.383
592.07	3.785
592.41	4.556
592.74	3.991
593.08	3.711
593.41	3.740
593.75	4.041
594.08	4.065
594.41	4.236
594.75	3.596
595.08	4.287
595.42	4.707
595.75	4.475
596.09	4.032
596.42	4.297
596.75	4.527
597.09	4.664
597.42	4.286
597.75	4.178
598.09	4.021
598.42	4.325
598.76	4.588
599.09	4.303
599.42	4.256
599.76	4.512
600.09	4.102
600.42	4.213
600.76	3.569
601.09	3.832
601.42	4.224
601.76	4.189
602.09	4.452
602.42	4.067
602.76	4.288
603.09	3.884
603.42	4.661
603.76	4.447
604.09	4.054
604.42	4.105
604.76	4.425
605.09	4.571
605.42	4.388
605.75	4.027
606.09	4.476
606.42	4.622
606.75	4.392
607.09	4.935
607.42	4.178
607.75	4.857
608.08	4.021
608.42	4.488
608.75	4.536
609.08	4.487
609.41	4.318
609.75	4.579
610.08	4.766
610.41	4.699
610.74	4.459
611.07	5.230
611.41	4.356
611.74	4.732
612.07	4.721
612.40	4.386
612.73	3.994
613.07	4.815
613.40	4.962
613.73	4.593
614.06	4.350
614.39	5.101
614.72	4.420
615.06	4.649
615.39	5.149
615.72	4.550
616.05	5.023
616.38	4.566
616.71	4.232
617.05	4.009
617.38	5.169
617.71	4.724
618.04	4.487
618.37	4.725
618.70	4.908
619.03	4.457
619.36	5.528
619.69	5.013
620.03	5.414
620.36	4.560
620.69	6.130
621.02	5.707
621.35	4.370
621.68	5.531
622.01	6.347
622.34	4.516
622.67	4.846
623.00	5.106
623.33	5.128
623.66	5.190
623.99	5.616
624.32	5.352
624.65	5.135
624.99	4.936
625.32	4.943
625.65	4.276
625.98	5.021
626.31	5.267
626.64	4.708
626.97	4.973
627.30	5.124
627.63	5.730
627.96	5.477
628.29	4.785
628.62	5.218
628.95	6.028
629.28	5.521
629.61	5.624
629.94	5.532
630.26	6.239
630.59	7.270
630.92	5.919
631.25	6.346
631.58	6.172
631.91	6.185
632.24	6.122
632.57	5.305
632.90	6.108
633.23	5.981
633.56	6.533
633.89	6.860
634.22	7.212
634.55	6.452
634.88	6.353
635.20	5.830
635.53	6.504
635.86	7.047
636.19	6.285
636.52	5.081
636.85	5.933
637.18	6.392
637.51	4.916
637.83	6.751
638.16	6.213
638.49	6.826
638.82	6.690
639.15	5.875
639.48	6.991
639.81	6.716
640.13	7.607
640.46	6.321
640.79	6.242
641.12	5.906
641.45	8.021
641.77	8.058
642.10	6.024
642.43	7.112
642.76	6.250
643.09	7.637
643.41	7.013
643.74	8.633
644.07	6.785
644.40	7.396
644.73	9.459
645.05	9.212
645.38	6.738
645.71	7.587
646.04	8.702
646.36	7.981
646.69	7.840
647.02	7.040
647.35	6.457
647.67	6.483
648.00	6.515
648.33	7.970
648.66	7.424
648.98	7.246
649.31	6.883
649.64	7.331
649.96	7.539
650.29	5.714
650.62	9.426
650.94	7.831
651.27	8.772
651.60	6.103
651.92	9.063
652.25	8.346
652.58	7.943
652.90	7.036
653.23	7.533
653.56	6.677
653.88	7.195
654.21	7.625
654.54	6.589
654.86	5.752
655.19	6.992
655.52	5.196
655.84	3.369
