SpectraSuite Data File
++++++++++++++++++++++++++++++++++++
Date: Tue May 12 16:05:47 PDT 2015
User: schluterlab
Dark Spectrum Present: Yes
Reference Spectrum Present: Yes
Number of Sampled Component Spectra: 1
Spectrometers: USB2E3373
Integration Time (usec): 3000 (USB2E3373)
Spectra Averaged: 3 (USB2E3373)
Boxcar Smoothing: 0 (USB2E3373)
Correct for Electrical Dark: No (USB2E3373)
Strobe/Lamp Enabled: No (USB2E3373)
Correct for Detector Non-linearity: No (USB2E3373)
Correct for Stray Light: No (USB2E3373)
Number of Pixels in Processed Spectrum: 2048
>>>>>Begin Processed Spectral Data<<<<<
178.53	0.000
178.91	-216.667
179.29	-825.000
179.67	-4000.000
180.04	-166.667
180.42	925.000
180.80	1650.000
181.18	0.000
181.56	-387.500
181.94	0.000
182.31	1500.000
182.69	-3800.000
183.07	557.143
183.45	-3600.000
183.83	-1600.000
184.20	390.000
184.58	542.857
184.96	-230.769
185.34	-266.667
185.72	1850.000
186.09	-900.000
186.47	-2900.000
186.85	1300.000
187.23	660.000
187.61	1750.000
187.98	500.000
188.36	285.714
188.74	350.000
189.12	400.000
189.49	1050.000
189.87	0.000
190.25	500.000
190.63	2000.000
191.00	-308.333
191.38	-4200.000
191.76	-725.000
192.14	612.500
192.51	-4100.000
192.89	1800.000
193.27	1166.667
193.65	-1533.333
194.02	-700.000
194.40	628.571
194.78	-228.571
195.15	280.000
195.53	-2900.000
195.91	-680.000
196.29	5000.000
196.66	281.250
197.04	850.000
197.42	-1500.000
197.79	850.000
198.17	383.333
198.55	0.000
198.92	442.857
199.30	1433.333
199.68	1550.000
200.05	783.333
200.43	-566.667
200.81	216.667
201.18	3800.000
201.56	325.000
201.94	-900.000
202.31	-312.500
202.69	-640.000
203.07	3500.000
203.44	-466.667
203.82	408.333
204.19	560.000
204.57	-1050.000
204.95	-875.000
205.32	-660.000
205.70	600.000
206.08	875.000
206.45	-933.333
206.83	388.889
207.20	221.053
207.58	291.667
207.96	740.000
208.33	0.000
208.71	628.571
209.08	780.000
209.46	-2700.000
209.84	-700.000
210.21	820.000
210.59	-580.000
210.96	300.000
211.34	-650.000
211.71	309.091
212.09	925.000
212.46	1850.000
212.84	-450.000
213.22	422.222
213.59	-3900.000
213.97	370.000
214.34	1100.000
214.72	1200.000
215.09	1233.333
215.47	-2900.000
215.84	-300.000
216.22	-425.000
216.59	0.000
216.97	0.000
217.34	1650.000
217.72	-1500.000
218.09	1233.333
218.47	475.000
218.84	875.000
219.22	1000.000
219.59	1266.667
219.97	614.286
220.34	488.889
220.72	1400.000
221.09	3600.000
221.47	300.000
221.84	1100.000
222.22	300.000
222.59	261.111
222.97	207.143
223.34	281.250
223.72	-2000.000
224.09	1166.667
224.46	353.846
224.84	-850.000
225.21	488.889
225.59	313.333
225.96	1433.333
226.34	-740.000
226.71	-875.000
227.08	-560.000
227.46	0.000
227.83	-483.333
228.21	-1900.000
228.58	400.000
228.95	700.000
229.33	400.000
229.70	900.000
230.08	338.462
230.45	2700.000
230.82	-825.000
231.20	-933.333
231.57	-1066.667
231.95	720.000
232.32	300.000
232.69	633.333
233.07	266.667
233.44	-1500.000
233.81	240.000
234.19	177.778
234.56	225.000
234.93	205.882
235.31	200.000
235.68	256.250
236.05	175.000
236.43	151.852
236.80	214.286
237.17	148.276
237.55	146.875
237.92	112.500
238.29	118.182
238.67	125.000
239.04	104.878
239.41	81.250
239.79	77.500
240.16	70.833
240.53	59.016
240.91	68.116
241.28	84.746
241.65	66.667
242.02	87.324
242.40	67.143
242.77	52.747
243.14	70.886
243.51	58.586
243.89	38.318
244.26	47.664
244.63	49.505
245.00	44.037
245.38	34.746
245.75	35.606
246.12	44.444
246.49	36.879
246.87	31.148
247.24	40.667
247.61	42.500
247.98	41.497
248.36	34.545
248.73	33.163
249.10	36.905
249.47	34.000
249.84	31.343
250.22	30.270
250.59	32.000
250.96	33.333
251.33	24.651
251.70	26.786
252.08	29.412
252.45	27.092
252.82	27.757
253.19	24.901
253.56	23.846
253.94	27.174
254.31	29.070
254.68	24.042
255.05	28.966
255.42	27.372
255.79	25.407
256.16	29.492
256.54	30.844
256.91	26.471
257.28	25.753
257.65	20.690
258.02	24.484
258.39	26.648
258.76	23.188
259.14	21.714
259.51	24.781
259.88	25.836
260.25	20.879
260.62	23.836
260.99	19.284
261.36	23.677
261.73	22.872
262.10	21.990
262.47	24.500
262.85	24.267
263.22	22.879
263.59	22.251
263.96	23.559
264.33	23.210
264.70	23.833
265.07	21.707
265.44	23.853
265.81	22.406
266.18	20.595
266.55	22.931
266.92	21.477
267.29	20.395
267.66	23.543
268.03	21.973
268.40	22.410
268.77	21.145
269.14	18.655
269.51	19.154
269.88	21.020
270.25	15.335
270.62	20.601
270.99	22.110
271.36	20.935
271.73	19.706
272.10	22.626
272.47	19.643
272.84	19.561
273.21	17.149
273.58	23.887
273.95	21.766
274.32	20.233
274.69	21.850
275.06	21.311
275.43	19.923
275.80	18.302
276.17	21.324
276.54	20.374
276.91	21.082
277.28	19.161
277.65	21.402
278.02	20.588
278.39	18.525
278.76	22.069
279.13	16.726
279.50	20.000
279.87	19.739
280.23	16.943
280.60	20.255
280.97	19.310
281.34	18.812
281.71	20.522
282.08	20.000
282.45	18.074
282.82	18.729
283.19	18.283
283.56	18.182
283.92	20.195
284.29	17.804
284.66	18.824
285.03	18.574
285.40	18.512
285.77	16.975
286.14	17.802
286.51	17.945
286.87	15.665
287.24	18.018
287.61	17.325
287.98	17.910
288.35	16.444
288.72	16.844
289.08	16.216
289.45	16.159
289.82	16.719
290.19	16.398
290.56	17.904
290.93	18.705
291.29	16.160
291.66	15.395
292.03	16.129
292.40	16.938
292.77	15.042
293.13	16.405
293.50	16.194
293.87	15.718
294.24	16.084
294.60	16.958
294.97	16.783
295.34	14.608
295.71	14.455
296.08	15.600
296.44	16.264
296.81	14.392
297.18	13.561
297.55	15.148
297.91	14.901
298.28	14.130
298.65	14.356
299.02	15.561
299.38	15.108
299.75	16.341
300.12	15.367
300.48	15.340
300.85	15.495
301.22	15.116
301.59	13.915
301.95	13.536
302.32	14.319
302.69	15.385
303.05	14.927
303.42	13.901
303.79	14.518
304.15	14.191
304.52	13.002
304.89	15.139
305.25	12.903
305.62	15.352
305.99	13.043
306.35	14.526
306.72	12.591
307.09	13.354
307.45	14.150
307.82	13.580
308.19	14.536
308.55	14.300
308.92	14.230
309.29	15.878
309.65	13.677
310.02	14.199
310.38	13.659
310.75	14.176
311.12	13.602
311.48	14.768
311.85	13.931
312.22	13.754
312.58	12.925
312.95	14.369
313.31	13.858
313.68	13.415
314.05	15.293
314.41	14.898
314.78	14.015
315.14	14.313
315.51	15.799
315.87	14.781
316.24	14.472
316.61	14.682
316.97	14.128
317.34	14.915
317.70	15.716
318.07	16.103
318.43	16.344
318.80	16.462
319.16	15.997
319.53	16.018
319.89	14.785
320.26	17.970
320.62	16.758
320.99	17.541
321.35	17.254
321.72	19.070
322.08	18.190
322.45	17.530
322.81	16.651
323.18	18.384
323.54	19.512
323.91	18.948
324.27	18.921
324.64	18.253
325.00	19.655
325.37	18.971
325.73	19.056
326.10	21.541
326.46	20.974
326.83	20.320
327.19	21.767
327.56	21.006
327.92	21.393
328.29	22.913
328.65	22.175
329.01	21.557
329.38	22.335
329.74	22.886
330.11	22.068
330.47	23.870
330.84	21.915
331.20	22.166
331.56	23.661
331.93	25.235
332.29	22.194
332.66	23.980
333.02	22.938
333.38	24.956
333.75	24.604
334.11	22.819
334.48	23.846
334.84	23.733
335.20	24.123
335.57	24.181
335.93	24.138
336.29	23.549
336.66	25.300
337.02	24.294
337.38	24.334
337.75	24.747
338.11	23.460
338.47	24.725
338.84	23.285
339.20	23.290
339.56	24.222
339.93	24.582
340.29	23.866
340.65	24.979
341.02	25.181
341.38	24.877
341.74	24.751
342.11	23.372
342.47	23.954
342.83	24.610
343.20	25.222
343.56	22.399
343.92	24.690
344.28	24.482
344.65	24.450
345.01	25.317
345.37	23.237
345.73	24.365
346.10	24.143
346.46	23.844
346.82	23.611
347.19	24.807
347.55	23.810
347.91	23.338
348.27	23.703
348.63	25.633
349.00	24.448
349.36	25.759
349.72	25.612
350.08	25.311
350.45	24.524
350.81	24.541
351.17	25.116
351.53	23.788
351.89	24.009
352.26	23.961
352.62	24.887
352.98	24.923
353.34	25.116
353.70	23.012
354.07	24.769
354.43	25.653
354.79	23.994
355.15	25.804
355.51	25.000
355.87	25.226
356.24	25.173
356.60	25.647
356.96	25.322
357.32	24.943
357.68	24.302
358.04	25.152
358.40	26.012
358.77	25.995
359.13	24.099
359.49	24.388
359.85	24.721
360.21	25.260
360.57	25.547
360.93	25.974
361.29	24.387
361.66	25.802
362.02	24.432
362.38	26.190
362.74	24.345
363.10	25.245
363.46	24.033
363.82	25.105
364.18	25.320
364.54	25.179
364.90	24.632
365.26	25.746
365.62	25.276
365.98	25.052
366.35	24.690
366.71	25.121
367.07	24.437
367.43	25.923
367.79	24.535
368.15	24.695
368.51	24.535
368.87	24.796
369.23	25.433
369.59	25.421
369.95	26.154
370.31	25.188
370.67	25.052
371.03	24.720
371.39	25.693
371.75	24.983
372.11	25.901
372.47	25.685
372.83	26.309
373.19	26.114
373.55	25.842
373.91	26.243
374.27	25.198
374.63	25.220
374.99	26.482
375.35	26.210
375.71	25.792
376.07	24.602
376.42	24.744
376.78	26.268
377.14	26.147
377.50	24.719
377.86	25.112
378.22	24.924
378.58	26.392
378.94	25.830
379.30	25.470
379.66	25.707
380.02	25.396
380.38	25.293
380.74	25.663
381.09	25.058
381.45	24.624
381.81	24.232
382.17	25.580
382.53	25.375
382.89	25.074
383.25	24.393
383.61	25.245
383.97	25.075
384.32	26.401
384.68	26.263
385.04	25.147
385.40	25.801
385.76	25.336
386.12	25.046
386.48	25.228
386.83	25.550
387.19	24.617
387.55	25.736
387.91	25.000
388.27	26.115
388.62	25.469
388.98	24.373
389.34	24.331
389.70	25.000
390.06	25.366
390.42	25.231
390.77	25.000
391.13	25.226
391.49	23.775
391.85	25.169
392.20	25.089
392.56	25.329
392.92	25.098
393.28	24.888
393.64	24.541
393.99	24.481
394.35	24.367
394.71	23.764
395.07	24.027
395.42	24.122
395.78	25.540
396.14	25.422
396.50	24.489
396.85	24.268
397.21	24.669
397.57	24.746
397.92	23.397
398.28	23.387
398.64	23.851
399.00	23.463
399.35	23.349
399.71	23.455
400.07	23.231
400.42	23.403
400.78	23.988
401.14	23.429
401.49	23.733
401.85	24.044
402.21	23.374
402.57	24.357
402.92	23.879
403.28	23.270
403.63	23.661
403.99	24.186
404.35	24.033
404.70	23.154
405.06	23.077
405.42	23.220
405.77	23.374
406.13	22.668
406.49	22.229
406.84	23.181
407.20	23.573
407.55	23.138
407.91	23.421
408.27	23.226
408.62	22.649
408.98	23.359
409.34	22.794
409.69	22.962
410.05	22.302
410.40	22.320
410.76	21.981
411.11	22.927
411.47	23.086
411.83	21.968
412.18	21.920
412.54	22.883
412.89	21.416
413.25	22.748
413.60	23.131
413.96	22.382
414.31	22.314
414.67	22.781
415.03	23.308
415.38	23.912
415.74	22.489
416.09	22.673
416.45	23.077
416.80	23.220
417.16	22.661
417.51	23.121
417.87	22.090
418.22	22.539
418.58	22.803
418.93	22.427
419.29	21.873
419.64	22.532
420.00	22.912
420.35	22.590
420.71	23.454
421.06	22.307
421.42	22.222
421.77	22.710
422.12	22.878
422.48	22.291
422.83	23.270
423.19	22.138
423.54	22.600
423.90	23.330
424.25	22.895
424.61	22.925
424.96	21.965
425.31	22.332
425.67	22.559
426.02	23.275
426.38	21.762
426.73	23.424
427.09	23.725
427.44	22.960
427.79	23.842
428.15	24.278
428.50	24.000
428.85	23.339
429.21	23.771
429.56	23.180
429.92	22.725
430.27	22.980
430.62	22.418
430.98	23.403
431.33	23.135
431.68	22.321
432.04	22.969
432.39	23.546
432.74	24.063
433.10	23.699
433.45	24.124
433.80	23.331
434.16	23.279
434.51	23.684
434.86	23.843
435.22	23.015
435.57	24.185
435.92	23.734
436.28	23.733
436.63	23.771
436.98	24.381
437.34	23.116
437.69	23.628
438.04	24.247
438.39	24.227
438.75	23.552
439.10	24.069
439.45	23.460
439.81	24.986
440.16	24.051
440.51	23.536
440.86	24.387
441.22	24.513
441.57	23.675
441.92	23.346
442.27	24.381
442.63	24.339
442.98	24.030
443.33	24.424
443.68	23.793
444.03	24.034
444.39	23.588
444.74	23.188
445.09	23.855
445.44	24.442
445.79	24.513
446.15	24.158
446.50	24.103
446.85	24.054
447.20	23.881
447.55	23.926
447.91	24.081
448.26	24.920
448.61	24.986
448.96	24.346
449.31	24.257
449.66	25.194
450.02	23.771
450.37	25.153
450.72	25.234
451.07	25.189
451.42	25.370
451.77	24.685
452.12	25.298
452.47	25.699
452.83	25.521
453.18	24.925
453.53	24.985
453.88	25.429
454.23	25.218
454.58	24.417
454.93	24.157
455.28	25.031
455.63	24.941
455.98	24.929
456.34	25.410
456.69	25.305
457.04	24.881
457.39	24.857
457.74	26.014
458.09	24.705
458.44	24.863
458.79	24.562
459.14	24.659
459.49	25.708
459.84	25.924
460.19	25.198
460.54	25.413
460.89	25.480
461.24	24.742
461.59	25.737
461.94	24.645
462.29	24.771
462.64	25.126
462.99	25.272
463.34	26.442
463.69	26.376
464.04	25.561
464.39	24.843
464.74	24.912
465.09	24.492
465.44	24.810
465.79	24.551
466.14	24.271
466.49	24.362
466.84	24.303
467.19	26.128
467.54	24.865
467.89	25.411
468.24	24.551
468.59	24.226
468.94	26.389
469.29	25.657
469.64	25.466
469.99	24.871
470.34	24.288
470.68	26.138
471.03	25.817
471.38	25.563
471.73	25.996
472.08	26.354
472.43	25.574
472.78	26.120
473.13	24.969
473.48	25.122
473.83	25.088
474.17	25.350
474.52	26.007
474.87	24.730
475.22	25.928
475.57	25.341
475.92	24.476
476.27	24.755
476.61	25.362
476.96	25.078
477.31	25.861
477.66	26.409
478.01	25.064
478.36	24.974
478.70	24.566
479.05	24.791
479.40	24.504
479.75	25.720
480.10	25.121
480.45	24.977
480.79	24.977
481.14	24.964
481.49	24.565
481.84	25.330
482.19	24.454
482.53	25.077
482.88	25.403
483.23	24.447
483.58	24.461
483.92	25.000
484.27	25.428
484.62	25.255
484.97	24.425
485.31	24.625
485.66	24.222
486.01	23.103
486.36	23.008
486.70	22.127
487.05	22.701
487.40	23.267
487.75	24.040
488.09	24.233
488.44	23.709
488.79	23.985
489.13	24.524
489.48	25.090
489.83	24.771
490.17	24.236
490.52	24.978
490.87	25.517
491.22	25.488
491.56	25.253
491.91	24.462
492.26	24.989
492.60	25.285
492.95	24.875
493.30	25.660
493.64	24.708
493.99	25.403
494.34	25.818
494.68	25.232
495.03	25.281
495.37	25.709
495.72	25.501
496.07	24.798
496.41	25.500
496.76	25.032
497.11	25.664
497.45	25.077
497.80	25.440
498.14	24.734
498.49	25.627
498.84	25.794
499.18	25.868
499.53	25.953
499.87	25.022
500.22	26.071
500.56	25.487
500.91	25.557
501.26	26.412
501.60	25.956
501.95	24.910
502.29	25.467
502.64	25.496
502.98	24.944
503.33	26.192
503.67	25.342
504.02	24.810
504.36	25.928
504.71	26.916
505.06	24.918
505.40	25.456
505.75	25.819
506.09	25.805
506.44	26.410
506.78	25.567
507.13	25.303
507.47	26.346
507.82	25.888
508.16	26.997
508.51	26.957
508.85	26.448
509.19	27.362
509.54	25.439
509.88	26.256
510.23	25.686
510.57	25.290
510.92	27.123
511.26	26.707
511.61	26.096
511.95	26.580
512.30	26.200
512.64	26.324
512.98	27.781
513.33	26.947
513.67	26.515
514.02	27.481
514.36	27.414
514.70	26.293
515.05	26.585
515.39	28.509
515.74	27.993
516.08	27.233
516.42	28.689
516.77	26.347
517.11	26.613
517.46	27.532
517.80	27.253
518.14	28.620
518.49	27.563
518.83	27.527
519.17	29.063
519.52	28.727
519.86	27.902
520.20	27.562
520.55	27.530
520.89	27.931
521.23	28.096
521.58	28.801
521.92	28.338
522.26	28.436
522.61	28.639
522.95	29.069
523.29	28.363
523.64	28.092
523.98	28.815
524.32	27.970
524.66	28.870
525.01	27.751
525.35	28.757
525.69	28.778
526.04	29.149
526.38	28.193
526.72	28.819
527.06	29.273
527.41	29.444
527.75	29.276
528.09	29.199
528.43	30.018
528.78	28.563
529.12	29.199
529.46	28.697
529.80	28.738
530.15	29.699
530.49	27.557
530.83	29.007
531.17	28.967
531.51	29.062
531.86	27.838
532.20	28.863
532.54	29.002
532.88	28.732
533.22	30.347
533.57	29.530
533.91	27.797
534.25	27.755
534.59	29.298
534.93	28.896
535.27	28.515
535.62	28.588
535.96	28.428
536.30	29.677
536.64	29.317
536.98	28.634
537.32	29.313
537.66	28.827
538.01	29.226
538.35	28.384
538.69	27.973
539.03	29.602
539.37	28.216
539.71	29.444
540.05	28.800
540.39	30.252
540.73	28.608
541.07	29.109
541.42	29.353
541.76	28.730
542.10	28.730
542.44	29.115
542.78	29.390
543.12	28.282
543.46	29.386
543.80	29.762
544.14	29.350
544.48	29.319
544.82	28.440
545.16	28.840
545.50	28.888
545.84	29.104
546.18	31.144
546.52	30.492
546.86	29.916
547.20	28.295
547.54	29.512
547.88	29.440
548.22	28.719
548.56	28.698
548.90	27.936
549.24	29.248
549.58	29.059
549.92	29.797
550.26	29.344
550.60	29.474
550.94	29.919
551.28	30.552
551.62	30.690
551.96	29.459
552.30	29.202
552.64	29.450
552.98	28.995
553.32	29.770
553.66	29.577
554.00	29.215
554.34	29.827
554.68	30.376
555.02	30.143
555.36	29.920
555.69	29.712
556.03	29.873
556.37	30.019
556.71	31.356
557.05	28.702
557.39	30.333
557.73	30.795
558.07	30.181
558.41	30.775
558.75	30.369
559.08	31.594
559.42	31.281
559.76	31.361
560.10	30.145
560.44	30.060
560.78	31.394
561.12	29.752
561.45	28.411
561.79	30.275
562.13	29.627
562.47	30.629
562.81	30.644
563.15	31.092
563.48	29.627
563.82	29.258
564.16	30.784
564.50	29.476
564.84	30.578
565.17	29.828
565.51	30.911
565.85	30.167
566.19	29.524
566.52	29.844
566.86	30.648
567.20	29.719
567.54	28.876
567.88	30.569
568.21	29.656
568.55	29.572
568.89	29.060
569.23	28.387
569.56	29.313
569.90	28.171
570.24	27.973
570.57	27.774
570.91	27.551
571.25	27.639
571.59	27.129
571.92	26.507
572.26	26.307
572.60	26.854
572.93	27.228
573.27	26.967
573.61	26.773
573.95	27.191
574.28	27.242
574.62	26.525
574.96	26.537
575.29	26.353
575.63	26.078
575.97	26.509
576.30	26.373
576.64	26.368
576.98	26.631
577.31	27.413
577.65	26.801
577.98	26.477
578.32	26.338
578.66	26.575
578.99	27.208
579.33	27.064
579.67	26.725
580.00	26.301
580.34	26.486
580.67	26.801
581.01	27.343
581.35	26.993
581.68	26.438
582.02	26.542
582.35	26.502
582.69	26.833
583.02	26.704
583.36	26.872
583.70	27.484
584.03	28.039
584.37	28.067
584.70	27.320
585.04	27.433
585.37	27.457
585.71	27.461
586.04	27.402
586.38	27.795
586.72	28.134
587.05	28.204
587.39	27.358
587.72	27.738
588.06	27.936
588.39	27.636
588.73	27.595
589.06	28.655
589.40	29.139
589.73	28.745
590.07	29.375
590.40	29.547
590.73	30.701
591.07	29.374
591.40	29.780
591.74	29.748
592.07	29.201
592.41	29.616
592.74	29.037
593.08	28.841
593.41	28.336
593.75	28.287
594.08	28.919
594.41	29.326
594.75	29.110
595.08	29.527
595.42	29.164
595.75	29.615
596.09	30.031
596.42	29.388
596.75	30.609
597.09	30.169
597.42	30.163
597.75	30.791
598.09	29.914
598.42	29.988
598.76	29.607
599.09	30.452
599.42	29.377
599.76	30.156
600.09	29.085
600.42	29.523
600.76	29.232
601.09	29.962
601.42	29.778
601.76	28.965
602.09	29.581
602.42	29.908
602.76	29.753
603.09	30.128
603.42	30.349
603.76	29.935
604.09	29.678
604.42	29.454
604.76	30.225
605.09	30.408
605.42	30.150
605.75	30.833
606.09	30.031
606.42	29.989
606.75	31.014
607.09	29.807
607.42	30.735
607.75	30.295
608.08	30.504
608.42	30.663
608.75	29.354
609.08	30.752
609.41	31.364
609.75	31.044
610.08	31.475
610.41	30.698
610.74	30.606
611.07	31.287
611.41	32.067
611.74	31.166
612.07	31.069
612.40	31.189
612.73	31.802
613.07	31.982
613.40	32.130
613.73	31.653
614.06	31.150
614.39	30.808
614.72	31.341
615.06	30.712
615.39	30.990
615.72	30.929
616.05	31.542
616.38	30.644
616.71	30.440
617.05	31.576
617.38	31.910
617.71	32.677
618.04	31.632
618.37	32.351
618.70	33.025
619.03	32.540
619.36	32.601
619.69	31.992
620.03	33.464
620.36	33.269
620.69	33.908
621.02	33.764
621.35	33.166
621.68	34.145
622.01	34.760
622.34	32.411
622.67	33.919
623.00	32.743
623.33	33.738
623.66	32.868
623.99	33.904
624.32	33.130
624.65	33.048
624.99	34.956
625.32	34.536
625.65	32.690
625.98	33.543
626.31	34.050
626.64	32.954
626.97	33.282
627.30	34.627
627.63	35.086
627.96	34.272
628.29	34.241
628.62	33.875
628.95	34.840
629.28	36.284
629.61	34.798
629.94	33.967
630.26	35.095
630.59	37.500
630.92	35.785
631.25	36.083
