SpectraSuite Data File
++++++++++++++++++++++++++++++++++++
Date: Tue May 12 15:16:31 PDT 2015
User: schluterlab
Dark Spectrum Present: Yes
Reference Spectrum Present: Yes
Number of Sampled Component Spectra: 1
Spectrometers: USB2E3373
Integration Time (usec): 3000 (USB2E3373)
Spectra Averaged: 3 (USB2E3373)
Boxcar Smoothing: 0 (USB2E3373)
Correct for Electrical Dark: No (USB2E3373)
Strobe/Lamp Enabled: No (USB2E3373)
Correct for Detector Non-linearity: No (USB2E3373)
Correct for Stray Light: No (USB2E3373)
Number of Pixels in Processed Spectrum: 2048
>>>>>Begin Processed Spectral Data<<<<<
178.53	0.000
178.91	-158.333
179.29	-825.000
179.67	-3300.000
180.04	-80.000
180.42	650.000
180.80	1700.000
181.18	0.000
181.56	-375.000
181.94	0.000
182.31	1100.000
182.69	-2200.000
183.07	485.714
183.45	-3300.000
183.83	-1400.000
184.20	330.000
184.58	442.857
184.96	-261.538
185.34	-191.667
185.72	1900.000
186.09	-725.000
186.47	-2800.000
186.85	900.000
187.23	560.000
187.61	1550.000
187.98	425.000
188.36	292.857
188.74	333.333
189.12	316.667
189.49	700.000
189.87	0.000
190.25	475.000
190.63	2000.000
191.00	-175.000
191.38	-2500.000
191.76	-825.000
192.14	425.000
192.51	-2000.000
192.89	1400.000
193.27	900.000
193.65	-800.000
194.02	-700.000
194.40	471.429
194.78	-214.286
195.15	180.000
195.53	-1900.000
195.91	-560.000
196.29	3900.000
196.66	250.000
197.04	850.000
197.42	-1450.000
197.79	475.000
198.17	291.667
198.55	0.000
198.92	314.286
199.30	1000.000
199.68	1900.000
200.05	650.000
200.43	-400.000
200.81	211.111
201.18	3500.000
201.56	241.667
201.94	-550.000
202.31	-312.500
202.69	-440.000
203.07	3800.000
203.44	-433.333
203.82	233.333
204.19	720.000
204.57	-750.000
204.95	-725.000
205.32	-800.000
205.70	583.333
206.08	875.000
206.45	-833.333
206.83	422.222
207.20	200.000
207.58	300.000
207.96	600.000
208.33	0.000
208.71	600.000
209.08	640.000
209.46	-2900.000
209.84	-725.000
210.21	820.000
210.59	-320.000
210.96	266.667
211.34	-1050.000
211.71	345.455
212.09	775.000
212.46	1850.000
212.84	-333.333
213.22	344.444
213.59	-1600.000
213.97	270.000
214.34	750.000
214.72	966.667
215.09	700.000
215.47	-3000.000
215.84	-230.000
216.22	-337.500
216.59	0.000
216.97	0.000
217.34	1100.000
217.72	-1400.000
218.09	966.667
218.47	412.500
218.84	500.000
219.22	1266.667
219.59	800.000
219.97	428.571
220.34	377.778
220.72	1200.000
221.09	2900.000
221.47	291.667
221.84	900.000
222.22	410.000
222.59	211.111
222.97	171.429
223.34	218.750
223.72	-1150.000
224.09	1133.333
224.46	261.538
224.84	-800.000
225.21	322.222
225.59	233.333
225.96	1133.333
226.34	-540.000
226.71	-700.000
227.08	-500.000
227.46	0.000
227.83	-533.333
228.21	-1950.000
228.58	341.667
228.95	750.000
229.33	355.556
229.70	950.000
230.08	315.385
230.45	3500.000
230.82	-675.000
231.20	-666.667
231.57	-933.333
231.95	480.000
232.32	225.000
232.69	533.333
233.07	258.333
233.44	-1450.000
233.81	286.667
234.19	140.741
234.56	200.000
234.93	170.588
235.31	210.000
235.68	187.500
236.05	175.000
236.43	103.704
236.80	342.857
237.17	162.069
237.55	87.500
237.92	115.000
238.29	127.273
238.67	131.250
239.04	129.268
239.41	81.250
239.79	87.500
240.16	95.833
240.53	81.967
240.91	81.159
241.28	100.000
241.65	81.818
242.02	85.915
242.40	94.286
242.77	70.330
243.14	75.949
243.51	68.687
243.89	58.879
244.26	57.944
244.63	73.267
245.00	60.550
245.38	64.407
245.75	58.333
246.12	68.889
246.49	56.028
246.87	58.197
247.24	54.000
247.61	53.750
247.98	63.265
248.36	59.394
248.73	60.204
249.10	57.143
249.47	51.500
249.84	51.244
250.22	57.838
250.59	57.000
250.96	48.101
251.33	50.698
251.70	55.357
252.08	50.840
252.45	46.215
252.82	41.445
253.19	48.617
253.56	48.077
253.94	46.739
254.31	50.000
254.68	44.948
255.05	46.207
255.42	45.620
255.79	47.883
256.16	48.475
256.54	48.052
256.91	47.386
257.28	47.492
257.65	42.320
258.02	42.478
258.39	46.705
258.76	45.797
259.14	42.000
259.51	46.647
259.88	47.416
260.25	44.505
260.62	46.849
260.99	42.149
261.36	45.961
261.73	42.819
262.10	44.503
262.47	45.000
262.85	41.333
263.22	44.216
263.59	42.455
263.96	40.852
264.33	42.469
264.70	43.489
265.07	42.439
265.44	42.431
265.81	40.330
266.18	44.394
266.55	43.735
266.92	40.940
267.29	42.763
267.66	38.565
268.03	41.031
268.40	39.323
268.77	43.172
269.14	40.347
269.51	41.203
269.88	40.816
270.25	39.525
270.62	39.700
270.99	40.365
271.36	42.683
271.73	38.994
272.10	39.798
272.47	39.087
272.84	39.521
273.21	40.083
273.58	42.105
273.95	41.889
274.32	38.327
274.69	41.535
275.06	39.162
275.43	39.080
275.80	40.189
276.17	38.235
276.54	40.000
276.91	40.672
277.28	39.599
277.65	39.299
278.02	38.603
278.39	36.871
278.76	40.172
279.13	38.612
279.50	40.182
279.87	37.989
280.23	38.490
280.60	40.328
280.97	39.483
281.34	37.459
281.71	38.261
282.08	37.778
282.45	40.034
282.82	37.124
283.19	37.997
283.56	37.355
283.92	39.902
284.29	36.439
284.66	37.479
285.03	38.308
285.40	37.355
285.77	37.654
286.14	37.771
286.51	38.650
286.87	36.867
287.24	36.486
287.61	39.210
287.98	37.463
288.35	37.778
288.72	35.812
289.08	36.937
289.45	37.195
289.82	37.969
290.19	37.775
290.56	37.991
290.93	38.705
291.29	35.773
291.66	38.842
292.03	35.344
292.40	38.482
292.77	37.883
293.13	38.659
293.50	37.517
293.87	37.263
294.24	38.182
294.60	38.627
294.97	39.580
295.34	38.380
295.71	37.451
296.08	38.533
296.44	36.468
296.81	37.965
297.18	39.037
297.55	39.901
297.91	36.084
298.28	37.681
298.65	35.460
299.02	38.118
299.38	37.650
299.75	36.220
300.12	37.041
300.48	39.227
300.85	38.617
301.22	38.605
301.59	38.208
301.95	38.856
302.32	39.115
302.69	39.593
303.05	38.496
303.42	37.668
303.79	39.220
304.15	37.734
304.52	37.315
304.89	37.420
305.25	38.376
305.62	39.446
305.99	37.935
306.35	38.842
306.72	39.230
307.09	39.752
307.45	39.599
307.82	38.683
308.19	39.381
308.55	39.300
308.92	38.273
309.29	41.124
309.65	40.436
310.02	41.278
310.38	40.179
310.75	40.598
311.12	39.847
311.48	42.375
311.85	40.935
312.22	40.497
312.58	41.594
312.95	42.816
313.31	41.573
313.68	41.745
314.05	42.949
314.41	41.993
314.78	41.951
315.14	43.223
315.51	43.330
315.87	41.241
316.24	43.791
316.61	42.346
316.97	42.569
317.34	44.205
317.70	45.391
318.07	44.929
318.43	44.991
318.80	45.184
319.16	45.280
319.53	46.283
319.89	44.265
320.26	46.462
320.62	46.703
320.99	46.044
321.35	46.104
321.72	46.205
322.08	46.722
322.45	46.412
322.81	46.661
323.18	47.069
323.54	47.822
323.91	48.957
324.27	49.248
324.64	49.827
325.00	49.655
325.37	49.663
325.73	49.663
326.10	51.367
326.46	50.619
326.83	48.320
327.19	51.245
327.56	48.403
327.92	51.148
328.29	50.245
328.65	52.226
329.01	50.043
329.38	51.777
329.74	51.751
330.11	51.434
330.47	51.918
330.84	49.353
331.20	50.592
331.56	52.591
331.93	51.326
332.29	51.871
332.66	52.126
333.02	50.430
333.38	51.571
333.75	51.376
334.11	51.342
334.48	51.624
334.84	51.351
335.20	51.155
335.57	51.134
335.93	51.472
336.29	50.000
336.66	53.516
337.02	50.299
337.38	51.763
337.75	50.929
338.11	52.743
338.47	51.905
338.84	51.651
339.20	52.641
339.56	52.565
339.93	51.338
340.29	50.504
340.65	50.880
341.02	49.960
341.38	51.232
341.74	51.163
342.11	51.419
342.47	50.615
342.83	52.420
343.20	50.849
343.56	49.643
343.92	51.115
344.28	52.233
344.65	52.567
345.01	50.079
345.37	50.881
345.73	51.984
346.10	51.155
346.46	51.754
346.82	50.694
347.19	52.473
347.55	50.976
347.91	52.568
348.27	49.884
348.63	53.085
349.00	51.866
349.36	50.895
349.72	51.758
350.08	52.950
350.45	50.571
350.81	53.440
351.17	51.849
351.53	54.042
351.89	51.671
352.26	51.247
352.62	53.092
352.98	51.534
353.34	52.388
353.70	51.606
354.07	52.692
354.43	52.151
354.79	51.936
355.15	53.063
355.51	53.399
355.87	53.916
356.24	53.734
356.60	53.425
356.96	54.056
357.32	54.710
357.68	53.524
358.04	54.407
358.40	53.598
358.77	55.222
359.13	53.829
359.49	54.411
359.85	54.579
360.21	53.640
360.57	54.818
360.93	53.463
361.29	54.401
361.66	56.450
362.02	53.622
362.38	55.772
362.74	54.282
363.10	54.488
363.46	55.387
363.82	55.680
364.18	56.117
364.54	55.508
364.90	54.752
365.26	56.905
365.62	56.215
365.98	55.816
366.35	56.138
366.71	56.419
367.07	55.904
367.43	57.488
367.79	56.383
368.15	55.699
368.51	56.651
368.87	55.842
369.23	57.658
369.59	57.114
369.95	56.573
370.31	56.057
370.67	57.876
371.03	57.843
371.39	58.310
371.75	58.618
372.11	58.600
372.47	57.671
372.83	59.415
373.19	59.904
373.55	58.557
373.91	57.113
374.27	57.474
374.63	59.051
374.99	58.962
375.35	58.669
375.71	60.422
376.07	58.687
376.42	57.864
376.78	59.987
377.14	59.174
377.50	59.426
377.86	59.577
378.22	60.451
378.58	61.925
378.94	60.833
379.30	60.279
379.66	59.904
380.02	59.883
380.38	61.007
380.74	60.957
381.09	61.157
381.45	58.786
381.81	60.638
382.17	60.684
382.53	61.728
382.89	60.733
383.25	60.213
383.61	60.231
383.97	61.968
384.32	60.398
384.68	61.497
385.04	62.134
385.40	62.218
385.76	61.791
386.12	61.534
386.48	62.553
386.83	63.264
387.19	61.131
387.55	61.425
387.91	60.739
388.27	63.712
388.62	62.031
388.98	60.233
389.34	60.321
389.70	62.087
390.06	62.927
390.42	61.814
390.77	62.408
391.13	63.126
391.49	61.343
391.85	63.200
392.20	62.455
392.56	61.888
392.92	62.044
393.28	61.547
393.64	62.500
393.99	61.114
394.35	62.036
394.71	62.364
395.07	60.827
395.42	62.061
395.78	62.554
396.14	61.867
396.50	62.274
396.85	61.341
397.21	61.131
397.57	61.686
397.92	60.023
398.28	61.445
398.64	61.315
399.00	61.037
399.35	60.386
399.71	60.596
400.07	60.616
400.42	62.388
400.78	60.704
401.14	61.069
401.49	61.060
401.85	60.429
402.21	60.750
402.57	61.700
402.92	61.394
403.28	59.964
403.63	59.211
403.99	60.012
404.35	60.903
404.70	60.780
405.06	59.012
405.42	59.545
405.77	59.537
406.13	59.870
406.49	58.727
406.84	59.673
407.20	60.331
407.55	59.815
407.91	61.455
408.27	59.673
408.62	60.438
408.98	59.551
409.34	58.621
409.69	58.743
410.05	58.318
410.40	59.364
410.76	58.214
411.11	58.116
411.47	58.519
411.83	58.465
412.18	60.266
412.54	59.700
412.89	58.230
413.25	58.552
413.60	59.054
413.96	59.785
414.31	58.619
414.67	59.901
415.03	59.387
415.38	59.369
415.74	59.381
416.09	58.838
416.45	59.858
416.80	60.423
417.16	59.198
417.51	59.299
417.87	58.511
418.22	58.991
418.58	60.255
418.93	59.250
419.29	58.718
419.64	58.934
420.00	59.845
420.35	59.233
420.71	58.810
421.06	58.623
421.42	60.507
421.77	59.911
422.12	60.088
422.48	59.373
422.83	59.933
423.19	57.883
423.54	60.724
423.90	60.362
424.25	61.145
424.61	60.244
424.96	59.571
425.31	61.084
425.67	60.831
426.02	61.357
426.38	59.860
426.73	61.307
427.09	61.625
427.44	61.564
427.79	61.349
428.15	63.288
428.50	62.457
428.85	62.963
429.21	60.238
429.56	61.565
429.92	60.965
430.27	61.151
430.62	60.157
430.98	59.830
431.33	60.786
431.68	60.346
432.04	60.476
432.39	61.361
432.74	63.349
433.10	61.683
433.45	63.527
433.80	63.707
434.16	60.746
434.51	62.074
434.86	62.330
435.22	62.831
435.57	61.707
435.92	63.973
436.28	62.903
436.63	63.263
436.98	63.851
437.34	62.386
437.69	62.094
438.04	62.151
438.39	61.938
438.75	62.472
439.10	63.357
439.45	62.182
439.81	64.025
440.16	62.356
440.51	63.176
440.86	63.704
441.22	61.797
441.57	64.882
441.92	61.994
442.27	61.649
442.63	62.093
442.98	62.284
443.33	62.667
443.68	62.777
444.03	62.111
444.39	62.524
444.74	62.060
445.09	62.191
445.44	62.380
445.79	62.037
446.15	62.053
446.50	63.608
446.85	62.699
447.20	62.637
447.55	63.513
447.91	63.239
448.26	62.407
448.61	63.350
448.96	63.453
449.31	63.366
449.66	62.791
450.02	61.750
450.37	63.853
450.72	63.526
451.07	61.664
451.42	62.241
451.77	62.085
452.12	62.394
452.47	62.151
452.83	63.155
453.18	61.862
453.53	63.884
453.88	62.800
454.23	63.103
454.58	62.121
454.93	61.312
455.28	64.259
455.63	63.121
455.98	61.703
456.34	64.195
456.69	63.171
457.04	62.351
457.39	62.743
457.74	62.782
458.09	60.415
458.44	61.446
458.79	61.857
459.14	61.975
459.49	61.382
459.84	63.098
460.19	62.486
460.54	61.481
460.89	62.367
461.24	59.794
461.59	62.245
461.94	60.934
462.29	62.815
462.64	62.751
462.99	61.676
463.34	60.531
463.69	61.525
464.04	62.349
464.39	62.335
464.74	59.965
465.09	60.592
465.44	60.936
465.79	60.806
466.14	59.141
466.49	61.584
466.84	59.810
467.19	60.691
467.54	60.120
467.89	60.446
468.24	60.220
468.59	60.714
468.94	60.688
469.29	59.010
469.64	61.158
469.99	60.925
470.34	61.037
470.68	60.276
471.03	60.774
471.38	60.530
471.73	61.071
472.08	62.427
472.43	60.832
472.78	61.268
473.13	59.700
473.48	59.841
473.83	60.365
474.17	61.277
474.52	59.123
474.87	59.579
475.22	60.080
475.57	59.129
475.92	58.866
476.27	58.542
476.61	58.338
476.96	57.994
477.31	59.023
477.66	60.977
478.01	58.432
478.36	58.342
478.70	58.164
479.05	59.990
479.40	59.425
479.75	60.526
480.10	58.616
480.45	58.450
480.79	58.387
481.14	58.678
481.49	56.862
481.84	57.124
482.19	57.642
482.53	56.610
482.88	57.751
483.23	57.104
483.58	57.855
483.92	58.547
484.27	56.721
484.62	57.088
484.97	55.707
485.31	56.610
485.66	55.430
486.01	54.204
486.36	52.773
486.70	51.603
487.05	53.198
487.40	53.134
487.75	54.461
488.09	55.142
488.44	55.194
488.79	55.710
489.13	56.215
489.48	55.294
489.83	55.838
490.17	54.872
490.52	55.599
490.87	55.431
491.22	55.984
491.56	55.468
491.91	54.973
492.26	55.679
492.60	56.629
492.95	56.230
493.30	55.460
493.64	55.615
493.99	55.143
494.34	55.670
494.68	56.485
495.03	54.827
495.37	55.425
495.72	55.991
496.07	55.121
496.41	55.126
496.76	54.960
497.11	54.327
497.45	53.573
497.80	55.190
498.14	55.432
498.49	55.014
498.84	54.860
499.18	53.656
499.53	56.270
499.87	54.313
500.22	53.524
500.56	55.153
500.91	55.473
501.26	54.938
501.60	53.825
501.95	53.898
502.29	52.800
502.64	53.198
502.98	52.735
503.33	53.586
503.67	52.980
504.02	52.082
504.36	53.258
504.71	54.352
505.06	54.528
505.40	53.767
505.75	52.853
506.09	53.990
506.44	53.008
506.78	54.395
507.13	53.757
507.47	53.906
507.82	53.917
508.16	54.777
508.51	53.527
508.85	53.799
509.19	53.402
509.54	53.369
509.88	54.500
510.23	53.627
510.57	52.172
510.92	53.197
511.26	53.715
511.61	51.748
511.95	51.518
512.30	52.450
512.64	51.869
512.98	52.178
513.33	52.818
513.67	51.735
514.02	52.831
514.36	53.167
514.70	53.120
515.05	52.424
515.39	52.741
515.74	53.745
516.08	52.614
516.42	54.536
516.77	51.947
517.11	52.053
517.46	51.131
517.80	52.267
518.14	53.183
518.49	51.874
518.83	51.978
519.17	52.357
519.52	52.594
519.86	52.807
520.20	52.986
520.55	51.894
520.89	51.897
521.23	52.862
521.58	52.094
521.92	52.187
522.26	52.844
522.61	52.941
522.95	53.333
523.29	51.930
523.64	51.734
523.98	52.641
524.32	52.249
524.66	51.014
525.01	51.302
525.35	51.797
525.69	53.221
526.04	52.052
526.38	52.855
526.72	51.969
527.06	50.325
527.41	52.056
527.75	52.343
528.09	51.054
528.43	51.739
528.78	51.401
529.12	52.137
529.46	50.263
529.80	49.766
530.15	50.324
530.49	49.338
530.83	51.066
531.17	51.845
531.51	51.073
531.86	50.302
532.20	50.247
532.54	51.099
532.88	49.844
533.22	50.091
533.57	50.580
533.91	48.776
534.25	48.644
534.59	49.006
534.93	47.327
535.27	48.606
535.62	48.891
535.96	48.759
536.30	50.518
536.64	48.820
536.98	49.969
537.32	49.000
537.66	47.449
538.01	49.659
538.35	49.906
538.69	47.451
539.03	47.450
539.37	47.391
539.71	48.519
540.05	47.323
540.39	48.553
540.73	49.114
541.07	48.055
541.42	47.637
541.76	47.719
542.10	46.794
542.44	46.883
542.78	48.018
543.12	45.828
543.46	47.556
543.80	47.744
544.14	46.935
544.48	47.263
544.82	46.850
545.16	45.659
545.50	47.449
545.84	47.538
546.18	47.269
546.52	47.607
546.86	47.518
547.20	46.899
547.54	46.738
547.88	45.864
548.22	46.873
548.56	45.846
548.90	44.958
549.24	45.989
549.58	45.232
549.92	46.103
550.26	47.532
550.60	47.039
550.94	48.033
551.28	48.414
551.62	48.897
551.96	46.216
552.30	46.341
552.64	47.249
552.98	45.168
553.32	45.583
553.66	47.427
554.00	45.624
554.34	47.071
554.68	46.371
555.02	46.164
555.36	45.745
555.69	45.026
556.03	45.605
556.37	44.997
556.71	44.589
557.05	44.364
557.39	45.333
557.73	45.283
558.07	45.540
558.41	45.990
558.75	46.306
559.08	46.962
559.42	45.598
559.76	46.900
560.10	44.804
560.44	45.388
560.78	45.269
561.12	45.137
561.45	43.930
561.79	43.945
562.13	43.399
562.47	44.906
562.81	44.958
563.15	44.409
563.48	43.168
563.82	44.978
564.16	44.838
564.50	42.978
564.84	44.012
565.17	43.613
565.51	44.643
565.85	44.294
566.19	43.036
566.52	43.321
566.86	44.367
567.20	43.202
567.54	43.122
567.88	42.827
568.21	41.238
568.55	41.683
568.89	41.104
569.23	40.035
569.56	40.575
569.90	38.591
570.24	39.523
570.57	38.644
570.91	37.816
571.25	37.693
571.59	37.310
571.92	36.760
572.26	36.981
572.60	37.156
572.93	38.154
573.27	37.335
573.61	36.952
573.95	36.703
574.28	36.500
574.62	36.050
574.96	35.714
575.29	35.318
575.63	35.995
575.97	35.930
576.30	35.890
576.64	36.098
576.98	35.500
577.31	36.260
577.65	35.631
577.98	35.193
578.32	34.841
578.66	34.856
578.99	34.571
579.33	34.980
579.67	35.218
580.00	35.726
580.34	35.047
580.67	35.861
581.01	35.155
581.35	34.764
581.68	34.412
582.02	34.461
582.35	34.917
582.69	34.703
583.02	34.377
583.36	35.478
583.70	35.163
584.03	36.117
584.37	35.790
584.70	36.128
585.04	35.308
585.37	34.648
585.71	34.854
586.04	35.157
586.38	34.881
586.72	35.187
587.05	35.512
587.39	35.221
587.72	35.155
588.06	34.368
588.39	35.287
588.73	35.740
589.06	34.987
589.40	36.682
589.73	35.595
590.07	36.445
590.40	36.794
590.73	37.642
591.07	36.660
591.40	37.325
591.74	37.256
592.07	36.564
592.41	36.531
592.74	36.141
593.08	35.189
593.41	34.800
593.75	34.758
594.08	34.586
594.41	34.800
594.75	35.993
595.08	35.494
595.42	35.813
595.75	35.341
596.09	35.627
596.42	36.089
596.75	36.298
597.09	36.814
597.42	37.102
597.75	35.781
598.09	35.371
598.42	35.129
598.76	35.042
599.09	35.417
599.42	35.017
599.76	34.600
600.09	34.407
600.42	35.359
600.76	34.568
601.09	34.242
601.42	33.967
601.76	34.945
602.09	34.842
602.42	35.157
602.76	34.839
603.09	35.935
603.42	35.339
603.76	34.852
604.09	34.383
604.42	33.898
604.76	35.796
605.09	35.102
605.42	35.392
605.75	34.465
606.09	34.889
606.42	34.423
606.75	34.318
607.09	34.465
607.42	34.793
607.75	33.957
608.08	34.931
608.42	34.522
608.75	33.804
609.08	35.680
609.41	34.773
609.75	35.485
610.08	35.252
610.41	35.090
610.74	34.719
611.07	35.380
611.41	35.357
611.74	36.233
612.07	36.224
612.40	36.111
612.73	35.647
613.07	34.921
613.40	35.539
613.73	35.247
614.06	34.100
614.39	35.960
614.72	35.409
615.06	33.333
615.39	35.446
615.72	34.995
616.05	35.359
616.38	35.109
616.71	35.811
617.05	34.267
617.38	35.112
617.71	35.658
618.04	36.007
618.37	34.630
618.70	35.970
619.03	36.142
619.36	36.935
619.69	36.741
620.03	38.356
620.36	36.545
620.69	37.867
621.02	37.432
621.35	36.605
621.68	38.053
622.01	38.303
622.34	36.344
622.67	36.868
623.00	36.283
623.33	36.977
623.66	36.460
623.99	37.123
624.32	35.569
624.65	36.208
624.99	36.849
625.32	37.208
625.65	35.448
625.98	36.192
626.31	37.315
626.64	36.598
626.97	37.643
627.30	38.587
627.63	38.697
627.96	36.933
628.29	38.284
628.62	37.126
628.95	39.539
629.28	39.176
629.61	38.313
629.94	38.202
630.26	38.128
630.59	36.791
630.92	37.937
631.25	38.985
