SpectraSuite Data File
++++++++++++++++++++++++++++++++++++
Date: Tue May 12 17:15:27 PDT 2015
User: schluterlab
Dark Spectrum Present: Yes
Reference Spectrum Present: Yes
Number of Sampled Component Spectra: 1
Spectrometers: USB2E3373
Integration Time (usec): 3000 (USB2E3373)
Spectra Averaged: 3 (USB2E3373)
Boxcar Smoothing: 0 (USB2E3373)
Correct for Electrical Dark: No (USB2E3373)
Strobe/Lamp Enabled: No (USB2E3373)
Correct for Detector Non-linearity: No (USB2E3373)
Correct for Stray Light: No (USB2E3373)
Number of Pixels in Processed Spectrum: 2048
>>>>>Begin Processed Spectral Data<<<<<
178.53	0.000
178.91	-175.000
179.29	-675.000
179.67	-2900.000
180.04	-100.000
180.42	600.000
180.80	1750.000
181.18	0.000
181.56	-387.500
181.94	0.000
182.31	1233.333
182.69	-2800.000
183.07	585.714
183.45	-3700.000
183.83	-1450.000
184.20	330.000
184.58	542.857
184.96	-238.462
185.34	-208.333
185.72	1800.000
186.09	-775.000
186.47	-2700.000
186.85	900.000
187.23	480.000
187.61	1900.000
187.98	450.000
188.36	257.143
188.74	266.667
189.12	358.333
189.49	650.000
189.87	0.000
190.25	462.500
190.63	2400.000
191.00	-266.667
191.38	-3600.000
191.76	-800.000
192.14	512.500
192.51	-2600.000
192.89	1850.000
193.27	1166.667
193.65	-1100.000
194.02	-620.000
194.40	457.143
194.78	-207.143
195.15	280.000
195.53	-2900.000
195.91	-500.000
196.29	2900.000
196.66	243.750
197.04	825.000
197.42	-1250.000
197.79	600.000
198.17	258.333
198.55	0.000
198.92	500.000
199.30	1333.333
199.68	1900.000
200.05	650.000
200.43	-466.667
200.81	166.667
201.18	3000.000
201.56	225.000
201.94	-700.000
202.31	-375.000
202.69	-560.000
203.07	3700.000
203.44	-583.333
203.82	325.000
204.19	860.000
204.57	-1700.000
204.95	-700.000
205.32	-740.000
205.70	516.667
206.08	575.000
206.45	-933.333
206.83	366.667
207.20	221.053
207.58	258.333
207.96	760.000
208.33	0.000
208.71	585.714
209.08	700.000
209.46	-2800.000
209.84	-750.000
210.21	760.000
210.59	-520.000
210.96	308.333
211.34	-875.000
211.71	390.909
212.09	950.000
212.46	1700.000
212.84	-383.333
213.22	322.222
213.59	-2200.000
213.97	350.000
214.34	650.000
214.72	1100.000
215.09	933.333
215.47	-3300.000
215.84	-370.000
216.22	-312.500
216.59	0.000
216.97	0.000
217.34	1100.000
217.72	-1700.000
218.09	933.333
218.47	400.000
218.84	825.000
219.22	1100.000
219.59	966.667
219.97	471.429
220.34	288.889
220.72	1650.000
221.09	2400.000
221.47	225.000
221.84	966.667
222.22	280.000
222.59	316.667
222.97	221.429
223.34	187.500
223.72	-1550.000
224.09	1333.333
224.46	323.077
224.84	-700.000
225.21	411.111
225.59	246.667
225.96	1200.000
226.34	-640.000
226.71	-775.000
227.08	-660.000
227.46	0.000
227.83	-433.333
228.21	-1450.000
228.58	433.333
228.95	1025.000
229.33	344.444
229.70	925.000
230.08	369.231
230.45	3300.000
230.82	-600.000
231.20	-800.000
231.57	-900.000
231.95	500.000
232.32	225.000
232.69	533.333
233.07	216.667
233.44	-1250.000
233.81	233.333
234.19	151.852
234.56	231.250
234.93	129.412
235.31	180.000
235.68	143.750
236.05	114.286
236.43	148.148
236.80	185.714
237.17	127.586
237.55	106.250
237.92	87.500
238.29	96.970
238.67	121.875
239.04	80.488
239.41	47.917
239.79	47.500
240.16	54.167
240.53	50.820
240.91	44.928
241.28	49.153
241.65	46.970
242.02	52.113
242.40	48.571
242.77	50.549
243.14	30.380
243.51	45.455
243.89	30.841
244.26	30.841
244.63	32.673
245.00	26.606
245.38	24.576
245.75	19.697
246.12	25.185
246.49	21.986
246.87	18.852
247.24	24.667
247.61	28.125
247.98	17.007
248.36	17.576
248.73	21.429
249.10	10.714
249.47	18.000
249.84	18.408
250.22	15.135
250.59	19.500
250.96	16.878
251.33	16.744
251.70	17.411
252.08	14.706
252.45	14.343
252.82	14.829
253.19	11.462
253.56	10.769
253.94	13.406
254.31	12.403
254.68	12.195
255.05	14.138
255.42	10.584
255.79	12.052
256.16	11.525
256.54	12.013
256.91	11.765
257.28	10.702
257.65	6.897
258.02	8.850
258.39	14.040
258.76	10.435
259.14	8.000
259.51	11.662
259.88	11.854
260.25	7.692
260.62	12.603
260.99	6.336
261.36	6.407
261.73	9.309
262.10	10.995
262.47	8.750
262.85	7.467
263.22	9.254
263.59	9.463
263.96	9.273
264.33	7.901
264.70	10.319
265.07	9.512
265.44	11.009
265.81	8.255
266.18	9.153
266.55	8.747
266.92	9.396
267.29	8.333
267.66	8.520
268.03	5.381
268.40	7.400
268.77	9.251
269.14	7.375
269.51	6.904
269.88	10.000
270.25	5.184
270.62	4.721
270.99	7.302
271.36	10.163
271.73	6.080
272.10	7.071
272.47	6.944
272.84	5.589
273.21	6.198
273.58	8.704
273.95	6.571
274.32	8.366
274.69	8.661
275.06	7.468
275.43	8.046
275.80	6.226
276.17	7.904
276.54	8.037
276.91	7.090
277.28	7.299
277.65	7.011
278.02	5.331
278.39	6.655
278.76	5.690
279.13	6.584
279.50	5.636
279.87	4.097
280.23	5.157
280.60	5.839
280.97	7.931
281.34	6.601
281.71	6.261
282.08	7.009
282.45	4.561
282.82	6.522
283.19	7.313
283.56	7.603
283.92	5.375
284.29	6.489
284.66	6.555
285.03	5.970
285.40	5.785
285.77	4.938
286.14	7.276
286.51	6.748
286.87	5.380
287.24	4.505
287.61	6.079
287.98	4.179
288.35	4.444
288.72	5.311
289.08	6.607
289.45	5.640
289.82	5.469
290.19	5.564
290.56	7.278
290.93	5.899
291.29	6.077
291.66	5.226
292.03	5.189
292.40	5.691
292.77	3.760
293.13	5.278
293.50	4.184
293.87	5.556
294.24	5.594
294.60	5.384
294.97	5.035
295.34	4.250
295.71	5.388
296.08	5.067
296.44	4.320
296.81	5.087
297.18	2.788
297.55	4.187
297.91	3.202
298.28	5.072
298.65	4.908
299.02	4.222
299.38	4.676
299.75	3.780
300.12	6.078
300.48	5.386
300.85	4.887
301.22	4.535
301.59	2.948
301.95	4.201
302.32	4.889
302.69	5.656
303.05	5.836
303.42	4.596
303.79	4.225
304.15	3.410
304.52	5.920
304.89	4.264
305.25	4.894
305.62	5.437
305.99	4.457
306.35	3.895
306.72	3.954
307.09	4.658
307.45	4.224
307.82	4.835
308.19	4.536
308.55	4.400
308.92	4.809
309.29	5.621
309.65	4.658
310.02	3.753
310.38	3.589
310.75	3.954
311.12	4.885
311.48	7.046
311.85	5.630
312.22	4.871
312.58	4.082
312.95	4.854
313.31	5.056
313.68	4.690
314.05	5.678
314.41	3.631
314.78	5.114
315.14	5.118
315.51	5.014
315.87	4.562
316.24	5.509
316.61	5.551
316.97	5.046
317.34	5.121
317.70	5.707
318.07	5.694
318.43	5.624
318.80	5.954
319.16	5.245
319.53	5.221
319.89	5.556
320.26	5.866
320.62	6.136
320.99	5.910
321.35	5.566
321.72	7.211
322.08	6.279
322.45	6.994
322.81	5.764
323.18	6.750
323.54	5.923
323.91	5.893
324.27	6.278
324.64	5.536
325.00	6.724
325.37	5.902
325.73	5.649
326.10	6.877
326.46	5.945
326.83	5.600
327.19	7.149
327.56	5.911
327.92	6.639
328.29	7.447
328.65	8.219
329.01	6.758
329.38	7.107
329.74	5.722
330.11	6.864
330.47	6.650
330.84	6.816
331.20	7.022
331.56	6.390
331.93	7.442
332.29	6.888
332.66	7.398
333.02	7.131
333.38	6.370
333.75	7.089
334.11	6.711
334.48	6.410
334.84	7.770
335.20	6.758
335.57	7.221
335.93	7.149
336.29	5.473
336.66	7.033
337.02	6.245
337.38	6.707
337.75	7.432
338.11	7.173
338.47	6.774
338.84	6.520
339.20	6.407
339.56	6.897
339.93	6.689
340.29	5.462
340.65	7.041
341.02	7.321
341.38	6.650
341.74	6.063
342.11	6.093
342.47	6.317
342.83	7.629
343.20	7.276
343.56	5.163
343.92	6.276
344.28	6.300
344.65	5.297
345.01	6.032
345.37	5.689
345.73	6.190
346.10	5.179
346.46	7.257
346.82	5.633
347.19	7.110
347.55	6.167
347.91	6.344
348.27	5.422
348.63	6.962
349.00	6.321
349.36	6.070
349.72	6.881
350.08	6.444
350.45	6.321
350.81	6.346
351.17	5.085
351.53	6.390
351.89	6.138
352.26	5.971
352.62	6.938
352.98	5.675
353.34	6.394
353.70	5.810
354.07	5.385
354.43	5.069
354.79	5.543
355.15	5.896
355.51	5.967
355.87	6.777
356.24	5.312
356.60	5.784
356.96	4.928
357.32	5.350
357.68	5.580
358.04	6.535
358.40	6.372
358.77	5.259
359.13	6.006
359.49	5.263
359.85	5.510
360.21	4.978
360.57	5.693
360.93	5.195
361.29	4.762
361.66	6.189
362.02	4.688
362.38	5.267
362.74	5.662
363.10	5.820
363.46	4.696
363.82	6.452
364.18	5.903
364.54	5.508
364.90	6.225
365.26	6.037
365.62	5.663
365.98	4.886
366.35	4.483
366.71	5.482
367.07	5.529
367.43	6.044
367.79	6.051
368.15	4.885
368.51	5.651
368.87	5.095
369.23	5.336
369.59	5.394
369.95	5.734
370.31	5.202
370.67	6.037
371.03	5.952
371.39	5.055
371.75	5.722
372.11	5.710
372.47	5.479
372.83	5.099
373.19	6.032
373.55	5.636
373.91	5.249
374.27	4.894
374.63	4.610
374.99	4.852
375.35	4.637
375.71	4.881
376.07	4.642
376.42	4.476
376.78	5.395
377.14	5.177
377.50	4.744
377.86	4.612
378.22	5.119
378.58	5.387
378.94	4.647
379.30	4.427
379.66	4.515
380.02	5.513
380.38	3.747
380.74	5.306
381.09	5.374
381.45	4.393
381.81	4.905
382.17	4.518
382.53	4.499
382.89	4.494
383.25	4.500
383.61	5.014
383.97	4.199
384.32	4.461
384.68	5.882
385.04	5.510
385.40	4.448
385.76	3.979
386.12	5.009
386.48	3.830
386.83	4.523
387.19	4.240
387.55	5.183
387.91	5.370
388.27	4.640
388.62	4.871
388.98	4.723
389.34	3.986
389.70	4.068
390.06	4.329
390.42	4.627
390.77	4.975
391.13	4.104
391.49	4.053
391.85	4.985
392.20	5.066
392.56	4.719
392.92	3.874
393.28	4.652
393.64	3.440
393.99	4.624
394.35	4.061
394.71	4.463
395.07	4.136
395.42	4.508
395.78	4.688
396.14	5.482
396.50	3.791
396.85	4.756
397.21	3.971
397.57	4.423
397.92	3.524
398.28	3.530
398.64	4.188
399.00	4.222
399.35	3.704
399.71	3.974
400.07	4.053
400.42	4.239
400.78	4.282
401.14	4.404
401.49	3.859
401.85	4.114
402.21	3.691
402.57	4.129
402.92	4.121
403.28	3.580
403.63	4.709
403.99	4.463
404.35	5.275
404.70	4.312
405.06	3.593
405.42	3.471
405.77	4.079
406.13	4.393
406.49	3.582
406.84	3.835
407.20	4.224
407.55	4.369
407.91	4.595
408.27	4.427
408.62	4.376
408.98	3.489
409.34	3.682
409.69	3.858
410.05	4.234
410.40	3.004
410.76	3.434
411.11	3.199
411.47	4.259
411.83	3.866
412.18	3.865
412.54	4.144
412.89	3.422
413.25	4.219
413.60	4.439
413.96	3.471
414.31	3.660
414.67	3.538
415.03	3.576
415.38	3.975
415.74	3.538
416.09	4.622
416.45	4.331
416.80	4.233
417.16	3.310
417.51	4.268
417.87	4.380
418.22	3.463
418.58	3.758
418.93	3.629
419.29	3.758
419.64	4.300
420.00	4.594
420.35	2.846
420.71	3.501
421.06	3.473
421.42	3.685
421.77	3.831
422.12	3.418
422.48	4.160
422.83	3.627
423.19	3.564
423.54	3.730
423.90	3.737
424.25	4.018
424.61	3.366
424.96	3.219
425.31	3.667
425.67	3.367
426.02	3.646
426.38	3.559
426.73	4.049
427.09	3.974
427.44	3.489
427.79	3.316
428.15	4.243
428.50	3.886
428.85	3.821
429.21	3.458
429.56	4.586
429.92	3.481
430.27	3.628
430.62	3.965
430.98	3.892
431.33	3.730
431.68	3.210
432.04	3.673
432.39	4.226
432.74	3.923
433.10	3.876
433.45	3.561
433.80	4.192
434.16	3.678
434.51	4.231
434.86	3.919
435.22	3.782
435.57	4.268
435.92	4.155
436.28	4.435
436.63	4.214
436.98	4.673
437.34	4.452
437.69	3.639
438.04	3.871
438.39	4.145
438.75	4.733
439.10	4.371
439.45	4.692
439.81	3.875
440.16	4.238
440.51	3.885
440.86	4.729
441.22	3.788
441.57	4.357
441.92	3.998
442.27	3.608
442.63	3.709
442.98	3.933
443.33	4.178
443.68	3.924
444.03	3.864
444.39	4.096
444.74	4.037
445.09	4.265
445.44	3.826
445.79	3.558
446.15	3.842
446.50	4.114
446.85	3.835
447.20	3.881
447.55	3.698
447.91	4.582
448.26	3.994
448.61	4.201
448.96	4.303
449.31	4.400
449.66	4.707
450.02	3.944
450.37	4.609
450.72	4.628
451.07	4.654
451.42	4.624
451.77	4.066
452.12	4.594
452.47	4.800
452.83	4.958
453.18	4.925
453.53	4.322
453.88	4.743
454.23	4.765
454.58	4.312
454.93	4.721
455.28	4.774
455.63	4.551
455.98	5.133
456.34	4.802
456.69	4.390
457.04	4.356
457.39	4.457
457.74	4.561
458.09	4.099
458.44	4.600
458.79	4.668
459.14	3.873
459.49	5.096
459.84	4.565
460.19	4.689
460.54	4.786
460.89	4.371
461.24	4.754
461.59	4.478
461.94	4.787
462.29	4.691
462.64	5.214
462.99	5.118
463.34	4.796
463.69	5.808
464.04	4.260
464.39	4.808
464.74	4.279
465.09	4.817
465.44	4.407
465.79	4.028
466.14	4.081
466.49	4.178
466.84	3.846
467.19	4.979
467.54	4.685
467.89	4.988
468.24	4.343
468.59	5.536
468.94	4.408
469.29	4.582
469.64	5.723
469.99	5.206
470.34	5.376
470.68	4.414
471.03	4.937
471.38	5.298
471.73	5.029
472.08	5.545
472.43	5.338
472.78	5.186
473.13	5.006
473.48	4.890
473.83	4.476
474.17	4.498
474.52	5.569
474.87	4.548
475.22	4.683
475.57	4.827
475.92	4.343
476.27	3.808
476.61	4.718
476.96	4.650
477.31	4.884
477.66	4.831
478.01	4.384
478.36	4.789
478.70	4.069
479.05	3.818
479.40	4.663
479.75	4.767
480.10	4.550
480.45	4.155
480.79	4.654
481.14	3.661
481.49	4.575
481.84	4.222
482.19	4.498
482.53	4.831
482.88	3.719
483.23	3.789
483.58	3.905
483.92	5.347
484.27	4.623
484.62	4.839
484.97	4.246
485.31	4.011
485.66	3.664
486.01	3.739
486.36	3.356
486.70	3.140
487.05	3.635
487.40	3.632
487.75	3.838
488.09	4.062
488.44	3.983
488.79	3.922
489.13	3.733
489.48	4.195
489.83	4.170
490.17	4.294
490.52	4.091
490.87	4.698
491.22	3.856
491.56	4.743
491.91	4.077
492.26	4.499
492.60	4.282
492.95	4.259
493.30	4.231
493.64	4.313
493.99	4.919
494.34	4.348
494.68	4.471
495.03	4.535
495.37	4.953
495.72	4.755
496.07	4.492
496.41	4.431
496.76	4.854
497.11	5.099
497.45	4.954
497.80	4.217
498.14	4.577
498.49	4.596
498.84	5.280
499.18	4.433
499.53	4.685
499.87	4.403
500.22	4.192
500.56	4.503
500.91	5.009
501.26	4.915
501.60	4.554
501.95	4.256
502.29	4.444
502.64	4.720
502.98	4.669
503.33	4.143
503.67	4.945
504.02	4.075
504.36	4.480
504.71	4.872
505.06	4.740
505.40	4.679
505.75	5.051
506.09	5.366
506.44	4.699
506.78	5.246
507.13	4.702
507.47	4.609
507.82	5.304
508.16	5.047
508.51	4.444
508.85	4.891
509.19	4.846
509.54	5.615
509.88	5.420
510.23	4.755
510.57	4.778
510.92	4.645
511.26	5.020
511.61	4.677
511.95	5.127
512.30	5.200
512.64	4.569
512.98	5.074
513.33	5.072
513.67	5.075
514.02	4.519
514.36	5.400
514.70	4.533
515.05	4.102
515.39	4.715
515.74	5.522
516.08	4.739
516.42	5.847
516.77	4.853
517.11	5.493
517.46	5.603
517.80	4.970
518.14	4.958
518.49	5.127
518.83	4.286
519.17	5.491
519.52	5.352
519.86	5.831
520.20	5.479
520.55	5.144
520.89	5.287
521.23	5.607
521.58	5.278
521.92	5.190
522.26	5.273
522.61	5.882
522.95	5.285
523.29	5.497
523.64	4.393
523.98	5.399
524.32	5.075
524.66	5.391
525.01	4.497
525.35	5.480
525.69	5.599
526.04	6.187
526.38	5.238
526.72	5.788
527.06	5.618
527.41	6.227
527.75	4.991
528.09	5.298
528.43	5.186
528.78	5.903
529.12	5.659
529.46	5.319
529.80	5.374
530.15	5.186
530.49	5.355
530.83	5.302
531.17	5.658
531.51	5.089
531.86	5.254
532.20	5.501
532.54	5.587
532.88	5.746
533.22	5.972
533.57	4.759
533.91	5.186
534.25	5.309
534.59	6.316
534.93	5.802
535.27	5.065
535.62	4.726
535.96	4.846
536.30	5.728
536.64	5.093
536.98	5.475
537.32	6.313
537.66	5.230
538.01	6.316
538.35	5.614
538.69	4.915
539.03	4.540
539.37	5.097
539.71	5.926
540.05	5.723
540.39	5.409
540.73	5.380
541.07	5.082
541.42	5.037
541.76	6.473
542.10	4.932
542.44	5.798
542.78	5.538
543.12	5.521
543.46	5.702
543.80	5.514
544.14	5.944
544.48	5.779
544.82	5.688
545.16	5.039
545.50	5.716
545.84	5.556
546.18	5.852
546.52	5.836
546.86	5.932
547.20	5.297
547.54	5.763
547.88	5.049
548.22	5.161
548.56	5.716
548.90	5.872
549.24	6.064
549.58	5.090
549.92	6.090
550.26	5.950
550.60	5.256
550.94	6.649
551.28	6.138
551.62	6.345
551.96	5.878
552.30	4.746
552.64	5.890
552.98	5.026
553.32	4.930
553.66	6.840
554.00	5.084
554.34	5.992
554.68	5.309
555.02	5.024
555.36	5.984
555.69	5.759
556.03	6.051
556.37	5.354
556.71	6.389
557.05	4.784
557.39	5.200
557.73	6.334
558.07	6.506
558.41	6.032
558.75	6.977
559.08	6.147
559.42	5.154
559.76	5.916
560.10	5.712
560.44	5.640
560.78	6.330
561.12	5.976
561.45	4.819
561.79	6.117
562.13	5.433
562.47	4.997
562.81	5.530
563.15	5.882
563.48	5.280
563.82	5.490
564.16	6.032
564.50	5.304
564.84	6.079
565.17	5.823
565.51	5.049
565.85	5.861
566.19	5.476
566.52	5.054
566.86	5.779
567.20	5.506
567.54	4.531
567.88	5.112
568.21	4.943
568.55	4.815
568.89	5.292
569.23	4.745
569.56	4.952
569.90	4.671
570.24	4.566
570.57	4.543
570.91	4.087
571.25	4.093
571.59	3.779
571.92	4.198
572.26	3.342
572.60	3.916
572.93	4.255
573.27	3.992
573.61	4.169
573.95	3.959
574.28	3.951
574.62	3.726
574.96	3.775
575.29	3.781
575.63	3.934
575.97	3.870
576.30	3.822
576.64	3.795
576.98	3.877
577.31	4.031
577.65	3.873
577.98	3.848
578.32	3.717
578.66	3.519
578.99	4.049
579.33	4.037
579.67	3.854
580.00	3.944
580.34	3.979
580.67	3.691
581.01	4.060
581.35	3.796
581.68	3.526
582.02	3.768
582.35	3.413
582.69	3.691
583.02	3.531
583.36	3.902
583.70	4.058
584.03	4.002
584.37	4.190
584.70	3.782
585.04	3.831
585.37	3.877
585.71	4.090
586.04	3.911
586.38	3.950
586.72	3.990
587.05	4.323
587.39	4.071
587.72	4.001
588.06	4.172
588.39	3.813
588.73	4.331
589.06	4.114
589.40	4.319
589.73	4.556
590.07	5.010
590.40	4.739
590.73	5.362
591.07	4.972
591.40	4.192
591.74	4.586
592.07	4.742
592.41	4.836
592.74	4.101
593.08	4.264
593.41	4.159
593.75	4.070
594.08	4.866
594.41	4.431
594.75	4.315
595.08	4.767
595.42	4.970
595.75	4.541
596.09	4.623
596.42	4.443
596.75	4.728
597.09	4.622
597.42	4.245
597.75	4.381
598.09	5.170
598.42	4.529
598.76	4.780
599.09	4.671
599.42	4.637
599.76	4.953
600.09	4.169
600.42	4.420
600.76	4.181
601.09	4.556
601.42	4.400
601.76	4.726
602.09	4.746
602.42	4.288
602.76	4.516
603.09	4.638
603.42	4.624
603.76	4.591
604.09	4.307
604.42	4.595
604.76	4.781
605.09	4.571
605.42	5.120
605.75	4.501
606.09	4.705
606.42	4.547
606.75	4.742
607.09	4.264
607.42	4.299
607.75	4.697
608.08	4.387
608.42	4.572
608.75	4.279
609.08	4.531
609.41	4.955
609.75	5.082
610.08	4.721
610.41	5.446
610.74	5.281
611.07	5.275
611.41	4.356
611.74	4.924
612.07	4.239
612.40	5.019
612.73	5.292
613.07	4.257
613.40	5.363
613.73	5.092
614.06	4.500
614.39	5.404
614.72	4.219
615.06	4.253
615.39	5.149
615.72	4.356
616.05	5.023
616.38	5.479
616.71	5.589
617.05	4.997
617.38	4.607
617.71	4.724
618.04	4.767
618.37	4.780
618.70	4.677
619.03	5.250
619.36	5.653
619.69	5.013
620.03	5.936
620.36	5.202
620.69	5.939
621.02	6.250
621.35	5.444
621.68	5.605
622.01	6.052
622.34	5.244
622.67	6.320
623.00	5.174
623.33	5.398
623.66	5.389
623.99	5.753
624.32	5.623
624.65	5.464
624.99	4.936
625.32	6.480
625.65	5.586
625.98	5.579
626.31	5.490
626.64	5.391
626.97	5.126
627.30	5.280
627.63	6.044
627.96	5.008
628.29	5.281
628.62	6.074
628.95	6.472
629.28	6.047
629.61	6.503
629.94	6.396
630.26	6.586
630.59	7.890
630.92	5.830
631.25	7.434
631.58	6.654
631.91	6.851
632.24	6.803
632.57	5.697
632.90	6.522
633.23	7.240
633.56	6.955
633.89	5.788
634.22	6.243
634.55	6.559
634.88	8.215
635.20	6.614
635.53	6.852
635.86	7.494
636.19	6.846
636.52	7.135
636.85	6.149
637.18	7.584
637.51	6.257
637.83	5.835
638.16	7.268
638.49	8.024
638.82	8.685
639.15	5.640
639.48	7.346
639.81	7.204
640.13	6.626
640.46	7.080
640.79	7.152
641.12	6.299
641.45	8.538
641.77	7.662
642.10	8.434
642.43	7.255
642.76	7.955
643.09	7.637
643.41	7.994
643.74	7.914
644.07	8.702
644.40	7.988
644.73	9.159
645.05	8.618
645.38	8.270
645.71	8.194
646.04	9.008
646.36	7.668
646.69	7.840
647.02	8.480
647.35	5.984
647.67	7.293
648.00	7.818
648.33	9.925
648.66	6.970
648.98	7.536
649.31	7.557
649.64	4.841
649.96	5.974
650.29	7.286
650.62	7.806
650.94	9.036
651.27	8.931
651.60	7.825
651.92	9.677
652.25	9.449
652.58	7.801
652.90	7.485
653.23	7.386
653.56	8.160
653.88	7.342
654.21	8.798
654.54	7.321
654.86	6.785
655.19	7.916
655.52	6.218
655.84	2.878
656.17	3.013
