SpectraSuite Data File
++++++++++++++++++++++++++++++++++++
Date: Tue May 12 17:19:02 PDT 2015
User: schluterlab
Dark Spectrum Present: Yes
Reference Spectrum Present: Yes
Number of Sampled Component Spectra: 1
Spectrometers: USB2E3373
Integration Time (usec): 3000 (USB2E3373)
Spectra Averaged: 3 (USB2E3373)
Boxcar Smoothing: 0 (USB2E3373)
Correct for Electrical Dark: No (USB2E3373)
Strobe/Lamp Enabled: No (USB2E3373)
Correct for Detector Non-linearity: No (USB2E3373)
Correct for Stray Light: No (USB2E3373)
Number of Pixels in Processed Spectrum: 2048
>>>>>Begin Processed Spectral Data<<<<<
178.53	0.000
178.91	-283.333
179.29	-650.000
179.67	-3200.000
180.04	-193.333
180.42	575.000
180.80	1500.000
181.18	0.000
181.56	-375.000
181.94	0.000
182.31	1066.667
182.69	-2800.000
183.07	657.143
183.45	-4100.000
183.83	-1750.000
184.20	290.000
184.58	485.714
184.96	-200.000
185.34	-175.000
185.72	1600.000
186.09	-875.000
186.47	-3100.000
186.85	1333.333
187.23	520.000
187.61	1500.000
187.98	475.000
188.36	271.429
188.74	266.667
189.12	400.000
189.49	1000.000
189.87	0.000
190.25	412.500
190.63	2400.000
191.00	-283.333
191.38	-3000.000
191.76	-975.000
192.14	500.000
192.51	-3000.000
192.89	1700.000
193.27	966.667
193.65	-1266.667
194.02	-720.000
194.40	600.000
194.78	-235.714
195.15	226.667
195.53	-4300.000
195.91	-540.000
196.29	3900.000
196.66	243.750
197.04	500.000
197.42	-1400.000
197.79	625.000
198.17	350.000
198.55	0.000
198.92	400.000
199.30	1166.667
199.68	2050.000
200.05	633.333
200.43	-566.667
200.81	244.444
201.18	3500.000
201.56	275.000
201.94	-825.000
202.31	-325.000
202.69	-500.000
203.07	3600.000
203.44	-516.667
203.82	383.333
204.19	720.000
204.57	-900.000
204.95	-1000.000
205.32	-680.000
205.70	433.333
206.08	825.000
206.45	-766.667
206.83	422.222
207.20	157.895
207.58	275.000
207.96	660.000
208.33	0.000
208.71	542.857
209.08	700.000
209.46	-3000.000
209.84	-850.000
210.21	820.000
210.59	-620.000
210.96	400.000
211.34	-900.000
211.71	318.182
212.09	950.000
212.46	1800.000
212.84	-616.667
213.22	422.222
213.59	-2600.000
213.97	390.000
214.34	775.000
214.72	1300.000
215.09	1033.333
215.47	-2600.000
215.84	-310.000
216.22	-462.500
216.59	0.000
216.97	0.000
217.34	1300.000
217.72	-1850.000
218.09	1200.000
218.47	412.500
218.84	775.000
219.22	1133.333
219.59	933.333
219.97	414.286
220.34	422.222
220.72	2200.000
221.09	3800.000
221.47	325.000
221.84	1066.667
222.22	410.000
222.59	244.444
222.97	171.429
223.34	225.000
223.72	-1650.000
224.09	1000.000
224.46	269.231
224.84	-975.000
225.21	366.667
225.59	260.000
225.96	1333.333
226.34	-620.000
226.71	-825.000
227.08	-720.000
227.46	0.000
227.83	-566.667
228.21	-1800.000
228.58	300.000
228.95	975.000
229.33	311.111
229.70	1050.000
230.08	346.154
230.45	3300.000
230.82	-925.000
231.20	-566.667
231.57	-900.000
231.95	620.000
232.32	266.667
232.69	616.667
233.07	333.333
233.44	-1850.000
233.81	286.667
234.19	151.852
234.56	281.250
234.93	217.647
235.31	180.000
235.68	218.750
236.05	153.571
236.43	148.148
236.80	264.286
237.17	162.069
237.55	131.250
237.92	117.500
238.29	145.455
238.67	150.000
239.04	102.439
239.41	87.500
239.79	87.500
240.16	77.083
240.53	81.967
240.91	65.217
241.28	86.441
241.65	80.303
242.02	90.141
242.40	75.714
242.77	63.736
243.14	53.165
243.51	70.707
243.89	58.879
244.26	45.794
244.63	52.475
245.00	54.128
245.38	40.678
245.75	45.455
246.12	51.852
246.49	41.844
246.87	50.820
247.24	42.000
247.61	45.000
247.98	48.299
248.36	38.182
248.73	42.347
249.10	39.286
249.47	42.000
249.84	41.791
250.22	44.865
250.59	37.500
250.96	38.819
251.33	39.535
251.70	40.625
252.08	38.655
252.45	31.873
252.82	36.122
253.19	38.735
253.56	33.077
253.94	36.594
254.31	33.333
254.68	34.495
255.05	33.448
255.42	31.752
255.79	33.225
256.16	35.593
256.54	34.416
256.91	34.967
257.28	33.445
257.65	30.408
258.02	30.973
258.39	36.390
258.76	34.203
259.14	28.286
259.51	32.362
259.88	34.954
260.25	29.396
260.62	35.068
260.99	30.303
261.36	31.476
261.73	33.511
262.10	32.723
262.47	29.500
262.85	32.533
263.22	34.961
263.59	34.271
263.96	33.333
264.33	31.852
264.70	33.170
265.07	30.488
265.44	32.110
265.81	31.368
266.18	32.952
266.55	29.078
266.92	29.083
267.29	29.605
267.66	32.063
268.03	31.839
268.40	31.501
268.77	33.040
269.14	31.020
269.51	31.626
269.88	31.837
270.25	27.646
270.62	31.116
270.99	33.469
271.36	31.301
271.73	30.189
272.10	30.505
272.47	30.159
272.84	29.341
273.21	29.959
273.58	30.972
273.95	30.801
274.32	28.988
274.69	31.693
275.06	30.783
275.43	28.352
275.80	30.000
276.17	28.493
276.54	29.159
276.91	30.410
277.28	29.197
277.65	28.044
278.02	28.493
278.39	28.777
278.76	30.690
279.13	27.224
279.50	30.364
279.87	27.561
280.23	26.703
280.60	30.109
280.97	27.069
281.34	29.538
281.71	27.130
282.08	28.547
282.45	28.885
282.82	28.428
283.19	29.253
283.56	28.264
283.92	27.524
284.29	28.453
284.66	28.908
285.03	26.368
285.40	26.942
285.77	27.006
286.14	27.399
286.51	28.528
286.87	26.424
287.24	22.973
287.61	26.292
287.98	25.373
288.35	26.074
288.72	27.921
289.08	26.276
289.45	25.915
289.82	27.500
290.19	25.622
290.56	28.821
290.93	26.763
291.29	24.862
291.66	26.695
292.03	24.264
292.40	26.152
292.77	23.538
293.13	25.107
293.50	23.752
293.87	23.035
294.24	25.315
294.60	23.822
294.97	25.874
295.34	23.639
295.71	26.018
296.08	23.733
296.44	22.490
296.81	23.449
297.18	24.461
297.55	25.000
297.91	20.936
298.28	23.551
298.65	22.454
299.02	23.281
299.38	22.782
299.75	22.073
300.12	25.115
300.48	23.770
300.85	22.765
301.22	23.140
301.59	22.406
301.95	23.337
302.32	24.913
302.69	24.548
303.05	24.467
303.42	23.318
303.79	22.969
304.15	24.092
304.52	22.727
304.89	22.388
305.25	22.136
305.62	23.028
305.99	23.587
306.35	23.579
306.72	24.246
307.09	22.567
307.45	21.964
307.82	23.457
308.19	24.124
308.55	24.200
308.92	24.338
309.29	25.444
309.65	24.678
310.02	25.558
310.38	24.826
310.75	25.169
311.12	24.521
311.48	27.799
311.85	26.908
312.22	26.552
312.58	25.850
312.95	27.476
313.31	26.685
313.68	26.454
314.05	28.297
314.41	28.212
314.78	29.072
315.14	29.479
315.51	30.085
315.87	29.836
316.24	30.065
316.61	29.722
316.97	30.183
317.34	31.986
317.70	31.782
318.07	31.940
318.43	32.601
318.80	33.975
319.16	34.178
319.53	34.513
319.89	33.961
320.26	36.685
320.62	35.440
320.99	35.653
321.35	35.436
321.72	36.812
322.08	37.304
322.45	38.238
322.81	38.884
323.18	37.744
323.54	39.111
323.91	39.710
324.27	40.230
324.64	39.100
325.00	41.207
325.37	41.231
325.73	40.809
326.10	40.928
326.46	42.114
326.83	42.320
327.19	43.695
327.56	43.371
327.92	44.344
328.29	45.172
328.65	45.120
329.01	45.851
329.38	46.531
329.74	44.236
330.11	46.394
330.47	45.780
330.84	45.298
331.20	44.416
331.56	47.668
331.93	46.963
332.29	45.748
332.66	47.619
333.02	46.306
333.38	48.255
333.75	46.205
334.11	47.567
334.48	46.325
334.84	47.635
335.20	47.819
335.57	46.348
335.93	47.435
336.29	46.517
336.66	48.370
337.02	48.503
337.38	47.120
337.75	47.720
338.11	48.101
338.47	47.925
338.84	48.688
339.20	47.446
339.56	47.687
339.93	46.906
340.29	47.563
340.65	47.443
341.02	49.316
341.38	47.947
341.74	49.169
342.11	47.245
342.47	47.170
342.83	48.646
343.20	47.615
343.56	47.260
343.92	48.885
344.28	49.123
344.65	48.574
345.01	47.540
345.37	47.516
345.73	47.937
346.10	47.649
346.46	48.325
346.82	47.917
347.19	48.454
347.55	47.853
347.91	47.054
348.27	48.799
348.63	48.418
349.00	47.144
349.36	48.171
349.72	50.306
350.08	50.155
350.45	49.810
350.81	48.394
351.17	47.766
351.53	47.267
351.89	48.640
352.26	48.526
352.62	48.341
352.98	49.080
353.34	50.385
353.70	49.159
354.07	47.615
354.43	49.078
354.79	48.595
355.15	48.469
355.51	48.263
355.87	49.473
356.24	50.423
356.60	48.097
356.96	48.597
357.32	49.736
357.68	49.559
358.04	49.848
358.40	48.651
358.77	49.512
359.13	49.474
359.49	48.036
359.85	48.846
360.21	48.068
360.57	48.613
360.93	49.928
361.29	50.505
361.66	50.410
362.02	49.219
362.38	50.144
362.74	49.257
363.10	49.299
363.46	48.066
363.82	48.878
364.18	50.569
364.54	49.499
364.90	49.465
365.26	50.937
365.62	50.345
365.98	50.516
366.35	49.517
366.71	49.341
367.07	50.034
367.43	50.705
367.79	49.269
368.15	48.643
368.51	51.137
368.87	49.660
369.23	50.104
369.59	50.506
369.95	51.538
370.31	50.034
370.67	49.965
371.03	49.510
371.39	50.693
371.75	50.523
372.11	49.286
372.47	49.863
372.83	50.102
373.19	51.199
373.55	50.378
373.91	48.273
374.27	49.802
374.63	49.424
374.99	49.663
375.35	49.933
375.71	50.923
376.07	50.133
376.42	49.808
376.78	49.839
377.14	49.672
377.50	50.000
377.86	49.455
378.22	49.787
378.58	50.787
378.94	50.091
379.30	50.273
379.66	49.548
380.02	49.912
380.38	49.532
380.74	51.096
381.09	49.708
381.45	49.075
381.81	49.054
382.17	50.733
382.53	49.790
382.89	49.911
383.25	49.615
383.61	48.934
383.97	49.130
384.32	49.247
384.68	50.683
385.04	48.886
385.40	49.407
385.76	49.503
386.12	49.784
386.48	50.152
386.83	49.267
387.19	49.234
387.55	49.117
387.91	50.115
388.27	49.256
388.62	48.709
388.98	49.271
389.34	48.780
389.70	48.172
390.06	48.902
390.42	48.489
390.77	49.263
391.13	49.246
391.49	47.671
391.85	48.308
392.20	47.557
392.56	49.164
392.92	47.838
393.28	48.879
393.64	47.190
393.99	47.659
394.35	48.028
394.71	48.191
395.07	47.749
395.42	47.775
395.78	49.291
396.14	49.639
396.50	47.774
396.85	47.378
397.21	48.315
397.57	47.579
397.92	45.523
398.28	47.490
398.64	46.771
399.00	46.446
399.35	46.860
399.71	46.247
400.07	46.404
400.42	46.209
400.78	46.921
401.14	46.095
401.49	46.832
401.85	47.103
402.21	46.046
402.57	47.576
402.92	46.667
403.28	45.943
403.63	45.851
403.99	46.080
404.35	46.600
404.70	47.017
405.06	44.862
405.42	45.542
405.77	44.763
406.13	45.445
406.49	44.287
406.84	44.219
407.20	45.890
407.55	45.108
407.91	46.203
408.27	45.664
408.62	45.594
408.98	44.589
409.34	43.834
409.69	44.742
410.05	44.544
410.40	44.700
410.76	43.789
411.11	43.780
411.47	45.123
411.83	42.941
412.18	44.988
412.54	44.264
412.89	43.481
413.25	44.356
413.60	42.991
413.96	44.644
414.31	43.920
414.67	45.127
415.03	44.700
415.38	43.975
415.74	43.714
416.09	44.160
416.45	44.409
416.80	45.157
417.16	43.221
417.51	44.522
417.87	43.867
418.22	42.770
418.58	44.586
418.93	43.248
419.29	43.438
419.64	43.307
420.00	44.093
420.35	42.915
420.71	42.999
421.06	43.555
421.42	43.178
421.77	44.253
422.12	43.550
422.48	42.784
422.83	43.359
423.19	41.901
423.54	42.896
423.90	43.545
424.25	43.038
424.61	43.877
424.96	42.067
425.31	42.529
425.67	42.424
426.02	42.905
426.38	41.890
426.73	42.973
427.09	42.942
427.44	42.994
427.79	42.996
428.15	43.017
428.50	43.829
428.85	42.563
429.21	42.193
429.56	43.220
429.92	41.969
430.27	41.751
430.62	42.340
430.98	41.966
431.33	41.885
431.68	40.938
432.04	42.059
432.39	42.536
432.74	42.564
433.10	42.082
433.45	42.677
433.80	43.023
434.16	42.354
434.51	42.931
434.86	42.624
435.22	42.355
435.57	43.035
435.92	43.540
436.28	43.606
436.63	41.707
436.98	43.187
437.34	42.123
437.69	41.937
438.04	42.204
438.39	42.849
438.75	41.815
439.10	43.065
439.45	41.097
439.81	42.799
440.16	42.708
440.51	42.286
440.86	42.792
441.22	42.316
441.57	42.310
441.92	41.412
442.27	42.629
442.63	42.734
442.98	41.325
443.33	41.564
443.68	42.656
444.03	41.517
444.39	41.761
444.74	41.977
445.09	41.969
445.44	41.817
445.79	41.423
446.15	41.579
446.50	42.089
446.85	42.032
447.20	41.741
447.55	42.088
447.91	42.408
448.26	42.386
448.61	42.510
448.96	41.939
449.31	42.354
449.66	42.525
450.02	41.815
450.37	41.699
450.72	43.581
451.07	41.536
451.42	42.383
451.77	41.810
452.12	41.974
452.47	43.256
452.83	42.817
453.18	42.282
453.53	43.043
453.88	41.657
454.23	42.533
454.58	40.734
454.93	41.876
455.28	42.411
455.63	42.317
455.98	41.173
456.34	42.736
456.69	41.951
457.04	41.289
457.39	40.686
457.74	41.498
458.09	41.718
458.44	41.347
458.79	41.061
459.14	41.462
459.49	41.676
459.84	40.978
460.19	40.678
460.54	42.507
460.89	41.151
461.24	39.863
461.59	40.703
461.94	40.603
462.29	41.362
462.64	41.520
462.99	41.011
463.34	41.478
463.69	41.984
464.04	41.163
464.39	39.611
464.74	40.094
465.09	40.104
465.44	39.608
465.79	39.848
466.14	40.541
466.49	40.695
466.84	39.075
467.19	40.480
467.54	39.940
467.89	40.552
468.24	40.185
468.59	40.179
468.94	40.640
469.29	41.173
469.64	40.579
469.99	41.260
470.34	40.923
470.68	40.552
471.03	41.494
471.38	40.927
471.73	40.888
472.08	41.292
472.43	40.596
472.78	40.333
473.13	39.174
473.48	40.526
473.83	39.635
474.17	40.122
474.52	40.344
474.87	39.397
475.22	39.520
475.57	38.825
475.92	38.579
476.27	38.030
476.61	39.249
476.96	39.028
477.31	40.257
477.66	39.775
478.01	38.886
478.36	40.268
478.70	38.809
479.05	39.644
479.40	38.542
479.75	40.119
480.10	39.109
480.45	39.076
480.79	38.848
481.14	38.897
481.49	37.877
481.84	38.083
482.19	38.821
482.53	38.164
482.88	37.993
483.23	36.852
483.58	38.241
483.92	39.214
484.27	38.527
484.62	39.007
484.97	37.398
485.31	37.356
485.66	36.268
486.01	35.324
486.36	35.420
486.70	35.328
487.05	35.452
487.40	35.731
487.75	35.788
488.09	36.420
488.44	36.233
488.79	36.862
489.13	37.738
489.48	37.595
489.83	37.281
490.17	36.375
490.52	37.123
490.87	36.983
491.22	37.633
491.56	37.505
491.91	37.007
492.26	37.016
492.60	37.722
492.95	37.426
493.30	37.125
493.64	37.466
493.99	36.941
494.34	36.979
494.68	36.963
495.03	37.719
495.37	36.875
495.72	37.669
496.07	36.703
496.41	36.664
496.76	36.978
497.11	36.889
497.45	36.300
497.80	36.654
498.14	36.801
498.49	36.862
498.84	37.804
499.18	36.563
499.53	36.656
499.87	36.972
500.22	37.402
500.56	37.187
500.91	37.430
501.26	36.472
501.60	35.929
501.95	35.215
502.29	35.911
502.64	36.348
502.98	36.194
503.33	35.813
503.67	36.909
504.02	35.468
504.36	36.335
504.71	37.228
505.06	36.556
505.40	35.423
505.75	36.342
506.09	35.511
506.44	36.513
506.78	36.578
507.13	36.403
507.47	36.148
507.82	37.226
508.16	36.355
508.51	36.135
508.85	35.185
509.19	35.732
509.54	36.084
509.88	36.350
510.23	36.078
510.57	35.087
510.92	36.713
511.26	36.697
511.61	35.795
511.95	36.088
512.30	35.800
512.64	36.449
512.98	36.033
513.33	36.014
513.67	36.561
514.02	36.571
514.36	36.137
514.70	36.320
515.05	35.429
515.39	36.787
515.74	37.562
516.08	36.275
516.42	36.776
516.77	35.787
517.11	35.467
517.46	37.069
517.80	36.210
518.14	36.732
518.49	35.722
518.83	35.824
519.17	36.606
519.52	36.865
519.86	36.512
520.20	37.589
520.55	35.670
520.89	36.609
521.23	36.741
521.58	36.259
521.92	35.743
522.26	36.434
522.61	36.482
522.95	35.796
523.29	35.906
523.64	35.434
523.98	36.502
524.32	36.275
524.66	35.420
525.01	36.036
525.35	35.592
525.69	37.026
526.04	35.931
526.38	35.668
526.72	35.084
527.06	35.778
527.41	36.638
527.75	36.093
528.09	35.039
528.43	36.608
528.78	36.136
529.12	36.243
529.46	35.301
529.80	36.098
530.15	35.769
530.49	34.537
530.83	35.588
531.17	35.486
531.51	35.806
531.86	35.447
532.20	34.487
532.54	35.593
532.88	35.853
533.22	34.735
533.57	35.570
533.91	33.566
534.25	35.199
534.59	34.854
534.93	34.471
535.27	34.092
535.62	33.431
535.96	34.929
536.30	35.832
536.64	34.037
536.98	35.683
537.32	33.938
537.66	35.077
538.01	34.799
538.35	35.558
538.69	34.891
539.03	33.769
539.37	33.799
539.71	34.012
540.05	34.585
540.39	34.403
540.73	34.937
541.07	35.257
541.42	34.080
541.76	34.649
542.10	34.279
542.44	35.287
542.78	33.858
543.12	33.313
543.46	34.148
543.80	34.211
544.14	35.046
544.48	33.151
544.82	33.272
545.16	32.848
545.50	35.095
545.84	33.586
546.18	35.761
546.52	35.213
546.86	33.978
547.20	33.075
547.54	33.376
547.88	33.698
548.22	32.726
548.56	31.880
548.90	32.562
549.24	34.176
549.58	33.827
549.92	33.792
550.26	34.415
550.60	32.735
550.94	33.514
551.28	34.621
551.62	33.862
551.96	34.324
552.30	33.289
552.64	33.851
552.98	32.023
553.32	31.754
553.66	33.681
554.00	33.333
554.34	33.888
554.68	33.737
555.02	32.654
555.36	32.314
555.69	33.115
556.03	32.038
556.37	32.887
556.71	33.572
557.05	32.110
557.39	32.200
557.73	33.086
558.07	33.467
558.41	34.133
558.75	32.627
559.08	33.595
559.42	33.715
559.76	33.713
560.10	32.140
560.44	31.652
560.78	32.545
561.12	32.676
561.45	32.603
561.79	31.960
562.13	31.459
562.47	31.862
562.81	32.661
563.15	32.191
563.48	31.304
563.82	32.002
564.16	32.338
564.50	31.163
564.84	31.672
565.17	32.501
565.51	32.266
565.85	32.449
566.19	31.488
566.52	30.686
566.86	31.582
567.20	31.966
567.54	31.714
567.88	31.038
568.21	30.005
568.55	30.788
568.89	30.201
569.23	29.724
569.56	30.072
569.90	29.393
570.24	28.859
570.57	29.137
570.91	27.769
571.25	28.173
571.59	27.750
571.92	27.637
572.26	27.143
572.60	27.659
572.93	28.091
573.27	27.944
573.61	27.558
573.95	27.664
574.28	27.387
574.62	27.480
574.96	26.808
575.29	26.851
575.63	26.808
575.97	26.631
576.30	26.854
576.64	27.414
576.98	26.167
577.31	27.525
577.65	26.801
577.98	26.227
578.32	26.356
578.66	26.788
578.99	26.767
579.33	26.906
579.67	26.033
580.00	26.622
580.34	26.442
580.67	26.488
581.01	26.662
581.35	26.138
581.68	26.203
582.02	26.025
582.35	26.083
582.69	26.571
583.02	26.322
583.36	26.619
583.70	26.954
584.03	27.119
584.37	26.754
584.70	26.847
585.04	26.100
585.37	26.105
585.71	26.360
586.04	26.498
586.38	26.407
586.72	26.641
587.05	26.583
587.39	26.650
587.72	26.226
588.06	26.744
588.39	26.459
588.73	26.641
589.06	27.079
589.40	27.011
589.73	26.581
590.07	27.248
590.40	27.666
590.73	28.057
591.07	27.780
591.40	27.425
591.74	27.070
592.07	26.705
592.41	27.698
592.74	26.620
593.08	26.725
593.41	26.601
593.75	26.266
594.08	26.270
594.41	26.849
594.75	26.918
595.08	26.920
595.42	27.057
595.75	26.489
596.09	27.181
596.42	27.240
596.75	27.564
597.09	27.404
597.42	27.143
597.75	27.505
598.09	26.385
598.42	26.765
598.76	27.024
599.09	27.032
599.42	26.125
599.76	27.103
600.09	26.068
600.42	26.727
600.76	26.003
601.09	26.752
601.42	26.505
601.76	26.889
602.09	26.711
602.42	25.989
602.76	26.717
603.09	27.753
603.42	26.422
603.76	25.886
604.09	26.059
604.42	26.516
604.76	25.840
605.09	26.367
605.42	26.371
605.75	26.569
606.09	26.167
606.42	25.893
606.75	25.923
607.09	25.740
607.42	25.994
607.75	25.637
608.08	26.279
608.42	26.342
608.75	25.973
609.08	26.045
609.41	26.455
609.75	26.877
610.08	26.888
610.41	26.175
610.74	26.970
611.07	26.694
611.41	27.108
611.74	25.956
612.07	26.445
612.40	27.193
612.73	26.960
613.07	26.406
613.40	27.118
613.73	27.309
614.06	26.300
614.39	27.172
614.72	26.318
615.06	26.756
615.39	26.832
615.72	26.573
616.05	26.821
616.38	26.281
616.71	26.207
617.05	26.030
617.38	27.303
617.71	26.828
618.04	26.697
618.37	26.459
618.70	26.443
619.03	27.656
619.36	27.450
619.69	28.034
620.03	28.441
620.36	26.718
620.69	28.927
621.02	27.921
621.35	27.865
621.68	28.466
622.01	28.708
622.34	28.623
622.67	27.669
623.00	27.434
623.33	27.328
623.66	27.279
623.99	27.740
624.32	28.184
624.65	26.596
624.99	26.978
625.32	27.923
625.65	27.448
625.98	27.057
626.31	28.412
626.64	28.246
626.97	27.238
627.30	28.339
627.63	29.356
627.96	27.856
628.29	28.548
628.62	27.802
628.95	29.787
629.28	29.185
629.61	28.559
629.94	28.522
630.26	28.856
630.59	29.078
630.92	29.596
631.25	28.377
