SpectraSuite Data File
++++++++++++++++++++++++++++++++++++
Date: Tue May 12 16:52:28 PDT 2015
User: schluterlab
Dark Spectrum Present: Yes
Reference Spectrum Present: Yes
Number of Sampled Component Spectra: 1
Spectrometers: USB2E3373
Integration Time (usec): 3000 (USB2E3373)
Spectra Averaged: 3 (USB2E3373)
Boxcar Smoothing: 0 (USB2E3373)
Correct for Electrical Dark: No (USB2E3373)
Strobe/Lamp Enabled: No (USB2E3373)
Correct for Detector Non-linearity: No (USB2E3373)
Correct for Stray Light: No (USB2E3373)
Number of Pixels in Processed Spectrum: 2048
>>>>>Begin Processed Spectral Data<<<<<
178.53	0.000
178.91	-216.667
179.29	-725.000
179.67	-3300.000
180.04	-133.333
180.42	775.000
180.80	1700.000
181.18	0.000
181.56	-337.500
181.94	0.000
182.31	1166.667
182.69	-3000.000
183.07	500.000
183.45	-3400.000
183.83	-1600.000
184.20	310.000
184.58	400.000
184.96	-223.077
185.34	-200.000
185.72	1550.000
186.09	-650.000
186.47	-2800.000
186.85	1166.667
187.23	540.000
187.61	2000.000
187.98	412.500
188.36	271.429
188.74	308.333
189.12	350.000
189.49	1100.000
189.87	0.000
190.25	525.000
190.63	3700.000
191.00	-233.333
191.38	-3200.000
191.76	-1000.000
192.14	462.500
192.51	-3500.000
192.89	2000.000
193.27	1233.333
193.65	-1000.000
194.02	-680.000
194.40	685.714
194.78	-221.429
195.15	266.667
195.53	-3300.000
195.91	-520.000
196.29	3600.000
196.66	268.750
197.04	675.000
197.42	-1950.000
197.79	550.000
198.17	316.667
198.55	0.000
198.92	528.571
199.30	1066.667
199.68	1850.000
200.05	716.667
200.43	-400.000
200.81	216.667
201.18	3700.000
201.56	325.000
201.94	-950.000
202.31	-275.000
202.69	-540.000
203.07	2800.000
203.44	-483.333
203.82	383.333
204.19	780.000
204.57	-1250.000
204.95	-575.000
205.32	-720.000
205.70	433.333
206.08	750.000
206.45	-833.333
206.83	488.889
207.20	173.684
207.58	316.667
207.96	700.000
208.33	0.000
208.71	542.857
209.08	620.000
209.46	-2800.000
209.84	-650.000
210.21	980.000
210.59	-560.000
210.96	308.333
211.34	-875.000
211.71	390.909
212.09	775.000
212.46	1400.000
212.84	-516.667
213.22	400.000
213.59	-2800.000
213.97	370.000
214.34	825.000
214.72	1300.000
215.09	1000.000
215.47	-2600.000
215.84	-330.000
216.22	-275.000
216.59	0.000
216.97	0.000
217.34	1300.000
217.72	-1400.000
218.09	1166.667
218.47	525.000
218.84	750.000
219.22	900.000
219.59	1100.000
219.97	457.143
220.34	422.222
220.72	1600.000
221.09	3700.000
221.47	316.667
221.84	1133.333
222.22	370.000
222.59	200.000
222.97	235.714
223.34	262.500
223.72	-1700.000
224.09	1066.667
224.46	284.615
224.84	-900.000
225.21	466.667
225.59	306.667
225.96	1200.000
226.34	-640.000
226.71	-700.000
227.08	-680.000
227.46	0.000
227.83	-650.000
228.21	-1850.000
228.58	408.333
228.95	1100.000
229.33	377.778
229.70	1100.000
230.08	353.846
230.45	4200.000
230.82	-1125.000
231.20	-766.667
231.57	-1066.667
231.95	620.000
232.32	358.333
232.69	633.333
233.07	341.667
233.44	-1850.000
233.81	313.333
234.19	133.333
234.56	312.500
234.93	229.412
235.31	260.000
235.68	268.750
236.05	178.571
236.43	229.630
236.80	364.286
237.17	213.793
237.55	193.750
237.92	157.500
238.29	142.424
238.67	150.000
239.04	148.780
239.41	110.417
239.79	137.500
240.16	120.833
240.53	109.836
240.91	98.551
241.28	94.915
241.65	100.000
242.02	112.676
242.40	98.571
242.77	86.813
243.14	88.608
243.51	93.939
243.89	81.308
244.26	70.093
244.63	91.089
245.00	82.569
245.38	74.576
245.75	83.333
246.12	86.667
246.49	76.596
246.87	77.869
247.24	70.000
247.61	74.375
247.98	80.952
248.36	69.091
248.73	71.939
249.10	72.024
249.47	74.000
249.84	73.134
250.22	77.297
250.59	67.500
250.96	67.089
251.33	65.116
251.70	71.429
252.08	74.790
252.45	63.745
252.82	58.935
253.19	66.008
253.56	63.846
253.94	63.768
254.31	68.992
254.68	67.247
255.05	62.414
255.42	67.153
255.79	62.541
256.16	63.729
256.54	67.208
256.91	65.033
257.28	66.221
257.65	62.696
258.02	60.767
258.39	62.751
258.76	63.188
259.14	59.429
259.51	66.764
259.88	66.565
260.25	62.912
260.62	61.370
260.99	58.953
261.36	62.953
261.73	61.170
262.10	63.351
262.47	61.000
262.85	60.800
263.22	59.640
263.59	63.427
263.96	61.153
264.33	58.765
264.70	62.408
265.07	62.683
265.44	57.798
265.81	59.434
266.18	64.989
266.55	61.466
266.92	61.298
267.29	58.772
267.66	60.762
268.03	60.090
268.40	57.928
268.77	58.590
269.14	57.050
269.51	59.911
269.88	57.347
270.25	57.235
270.62	60.944
270.99	56.187
271.36	58.740
271.73	57.862
272.10	59.798
272.47	58.135
272.84	59.880
273.21	58.471
273.58	59.109
273.95	57.290
274.32	58.560
274.69	61.220
275.06	54.645
275.43	57.471
275.80	56.226
276.17	55.882
276.54	55.327
276.91	58.582
277.28	57.664
277.65	57.011
278.02	58.640
278.39	58.993
278.76	55.690
279.13	55.694
279.50	56.364
279.87	54.935
280.23	52.486
280.60	55.292
280.97	55.690
281.34	56.436
281.71	54.087
282.08	55.556
282.45	55.743
282.82	54.013
283.19	53.577
283.56	54.215
283.92	57.003
284.29	55.241
284.66	53.109
285.03	56.882
285.40	54.050
285.77	50.463
286.14	54.334
286.51	53.374
286.87	51.108
287.24	51.652
287.61	54.103
287.98	52.239
288.35	52.889
288.72	51.745
289.08	51.351
289.45	53.354
289.82	52.188
290.19	52.123
290.56	51.092
290.93	50.791
291.29	51.381
291.66	50.282
292.03	50.912
292.40	48.509
292.77	48.329
293.13	47.504
293.50	46.829
293.87	46.070
294.24	48.112
294.60	49.260
294.97	50.490
295.34	48.074
295.71	49.014
296.08	45.333
296.44	44.600
296.81	43.548
297.18	44.867
297.55	46.798
297.91	43.350
298.28	45.290
298.65	45.153
299.02	46.321
299.38	46.523
299.75	44.634
300.12	44.725
300.48	45.316
300.85	46.603
301.22	43.837
301.59	44.340
301.95	43.757
302.32	45.867
302.69	44.570
303.05	44.220
303.42	42.713
303.79	43.662
304.15	43.784
304.52	43.975
304.89	44.030
305.25	44.049
305.62	43.284
305.99	44.891
306.35	44.526
306.72	44.433
307.09	44.617
307.45	44.456
307.82	42.284
308.19	42.680
308.55	42.900
308.92	45.437
309.29	44.379
309.65	44.400
310.02	45.740
310.38	43.370
310.75	45.130
311.12	44.157
311.48	44.788
311.85	45.802
312.22	43.553
312.58	44.218
312.95	44.951
313.31	46.442
313.68	45.685
314.05	45.147
314.41	45.251
314.78	46.780
315.14	46.540
315.51	46.358
315.87	45.803
316.24	47.152
316.61	46.464
316.97	46.239
317.34	47.529
317.70	47.059
318.07	49.199
318.43	48.946
318.80	47.986
319.16	49.213
319.53	48.230
319.89	47.760
320.26	48.883
320.62	49.725
320.99	49.762
321.35	48.423
321.72	50.664
322.08	50.970
322.45	50.681
322.81	50.961
323.18	50.977
323.54	52.265
323.91	51.043
324.27	50.309
324.64	49.913
325.00	49.828
325.37	49.157
325.73	48.988
326.10	50.621
326.46	50.784
326.83	50.880
327.19	51.647
327.56	51.597
327.92	52.787
328.29	51.064
328.65	52.654
329.01	52.866
329.38	50.592
329.74	51.153
330.11	52.389
330.47	52.344
330.84	51.424
331.20	51.777
331.56	52.936
331.93	53.464
332.29	51.446
332.66	52.976
333.02	50.945
333.38	51.745
333.75	50.959
334.11	51.091
334.48	52.735
334.84	50.760
335.20	50.727
335.57	50.714
335.93	49.537
336.29	48.507
336.66	52.058
337.02	51.155
337.38	51.075
337.75	51.943
338.11	52.152
338.47	51.312
338.84	50.212
339.20	51.429
339.56	50.463
339.93	48.997
340.29	49.412
340.65	50.126
341.02	50.523
341.38	50.082
341.74	50.000
342.11	48.998
342.47	48.893
342.83	50.697
343.20	48.747
343.56	48.213
343.92	48.720
344.28	49.043
344.65	48.574
345.01	48.333
345.37	47.917
345.73	48.968
346.10	47.729
346.46	48.804
346.82	48.148
347.19	47.604
347.55	47.307
347.91	47.734
348.27	47.018
348.63	47.547
349.00	47.601
349.36	47.393
349.72	47.859
350.08	48.758
350.45	47.906
350.81	47.936
351.17	46.302
351.53	47.652
351.89	46.698
352.26	46.334
352.62	45.928
352.98	48.390
353.34	46.148
353.70	45.719
354.07	45.846
354.43	47.465
354.79	46.849
355.15	47.320
355.51	47.205
355.87	46.310
356.24	45.420
356.60	45.662
356.96	46.171
357.32	46.270
357.68	46.035
358.04	45.441
358.40	46.777
358.77	45.680
359.13	46.321
359.49	43.291
359.85	45.867
360.21	44.577
360.57	44.964
360.93	46.176
361.29	44.805
361.66	46.085
362.02	44.815
362.38	44.517
362.74	45.081
363.10	44.811
363.46	44.268
363.82	44.951
364.18	44.737
364.54	45.207
364.90	45.114
365.26	45.038
365.62	45.580
365.98	44.253
366.35	43.586
366.71	44.205
367.07	43.823
367.43	43.989
367.79	43.484
368.15	42.402
368.51	44.659
368.87	44.226
369.23	44.491
369.59	43.425
369.95	44.615
370.31	44.079
370.67	43.303
371.03	44.538
371.39	43.213
371.75	43.336
372.11	43.780
372.47	44.315
372.83	43.984
373.19	43.866
373.55	43.299
373.91	41.160
374.27	43.056
374.63	43.525
374.99	42.857
375.35	43.884
375.71	43.470
376.07	42.772
376.42	42.327
376.78	41.811
377.14	44.626
377.50	42.322
377.86	41.896
378.22	43.144
378.58	43.281
378.94	44.418
379.30	41.662
379.66	43.227
380.02	43.343
380.38	40.984
380.74	42.849
381.09	42.056
381.45	41.734
381.81	41.312
382.17	41.575
382.53	40.972
382.89	41.632
383.25	41.326
383.61	41.441
383.97	40.972
384.32	42.194
384.68	43.137
385.04	42.087
385.40	41.518
385.76	40.492
386.12	42.239
386.48	41.337
386.83	41.137
387.19	42.285
387.55	40.754
387.91	42.090
388.27	41.761
388.62	40.904
388.98	40.350
389.34	40.631
389.70	41.745
390.06	40.915
390.42	40.469
390.77	40.909
391.13	41.702
391.49	40.230
391.85	41.723
392.20	40.405
392.56	40.741
392.92	39.416
393.28	40.415
393.64	39.622
393.99	40.249
394.35	39.553
394.71	40.290
395.07	39.355
395.42	39.520
395.78	39.605
396.14	41.024
396.50	39.531
396.85	38.963
397.21	39.591
397.57	40.048
397.92	38.706
398.28	39.934
398.64	39.907
399.00	38.749
399.35	39.560
399.71	40.121
400.07	39.441
400.42	40.060
400.78	38.768
401.14	38.755
401.49	38.537
401.85	39.629
402.21	38.547
402.57	38.839
402.92	38.303
403.28	38.246
403.63	39.258
403.99	39.566
404.35	39.390
404.70	39.220
405.06	37.788
405.42	38.061
405.77	37.596
406.13	38.449
406.49	37.010
406.84	37.394
407.20	38.642
407.55	38.338
407.91	38.736
408.27	37.962
408.62	38.261
408.98	38.025
409.34	38.106
409.69	38.395
410.05	37.746
410.40	37.456
410.76	37.665
411.11	36.967
411.47	37.963
411.83	36.380
412.18	36.655
412.54	38.258
412.89	36.519
413.25	37.685
413.60	37.850
413.96	37.403
414.31	36.954
414.67	38.051
415.03	37.803
415.38	38.297
415.74	37.208
416.09	37.914
416.45	38.203
416.80	39.641
417.16	37.874
417.51	37.580
417.87	37.109
418.22	37.485
418.58	38.153
418.93	36.764
419.29	37.092
419.64	37.614
420.00	39.081
420.35	38.328
420.71	37.048
421.06	37.022
421.42	37.306
421.77	37.424
422.12	37.486
422.48	36.364
422.83	37.667
423.19	37.203
423.54	35.820
423.90	37.769
424.25	37.479
424.61	38.537
424.96	36.759
425.31	37.876
425.67	38.159
426.02	36.848
426.38	37.923
426.73	37.767
427.09	37.070
427.44	37.029
427.79	36.478
428.15	38.067
428.50	39.714
428.85	38.801
429.21	38.520
429.56	37.637
429.92	37.245
430.27	38.462
430.62	37.200
430.98	37.675
431.33	37.399
431.68	36.198
432.04	38.076
432.39	38.035
432.74	37.998
433.10	38.206
433.45	39.001
433.80	38.996
434.16	37.099
434.51	38.493
434.86	38.432
435.22	38.736
435.57	37.582
435.92	38.475
436.28	38.825
436.63	38.520
436.98	38.401
437.34	38.813
437.69	37.514
438.04	38.871
438.39	38.471
438.75	38.697
439.10	38.262
439.45	38.270
439.81	39.156
440.16	38.140
440.51	38.964
440.86	39.601
441.22	38.853
441.57	39.580
441.92	38.796
442.27	38.969
442.63	38.872
442.98	38.793
443.33	39.689
443.68	40.040
444.03	38.737
444.39	39.878
444.74	39.234
445.09	39.179
445.44	39.426
445.79	39.230
446.15	39.263
446.50	40.084
446.85	40.388
447.20	39.552
447.55	40.402
447.91	40.384
448.26	39.457
448.61	40.796
448.96	39.760
449.31	40.539
449.66	40.476
450.02	39.816
450.37	40.422
450.72	40.661
451.07	41.129
451.42	40.664
451.77	40.550
452.12	40.442
452.47	40.826
452.83	40.451
453.18	41.021
453.53	39.905
453.88	40.457
454.23	40.500
454.58	39.802
454.93	39.546
455.28	39.902
455.63	41.135
455.98	40.045
456.34	40.912
456.69	40.915
457.04	40.513
457.39	40.400
457.74	41.554
458.09	40.539
458.44	40.361
458.79	40.371
459.14	39.880
459.49	40.657
459.84	41.467
460.19	40.113
460.54	41.197
460.89	40.458
461.24	38.946
461.59	40.420
461.94	40.366
462.29	40.103
462.64	40.452
462.99	41.331
463.34	41.218
463.69	41.258
464.04	41.105
464.39	40.126
464.74	40.094
465.09	40.975
465.44	41.132
465.79	40.936
466.14	39.428
466.49	41.129
466.84	40.412
467.19	40.305
467.54	40.060
467.89	40.845
468.24	38.911
468.59	39.643
468.94	39.130
469.29	39.462
469.64	40.643
469.99	40.360
470.34	40.228
470.68	39.931
471.03	39.960
471.38	39.470
471.73	39.190
472.08	41.096
472.43	39.417
472.78	40.525
473.13	38.673
473.48	39.487
473.83	40.872
474.17	40.061
474.52	40.047
474.87	38.431
475.22	40.377
475.57	38.720
475.92	39.039
476.27	38.411
476.61	38.981
476.96	39.133
477.31	39.075
477.66	40.204
478.01	39.350
478.36	39.650
478.70	38.710
479.05	39.017
479.40	39.633
479.75	40.318
480.10	38.674
480.45	39.169
480.79	39.217
481.14	39.610
481.49	38.426
481.84	39.534
482.19	39.563
482.53	37.901
482.88	39.337
483.23	39.332
483.58	38.196
483.92	39.214
484.27	38.057
484.62	39.389
484.97	39.112
485.31	38.333
485.66	39.457
486.01	39.528
486.36	39.164
486.70	38.879
487.05	38.538
487.40	38.058
487.75	37.863
488.09	37.841
488.44	38.305
488.79	37.626
489.13	38.074
489.48	38.274
489.83	37.865
490.17	37.283
490.52	38.975
490.87	37.845
491.22	38.387
491.56	38.735
491.91	37.007
492.26	37.906
492.60	38.269
492.95	38.559
493.30	37.716
493.64	38.005
493.99	37.657
494.34	37.248
494.68	38.336
495.03	38.348
495.37	38.811
495.72	38.275
496.07	37.421
496.41	38.141
496.76	38.455
497.11	39.289
497.45	37.308
497.80	37.396
498.14	37.679
498.49	37.419
498.84	37.617
499.18	37.614
499.53	38.172
499.87	37.511
500.22	38.646
500.56	38.208
500.91	38.451
501.26	38.631
501.60	37.887
501.95	37.858
502.29	37.244
502.64	37.097
502.98	36.505
503.33	37.639
503.67	37.130
504.02	37.797
504.36	37.059
504.71	37.701
505.06	36.743
505.40	37.248
505.75	37.044
506.09	37.051
506.44	36.043
506.78	38.280
507.13	37.761
507.47	36.778
507.82	37.567
508.16	37.482
508.51	37.585
508.85	36.467
509.19	37.641
509.54	37.207
509.88	38.240
510.23	37.206
510.57	36.631
510.92	37.463
511.26	37.249
511.61	36.632
511.95	36.934
512.30	35.950
512.64	36.501
512.98	36.494
513.33	36.629
513.67	36.510
514.02	36.831
514.36	36.293
514.70	37.067
515.05	35.908
515.39	36.732
515.74	37.835
516.08	36.220
516.42	38.033
516.77	36.747
517.11	36.800
517.46	36.261
517.80	36.865
518.14	36.282
518.49	35.281
518.83	35.659
519.17	36.162
519.52	36.647
519.86	37.384
520.20	36.932
520.55	35.048
520.89	35.287
521.23	36.682
521.58	35.858
521.92	36.676
522.26	34.242
522.61	36.185
522.95	36.156
523.29	35.556
523.64	34.971
523.98	34.683
524.32	35.467
524.66	36.696
525.01	34.970
525.35	35.828
525.69	36.725
526.04	36.169
526.38	35.962
526.72	35.143
527.06	34.418
527.41	36.276
527.75	35.545
528.09	35.521
528.43	34.777
528.78	35.480
529.12	36.183
529.46	35.418
529.80	34.579
530.15	35.946
530.49	36.282
530.83	35.588
531.17	34.932
531.51	34.519
531.86	34.420
532.20	35.476
532.54	35.342
532.88	35.415
533.22	35.771
533.57	35.815
533.91	34.965
534.25	34.449
534.59	35.556
534.93	34.812
535.27	34.548
535.62	34.947
535.96	34.811
536.30	36.137
536.64	34.534
536.98	34.739
537.32	34.625
537.66	33.929
538.01	34.118
538.35	35.434
538.69	35.255
539.03	34.826
539.37	34.648
539.71	34.691
540.05	35.262
540.39	35.786
540.73	34.747
541.07	34.755
541.42	35.075
541.76	35.080
542.10	35.265
542.44	35.162
542.78	34.361
543.12	34.294
543.46	33.772
543.80	35.025
544.14	34.923
544.48	35.036
544.82	34.862
545.16	33.576
545.50	34.788
545.84	35.480
546.18	35.176
546.52	36.066
546.86	35.977
547.20	33.463
547.54	34.959
547.88	33.820
548.22	34.366
548.56	34.119
548.90	34.460
549.24	35.629
549.58	34.923
549.92	34.578
550.26	36.038
550.60	33.866
550.94	34.735
551.28	34.483
551.62	34.276
551.96	34.730
552.30	34.344
552.64	35.340
552.98	34.923
553.32	33.611
553.66	34.137
554.00	33.719
554.34	34.354
554.68	35.954
555.02	34.759
555.36	33.378
555.69	34.490
556.03	33.376
556.37	34.672
556.71	35.332
557.05	32.634
557.39	34.467
557.73	34.367
558.07	34.205
558.41	33.859
558.75	34.268
559.08	34.453
559.42	34.359
559.76	34.426
560.10	33.655
560.44	34.107
560.78	35.038
561.12	34.584
561.45	34.168
561.79	33.958
562.13	34.428
562.47	33.615
562.81	34.027
563.15	34.066
563.48	33.354
563.82	35.309
564.16	35.448
564.50	34.237
564.84	34.164
565.17	33.214
565.51	35.160
565.85	35.287
566.19	34.524
566.52	32.972
566.86	34.618
567.20	33.820
567.54	34.552
567.88	35.785
568.21	34.498
568.55	34.290
568.89	35.447
569.23	34.901
569.56	35.583
569.90	35.393
570.24	35.434
570.57	35.529
570.91	34.977
571.25	35.261
571.59	35.054
571.92	34.688
572.26	34.394
572.60	34.768
572.93	34.876
573.27	34.520
573.61	35.057
573.95	34.910
574.28	35.288
574.62	34.769
574.96	34.607
575.29	34.028
575.63	34.535
575.97	33.982
576.30	34.017
576.64	34.152
576.98	34.781
577.31	35.207
577.65	35.214
577.98	35.270
578.32	35.142
578.66	35.226
578.99	34.970
579.33	35.205
579.67	34.456
580.00	34.327
580.34	35.002
580.67	34.474
581.01	35.133
581.35	34.904
581.68	35.335
582.02	36.095
582.35	35.553
582.69	35.800
583.02	35.198
583.36	34.972
583.70	34.724
584.03	35.496
584.37	35.235
584.70	35.083
585.04	35.070
585.37	35.054
585.71	35.888
586.04	35.202
586.38	35.193
586.72	35.367
587.05	35.280
587.39	35.044
587.72	35.423
588.06	35.535
588.39	35.312
588.73	35.304
589.06	35.366
589.40	35.430
589.73	34.448
590.07	35.724
590.40	35.784
590.73	36.467
591.07	35.294
591.40	35.050
591.74	34.862
592.07	34.567
592.41	35.492
592.74	35.591
593.08	34.798
593.41	35.338
593.75	34.876
594.08	35.387
594.41	35.093
594.75	35.068
595.08	34.739
595.42	35.155
595.75	35.143
596.09	35.176
596.42	34.741
596.75	36.579
597.09	34.998
597.42	34.735
597.75	33.834
598.09	35.371
598.42	35.292
598.76	34.464
599.09	35.748
599.42	35.121
599.76	35.312
600.09	34.780
600.42	34.841
600.76	34.364
601.09	34.967
601.42	35.199
601.76	35.374
602.09	35.210
602.42	34.344
602.76	34.991
603.09	35.256
603.42	36.037
603.76	35.286
604.09	34.600
604.42	34.501
604.76	34.374
605.09	35.224
605.42	35.351
605.75	35.057
606.09	36.151
606.42	35.475
606.75	34.707
607.09	33.754
607.42	34.753
607.75	34.475
608.08	33.834
608.42	34.899
608.75	33.761
609.08	34.888
609.41	34.636
609.75	35.073
610.08	34.982
610.41	35.002
610.74	34.675
611.07	35.152
611.41	34.986
611.74	35.038
612.07	34.923
612.40	34.016
612.73	35.946
613.07	34.212
613.40	34.787
613.73	35.047
614.06	34.250
614.39	34.242
614.72	35.309
615.06	33.828
615.39	34.653
615.72	34.076
616.05	35.409
616.38	34.348
616.71	33.858
617.05	34.487
617.38	33.315
617.71	34.533
618.04	34.717
618.37	34.908
618.70	33.834
619.03	33.578
619.36	34.359
619.69	33.245
620.03	35.225
620.36	34.618
620.69	34.483
621.02	33.967
621.35	33.954
621.68	32.670
622.01	33.284
622.34	32.775
622.67	34.129
623.00	34.173
623.33	33.873
623.66	34.398
623.99	35.137
624.32	33.604
624.65	34.299
624.99	35.565
625.32	34.135
625.65	32.897
625.98	33.124
626.31	33.383
626.64	34.017
626.97	32.747
627.30	34.006
627.63	34.301
627.96	33.568
628.29	33.993
628.62	32.934
628.95	34.043
629.28	32.515
629.61	33.568
629.94	32.844
630.26	34.662
630.59	33.599
630.92	33.632
