SpectraSuite Data File
++++++++++++++++++++++++++++++++++++
Date: Tue May 12 17:11:27 PDT 2015
User: schluterlab
Dark Spectrum Present: Yes
Reference Spectrum Present: Yes
Number of Sampled Component Spectra: 1
Spectrometers: USB2E3373
Integration Time (usec): 3000 (USB2E3373)
Spectra Averaged: 3 (USB2E3373)
Boxcar Smoothing: 0 (USB2E3373)
Correct for Electrical Dark: No (USB2E3373)
Strobe/Lamp Enabled: No (USB2E3373)
Correct for Detector Non-linearity: No (USB2E3373)
Correct for Stray Light: No (USB2E3373)
Number of Pixels in Processed Spectrum: 2048
>>>>>Begin Processed Spectral Data<<<<<
178.53	0.000
178.91	-191.667
179.29	-625.000
179.67	-4100.000
180.04	-126.667
180.42	650.000
180.80	1950.000
181.18	0.000
181.56	-250.000
181.94	0.000
182.31	766.667
182.69	-3400.000
183.07	485.714
183.45	-3600.000
183.83	-1850.000
184.20	350.000
184.58	471.429
184.96	-207.692
185.34	-208.333
185.72	1500.000
186.09	-700.000
186.47	-3200.000
186.85	1000.000
187.23	500.000
187.61	1850.000
187.98	475.000
188.36	235.714
188.74	341.667
189.12	233.333
189.49	800.000
189.87	0.000
190.25	512.500
190.63	1700.000
191.00	-183.333
191.38	-2500.000
191.76	-725.000
192.14	512.500
192.51	-3100.000
192.89	1650.000
193.27	1000.000
193.65	-800.000
194.02	-580.000
194.40	614.286
194.78	-157.143
195.15	240.000
195.53	-3300.000
195.91	-540.000
196.29	4100.000
196.66	200.000
197.04	800.000
197.42	-1400.000
197.79	450.000
198.17	275.000
198.55	0.000
198.92	400.000
199.30	1266.667
199.68	1600.000
200.05	566.667
200.43	-316.667
200.81	161.111
201.18	2600.000
201.56	241.667
201.94	-700.000
202.31	-312.500
202.69	-520.000
203.07	3300.000
203.44	-400.000
203.82	325.000
204.19	660.000
204.57	-1050.000
204.95	-650.000
205.32	-660.000
205.70	666.667
206.08	725.000
206.45	-900.000
206.83	322.222
207.20	205.263
207.58	258.333
207.96	840.000
208.33	0.000
208.71	428.571
209.08	460.000
209.46	-3600.000
209.84	-625.000
210.21	980.000
210.59	-540.000
210.96	258.333
211.34	-850.000
211.71	309.091
212.09	1125.000
212.46	1450.000
212.84	-516.667
213.22	500.000
213.59	-2000.000
213.97	310.000
214.34	800.000
214.72	1000.000
215.09	866.667
215.47	-2200.000
215.84	-230.000
216.22	-450.000
216.59	0.000
216.97	0.000
217.34	1550.000
217.72	-1600.000
218.09	966.667
218.47	475.000
218.84	775.000
219.22	700.000
219.59	1133.333
219.97	600.000
220.34	288.889
220.72	1350.000
221.09	2900.000
221.47	275.000
221.84	966.667
222.22	380.000
222.59	261.111
222.97	285.714
223.34	256.250
223.72	-1650.000
224.09	1133.333
224.46	361.538
224.84	-925.000
225.21	400.000
225.59	293.333
225.96	1366.667
226.34	-620.000
226.71	-950.000
227.08	-520.000
227.46	0.000
227.83	-366.667
228.21	-1700.000
228.58	358.333
228.95	1000.000
229.33	411.111
229.70	925.000
230.08	323.077
230.45	3700.000
230.82	-800.000
231.20	-800.000
231.57	-900.000
231.95	400.000
232.32	333.333
232.69	450.000
233.07	341.667
233.44	-1250.000
233.81	213.333
234.19	177.778
234.56	181.250
234.93	205.882
235.31	215.000
235.68	287.500
236.05	178.571
236.43	188.889
236.80	257.143
237.17	200.000
237.55	156.250
237.92	127.500
238.29	106.061
238.67	112.500
239.04	104.878
239.41	91.667
239.79	115.000
240.16	87.500
240.53	67.213
240.91	72.464
241.28	81.356
241.65	65.152
242.02	83.099
242.40	82.857
242.77	61.538
243.14	68.354
243.51	61.616
243.89	53.271
244.26	57.009
244.63	63.366
245.00	58.716
245.38	44.068
245.75	49.242
246.12	54.815
246.49	51.773
246.87	53.279
247.24	56.000
247.61	46.250
247.98	51.701
248.36	42.424
248.73	50.510
249.10	49.405
249.47	45.000
249.84	46.766
250.22	49.730
250.59	42.000
250.96	40.928
251.33	47.442
251.70	46.429
252.08	44.538
252.45	43.426
252.82	38.783
253.19	42.292
253.56	42.308
253.94	44.565
254.31	40.310
254.68	40.767
255.05	42.069
255.42	41.971
255.79	40.717
256.16	45.763
256.54	40.260
256.91	39.869
257.28	38.796
257.65	33.542
258.02	38.053
258.39	38.395
258.76	41.159
259.14	35.714
259.51	39.650
259.88	42.553
260.25	36.264
260.62	36.164
260.99	35.813
261.36	37.883
261.73	35.106
262.10	37.435
262.47	34.500
262.85	36.000
263.22	41.388
263.59	36.061
263.96	38.095
264.33	35.309
264.70	36.855
265.07	36.585
265.44	36.697
265.81	37.972
266.18	34.096
266.55	36.879
266.92	32.886
267.29	35.526
267.66	35.202
268.03	34.529
268.40	34.038
268.77	35.463
269.14	33.406
269.51	35.635
269.88	33.673
270.25	29.590
270.62	34.335
270.99	35.091
271.36	34.959
271.73	32.495
272.10	33.333
272.47	31.151
272.84	29.940
273.21	33.471
273.58	34.413
273.95	32.033
274.32	32.685
274.69	33.465
275.06	34.791
275.43	33.716
275.80	33.208
276.17	31.434
276.54	31.963
276.91	32.276
277.28	31.387
277.65	32.288
278.02	32.721
278.39	32.374
278.76	32.069
279.13	32.562
279.50	33.818
279.87	29.423
280.23	30.203
280.60	32.117
280.97	33.448
281.34	31.023
281.71	31.130
282.08	32.991
282.45	30.068
282.82	31.271
283.19	31.161
283.56	30.248
283.92	31.759
284.29	31.947
284.66	31.933
285.03	31.177
285.40	31.570
285.77	30.093
286.14	32.508
286.51	31.135
286.87	30.063
287.24	29.129
287.61	30.699
287.98	32.239
288.35	31.852
288.72	31.108
289.08	32.282
289.45	30.945
289.82	31.250
290.19	30.307
290.56	34.061
290.93	32.950
291.29	31.492
291.66	31.497
292.03	31.136
292.40	32.385
292.77	31.476
293.13	29.672
293.50	32.928
293.87	32.385
294.24	33.147
294.60	33.513
294.97	34.545
295.34	32.669
295.71	34.823
296.08	34.933
296.44	32.910
296.81	33.251
297.18	32.066
297.55	34.113
297.91	33.251
298.28	33.454
298.65	33.252
299.02	34.017
299.38	33.693
299.75	32.683
300.12	33.486
300.48	36.651
300.85	34.327
301.22	34.884
301.59	34.198
301.95	34.772
302.32	34.226
302.69	35.294
303.05	35.578
303.42	34.529
303.79	36.295
304.15	34.433
304.52	34.778
304.89	33.689
305.25	36.485
305.62	34.968
305.99	35.217
306.35	36.421
306.72	36.837
307.09	35.921
307.45	35.269
307.82	35.494
308.19	34.948
308.55	34.500
308.92	36.408
309.29	36.095
309.65	37.364
310.02	37.018
310.38	35.992
310.75	35.776
311.12	35.249
311.48	37.162
311.85	36.641
312.22	36.390
312.58	37.609
312.95	37.961
313.31	37.266
313.68	36.961
314.05	37.821
314.41	37.430
314.78	37.973
315.14	39.526
315.51	37.370
315.87	36.861
316.24	37.442
316.61	38.496
316.97	37.890
317.34	38.904
317.70	41.001
318.07	40.302
318.43	39.192
318.80	39.580
319.16	40.472
319.53	40.177
319.89	39.427
320.26	42.551
320.62	41.117
320.99	41.849
321.35	41.187
321.72	42.979
322.08	43.213
322.45	43.506
322.81	43.641
323.18	44.849
323.54	45.296
323.91	46.056
324.27	45.447
324.64	45.588
325.00	47.155
325.37	47.470
325.73	47.892
326.10	49.213
326.46	49.628
326.83	47.920
327.19	49.478
327.56	50.000
327.92	49.918
328.29	49.509
328.65	51.199
329.01	51.754
329.38	51.184
329.74	49.530
330.11	52.389
330.47	52.259
330.84	50.388
331.20	49.831
331.56	52.073
331.93	51.240
332.29	49.235
332.66	51.871
333.02	51.375
333.38	52.618
333.75	50.626
334.11	51.342
334.48	50.342
334.84	50.507
335.20	51.411
335.57	50.630
335.93	50.042
336.29	49.502
336.66	52.573
337.02	49.872
337.38	51.075
337.75	50.845
338.11	51.814
338.47	50.635
338.84	50.720
339.20	50.043
339.56	51.135
339.93	49.582
340.29	49.832
340.65	49.371
341.02	49.477
341.38	49.672
341.74	50.498
342.11	50.584
342.47	48.400
342.83	52.174
343.20	51.011
343.56	47.975
343.92	49.463
344.28	49.362
344.65	50.774
345.01	50.079
345.37	49.119
345.73	47.698
346.10	49.004
346.46	50.638
346.82	48.920
347.19	49.227
347.55	49.961
347.91	48.414
348.27	48.102
348.63	49.288
349.00	48.591
349.36	48.638
349.72	48.853
350.08	49.922
350.45	50.267
350.81	48.547
351.17	48.536
351.53	49.038
351.89	49.340
352.26	49.433
352.62	49.548
352.98	48.773
353.34	50.385
353.70	48.318
354.07	49.308
354.43	49.078
354.79	48.443
355.15	49.005
355.51	48.867
355.87	49.473
356.24	49.808
356.60	48.478
356.96	49.431
357.32	48.757
357.68	48.605
358.04	49.696
358.40	50.375
358.77	49.662
359.13	48.273
359.49	49.296
359.85	50.261
360.21	48.886
360.57	50.146
360.93	49.567
361.29	47.835
361.66	50.037
362.02	48.224
362.38	50.216
362.74	49.682
363.10	49.790
363.46	48.204
363.82	48.878
364.18	50.000
364.54	51.001
364.90	49.598
365.26	50.104
365.62	48.204
365.98	48.727
366.35	48.552
366.71	49.965
367.07	50.239
367.43	48.086
367.79	49.003
368.15	47.218
368.51	49.552
368.87	48.845
369.23	49.064
369.59	50.236
369.95	49.650
370.31	47.707
370.67	48.022
371.03	49.090
371.39	48.961
371.75	49.267
372.11	47.927
372.47	48.151
372.83	49.966
373.19	48.526
373.55	47.560
373.91	48.343
374.27	48.611
374.63	48.949
374.99	48.585
375.35	50.202
375.71	49.077
376.07	49.271
376.42	46.355
376.78	49.133
377.14	48.689
377.50	47.690
377.86	47.662
378.22	47.410
378.58	48.789
378.94	47.133
379.30	49.060
379.66	48.826
380.02	48.680
380.38	46.897
380.74	47.982
381.09	48.657
381.45	47.803
381.81	47.163
382.17	46.764
382.53	46.851
382.89	47.960
383.25	47.365
383.61	47.839
383.97	46.971
384.32	47.920
384.68	49.020
385.04	47.011
385.40	47.272
385.76	47.162
386.12	46.444
386.48	47.599
386.83	47.677
387.19	47.644
387.55	46.290
387.91	46.940
388.27	47.650
388.62	47.359
388.98	46.531
389.34	45.687
389.70	45.814
390.06	47.073
390.42	45.342
390.77	46.560
391.13	45.745
391.49	45.614
391.85	46.954
392.20	45.769
392.56	46.774
392.92	44.413
393.28	44.507
393.64	45.069
393.99	45.287
394.35	45.203
394.71	45.054
395.07	44.830
395.42	45.609
395.78	45.589
396.14	44.337
396.50	44.946
396.85	44.573
397.21	45.006
397.57	43.933
397.92	44.079
398.28	44.126
398.64	44.677
399.00	43.239
399.35	43.693
399.71	42.715
400.07	43.779
400.42	42.985
400.78	43.519
401.14	43.100
401.49	43.548
401.85	43.395
402.21	42.882
402.57	44.165
402.92	42.606
403.28	42.422
403.63	42.142
403.99	42.702
404.35	42.966
404.70	43.178
405.06	42.729
405.42	42.130
405.77	41.896
406.13	41.377
406.49	40.762
406.84	41.399
407.20	42.009
407.55	41.046
407.91	42.183
408.27	42.693
408.62	41.277
408.98	41.691
409.34	41.029
409.69	40.510
410.05	41.205
410.40	41.343
410.76	39.840
411.11	40.699
411.47	41.914
411.83	40.012
412.18	41.365
412.54	40.060
412.89	40.767
413.25	39.795
413.60	39.953
413.96	40.575
414.31	40.909
414.67	41.651
415.03	40.613
415.38	41.577
415.74	40.682
416.09	40.725
416.45	40.465
416.80	42.014
417.16	40.420
417.51	40.955
417.87	40.801
418.22	41.069
418.58	40.955
418.93	40.333
419.29	40.357
419.64	40.521
420.00	41.229
420.35	41.057
420.71	40.782
421.06	40.553
421.42	41.278
421.77	40.811
422.12	39.967
422.48	40.267
422.83	41.964
423.19	41.523
423.54	41.251
423.90	42.129
424.25	41.277
424.61	41.788
424.96	41.276
425.31	41.817
425.67	42.705
426.02	43.017
426.38	41.132
426.73	43.436
427.09	43.179
427.44	41.756
427.79	43.511
428.15	43.489
428.50	43.314
428.85	43.092
429.21	43.166
429.56	41.775
429.92	42.069
430.27	41.896
430.62	41.948
430.98	42.216
431.33	43.145
431.68	40.642
432.04	42.783
432.39	42.700
432.74	43.326
433.10	43.189
433.45	43.998
433.80	43.905
434.16	42.932
434.51	44.118
434.86	43.440
435.22	43.112
435.57	43.865
435.92	44.963
436.28	45.392
436.63	43.706
436.98	45.045
437.34	44.578
437.69	43.337
438.04	43.871
438.39	43.900
438.75	45.045
439.10	44.037
439.45	43.810
439.81	44.708
440.16	44.579
440.51	44.482
440.86	45.413
441.22	43.615
441.57	44.567
441.92	43.781
442.27	44.742
442.63	43.852
442.98	44.558
443.33	44.242
443.68	43.913
444.03	43.685
444.39	44.868
444.74	43.996
445.09	44.286
445.44	44.315
445.79	44.932
446.15	44.526
446.50	45.095
446.85	45.518
447.20	43.831
447.55	44.916
447.91	44.912
448.26	44.356
448.61	45.329
448.96	46.133
449.31	45.270
449.66	44.961
450.02	45.381
450.37	44.642
450.72	45.565
451.07	45.433
451.42	45.584
451.77	45.304
452.12	44.867
452.47	46.233
452.83	45.352
453.18	45.946
453.53	46.418
453.88	45.543
454.23	45.439
454.58	44.755
454.93	45.003
455.28	46.389
455.63	46.986
455.98	45.234
456.34	47.052
456.69	45.366
457.04	45.764
457.39	45.371
457.74	46.227
458.09	44.975
458.44	45.290
458.79	44.987
459.14	45.063
459.49	45.527
459.84	46.359
460.19	44.746
460.54	45.584
460.89	45.256
461.24	44.674
461.59	45.635
461.94	45.449
462.29	46.396
462.64	46.796
462.99	46.897
463.34	46.533
463.69	46.098
464.04	47.438
464.39	44.934
464.74	44.197
465.09	45.560
465.44	46.137
465.79	45.346
466.14	44.303
466.49	44.710
466.84	44.928
467.19	45.577
467.54	45.345
467.89	46.185
468.24	46.034
468.59	45.119
468.94	46.739
469.29	46.365
469.64	45.788
469.99	47.237
470.34	46.426
470.68	47.655
471.03	46.898
471.38	47.417
471.73	44.938
472.08	47.423
472.43	47.114
472.78	46.543
473.13	45.557
473.48	46.577
473.83	46.349
474.17	46.261
474.52	46.386
474.87	45.367
475.22	46.659
475.57	45.068
475.92	45.733
476.27	45.212
476.61	45.416
476.96	45.089
477.31	46.530
477.66	46.377
478.01	44.714
478.36	45.623
478.70	44.566
479.05	46.182
479.40	45.883
479.75	46.375
480.10	44.869
480.45	45.051
480.79	45.392
481.14	45.411
481.49	44.236
481.84	44.195
482.19	44.891
482.53	44.049
482.88	45.430
483.23	45.241
483.58	45.377
483.92	45.201
484.27	44.221
484.62	44.822
484.97	43.475
485.31	42.728
485.66	40.959
486.01	39.862
486.36	39.102
486.70	39.388
487.05	40.061
487.40	40.907
487.75	41.053
488.09	41.733
488.44	41.842
488.79	42.763
489.13	43.636
489.48	44.307
489.83	44.495
490.17	44.426
490.52	45.909
490.87	44.440
491.22	45.257
491.56	45.323
491.91	44.355
492.26	45.657
492.60	45.285
492.95	45.220
493.30	45.177
493.64	44.699
493.99	44.454
494.34	44.778
494.68	44.223
495.03	44.903
495.37	45.610
495.72	45.315
496.07	44.564
496.41	44.570
496.76	43.985
497.11	44.473
497.45	44.235
497.80	45.783
498.14	44.429
498.49	45.450
498.84	46.589
499.18	44.516
499.53	45.429
499.87	44.564
500.22	45.094
500.56	45.311
500.91	45.315
501.26	45.843
501.60	44.353
501.95	44.355
502.29	44.400
502.64	43.846
502.98	44.242
503.33	44.232
503.67	43.753
504.02	44.066
504.36	44.027
504.71	45.459
505.06	44.064
505.40	44.361
505.75	45.416
506.09	45.310
506.44	45.348
506.78	45.652
507.13	45.856
507.47	44.881
507.82	45.499
508.16	46.791
508.51	45.362
508.85	44.349
509.19	44.787
509.54	44.678
509.88	45.599
510.23	45.490
510.57	44.208
510.92	46.254
511.26	45.984
511.61	45.692
511.95	45.097
512.30	45.050
512.64	45.794
512.98	45.566
513.33	45.594
513.67	46.142
514.02	46.182
514.36	46.625
514.70	46.507
515.05	46.670
515.39	46.930
515.74	47.731
516.08	46.242
516.42	47.650
516.77	46.187
517.11	46.560
517.46	46.713
517.80	46.641
518.14	47.380
518.49	47.850
518.83	45.549
519.17	46.922
519.52	46.860
519.86	47.575
520.20	47.507
520.55	46.580
520.89	47.414
521.23	47.956
521.58	46.816
521.92	47.872
522.26	47.986
522.61	48.366
522.95	48.408
523.29	47.076
523.64	46.936
523.98	47.477
524.32	47.924
524.66	47.594
525.01	47.574
525.35	47.613
525.69	48.405
526.04	46.996
526.38	47.734
526.72	47.017
527.06	46.127
527.41	47.340
527.75	48.631
528.09	46.358
528.43	48.261
528.78	47.227
529.12	48.645
529.46	46.990
529.80	47.138
530.15	46.081
530.49	45.848
530.83	47.471
531.17	47.847
531.51	46.597
531.86	46.377
532.20	46.910
532.54	46.516
532.88	47.096
533.22	47.654
533.57	46.065
533.91	45.396
534.25	45.528
534.59	46.433
534.93	45.677
535.27	44.963
535.62	45.741
535.96	46.158
536.30	46.557
536.64	45.590
536.98	46.067
537.32	46.562
537.66	45.217
538.01	45.635
538.35	45.352
538.69	44.782
539.03	44.714
539.37	45.388
539.71	45.309
540.05	45.169
540.39	46.730
540.73	44.873
541.07	43.789
541.42	44.963
541.76	45.068
542.10	45.191
542.44	45.885
542.78	45.060
543.12	45.215
543.46	44.674
543.80	45.927
544.14	45.820
544.48	45.803
544.82	44.648
545.16	44.444
545.50	45.790
545.84	44.697
546.18	46.814
546.52	45.836
546.86	45.777
547.20	43.540
547.54	44.395
547.88	43.735
548.22	45.416
548.56	42.664
548.90	43.001
549.24	45.736
549.58	44.781
549.92	44.859
550.26	45.030
550.60	45.309
550.94	47.422
551.28	46.828
551.62	45.931
551.96	45.135
552.30	43.309
552.64	45.113
552.98	43.814
553.32	45.070
553.66	44.951
554.00	44.208
554.34	46.338
554.68	45.296
555.02	44.739
555.36	44.814
555.69	43.979
556.03	44.713
556.37	43.276
556.71	45.306
557.05	42.857
557.39	44.333
557.73	44.542
558.07	44.534
558.41	46.950
558.75	45.075
559.08	45.604
559.42	46.027
559.76	46.329
560.10	45.561
560.44	43.928
560.78	44.373
561.12	44.501
561.45	44.180
561.79	43.758
562.13	42.704
562.47	43.348
562.81	43.722
563.15	44.150
563.48	42.236
563.82	45.664
564.16	44.652
564.50	42.435
564.84	41.581
565.17	43.137
565.51	44.643
565.85	43.677
566.19	42.262
566.52	42.238
566.86	43.491
567.20	41.854
567.54	42.904
567.88	40.845
568.21	40.240
568.55	39.835
568.89	40.237
569.23	38.956
569.56	38.498
569.90	36.903
570.24	36.831
570.57	36.600
570.91	35.008
571.25	35.913
571.59	34.490
571.92	34.419
572.26	34.501
572.60	34.268
572.93	35.566
573.27	34.291
573.61	33.785
573.95	33.566
574.28	34.222
574.62	33.093
574.96	32.979
575.29	32.873
575.63	33.051
575.97	32.790
576.30	32.777
576.64	32.985
576.98	32.412
577.31	32.900
577.65	32.070
577.98	32.057
578.32	31.913
578.66	32.096
578.99	32.641
579.33	32.747
579.67	32.402
580.00	32.699
580.34	32.700
580.67	32.953
581.01	32.126
581.35	31.882
581.68	31.410
582.02	31.077
582.35	31.454
582.69	31.621
583.02	31.781
583.36	32.820
583.70	33.180
584.03	33.532
584.37	33.342
584.70	32.695
585.04	32.429
585.37	31.830
585.71	32.337
586.04	32.150
586.38	33.014
586.72	33.076
587.05	33.685
587.39	33.249
587.72	32.935
588.06	32.481
588.39	32.958
588.73	33.342
589.06	33.878
589.40	34.429
589.73	34.218
590.07	35.827
590.40	35.645
590.73	36.577
591.07	35.939
591.40	35.768
591.74	35.755
592.07	35.316
592.41	35.691
592.74	34.749
593.08	33.984
593.41	33.214
593.75	32.914
594.08	33.754
594.41	33.659
594.75	34.315
595.08	33.916
595.42	34.595
595.75	33.761
596.09	34.967
596.42	34.523
596.75	35.777
597.09	35.906
597.42	34.612
597.75	35.051
598.09	34.797
598.42	34.639
598.76	34.079
599.09	34.461
599.42	33.287
599.76	33.752
600.09	34.000
600.42	34.151
600.76	33.243
601.09	33.586
601.42	33.193
601.76	34.157
602.09	34.143
602.42	33.567
602.76	33.586
603.09	34.766
603.42	34.459
603.76	34.129
604.09	34.672
604.42	34.350
604.76	33.860
605.09	34.449
605.42	34.458
605.75	34.465
606.09	34.583
606.42	33.371
606.75	34.279
607.09	34.110
607.42	34.110
607.75	34.355
608.08	34.444
608.42	34.815
608.75	34.874
609.08	34.756
609.41	34.818
609.75	35.760
610.08	35.701
610.41	35.354
610.74	34.762
611.07	36.198
611.41	35.496
611.74	35.229
612.07	35.549
612.40	36.062
612.73	36.645
613.07	35.834
613.40	35.890
613.73	36.046
614.06	35.350
614.39	35.707
614.72	35.761
615.06	35.559
615.39	36.782
615.72	35.431
616.05	36.313
616.38	35.261
616.71	37.059
617.05	36.903
617.38	36.404
617.71	37.795
618.04	35.726
618.37	36.076
618.70	37.356
619.03	37.118
619.36	39.322
619.69	38.522
620.03	38.487
620.36	38.343
620.69	39.272
621.02	38.791
621.35	38.610
621.68	38.864
622.01	40.369
622.34	39.476
622.67	39.747
623.00	40.231
623.33	38.596
623.66	37.658
623.99	39.247
624.32	39.431
624.65	37.591
624.99	38.878
625.32	38.744
625.65	37.586
625.98	38.633
626.31	39.911
626.64	40.623
626.97	40.015
627.30	40.062
627.63	40.424
627.96	38.967
628.29	40.429
628.62	40.376
628.95	43.085
629.28	42.244
629.61	42.970
629.94	40.709
630.26	42.028
630.59	42.110
630.92	42.780
631.25	42.248
