SpectraSuite Data File
++++++++++++++++++++++++++++++++++++
Date: Tue May 12 17:07:54 PDT 2015
User: schluterlab
Dark Spectrum Present: Yes
Reference Spectrum Present: Yes
Number of Sampled Component Spectra: 1
Spectrometers: USB2E3373
Integration Time (usec): 3000 (USB2E3373)
Spectra Averaged: 3 (USB2E3373)
Boxcar Smoothing: 0 (USB2E3373)
Correct for Electrical Dark: No (USB2E3373)
Strobe/Lamp Enabled: No (USB2E3373)
Correct for Detector Non-linearity: No (USB2E3373)
Correct for Stray Light: No (USB2E3373)
Number of Pixels in Processed Spectrum: 2048
>>>>>Begin Processed Spectral Data<<<<<
178.53	0.000
178.91	-191.667
179.29	-650.000
179.67	-3700.000
180.04	-166.667
180.42	900.000
180.80	1450.000
181.18	0.000
181.56	-287.500
181.94	0.000
182.31	1233.333
182.69	-3600.000
183.07	657.143
183.45	-4100.000
183.83	-1900.000
184.20	380.000
184.58	471.429
184.96	-207.692
185.34	-225.000
185.72	1450.000
186.09	-1050.000
186.47	-3800.000
186.85	1233.333
187.23	680.000
187.61	1600.000
187.98	437.500
188.36	264.286
188.74	283.333
189.12	333.333
189.49	650.000
189.87	0.000
190.25	462.500
190.63	3100.000
191.00	-283.333
191.38	-3300.000
191.76	-850.000
192.14	637.500
192.51	-3000.000
192.89	1450.000
193.27	1200.000
193.65	-1200.000
194.02	-500.000
194.40	542.857
194.78	-192.857
195.15	293.333
195.53	-2600.000
195.91	-580.000
196.29	5000.000
196.66	225.000
197.04	850.000
197.42	-1450.000
197.79	700.000
198.17	358.333
198.55	0.000
198.92	514.286
199.30	833.333
199.68	1900.000
200.05	566.667
200.43	-500.000
200.81	250.000
201.18	3500.000
201.56	250.000
201.94	-650.000
202.31	-325.000
202.69	-420.000
203.07	3300.000
203.44	-283.333
203.82	300.000
204.19	560.000
204.57	-900.000
204.95	-900.000
205.32	-680.000
205.70	700.000
206.08	750.000
206.45	-633.333
206.83	366.667
207.20	189.474
207.58	283.333
207.96	800.000
208.33	0.000
208.71	457.143
209.08	780.000
209.46	-2900.000
209.84	-950.000
210.21	1000.000
210.59	-420.000
210.96	350.000
211.34	-1050.000
211.71	318.182
212.09	750.000
212.46	1500.000
212.84	-350.000
213.22	333.333
213.59	-2900.000
213.97	390.000
214.34	875.000
214.72	1333.333
215.09	1133.333
215.47	-2300.000
215.84	-330.000
216.22	-362.500
216.59	0.000
216.97	0.000
217.34	1100.000
217.72	-1500.000
218.09	1100.000
218.47	400.000
218.84	825.000
219.22	1100.000
219.59	1200.000
219.97	528.571
220.34	400.000
220.72	1650.000
221.09	2800.000
221.47	225.000
221.84	966.667
222.22	310.000
222.59	250.000
222.97	235.714
223.34	200.000
223.72	-1550.000
224.09	1100.000
224.46	223.077
224.84	-450.000
225.21	422.222
225.59	253.333
225.96	1533.333
226.34	-740.000
226.71	-575.000
227.08	-420.000
227.46	0.000
227.83	-400.000
228.21	-1600.000
228.58	283.333
228.95	875.000
229.33	377.778
229.70	1050.000
230.08	338.462
230.45	2300.000
230.82	-550.000
231.20	-1000.000
231.57	-1166.667
231.95	660.000
232.32	283.333
232.69	583.333
233.07	300.000
233.44	-1150.000
233.81	240.000
234.19	162.963
234.56	231.250
234.93	200.000
235.31	230.000
235.68	237.500
236.05	164.286
236.43	125.926
236.80	221.429
237.17	144.828
237.55	159.375
237.92	112.500
238.29	118.182
238.67	128.125
239.04	117.073
239.41	93.750
239.79	102.500
240.16	87.500
240.53	72.131
240.91	68.116
241.28	83.051
241.65	77.273
242.02	83.099
242.40	75.714
242.77	67.033
243.14	62.025
243.51	80.808
243.89	57.944
244.26	61.682
244.63	59.406
245.00	57.798
245.38	50.847
245.75	56.061
246.12	55.556
246.49	44.681
246.87	49.180
247.24	54.667
247.61	56.250
247.98	53.741
248.36	44.848
248.73	52.551
249.10	42.262
249.47	45.500
249.84	44.279
250.22	44.324
250.59	42.500
250.96	40.506
251.33	37.209
251.70	45.089
252.08	45.378
252.45	43.825
252.82	38.403
253.19	38.735
253.56	37.692
253.94	40.580
254.31	38.372
254.68	39.721
255.05	39.655
255.42	39.051
255.79	36.156
256.16	41.017
256.54	39.286
256.91	41.830
257.28	33.779
257.65	38.558
258.02	34.808
258.39	39.828
258.76	40.870
259.14	34.286
259.51	38.484
259.88	37.386
260.25	33.791
260.62	36.986
260.99	31.680
261.36	37.604
261.73	34.574
262.10	37.173
262.47	36.000
262.85	36.267
263.22	34.961
263.59	34.015
263.96	37.093
264.33	32.840
264.70	33.907
265.07	36.585
265.44	34.404
265.81	33.491
266.18	34.554
266.55	35.461
266.92	33.781
267.29	35.307
267.66	34.529
268.03	32.511
268.40	30.867
268.77	35.683
269.14	31.020
269.51	36.748
269.88	31.837
270.25	33.261
270.62	32.189
270.99	33.063
271.36	33.943
271.73	34.591
272.10	31.313
272.47	31.548
272.84	31.337
273.21	31.612
273.58	33.198
273.95	33.265
274.32	31.323
274.69	32.283
275.06	33.333
275.43	30.651
275.80	30.755
276.17	31.066
276.54	33.645
276.91	33.955
277.28	31.204
277.65	33.026
278.02	31.250
278.39	32.554
278.76	29.828
279.13	30.961
279.50	34.545
279.87	32.402
280.23	29.466
280.60	33.577
280.97	31.207
281.34	30.858
281.71	31.652
282.08	31.111
282.45	31.250
282.82	29.264
283.19	32.114
283.56	28.264
283.92	29.316
284.29	30.283
284.66	28.908
285.03	29.851
285.40	28.595
285.77	29.784
286.14	28.947
286.51	29.908
286.87	28.323
287.24	28.078
287.61	26.444
287.98	29.403
288.35	28.889
288.72	28.225
289.08	27.177
289.45	28.354
289.82	29.688
290.19	27.672
290.56	28.675
290.93	28.921
291.29	26.934
291.66	26.836
292.03	26.928
292.40	27.236
292.77	27.855
293.13	28.245
293.50	26.451
293.87	23.442
294.24	24.755
294.60	28.129
294.97	26.993
295.34	26.560
295.71	25.230
296.08	26.133
296.44	26.429
296.81	26.551
297.18	23.828
297.55	24.507
297.91	23.030
298.28	25.725
298.65	25.153
299.02	24.246
299.38	23.981
299.75	23.171
300.12	25.573
300.48	24.239
300.85	25.030
301.22	23.605
301.59	23.467
301.95	24.037
302.32	23.632
302.69	23.303
303.05	25.253
303.42	22.309
303.79	24.377
304.15	22.662
304.52	23.890
304.89	24.840
305.25	23.582
305.62	23.241
305.99	23.152
306.35	22.947
306.72	22.893
307.09	22.153
307.45	23.020
307.82	22.942
308.19	23.299
308.55	22.500
308.92	23.553
309.29	23.767
309.65	21.804
310.02	23.022
310.38	22.632
310.75	22.662
311.12	21.648
311.48	24.228
311.85	21.374
312.22	23.305
312.58	22.352
312.95	22.330
313.31	23.034
313.68	21.482
314.05	22.527
314.41	20.950
314.78	20.833
315.14	22.844
315.51	21.570
315.87	22.901
316.24	22.035
316.61	21.755
316.97	22.202
317.34	22.911
317.70	21.510
318.07	23.132
318.43	22.759
318.80	21.629
319.16	22.028
319.53	22.212
319.89	20.699
320.26	22.998
320.62	21.703
320.99	22.021
321.35	22.727
321.72	21.822
322.08	21.237
322.45	21.617
322.81	21.317
323.18	21.847
323.54	21.864
323.91	22.393
324.27	21.839
324.64	21.280
325.00	21.810
325.37	22.597
325.73	21.248
326.10	22.452
326.46	21.800
326.83	20.480
327.19	21.687
327.56	21.885
327.92	21.475
328.29	22.913
328.65	22.175
329.01	22.070
329.38	20.643
329.74	20.410
330.11	21.025
330.47	20.887
330.84	20.621
331.20	20.812
331.56	22.193
331.93	21.557
332.29	20.153
332.66	22.449
333.02	20.361
333.38	21.990
333.75	22.018
334.11	21.560
334.48	21.282
334.84	19.848
335.20	19.760
335.57	20.151
335.93	21.531
336.29	21.559
336.66	21.355
337.02	20.103
337.38	20.722
337.75	22.044
338.11	20.591
338.47	21.846
338.84	20.576
339.20	20.087
339.56	20.942
339.93	20.569
340.29	19.664
340.65	20.453
341.02	21.078
341.38	20.361
341.74	20.349
342.11	20.451
342.47	19.524
342.83	21.001
343.20	19.968
343.56	18.348
343.92	20.892
344.28	21.212
344.65	19.641
345.01	19.206
345.37	20.112
345.73	19.603
346.10	19.602
346.46	20.175
346.82	18.673
347.19	19.243
347.55	19.672
347.91	19.335
348.27	17.428
348.63	19.620
349.00	18.355
349.36	19.455
349.72	19.954
350.08	20.031
350.45	19.650
350.81	19.495
351.17	18.259
351.53	19.400
351.89	19.270
352.26	19.274
352.62	19.080
352.98	19.172
353.34	20.185
353.70	18.884
354.07	19.000
354.43	19.662
354.79	19.058
355.15	19.372
355.51	18.202
355.87	19.729
356.24	19.246
356.60	18.721
356.96	17.817
357.32	18.538
357.68	19.090
358.04	19.073
358.40	18.891
358.77	18.332
359.13	18.769
359.49	18.829
359.85	18.615
360.21	19.019
360.57	19.124
360.93	18.831
361.29	18.326
361.66	18.270
362.02	17.045
362.38	18.470
362.74	18.471
363.10	18.864
363.46	16.436
363.82	19.355
364.18	18.137
364.54	17.954
364.90	18.809
365.26	18.737
365.62	18.232
365.98	17.825
366.35	17.931
366.71	18.668
367.07	18.362
367.43	18.805
367.79	18.684
368.15	16.554
368.51	17.919
368.87	17.867
369.23	18.087
369.59	18.206
369.95	17.622
370.31	17.933
370.67	17.280
371.03	18.697
371.39	18.075
371.75	18.283
372.11	18.083
372.47	18.219
372.83	17.471
373.19	18.643
373.55	17.526
373.91	16.506
374.27	16.997
374.63	17.627
374.99	18.127
375.35	18.011
375.71	18.602
376.07	17.971
376.42	17.263
376.78	17.084
377.14	17.955
377.50	17.166
377.86	17.937
378.22	17.672
378.58	18.220
378.94	17.984
379.30	17.162
379.66	17.339
380.02	17.771
380.38	17.096
380.74	18.397
381.09	17.815
381.45	17.283
381.81	17.435
382.17	17.033
382.53	17.157
382.89	17.150
383.25	17.170
383.61	16.945
383.97	17.157
384.32	17.541
384.68	18.122
385.04	17.351
385.40	17.378
385.76	17.145
386.12	17.069
386.48	17.264
386.83	16.748
387.19	18.021
387.55	16.726
387.91	17.494
388.27	17.252
388.62	17.077
388.98	16.676
389.34	16.478
389.70	16.568
390.06	18.049
390.42	17.150
390.77	17.875
391.13	16.536
391.49	17.362
391.85	18.400
392.20	17.163
392.56	17.384
392.92	16.788
393.28	17.152
393.64	16.399
393.99	16.479
394.35	16.657
394.71	16.767
395.07	16.727
395.42	17.681
395.78	17.582
396.14	17.470
396.50	16.968
396.85	17.866
397.21	16.606
397.57	16.438
397.92	16.118
398.28	16.216
398.64	17.394
399.00	16.462
399.35	15.888
399.71	16.115
400.07	17.009
400.42	15.821
400.78	17.361
401.14	16.853
401.49	16.878
401.85	17.555
402.21	16.637
402.57	16.936
402.92	16.727
403.28	15.573
403.63	16.892
403.99	16.285
404.35	16.354
404.70	16.952
405.06	15.946
405.42	16.756
405.77	16.428
406.13	16.703
406.49	16.259
406.84	16.300
407.20	17.237
407.55	16.062
407.91	16.784
408.27	17.223
408.62	17.090
408.98	16.677
409.34	16.072
409.69	16.366
410.05	16.219
410.40	16.372
410.76	16.371
411.11	16.825
411.47	16.605
411.83	16.344
412.18	16.184
412.54	16.517
412.89	16.106
413.25	16.933
413.60	16.472
413.96	16.637
414.31	16.057
414.67	16.636
415.03	16.603
415.38	16.719
415.74	15.793
416.09	16.115
416.45	17.065
416.80	17.383
417.16	16.614
417.51	16.752
417.87	16.208
418.22	16.100
418.58	17.134
418.93	16.776
419.29	15.835
419.64	16.233
420.00	16.468
420.35	16.318
420.71	15.578
421.06	15.892
421.42	15.832
421.77	15.547
422.12	16.152
422.48	16.076
422.83	16.574
423.19	16.307
423.54	16.566
423.90	17.157
424.25	16.731
424.61	15.612
424.96	16.206
425.31	16.530
425.67	16.330
426.02	16.040
426.38	16.278
426.73	16.136
427.09	15.896
427.44	16.038
427.79	16.238
428.15	16.735
428.50	17.314
428.85	16.108
429.21	16.802
429.56	16.251
429.92	15.564
430.27	15.675
430.62	16.153
430.98	15.968
431.33	16.079
431.68	15.704
432.04	16.037
432.39	16.026
432.74	16.979
433.10	16.224
433.45	16.370
433.80	16.657
434.16	15.922
434.51	16.718
434.86	17.093
435.22	15.721
435.57	16.420
435.92	17.018
436.28	15.956
436.63	16.856
436.98	16.216
437.34	16.553
437.69	14.950
438.04	16.022
438.39	15.879
438.75	16.648
439.10	16.136
439.45	15.828
439.81	17.004
440.16	16.236
440.51	16.273
440.86	17.151
441.22	16.126
441.57	16.325
441.92	15.647
442.27	16.340
442.63	15.854
442.98	16.703
443.33	16.551
443.68	15.895
444.03	15.881
444.39	16.008
444.74	15.942
445.09	16.324
445.44	16.525
445.79	15.546
446.15	15.947
446.50	16.192
446.85	15.837
447.20	15.025
447.55	16.585
447.91	16.782
448.26	16.400
448.61	16.805
448.96	16.231
449.31	16.502
449.66	16.999
450.02	15.991
450.37	16.713
450.72	16.639
451.07	16.056
451.42	15.945
451.77	16.323
452.12	16.619
452.47	17.315
452.83	17.296
453.18	16.757
453.53	17.111
453.88	17.200
454.23	16.967
454.58	16.608
454.93	16.002
455.28	17.136
455.63	17.021
455.98	17.146
456.34	16.960
456.69	16.524
457.04	16.587
457.39	16.229
457.74	16.779
458.09	16.732
458.44	16.046
458.79	16.711
459.14	15.657
459.49	17.441
459.84	16.467
460.19	16.497
460.54	16.752
460.89	16.738
461.24	17.640
461.59	16.837
461.94	16.548
462.29	17.105
462.64	17.085
462.99	17.083
463.34	16.980
463.69	17.544
464.04	17.098
464.39	17.344
464.74	16.647
465.09	16.367
465.44	16.376
465.79	16.875
466.14	15.951
466.49	15.681
466.84	16.276
467.19	16.930
467.54	17.057
467.89	16.725
468.24	16.676
468.59	16.607
468.94	17.150
469.29	16.616
469.64	17.106
469.99	17.481
470.34	16.698
470.68	17.310
471.03	17.945
471.38	17.748
471.73	17.505
472.08	17.613
472.43	17.070
472.78	17.350
473.13	17.146
473.48	17.726
473.83	17.138
474.17	16.413
474.52	16.647
474.87	16.146
475.22	17.019
475.57	16.527
475.92	16.300
476.27	16.213
476.61	16.836
476.96	17.085
477.31	17.481
477.66	17.123
478.01	16.916
478.36	16.529
478.70	16.774
479.05	16.370
479.40	17.163
479.75	16.981
480.10	16.457
480.45	16.807
480.79	16.359
481.14	16.595
481.49	16.468
481.84	16.007
482.19	15.895
482.53	15.854
482.88	16.622
483.23	16.915
483.58	16.876
483.92	16.910
484.27	16.524
484.62	16.511
484.97	16.206
485.31	15.626
485.66	14.892
486.01	14.714
486.36	14.463
486.70	14.664
487.05	14.761
487.40	15.337
487.75	15.067
488.09	15.625
488.44	15.615
488.79	15.828
489.13	16.424
489.48	16.300
489.83	16.639
490.17	16.020
490.52	16.624
490.87	16.422
491.22	16.401
491.56	16.557
491.91	16.084
492.26	16.927
492.60	16.674
492.95	16.991
493.30	17.698
493.64	16.667
493.99	16.950
494.34	16.674
494.68	16.467
495.03	16.974
495.37	17.470
495.72	17.483
496.07	16.801
496.41	16.507
496.76	16.420
497.11	16.324
497.45	17.229
497.80	17.331
498.14	16.505
498.49	16.992
498.84	17.336
499.18	15.905
499.53	17.226
499.87	17.026
500.22	16.859
500.56	16.435
500.91	17.486
501.26	17.088
501.60	17.395
501.95	16.577
502.29	17.467
502.64	16.630
502.98	16.141
503.33	16.704
503.67	16.909
504.02	16.391
504.36	16.652
504.71	17.975
505.06	16.800
505.40	16.565
505.75	16.932
506.09	17.965
506.44	17.669
506.78	17.344
507.13	16.238
507.47	17.079
507.82	16.983
508.16	17.883
508.51	17.536
508.85	16.857
509.19	16.838
509.54	17.236
509.88	17.653
510.23	17.108
510.57	17.037
510.92	17.383
511.26	17.821
511.61	17.824
511.95	17.621
512.30	18.000
512.64	17.290
512.98	17.734
513.33	17.469
513.67	17.297
514.02	17.039
514.36	17.549
514.70	17.280
515.05	17.155
515.39	18.311
515.74	18.644
516.08	17.375
516.42	18.579
516.77	17.920
517.11	18.293
517.46	17.996
517.80	18.132
518.14	18.423
518.49	17.696
518.83	17.747
519.17	18.414
519.52	19.061
519.86	17.984
520.20	18.904
520.55	17.920
520.89	17.989
521.23	17.290
521.58	17.728
521.92	17.668
522.26	18.069
522.61	18.954
522.95	18.619
523.29	18.655
523.64	17.919
523.98	19.073
524.32	18.397
524.66	17.623
525.01	18.698
525.35	18.268
525.69	18.663
526.04	18.382
526.38	18.423
526.72	18.079
527.06	17.918
527.41	19.407
527.75	18.624
528.09	18.423
528.43	19.036
528.78	18.068
529.12	19.446
529.46	17.650
529.80	17.757
530.15	18.562
530.49	16.787
530.83	17.977
531.17	18.081
531.51	18.700
531.86	17.452
532.20	18.356
532.54	17.765
532.88	18.114
533.22	18.221
533.57	17.633
533.91	17.308
534.25	17.196
534.59	18.304
534.93	18.032
535.27	17.871
535.62	17.795
535.96	17.849
536.30	18.586
536.64	18.012
536.98	17.936
537.32	18.938
537.66	18.112
538.01	18.514
538.35	18.528
538.69	17.900
539.03	17.724
539.37	17.840
539.71	18.395
540.05	18.277
540.39	18.176
540.73	18.481
541.07	16.562
541.42	17.662
541.76	18.126
542.10	17.509
542.44	17.893
542.78	18.502
543.12	17.791
543.46	18.985
543.80	19.298
544.14	18.266
544.48	18.248
544.82	18.716
545.16	17.365
545.50	18.500
545.84	17.866
546.18	18.921
546.52	19.213
546.86	18.633
547.20	17.829
547.54	18.746
547.88	17.640
548.22	18.094
548.56	18.032
548.90	18.387
549.24	17.498
549.58	17.332
549.92	16.961
550.26	18.391
550.60	18.297
550.94	17.639
551.28	18.621
551.62	19.310
551.96	18.851
552.30	17.403
552.64	17.929
552.98	19.072
553.32	17.350
553.66	18.241
554.00	18.983
554.34	18.642
554.68	18.481
555.02	17.990
555.36	18.152
555.69	18.652
556.03	18.662
556.37	17.973
556.71	17.992
557.05	17.824
557.39	18.333
557.73	18.329
558.07	18.846
558.41	18.711
558.75	18.605
559.08	18.513
559.42	18.468
559.76	18.603
560.10	18.513
560.44	18.447
560.78	19.182
561.12	19.135
561.45	17.897
561.79	16.979
562.13	18.130
562.47	18.300
562.81	18.478
563.15	17.324
563.48	16.335
563.82	17.904
564.16	18.843
564.50	16.817
564.84	18.419
565.17	17.647
565.51	17.980
565.85	17.520
566.19	17.917
566.52	16.787
566.86	18.214
567.20	17.640
567.54	17.303
567.88	17.840
568.21	16.276
568.55	17.267
568.89	16.651
569.23	16.350
569.56	16.054
569.90	15.846
570.24	15.639
570.57	15.574
570.91	15.195
571.25	15.273
571.59	14.975
571.92	14.747
572.26	14.879
572.60	14.857
572.93	15.382
573.27	14.905
573.61	15.051
573.95	14.617
574.28	15.196
574.62	14.509
574.96	14.693
575.29	14.535
575.63	14.276
575.97	14.581
576.30	14.553
576.64	14.473
576.98	14.813
577.31	14.759
577.65	14.744
577.98	14.374
578.32	13.835
578.66	14.269
578.99	14.978
579.33	14.637
579.67	14.840
580.00	14.286
580.34	14.506
580.67	14.385
581.01	14.439
581.35	14.132
581.68	13.906
582.02	13.905
582.35	14.171
582.69	14.296
583.02	14.106
583.36	14.448
583.70	14.641
584.03	14.964
584.37	14.791
584.70	14.730
585.04	14.609
585.37	14.495
585.71	14.921
586.04	14.199
586.38	14.747
586.72	14.801
587.05	14.694
587.39	14.311
587.72	14.613
588.06	14.850
588.39	14.841
588.73	14.655
589.06	15.144
589.40	14.992
589.73	14.585
590.07	15.340
590.40	15.854
590.73	15.791
591.07	15.712
591.40	15.529
591.74	15.990
592.07	15.433
592.41	16.027
592.74	15.123
593.08	14.779
593.41	15.230
593.75	15.022
594.08	15.276
594.41	15.119
594.75	15.377
595.08	15.089
595.42	15.635
595.75	15.696
596.09	15.780
596.42	15.040
596.75	16.146
597.09	15.312
597.42	15.755
597.75	15.740
598.09	15.962
598.42	15.259
598.76	15.767
599.09	15.337
599.42	14.948
599.76	15.129
600.09	15.051
600.42	15.331
600.76	15.228
601.09	15.292
601.42	15.523
601.76	14.680
602.09	15.121
602.42	15.564
602.76	15.522
603.09	15.724
603.42	15.780
603.76	15.691
604.09	14.911
604.42	15.405
604.76	15.923
605.09	15.347
605.42	15.685
605.75	15.397
606.09	15.493
606.42	15.520
606.75	15.740
607.09	15.436
607.42	15.468
607.75	15.406
608.08	14.947
608.42	16.065
608.75	15.789
609.08	15.838
609.41	16.091
609.75	16.163
610.08	15.872
610.41	15.986
610.74	16.061
611.07	16.235
611.41	16.080
611.74	15.870
612.07	16.474
612.40	16.277
612.73	16.126
613.07	16.523
613.40	16.541
613.73	15.826
614.06	15.900
614.39	17.020
614.72	15.771
615.06	15.875
615.39	16.139
615.72	16.360
616.05	16.424
616.38	16.388
616.71	15.789
617.05	16.694
617.38	16.124
617.71	16.704
618.04	16.657
618.37	16.676
618.70	16.397
619.03	16.972
619.36	17.337
619.69	16.953
620.03	18.395
620.36	17.213
620.69	17.369
621.02	17.255
621.35	16.261
621.68	17.330
622.01	17.786
622.34	17.553
622.67	18.469
623.00	17.427
623.33	17.679
623.66	16.700
623.99	18.082
624.32	17.480
624.65	17.709
624.99	17.715
625.32	18.103
625.65	16.690
625.98	17.155
626.31	18.398
626.64	16.781
626.97	16.756
627.30	17.780
627.63	18.289
627.96	17.527
628.29	18.069
628.62	18.392
628.95	19.326
629.28	20.333
629.61	18.014
629.94	19.360
630.26	20.537
630.59	20.035
630.92	18.296
631.25	19.764
