SpectraSuite Data File
++++++++++++++++++++++++++++++++++++
Date: Tue May 12 17:11:30 PDT 2015
User: schluterlab
Dark Spectrum Present: Yes
Reference Spectrum Present: Yes
Number of Sampled Component Spectra: 1
Spectrometers: USB2E3373
Integration Time (usec): 3000 (USB2E3373)
Spectra Averaged: 3 (USB2E3373)
Boxcar Smoothing: 0 (USB2E3373)
Correct for Electrical Dark: No (USB2E3373)
Strobe/Lamp Enabled: No (USB2E3373)
Correct for Detector Non-linearity: No (USB2E3373)
Correct for Stray Light: No (USB2E3373)
Number of Pixels in Processed Spectrum: 2048
>>>>>Begin Processed Spectral Data<<<<<
178.53	0.000
178.91	-225.000
179.29	-675.000
179.67	-3800.000
180.04	-140.000
180.42	700.000
180.80	1000.000
181.18	0.000
181.56	-262.500
181.94	0.000
182.31	933.333
182.69	-3000.000
183.07	542.857
183.45	-3400.000
183.83	-2150.000
184.20	460.000
184.58	414.286
184.96	-169.231
185.34	-200.000
185.72	1450.000
186.09	-900.000
186.47	-3300.000
186.85	933.333
187.23	780.000
187.61	1700.000
187.98	362.500
188.36	257.143
188.74	316.667
189.12	283.333
189.49	775.000
189.87	0.000
190.25	425.000
190.63	2900.000
191.00	-183.333
191.38	-4100.000
191.76	-675.000
192.14	525.000
192.51	-2100.000
192.89	1700.000
193.27	1000.000
193.65	-1000.000
194.02	-680.000
194.40	542.857
194.78	-200.000
195.15	266.667
195.53	-2900.000
195.91	-540.000
196.29	3000.000
196.66	237.500
197.04	550.000
197.42	-1250.000
197.79	550.000
198.17	291.667
198.55	0.000
198.92	428.571
199.30	1166.667
199.68	1950.000
200.05	650.000
200.43	-416.667
200.81	194.444
201.18	3500.000
201.56	216.667
201.94	-850.000
202.31	-225.000
202.69	-440.000
203.07	2700.000
203.44	-433.333
203.82	250.000
204.19	640.000
204.57	-1600.000
204.95	-825.000
205.32	-440.000
205.70	633.333
206.08	725.000
206.45	-966.667
206.83	322.222
207.20	136.842
207.58	250.000
207.96	700.000
208.33	0.000
208.71	414.286
209.08	620.000
209.46	-3700.000
209.84	-900.000
210.21	720.000
210.59	-640.000
210.96	233.333
211.34	-750.000
211.71	400.000
212.09	650.000
212.46	1900.000
212.84	-616.667
213.22	466.667
213.59	-2400.000
213.97	350.000
214.34	950.000
214.72	866.667
215.09	1133.333
215.47	-3100.000
215.84	-330.000
216.22	-412.500
216.59	0.000
216.97	0.000
217.34	1600.000
217.72	-1450.000
218.09	1133.333
218.47	362.500
218.84	850.000
219.22	1266.667
219.59	766.667
219.97	500.000
220.34	400.000
220.72	1600.000
221.09	3900.000
221.47	291.667
221.84	966.667
222.22	230.000
222.59	200.000
222.97	264.286
223.34	200.000
223.72	-1850.000
224.09	1033.333
224.46	276.923
224.84	-825.000
225.21	422.222
225.59	233.333
225.96	1200.000
226.34	-680.000
226.71	-675.000
227.08	-520.000
227.46	0.000
227.83	-550.000
228.21	-1300.000
228.58	400.000
228.95	825.000
229.33	344.444
229.70	900.000
230.08	338.462
230.45	3000.000
230.82	-825.000
231.20	-833.333
231.57	-666.667
231.95	480.000
232.32	275.000
232.69	450.000
233.07	266.667
233.44	-1750.000
233.81	280.000
234.19	162.963
234.56	187.500
234.93	229.412
235.31	200.000
235.68	231.250
236.05	171.429
236.43	133.333
236.80	257.143
237.17	151.724
237.55	84.375
237.92	110.000
238.29	145.455
238.67	106.250
239.04	107.317
239.41	79.167
239.79	82.500
240.16	77.083
240.53	70.492
240.91	60.870
241.28	71.186
241.65	66.667
242.02	70.423
242.40	58.571
242.77	71.429
243.14	49.367
243.51	57.576
243.89	55.140
244.26	51.402
244.63	56.436
245.00	62.385
245.38	46.610
245.75	40.152
246.12	56.296
246.49	43.262
246.87	51.639
247.24	46.000
247.61	46.875
247.98	44.898
248.36	42.424
248.73	42.857
249.10	42.857
249.47	38.500
249.84	36.318
250.22	42.703
250.59	40.000
250.96	35.021
251.33	36.279
251.70	41.071
252.08	37.815
252.45	35.458
252.82	36.122
253.19	35.178
253.56	31.538
253.94	35.870
254.31	35.659
254.68	32.404
255.05	35.517
255.42	37.226
255.79	34.202
256.16	34.915
256.54	33.442
256.91	33.660
257.28	34.783
257.65	30.721
258.02	30.088
258.39	35.530
258.76	35.362
259.14	30.000
259.51	33.819
259.88	31.915
260.25	28.022
260.62	31.507
260.99	29.201
261.36	32.591
261.73	28.989
262.10	30.366
262.47	30.250
262.85	31.467
263.22	31.620
263.59	31.969
263.96	30.075
264.33	29.630
264.70	29.975
265.07	28.049
265.44	26.835
265.81	26.887
266.18	27.918
266.55	26.950
266.92	29.306
267.29	28.509
267.66	26.682
268.03	28.700
268.40	26.850
268.77	26.872
269.14	25.380
269.51	25.835
269.88	28.367
270.25	28.078
270.62	27.468
270.99	26.572
271.36	29.268
271.73	24.738
272.10	26.061
272.47	26.389
272.84	25.549
273.21	27.893
273.58	25.101
273.95	26.489
274.32	26.654
274.69	26.575
275.06	28.415
275.43	22.031
275.80	25.094
276.17	23.897
276.54	27.664
276.91	27.052
277.28	24.088
277.65	25.646
278.02	24.449
278.39	24.820
278.76	25.000
279.13	23.132
279.50	26.364
279.87	23.836
280.23	24.862
280.60	23.723
280.97	24.655
281.34	24.257
281.71	25.043
282.08	26.154
282.45	23.480
282.82	24.749
283.19	25.914
283.56	23.140
283.92	25.081
284.29	25.458
284.66	25.546
285.03	26.700
285.40	26.116
285.77	24.074
286.14	26.780
286.51	25.307
286.87	25.791
287.24	25.375
287.61	27.660
287.98	27.015
288.35	29.185
288.72	27.314
289.08	28.228
289.45	27.439
289.82	28.281
290.19	28.843
290.56	29.694
290.93	30.647
291.29	29.144
291.66	30.085
292.03	29.874
292.40	30.759
292.77	30.501
293.13	32.668
293.50	30.634
293.87	32.249
294.24	32.448
294.60	32.705
294.97	36.224
295.34	34.661
295.71	35.611
296.08	35.867
296.44	35.705
296.81	35.484
297.18	34.474
297.55	37.685
297.91	35.837
298.28	36.836
298.65	35.337
299.02	36.791
299.38	38.129
299.75	35.732
300.12	38.532
300.48	39.110
300.85	39.213
301.22	40.233
301.59	39.858
301.95	39.323
302.32	40.861
302.69	39.367
303.05	42.424
303.42	39.910
303.79	41.062
304.15	42.464
304.52	41.121
304.89	41.578
305.25	43.382
305.62	42.537
305.99	42.065
306.35	41.053
306.72	42.976
307.09	42.340
307.45	43.189
307.82	41.975
308.19	45.464
308.55	42.900
308.92	45.044
309.29	46.154
309.65	46.482
310.02	46.247
310.38	44.965
310.75	44.744
311.12	46.648
311.48	47.490
311.85	46.183
312.22	47.947
312.58	47.619
312.95	47.961
313.31	48.970
313.68	47.936
314.05	48.168
314.41	48.883
314.78	50.568
315.14	49.479
315.51	51.183
315.87	49.361
316.24	51.261
316.61	49.866
316.97	51.009
317.34	52.561
317.70	52.590
318.07	54.093
318.43	54.745
318.80	53.765
319.16	53.934
319.53	56.460
319.89	55.735
320.26	59.683
320.62	57.418
320.99	57.388
321.35	57.699
321.72	60.342
322.08	61.219
322.45	61.217
322.81	63.220
323.18	64.032
323.54	65.157
323.91	66.092
324.27	65.959
324.64	67.128
325.00	70.345
325.37	70.236
325.73	70.826
326.10	71.002
326.46	71.346
326.83	71.520
327.19	71.727
327.56	72.284
327.92	75.246
328.29	73.977
328.65	74.229
329.01	74.423
329.38	74.196
329.74	73.527
330.11	74.544
330.47	75.703
330.84	74.461
331.20	74.619
331.56	76.598
331.93	76.133
332.29	74.575
332.66	75.170
333.02	73.196
333.38	76.789
333.75	75.396
334.11	73.993
334.48	75.128
334.84	73.142
335.20	76.133
335.57	74.559
335.93	72.414
336.29	72.720
336.66	76.158
337.02	73.909
337.38	73.517
337.75	73.818
338.11	74.262
338.47	71.973
338.84	73.920
339.20	73.333
339.56	72.750
339.93	71.906
340.29	71.765
340.65	74.686
341.02	73.049
341.38	73.317
341.74	72.591
342.11	73.873
342.47	71.042
342.83	71.616
343.20	71.787
343.56	68.388
343.92	73.163
344.28	71.770
344.65	72.698
345.01	69.444
345.37	70.112
345.73	71.032
346.10	69.721
346.46	72.408
346.82	69.213
347.19	69.784
347.55	70.648
347.91	69.713
348.27	68.784
348.63	71.044
349.00	69.231
349.36	70.272
349.72	69.954
350.08	68.012
350.45	69.535
350.81	68.960
351.17	69.646
351.53	69.592
351.89	70.707
352.26	68.707
352.62	69.005
352.98	69.479
353.34	69.106
353.70	66.972
354.07	68.769
354.43	67.435
354.79	67.957
355.15	69.142
355.51	68.051
355.87	67.922
356.24	69.438
356.60	66.058
356.96	67.703
357.32	66.466
357.68	67.181
358.04	67.781
358.40	66.867
358.77	67.468
359.13	66.667
359.49	67.309
359.85	66.791
360.21	65.007
360.57	65.693
360.93	66.378
361.29	66.378
361.66	66.592
362.02	65.128
362.38	68.110
362.74	66.454
363.10	65.428
363.46	63.812
363.82	64.165
364.18	66.572
364.54	65.379
364.90	64.592
365.26	66.343
365.62	65.884
365.98	64.487
366.35	65.103
366.71	65.302
367.07	64.232
367.43	65.615
367.79	63.963
368.15	63.365
368.51	65.610
368.87	65.149
369.23	65.142
369.59	64.464
369.95	64.825
370.31	63.244
370.67	64.677
371.03	63.305
371.39	63.573
371.75	64.829
372.11	63.494
372.47	63.562
372.83	63.834
373.19	62.371
373.55	63.024
373.91	63.467
374.27	63.029
374.63	62.712
374.99	62.871
375.35	63.172
375.71	63.259
376.07	61.406
376.42	61.765
376.78	62.364
377.14	62.713
377.50	61.548
377.86	62.396
378.22	62.035
378.58	62.167
378.94	61.074
379.30	62.220
379.66	61.650
380.02	61.701
380.38	61.124
380.74	61.649
381.09	60.339
381.45	59.538
381.81	60.284
382.17	61.416
382.53	59.268
382.89	60.615
383.25	60.095
383.61	59.078
383.97	59.148
384.32	60.398
384.68	60.784
385.04	59.672
385.40	58.600
385.76	58.631
386.12	59.493
386.48	59.453
386.83	58.680
387.19	59.246
387.55	58.598
387.91	58.776
388.27	58.120
388.62	58.216
388.98	58.309
389.34	57.466
389.70	57.429
390.06	59.268
390.42	58.112
390.77	55.528
391.13	59.022
391.49	56.806
391.85	57.969
392.20	57.628
392.56	56.989
392.92	55.081
393.28	55.717
393.64	55.333
393.99	55.246
394.35	55.562
394.71	54.765
395.07	56.813
395.42	55.855
395.78	56.508
396.14	56.325
396.50	56.197
396.85	55.793
397.21	55.114
397.57	53.556
397.92	54.304
398.28	54.330
398.64	54.101
399.00	53.073
399.35	53.086
399.71	54.084
400.07	54.053
400.42	53.612
400.78	52.375
401.14	52.554
401.49	52.823
401.85	52.260
402.21	51.963
402.57	53.501
402.92	52.364
403.28	52.088
403.63	51.795
403.99	52.473
404.35	53.165
404.70	53.219
405.06	51.432
405.42	51.167
405.77	51.158
406.13	50.325
406.49	50.426
406.84	50.028
407.20	50.799
407.55	50.400
407.91	52.202
408.27	50.273
408.62	51.153
408.98	50.739
409.34	50.555
409.69	49.907
410.05	50.328
410.40	50.059
410.76	49.571
411.11	49.941
411.47	48.889
411.83	48.506
412.18	49.698
412.54	50.090
412.89	49.617
413.25	49.487
413.60	49.708
413.96	48.893
414.31	48.996
414.67	48.976
415.03	49.042
415.38	48.896
415.74	48.389
416.09	49.781
416.45	49.192
416.80	49.198
417.16	47.931
417.51	48.662
417.87	49.437
418.22	48.967
418.58	49.618
418.93	49.197
419.29	48.244
419.64	48.758
420.00	48.986
420.35	48.142
420.71	48.658
421.06	47.557
421.42	48.532
421.77	49.139
422.12	48.456
422.48	47.869
422.83	49.275
423.19	48.218
423.54	48.546
423.90	49.830
424.25	48.652
424.61	48.694
424.96	48.165
425.31	49.371
425.67	49.944
426.02	48.738
426.38	49.008
426.73	49.393
427.09	49.703
427.44	48.846
427.79	50.372
428.15	49.617
428.50	49.143
428.85	49.089
429.21	49.595
429.56	48.305
429.92	48.483
430.27	49.008
430.62	48.899
430.98	49.002
431.33	48.337
431.68	47.901
432.04	49.095
432.39	48.902
432.74	49.707
433.10	49.169
433.45	49.512
433.80	51.076
434.16	48.765
434.51	48.194
434.86	50.626
435.22	49.109
435.57	49.911
435.92	50.711
436.28	50.173
436.63	48.892
436.98	50.957
437.34	49.715
437.69	48.656
438.04	49.892
438.39	50.671
438.75	50.334
439.10	50.081
439.45	49.633
439.81	50.087
440.16	50.193
440.51	50.225
440.86	49.801
441.22	48.918
441.57	51.391
441.92	49.852
442.27	49.845
442.63	50.051
442.98	49.731
443.33	50.777
443.68	50.252
444.03	50.000
444.39	50.424
444.74	49.689
445.09	49.921
445.44	50.425
445.79	50.146
446.15	50.895
446.50	51.055
446.85	49.253
447.20	49.851
447.55	50.462
447.91	51.092
448.26	49.894
448.61	51.354
448.96	51.797
449.31	51.375
449.66	50.609
450.02	51.053
450.37	51.360
450.72	51.405
451.07	50.494
451.42	51.452
451.77	51.375
452.12	51.163
452.47	52.309
452.83	51.944
453.18	51.832
453.53	52.339
453.88	51.829
454.23	52.353
454.58	52.040
454.93	52.299
455.28	53.488
455.63	51.655
455.98	50.423
456.34	52.523
456.69	51.341
457.04	51.790
457.39	51.029
457.74	51.520
458.09	50.926
458.44	49.890
458.79	50.716
459.14	51.173
459.49	51.076
459.84	50.707
460.19	49.887
460.54	52.251
460.89	51.759
461.24	48.855
461.59	52.211
461.94	50.414
462.29	51.888
462.64	52.198
462.99	52.527
463.34	52.236
463.69	51.422
464.04	52.447
464.39	50.258
464.74	49.883
465.09	49.913
465.44	50.871
465.79	50.408
466.14	49.921
466.49	50.733
466.84	50.056
467.19	51.435
467.54	49.489
467.89	51.878
468.24	51.882
468.59	51.250
468.94	51.691
469.29	51.680
469.64	51.704
469.99	51.542
470.34	51.297
470.68	52.621
471.03	52.902
471.38	51.656
471.73	52.580
472.08	51.859
472.43	52.948
472.78	53.073
473.13	50.876
473.48	51.589
473.83	52.120
474.17	51.064
474.52	51.303
474.87	50.767
475.22	49.971
475.57	50.525
475.92	50.128
476.27	50.163
476.61	50.027
476.96	50.052
477.31	51.620
477.66	51.744
478.01	50.181
478.36	50.103
478.70	50.571
479.05	51.360
479.40	50.347
479.75	51.291
480.10	50.194
480.45	51.214
480.79	50.415
481.14	49.738
481.49	49.177
481.84	49.252
482.19	49.869
482.53	49.539
482.88	49.955
483.23	49.526
483.58	49.955
483.92	51.645
484.27	49.572
484.62	50.722
484.97	49.085
485.31	48.169
485.66	46.574
486.01	44.401
486.36	43.778
486.70	44.107
487.05	45.462
487.40	45.703
487.75	46.499
488.09	46.733
488.44	47.610
488.79	48.421
489.13	49.085
489.48	48.941
489.83	49.500
490.17	48.431
490.52	49.957
490.87	50.000
491.22	50.754
491.56	50.769
491.91	50.627
492.26	50.067
492.60	50.387
492.95	50.068
493.30	50.182
493.64	50.854
493.99	49.374
494.34	49.529
494.68	49.535
495.03	49.933
495.37	50.653
495.72	50.303
496.07	50.449
496.41	49.696
496.76	48.966
497.11	49.957
497.45	49.627
497.80	50.139
498.14	50.717
498.49	50.325
498.84	50.981
499.18	49.726
499.53	50.069
499.87	49.146
500.22	50.944
500.56	49.768
500.91	50.696
501.26	50.299
501.60	49.954
501.95	49.104
502.29	49.644
502.64	48.346
502.98	48.422
503.33	49.933
503.67	49.095
504.02	49.754
504.36	49.864
504.71	51.608
505.06	48.944
505.40	50.023
505.75	50.655
506.09	49.463
506.44	50.517
506.78	50.473
507.13	49.927
507.47	49.733
507.82	51.046
508.16	51.494
508.51	49.952
508.85	50.522
509.19	50.710
509.54	50.781
509.88	50.472
510.23	50.735
510.57	50.193
510.92	51.399
511.26	50.853
511.61	50.665
511.95	49.826
512.30	50.650
512.64	50.363
512.98	50.794
513.33	50.512
513.67	51.113
514.02	50.961
514.36	50.519
514.70	51.787
515.05	51.572
515.39	52.906
515.74	52.433
516.08	51.634
516.42	52.459
516.77	50.987
517.11	50.667
517.46	51.562
517.80	51.338
518.14	52.056
518.49	51.047
518.83	51.154
519.17	52.302
519.52	51.611
519.86	51.880
520.20	52.932
520.55	52.176
520.89	53.103
521.23	52.745
521.58	52.955
521.92	52.536
522.26	52.666
522.61	52.763
522.95	54.054
523.29	51.871
523.64	52.197
523.98	52.758
524.32	51.153
524.66	52.406
525.01	51.893
525.35	52.445
525.69	53.462
526.04	52.409
526.38	52.207
526.72	52.685
527.06	51.390
527.41	53.325
527.75	53.317
528.09	53.462
528.43	51.373
528.78	52.952
529.12	52.498
529.46	50.555
529.80	51.694
530.15	51.090
530.49	50.722
530.83	51.859
531.17	52.645
531.51	52.238
531.86	51.329
532.20	50.371
532.54	51.287
532.88	51.593
533.22	52.468
533.57	50.946
533.91	49.825
534.25	51.125
534.59	51.228
534.93	49.943
535.27	49.459
535.62	48.950
535.96	50.059
536.30	51.554
536.64	51.491
536.98	49.843
537.32	49.875
537.66	51.276
538.01	50.402
538.35	51.029
538.69	49.515
539.03	50.187
539.37	49.575
539.71	50.988
540.05	49.108
540.39	51.321
540.73	50.253
541.07	49.247
541.42	50.746
541.76	49.630
542.10	50.493
542.44	50.623
542.78	49.654
543.12	49.387
543.46	50.752
543.80	48.810
544.14	50.217
544.48	49.148
544.82	48.991
545.16	49.362
545.50	49.662
545.84	50.379
546.18	51.495
546.52	51.016
546.86	50.355
547.20	50.194
547.54	49.082
547.88	48.844
548.22	50.213
548.56	49.028
548.90	48.221
549.24	49.905
549.58	49.485
549.92	51.277
550.26	50.778
550.60	50.566
550.94	51.153
551.28	51.655
551.62	51.310
551.96	49.865
552.30	48.055
552.64	49.515
552.98	48.647
553.32	49.488
553.66	50.098
554.00	49.678
554.34	51.132
554.68	50.403
555.02	50.509
555.36	48.870
555.69	50.262
556.03	49.554
556.37	49.522
556.71	49.739
557.05	49.410
557.39	49.333
557.73	50.539
558.07	49.698
558.41	50.103
558.75	50.616
559.08	51.322
559.42	50.823
559.76	51.247
560.10	47.970
560.44	49.038
560.78	49.041
561.12	50.413
561.45	48.999
561.79	48.127
562.13	48.642
562.47	49.903
562.81	50.488
563.15	49.386
563.48	47.578
563.82	49.844
564.16	49.316
564.50	47.920
564.84	47.842
565.17	48.366
565.51	49.138
565.85	47.810
566.19	47.798
566.52	48.135
566.86	48.103
567.20	47.079
567.54	46.670
567.88	47.522
568.21	45.532
568.55	45.720
568.89	44.982
569.23	44.435
569.56	43.850
569.90	41.789
570.24	42.930
570.57	41.888
570.91	40.562
571.25	40.985
571.59	39.763
571.92	39.962
572.26	39.057
572.60	39.322
572.93	40.311
573.27	40.551
573.61	39.388
573.95	39.094
574.28	39.336
574.62	38.146
574.96	38.223
575.29	37.944
575.63	38.068
575.97	37.756
576.30	38.724
576.64	38.652
576.98	37.822
577.31	38.275
577.65	37.838
577.98	37.906
578.32	37.225
578.66	37.753
578.99	37.466
579.33	38.250
579.67	38.057
580.00	37.858
580.34	37.863
580.67	38.255
581.01	38.402
581.35	37.348
581.68	37.125
582.02	36.696
582.35	37.176
582.69	37.193
583.02	37.316
583.36	37.756
583.70	38.206
584.03	38.951
584.37	38.642
584.70	37.945
585.04	37.759
585.37	37.331
585.71	38.112
586.04	37.011
586.38	38.233
586.72	38.533
587.05	38.626
587.39	38.635
587.72	38.302
588.06	38.316
588.39	38.101
588.73	38.845
589.06	39.306
589.40	40.563
589.73	40.184
590.07	40.872
590.40	41.045
590.73	41.829
591.07	40.987
591.40	41.517
591.74	42.330
592.07	41.348
592.41	41.287
592.74	40.168
593.08	39.323
593.41	39.168
593.75	38.009
594.08	39.390
594.41	39.524
594.75	39.658
595.08	40.295
595.42	40.191
595.75	39.289
596.09	40.250
596.42	39.803
596.75	41.707
597.09	41.189
597.42	41.469
597.75	41.866
598.09	40.665
598.42	41.004
598.76	40.439
599.09	40.346
599.42	39.481
599.76	39.586
600.09	39.898
600.42	40.331
600.76	40.041
601.09	40.249
601.42	39.458
601.76	40.243
602.09	40.140
602.42	39.224
602.76	40.493
603.09	40.573
603.42	40.844
603.76	40.926
604.09	39.667
604.42	39.774
604.76	41.090
605.09	40.286
605.42	39.984
605.75	40.032
606.09	40.168
606.42	39.797
606.75	40.731
607.09	40.545
607.42	40.659
607.75	39.570
608.08	40.333
608.42	40.940
608.75	40.436
609.08	40.211
609.41	41.909
609.75	41.712
610.08	41.457
610.41	40.360
610.74	40.606
611.07	41.291
611.41	42.678
611.74	41.635
612.07	42.004
612.40	42.544
612.73	43.485
613.07	41.510
613.40	43.008
613.73	41.937
614.06	41.200
614.39	42.273
614.72	42.441
615.06	41.246
615.39	40.594
615.72	40.949
616.05	42.190
616.38	41.553
616.71	42.702
617.05	42.394
617.38	41.742
617.71	43.026
618.04	42.120
618.37	42.468
618.70	41.975
619.03	42.857
619.36	44.598
619.69	44.459
620.03	45.271
620.36	44.958
620.69	44.891
621.02	46.399
621.35	45.487
621.68	46.091
622.01	45.166
622.34	44.792
622.67	44.031
623.00	44.180
623.33	45.007
623.66	44.578
623.99	46.918
624.32	45.190
624.65	45.161
624.99	46.653
625.32	45.892
625.65	45.655
625.98	45.119
626.31	47.255
626.64	45.254
626.97	45.830
627.30	46.584
627.63	47.331
627.96	46.635
628.29	47.855
628.62	48.417
628.95	48.848
629.28	49.869
629.61	48.418
629.94	47.796
630.26	48.007
630.59	50.266
630.92	48.430
631.25	50.136
