SpectraSuite Data File
++++++++++++++++++++++++++++++++++++
Date: Tue May 12 17:17:36 PDT 2015
User: schluterlab
Dark Spectrum Present: Yes
Reference Spectrum Present: Yes
Number of Sampled Component Spectra: 1
Spectrometers: USB2E3373
Integration Time (usec): 3000 (USB2E3373)
Spectra Averaged: 3 (USB2E3373)
Boxcar Smoothing: 0 (USB2E3373)
Correct for Electrical Dark: No (USB2E3373)
Strobe/Lamp Enabled: No (USB2E3373)
Correct for Detector Non-linearity: No (USB2E3373)
Correct for Stray Light: No (USB2E3373)
Number of Pixels in Processed Spectrum: 2048
>>>>>Begin Processed Spectral Data<<<<<
178.53	0.000
178.91	-233.333
179.29	-625.000
179.67	-3600.000
180.04	-113.333
180.42	700.000
180.80	1700.000
181.18	0.000
181.56	-437.500
181.94	0.000
182.31	766.667
182.69	-3100.000
183.07	671.429
183.45	-3200.000
183.83	-1550.000
184.20	420.000
184.58	557.143
184.96	-223.077
185.34	-216.667
185.72	1850.000
186.09	-775.000
186.47	-2700.000
186.85	800.000
187.23	640.000
187.61	1550.000
187.98	475.000
188.36	271.429
188.74	358.333
189.12	316.667
189.49	1075.000
189.87	0.000
190.25	475.000
190.63	2300.000
191.00	-200.000
191.38	-4100.000
191.76	-850.000
192.14	600.000
192.51	-3100.000
192.89	1700.000
193.27	933.333
193.65	-1333.333
194.02	-840.000
194.40	600.000
194.78	-271.429
195.15	233.333
195.53	-3200.000
195.91	-480.000
196.29	3700.000
196.66	268.750
197.04	775.000
197.42	-1900.000
197.79	675.000
198.17	300.000
198.55	0.000
198.92	342.857
199.30	1166.667
199.68	2000.000
200.05	783.333
200.43	-700.000
200.81	277.778
201.18	4000.000
201.56	350.000
201.94	-875.000
202.31	-262.500
202.69	-380.000
203.07	2900.000
203.44	-483.333
203.82	350.000
204.19	840.000
204.57	-2100.000
204.95	-950.000
205.32	-640.000
205.70	683.333
206.08	800.000
206.45	-1066.667
206.83	433.333
207.20	136.842
207.58	316.667
207.96	800.000
208.33	0.000
208.71	600.000
209.08	720.000
209.46	-3200.000
209.84	-975.000
210.21	780.000
210.59	-560.000
210.96	275.000
211.34	-700.000
211.71	381.818
212.09	1125.000
212.46	1400.000
212.84	-366.667
213.22	455.556
213.59	-2900.000
213.97	370.000
214.34	900.000
214.72	833.333
215.09	1133.333
215.47	-2300.000
215.84	-360.000
216.22	-337.500
216.59	0.000
216.97	0.000
217.34	1100.000
217.72	-1950.000
218.09	1233.333
218.47	425.000
218.84	875.000
219.22	1233.333
219.59	1266.667
219.97	471.429
220.34	511.111
220.72	1600.000
221.09	3000.000
221.47	300.000
221.84	1166.667
222.22	290.000
222.59	266.667
222.97	278.571
223.34	237.500
223.72	-1450.000
224.09	1200.000
224.46	276.923
224.84	-850.000
225.21	444.444
225.59	293.333
225.96	1266.667
226.34	-840.000
226.71	-850.000
227.08	-560.000
227.46	0.000
227.83	-433.333
228.21	-1800.000
228.58	316.667
228.95	800.000
229.33	377.778
229.70	1025.000
230.08	307.692
230.45	2900.000
230.82	-850.000
231.20	-766.667
231.57	-1266.667
231.95	740.000
232.32	308.333
232.69	616.667
233.07	300.000
233.44	-1950.000
233.81	260.000
234.19	207.407
234.56	250.000
234.93	188.235
235.31	190.000
235.68	293.750
236.05	171.429
236.43	170.370
236.80	242.857
237.17	193.103
237.55	131.250
237.92	137.500
238.29	133.333
238.67	131.250
239.04	124.390
239.41	87.500
239.79	130.000
240.16	89.583
240.53	80.328
240.91	78.261
241.28	84.746
241.65	93.939
242.02	95.775
242.40	78.571
242.77	84.615
243.14	73.418
243.51	77.778
243.89	72.897
244.26	71.028
244.63	83.168
245.00	66.972
245.38	61.017
245.75	73.485
246.12	62.963
246.49	61.702
246.87	59.836
247.24	59.333
247.61	61.250
247.98	63.265
248.36	55.152
248.73	57.143
249.10	58.929
249.47	51.000
249.84	52.736
250.22	56.216
250.59	52.500
250.96	48.945
251.33	52.558
251.70	54.911
252.08	52.101
252.45	45.817
252.82	46.388
253.19	48.617
253.56	49.615
253.94	46.014
254.31	50.388
254.68	52.962
255.05	50.000
255.42	49.635
255.79	51.466
256.16	46.780
256.54	47.403
256.91	48.693
257.28	49.164
257.65	44.828
258.02	46.903
258.39	48.711
258.76	49.565
259.14	42.000
259.51	51.895
259.88	48.936
260.25	42.857
260.62	45.479
260.99	45.455
261.36	47.075
261.73	48.670
262.10	47.120
262.47	41.750
262.85	44.000
263.22	45.758
263.59	47.315
263.96	42.105
264.33	43.704
264.70	45.946
265.07	44.390
265.44	44.037
265.81	43.396
266.18	43.707
266.55	45.390
266.92	43.400
267.29	45.175
267.66	44.170
268.03	42.377
268.40	45.666
268.77	43.612
269.14	43.601
269.51	42.094
269.88	41.633
270.25	41.037
270.62	44.206
270.99	43.813
271.36	44.309
271.73	43.396
272.10	42.020
272.47	42.659
272.84	41.317
273.21	40.702
273.58	43.725
273.95	42.505
274.32	41.245
274.69	45.079
275.06	42.259
275.43	40.038
275.80	41.698
276.17	41.176
276.54	41.682
276.91	41.418
277.28	41.606
277.65	41.697
278.02	41.912
278.39	42.626
278.76	42.586
279.13	39.858
279.50	40.909
279.87	38.920
280.23	38.674
280.60	43.613
280.97	40.862
281.34	39.274
281.71	38.783
282.08	40.342
282.45	36.824
282.82	40.134
283.19	36.089
283.56	39.339
283.92	39.414
284.29	39.767
284.66	38.992
285.03	39.138
285.40	38.843
285.77	36.728
286.14	40.248
286.51	38.037
286.87	38.133
287.24	36.486
287.61	36.778
287.98	35.970
288.35	37.185
288.72	35.964
289.08	36.186
289.45	36.738
289.82	36.719
290.19	37.628
290.56	37.700
290.93	37.122
291.29	33.978
291.66	34.463
292.03	34.502
292.40	33.875
292.77	33.983
293.13	33.524
293.50	33.333
293.87	33.198
294.24	35.105
294.60	33.513
294.97	35.385
295.34	34.396
295.71	31.406
296.08	34.267
296.44	31.893
296.81	33.995
297.18	33.207
297.55	31.773
297.91	32.512
298.28	30.072
298.65	33.006
299.02	32.811
299.38	33.333
299.75	32.195
300.12	30.849
300.48	34.075
300.85	32.896
301.22	33.140
301.59	30.896
301.95	31.039
302.32	30.850
302.69	30.430
303.05	32.660
303.42	31.614
303.79	32.394
304.15	30.473
304.52	31.501
304.89	32.942
305.25	32.925
305.62	32.942
305.99	31.630
306.35	31.684
306.72	33.403
307.09	31.988
307.45	34.741
307.82	32.202
308.19	33.918
308.55	33.100
308.92	34.446
309.29	34.024
309.65	33.300
310.02	33.773
310.38	33.300
310.75	34.137
311.12	34.483
311.48	35.714
311.85	33.969
312.22	36.772
312.58	35.471
312.95	36.019
313.31	36.891
313.68	36.867
314.05	37.271
314.41	37.151
314.78	38.826
315.14	38.389
315.51	40.870
315.87	37.774
316.24	38.655
316.61	40.107
316.97	40.275
317.34	41.420
317.70	41.615
318.07	43.149
318.43	41.740
318.80	42.732
319.16	43.444
319.53	44.867
319.89	45.520
320.26	47.579
320.62	45.879
320.99	47.950
321.35	47.774
321.72	48.102
322.08	48.476
322.45	49.228
322.81	49.039
323.18	51.687
323.54	52.178
323.91	54.306
324.27	53.935
324.64	53.633
325.00	56.034
325.37	55.565
325.73	57.757
326.10	58.078
326.46	56.482
326.83	57.920
327.19	57.108
327.56	57.668
327.92	59.754
328.29	58.838
328.65	62.928
329.01	61.163
329.38	60.152
329.74	60.974
330.11	62.467
330.47	61.978
330.84	60.828
331.20	62.437
331.56	63.212
331.93	64.842
332.29	63.435
332.66	65.051
333.02	62.113
333.38	64.572
333.75	65.221
334.11	64.346
334.48	66.068
334.84	61.233
335.20	64.585
335.57	63.728
335.93	63.499
336.29	63.847
336.66	66.038
337.02	63.388
337.38	64.058
337.75	65.034
338.11	65.316
338.47	64.860
338.84	65.453
339.20	64.242
339.56	65.181
339.93	64.047
340.29	62.941
340.65	65.968
341.02	65.728
341.38	65.435
341.74	66.611
342.11	65.943
342.47	64.807
342.83	66.530
343.20	65.319
343.56	64.734
343.92	66.061
344.28	65.550
344.65	66.911
345.01	65.397
345.37	67.067
345.73	64.286
346.10	66.056
346.46	67.225
346.82	63.735
347.19	66.383
347.55	66.042
347.91	65.861
348.27	67.390
348.63	67.484
349.00	66.641
349.36	66.848
349.72	67.737
350.08	67.624
350.45	66.946
350.81	66.590
351.17	67.488
351.53	66.744
351.89	66.667
352.26	66.440
352.62	66.290
352.98	68.405
353.34	68.182
353.70	66.972
354.07	68.000
354.43	67.588
354.79	67.122
355.15	68.836
355.51	67.976
355.87	68.148
356.24	68.668
356.60	68.645
356.96	68.992
357.32	68.726
357.68	68.502
358.04	67.933
358.40	68.291
358.77	69.196
359.13	69.520
359.49	68.050
359.85	69.844
360.21	69.242
360.57	68.613
360.93	69.913
361.29	69.841
361.66	70.843
362.02	69.318
362.38	69.841
362.74	70.701
363.10	70.547
363.46	69.544
363.82	68.724
364.18	71.693
364.54	71.316
364.90	69.746
365.26	70.923
365.62	71.685
365.98	70.957
366.35	69.655
366.71	72.103
367.07	71.126
367.43	70.719
367.79	70.080
368.15	70.217
368.51	70.710
368.87	72.011
369.23	70.963
369.59	69.656
369.95	73.636
370.31	69.610
370.67	70.576
371.03	71.639
371.39	71.884
371.75	71.947
372.11	71.992
372.47	71.575
372.83	72.332
373.19	72.310
373.55	72.302
373.91	70.856
374.27	70.370
374.63	71.322
374.99	71.698
375.35	73.387
375.71	71.438
376.07	71.883
376.42	71.228
376.78	73.282
377.14	71.822
377.50	71.286
377.86	73.158
378.22	73.004
378.58	72.821
378.94	73.205
379.30	71.922
379.66	73.751
380.02	72.903
380.38	73.302
380.74	73.933
381.09	72.488
381.45	72.659
381.81	72.931
382.17	72.650
382.53	73.425
382.89	72.679
383.25	72.351
383.61	72.795
383.97	73.005
384.32	72.634
384.68	73.381
385.04	73.564
385.40	73.250
385.76	72.557
386.12	73.469
386.48	73.374
386.83	73.961
387.19	72.909
387.55	72.438
387.91	72.344
388.27	74.717
388.62	72.477
388.98	72.886
389.34	70.910
389.70	71.344
390.06	72.439
390.42	73.103
390.77	71.622
391.13	73.144
391.49	72.414
391.85	73.292
392.20	72.050
392.56	71.446
392.92	71.308
393.28	71.188
393.64	71.445
393.99	71.073
394.35	72.101
394.71	70.808
395.07	71.411
395.42	70.726
395.78	73.103
396.14	71.687
396.50	72.684
396.85	70.732
397.21	71.781
397.57	70.711
397.92	69.440
398.28	70.546
398.64	69.459
399.00	69.107
399.35	69.404
399.71	69.481
400.07	69.235
400.42	69.254
400.78	69.619
401.14	70.640
401.49	69.700
401.85	69.757
402.21	70.006
402.57	71.035
402.92	69.758
403.28	68.198
403.63	68.275
403.99	69.119
404.35	68.757
404.70	70.880
405.06	68.220
405.42	68.701
405.77	68.137
406.13	67.516
406.49	68.050
406.84	67.287
407.20	67.352
407.55	67.385
407.91	67.518
408.27	68.830
408.62	67.357
408.98	67.416
409.34	67.855
409.69	67.393
410.05	66.965
410.40	65.607
410.76	65.255
411.11	67.299
411.47	66.914
411.83	64.499
412.18	66.546
412.54	65.345
412.89	65.251
413.25	65.964
413.60	65.129
413.96	65.350
414.31	65.289
414.67	67.163
415.03	66.411
415.38	65.300
415.74	65.698
416.09	66.209
416.45	66.710
416.80	65.619
417.16	63.972
417.51	65.796
417.87	64.831
418.22	63.791
418.58	65.860
418.93	64.664
419.29	65.250
419.64	65.597
420.00	65.871
420.35	64.866
420.71	64.761
421.06	63.920
421.42	64.537
421.77	64.520
422.12	64.057
422.48	62.969
422.83	63.449
423.19	63.553
423.54	62.863
423.90	64.100
424.25	64.722
424.61	63.726
424.96	64.992
425.31	63.711
425.67	64.871
426.02	63.825
426.38	62.660
426.73	64.199
427.09	63.701
427.44	63.028
427.79	64.951
428.15	65.115
428.50	63.143
428.85	63.727
429.21	62.507
429.56	61.565
429.92	62.208
430.27	62.893
430.62	60.793
430.98	61.976
431.33	62.298
431.68	61.086
432.04	62.080
432.39	62.459
432.74	62.998
433.10	62.735
433.45	62.780
433.80	64.203
434.16	62.480
434.51	61.971
434.86	62.929
435.22	62.885
435.57	62.537
435.92	63.005
436.28	62.270
436.63	62.399
436.98	63.626
437.34	62.557
437.69	61.870
438.04	61.075
438.39	63.281
438.75	62.528
439.10	62.871
439.45	60.995
439.81	62.637
440.16	61.200
440.51	61.092
440.86	64.274
441.22	60.877
441.57	62.730
441.92	61.500
442.27	61.443
442.63	61.179
442.98	59.860
443.33	62.185
443.68	61.670
444.03	60.650
444.39	61.629
444.74	60.714
445.09	61.453
445.44	60.733
445.79	61.988
446.15	61.579
446.50	61.023
446.85	60.608
447.20	60.448
447.55	60.522
447.91	60.629
448.26	60.809
448.61	59.425
448.96	60.675
449.31	61.881
449.66	61.240
450.02	60.670
450.37	60.966
450.72	61.047
451.07	59.860
451.42	60.522
451.77	60.195
452.12	61.146
452.47	60.996
452.83	60.507
453.18	59.700
453.53	61.456
453.88	60.286
454.23	60.372
454.58	59.557
454.93	59.534
455.28	59.608
455.63	59.752
455.98	59.560
456.34	60.182
456.69	61.098
457.04	59.368
457.39	59.200
457.74	59.685
458.09	57.833
458.44	58.817
458.79	58.355
459.14	59.247
459.49	58.437
459.84	60.000
460.19	59.774
460.54	58.519
460.89	58.475
461.24	57.560
461.59	58.900
461.94	59.397
462.29	59.611
462.64	58.731
462.99	58.285
463.34	58.587
463.69	59.407
464.04	58.664
464.39	57.871
464.74	57.386
465.09	57.574
465.44	57.454
465.79	57.104
466.14	55.538
466.49	58.166
466.84	56.968
467.19	56.825
467.54	56.877
467.89	58.099
468.24	56.804
468.59	56.845
468.94	57.005
469.29	56.689
469.64	57.299
469.99	58.226
470.34	55.661
470.68	56.345
471.03	57.038
471.38	57.947
471.73	55.976
472.08	58.774
472.43	57.666
472.78	56.658
473.13	54.443
473.48	55.073
473.83	55.948
474.17	56.900
474.52	54.562
474.87	55.031
475.22	55.911
475.57	55.561
475.92	55.187
476.27	54.298
476.61	55.871
476.96	56.374
477.31	55.990
477.66	55.448
478.01	55.338
478.36	54.892
478.70	54.293
479.05	55.335
479.40	55.109
479.75	55.263
480.10	54.163
480.45	52.754
480.79	53.364
481.14	53.352
481.49	53.614
481.84	53.078
482.19	53.886
482.53	53.052
482.88	53.047
483.23	53.225
483.58	53.680
483.92	54.068
484.27	53.082
484.62	53.183
484.97	52.707
485.31	51.517
485.66	50.633
486.01	50.409
486.36	49.961
486.70	49.663
487.05	50.822
487.40	51.353
487.75	52.282
488.09	51.477
488.44	52.581
488.79	52.204
489.13	52.221
489.48	51.698
489.83	52.002
490.17	51.486
490.52	52.412
490.87	51.595
491.22	52.837
491.56	51.603
491.91	51.747
492.26	52.472
492.60	51.982
492.95	52.016
493.30	50.773
493.64	50.988
493.99	51.208
494.34	51.950
494.68	51.483
495.03	50.876
495.37	50.878
495.72	51.282
496.07	50.674
496.41	49.479
496.76	50.401
497.11	50.557
497.45	49.452
497.80	51.483
498.14	51.133
498.49	50.464
498.84	51.822
499.18	49.680
499.53	49.885
499.87	49.641
500.22	51.589
500.56	51.068
500.91	51.206
501.26	50.390
501.60	49.954
501.95	49.194
502.29	50.267
502.64	49.140
502.98	48.777
503.33	49.354
503.67	48.918
504.02	48.500
504.36	49.186
504.71	50.710
505.06	50.070
505.40	50.257
505.75	50.000
506.09	49.277
506.44	48.543
506.78	49.575
507.13	49.297
507.47	49.151
507.82	50.316
508.16	49.927
508.51	49.420
508.85	49.193
509.19	49.486
509.54	48.633
509.88	49.627
510.23	49.216
510.57	48.118
510.92	49.151
511.26	48.896
511.61	47.858
511.95	49.129
512.30	48.900
512.64	48.287
512.98	48.744
513.33	49.488
513.67	48.938
514.02	48.208
514.36	48.235
514.70	48.587
515.05	48.855
515.39	49.836
515.74	49.809
516.08	49.346
516.42	50.164
516.77	48.000
517.11	47.520
517.46	48.330
517.80	48.061
518.14	48.507
518.49	48.401
518.83	48.022
519.17	47.310
519.52	48.170
519.86	49.482
520.20	47.781
520.55	47.541
520.89	48.851
521.23	48.715
521.58	47.390
521.92	47.872
522.26	47.690
522.61	48.069
522.95	49.369
523.29	48.129
523.64	46.763
523.98	47.535
524.32	47.982
524.66	47.942
525.01	48.343
525.35	46.435
525.69	48.224
526.04	49.018
526.38	47.381
526.72	47.136
527.06	46.954
527.41	49.154
527.75	48.509
528.09	46.297
528.43	46.736
528.78	47.346
529.12	47.742
529.46	47.691
529.80	45.736
530.15	47.201
530.49	47.593
530.83	47.166
531.17	46.187
531.51	46.842
531.86	45.471
532.20	46.477
532.54	46.077
532.88	46.533
533.22	46.801
533.57	46.736
533.91	45.513
534.25	45.470
534.59	47.135
534.93	45.791
535.27	44.678
535.62	45.391
535.96	45.035
536.30	45.826
536.64	44.472
536.98	45.437
537.32	45.688
537.66	44.069
538.01	44.830
538.35	45.477
538.69	44.357
539.03	44.714
539.37	44.357
539.71	45.062
540.05	43.631
540.39	43.962
540.73	45.127
541.07	43.977
541.42	43.905
541.76	43.835
542.10	45.068
542.44	44.825
542.78	44.808
543.12	43.988
543.46	43.546
543.80	44.674
544.14	45.139
544.48	42.822
544.82	44.220
545.16	42.805
545.50	43.823
545.84	44.886
546.18	45.059
546.52	44.459
546.86	44.358
547.20	43.346
547.54	43.762
547.88	43.431
548.22	43.777
548.56	42.015
548.90	41.874
549.24	42.893
549.58	42.655
549.92	43.615
550.26	44.557
550.60	43.114
550.94	43.894
551.28	44.621
551.62	43.793
551.96	42.770
552.30	41.925
552.64	45.113
552.98	43.363
553.32	41.677
553.66	43.192
554.00	43.308
554.34	44.407
554.68	43.011
555.02	43.245
555.36	42.354
555.69	43.652
556.03	42.357
556.37	41.428
556.71	43.481
557.05	40.498
557.39	42.667
557.73	42.588
558.07	42.455
558.41	42.152
558.75	41.929
559.08	43.245
559.42	43.092
559.76	42.766
560.10	41.844
560.44	41.340
560.78	41.432
561.12	42.657
561.45	41.615
561.79	40.886
562.13	41.819
562.47	41.142
562.81	41.835
563.15	41.306
563.48	41.366
563.82	41.672
564.16	41.107
564.50	41.410
564.84	41.641
565.17	40.820
565.51	42.488
565.85	42.258
566.19	41.012
566.52	40.674
566.86	41.623
567.20	40.730
567.54	40.721
567.88	39.906
568.21	39.690
568.55	41.148
568.89	39.553
569.23	38.999
569.56	39.696
569.90	38.591
570.24	39.046
570.57	37.995
570.91	38.222
571.25	38.464
571.59	37.761
571.92	37.352
572.26	36.712
572.60	36.990
572.93	37.924
573.27	37.852
573.61	37.818
573.95	37.600
574.28	37.688
574.62	36.842
574.96	36.505
575.29	36.790
575.63	37.032
575.97	37.098
576.30	36.295
576.64	36.196
576.98	36.777
577.31	36.461
577.65	36.506
577.98	36.098
578.32	35.799
578.66	36.178
578.99	36.564
579.33	36.401
579.67	36.511
580.00	35.772
580.34	36.343
580.67	36.577
581.01	36.581
581.35	35.917
581.68	35.841
582.02	36.029
582.35	35.419
582.69	36.061
583.02	36.209
583.36	37.397
583.70	36.269
584.03	37.559
584.37	36.042
584.70	36.576
585.04	35.617
585.37	36.271
585.71	36.202
586.04	35.135
586.38	35.695
586.72	36.190
587.05	36.670
587.39	36.258
587.72	36.204
588.06	36.007
588.39	36.847
588.73	35.631
589.06	36.242
589.40	36.714
589.73	36.152
590.07	37.062
590.40	37.631
590.73	38.046
591.07	37.723
591.40	36.008
591.74	37.094
592.07	37.063
592.41	36.571
592.74	35.884
593.08	35.775
593.41	35.607
593.75	35.725
594.08	36.126
594.41	35.679
594.75	35.582
595.08	36.077
595.42	36.011
595.75	35.801
596.09	36.184
596.42	35.943
596.75	36.899
597.09	36.608
597.42	36.408
597.75	35.578
598.09	35.330
598.42	35.537
598.76	35.929
599.09	36.116
599.42	35.260
599.76	35.550
600.09	34.102
600.42	35.221
600.76	35.826
601.09	35.071
601.42	34.812
601.76	35.303
602.09	35.578
602.42	35.453
602.76	35.560
603.09	36.086
603.42	35.083
603.76	35.286
604.09	35.324
604.42	35.066
604.76	36.152
605.09	35.265
605.42	36.083
605.75	35.492
606.09	35.501
606.42	35.062
606.75	35.251
607.09	34.781
607.42	35.315
607.75	35.032
608.08	35.337
608.42	35.654
608.75	34.831
609.08	34.888
609.41	35.273
609.75	36.355
610.08	35.297
610.41	36.012
610.74	35.195
611.07	35.471
611.41	35.867
611.74	35.612
612.07	35.838
612.40	34.844
612.73	35.846
613.07	35.327
613.40	35.138
613.73	35.946
614.06	34.250
614.39	35.202
614.72	35.409
615.06	34.174
615.39	34.257
615.72	33.204
616.05	35.208
616.38	35.160
616.71	34.780
617.05	36.244
617.38	35.169
617.71	35.039
618.04	35.951
618.37	35.742
618.70	35.681
619.03	35.043
619.36	34.799
619.69	35.026
620.03	36.595
620.36	35.517
620.69	36.718
621.02	36.005
621.35	35.387
621.68	35.619
622.01	36.605
622.34	36.125
622.67	35.604
623.00	35.602
623.33	35.695
623.66	35.462
623.99	36.781
624.32	35.027
624.65	34.826
624.99	35.294
625.32	36.005
625.65	35.517
625.98	35.844
626.31	35.312
626.64	35.459
626.97	35.348
627.30	35.093
627.63	36.185
627.96	36.385
628.29	35.644
628.62	35.672
628.95	35.638
629.28	36.985
629.61	36.028
629.94	34.918
630.26	36.915
630.59	36.525
630.92	36.233
631.25	35.721
