SpectraSuite Data File
++++++++++++++++++++++++++++++++++++
Date: Tue May 12 16:51:57 PDT 2015
User: schluterlab
Dark Spectrum Present: Yes
Reference Spectrum Present: Yes
Number of Sampled Component Spectra: 1
Spectrometers: USB2E3373
Integration Time (usec): 3000 (USB2E3373)
Spectra Averaged: 3 (USB2E3373)
Boxcar Smoothing: 0 (USB2E3373)
Correct for Electrical Dark: No (USB2E3373)
Strobe/Lamp Enabled: No (USB2E3373)
Correct for Detector Non-linearity: No (USB2E3373)
Correct for Stray Light: No (USB2E3373)
Number of Pixels in Processed Spectrum: 2048
>>>>>Begin Processed Spectral Data<<<<<
178.53	0.000
178.91	-216.667
179.29	-950.000
179.67	-3800.000
180.04	-140.000
180.42	400.000
180.80	1600.000
181.18	0.000
181.56	-312.500
181.94	0.000
182.31	866.667
182.69	-2500.000
183.07	757.143
183.45	-3200.000
183.83	-1900.000
184.20	330.000
184.58	471.429
184.96	-176.923
185.34	-250.000
185.72	1750.000
186.09	-875.000
186.47	-3400.000
186.85	1066.667
187.23	640.000
187.61	1600.000
187.98	487.500
188.36	335.714
188.74	366.667
189.12	383.333
189.49	975.000
189.87	0.000
190.25	475.000
190.63	2200.000
191.00	-225.000
191.38	-4000.000
191.76	-650.000
192.14	637.500
192.51	-3800.000
192.89	1100.000
193.27	1133.333
193.65	-1133.333
194.02	-760.000
194.40	671.429
194.78	-164.286
195.15	206.667
195.53	-3000.000
195.91	-660.000
196.29	3500.000
196.66	212.500
197.04	725.000
197.42	-1200.000
197.79	450.000
198.17	350.000
198.55	0.000
198.92	514.286
199.30	1066.667
199.68	2000.000
200.05	566.667
200.43	-483.333
200.81	161.111
201.18	2800.000
201.56	258.333
201.94	-725.000
202.31	-375.000
202.69	-460.000
203.07	3400.000
203.44	-516.667
203.82	358.333
204.19	640.000
204.57	-1550.000
204.95	-725.000
205.32	-760.000
205.70	516.667
206.08	700.000
206.45	-1000.000
206.83	411.111
207.20	210.526
207.58	283.333
207.96	540.000
208.33	0.000
208.71	485.714
209.08	580.000
209.46	-3400.000
209.84	-750.000
210.21	900.000
210.59	-600.000
210.96	275.000
211.34	-900.000
211.71	445.455
212.09	950.000
212.46	1600.000
212.84	-366.667
213.22	500.000
213.59	-3300.000
213.97	400.000
214.34	1100.000
214.72	1333.333
215.09	866.667
215.47	-3700.000
215.84	-290.000
216.22	-325.000
216.59	0.000
216.97	0.000
217.34	1100.000
217.72	-1200.000
218.09	1300.000
218.47	525.000
218.84	825.000
219.22	900.000
219.59	900.000
219.97	514.286
220.34	355.556
220.72	1900.000
221.09	3700.000
221.47	316.667
221.84	1166.667
222.22	380.000
222.59	238.889
222.97	235.714
223.34	193.750
223.72	-1850.000
224.09	1033.333
224.46	338.462
224.84	-900.000
225.21	411.111
225.59	313.333
225.96	1533.333
226.34	-680.000
226.71	-775.000
227.08	-480.000
227.46	0.000
227.83	-683.333
228.21	-1850.000
228.58	425.000
228.95	875.000
229.33	377.778
229.70	900.000
230.08	369.231
230.45	3900.000
230.82	-850.000
231.20	-900.000
231.57	-933.333
231.95	480.000
232.32	275.000
232.69	416.667
233.07	250.000
233.44	-1350.000
233.81	313.333
234.19	177.778
234.56	231.250
234.93	235.294
235.31	220.000
235.68	262.500
236.05	178.571
236.43	148.148
236.80	242.857
237.17	134.483
237.55	156.250
237.92	112.500
238.29	130.303
238.67	153.125
239.04	126.829
239.41	85.417
239.79	97.500
240.16	114.583
240.53	93.443
240.91	78.261
241.28	86.441
241.65	86.364
242.02	88.732
242.40	88.571
242.77	72.527
243.14	73.418
243.51	82.828
243.89	65.421
244.26	65.421
244.63	69.307
245.00	84.404
245.38	61.017
245.75	59.091
246.12	71.852
246.49	63.830
246.87	56.557
247.24	62.000
247.61	58.750
247.98	67.347
248.36	56.970
248.73	64.286
249.10	57.143
249.47	57.000
249.84	53.234
250.22	58.919
250.59	59.500
250.96	55.274
251.33	52.093
251.70	53.125
252.08	57.563
252.45	51.793
252.82	51.711
253.19	52.569
253.56	51.154
253.94	46.739
254.31	55.039
254.68	48.780
255.05	51.724
255.42	56.934
255.79	52.117
256.16	50.169
256.54	50.974
256.91	50.000
257.28	50.836
257.65	45.141
258.02	49.558
258.39	47.564
258.76	48.696
259.14	46.000
259.51	48.980
259.88	47.416
260.25	48.901
260.62	49.315
260.99	42.975
261.36	45.682
261.73	50.532
262.10	47.644
262.47	47.750
262.85	47.467
263.22	49.357
263.59	48.849
263.96	47.619
264.33	45.185
264.70	46.683
265.07	45.122
265.44	46.789
265.81	47.642
266.18	43.249
266.55	46.809
266.92	46.085
267.29	47.588
267.66	45.964
268.03	45.516
268.40	41.015
268.77	43.172
269.14	42.950
269.51	44.321
269.88	44.490
270.25	42.765
270.62	44.421
270.99	44.625
271.36	44.106
271.73	44.025
272.10	42.222
272.47	44.841
272.84	43.313
273.21	43.388
273.58	44.737
273.95	44.353
274.32	43.969
274.69	44.882
275.06	45.173
275.43	41.954
275.80	40.377
276.17	42.096
276.54	41.869
276.91	41.231
277.28	43.613
277.65	42.435
278.02	41.360
278.39	41.187
278.76	43.276
279.13	42.883
279.50	43.636
279.87	40.037
280.23	42.357
280.60	42.336
280.97	40.862
281.34	40.594
281.71	43.130
282.08	40.513
282.45	41.892
282.82	41.137
283.19	40.859
283.56	41.488
283.92	42.997
284.29	40.433
284.66	40.672
285.03	41.294
285.40	38.843
285.77	37.654
286.14	40.557
286.51	40.337
286.87	39.241
287.24	36.937
287.61	39.818
287.98	39.403
288.35	38.370
288.72	37.329
289.08	39.339
289.45	39.787
289.82	39.531
290.19	37.921
290.56	37.555
290.93	38.129
291.29	37.155
291.66	35.593
292.03	37.027
292.40	35.637
292.77	34.958
293.13	35.949
293.50	34.683
293.87	34.688
294.24	34.266
294.60	35.532
294.97	36.364
295.34	33.732
295.71	35.480
296.08	34.800
296.44	33.672
296.81	33.747
297.18	31.686
297.55	33.128
297.91	30.911
298.28	31.884
298.65	31.043
299.02	31.966
299.38	33.333
299.75	32.195
300.12	30.734
300.48	32.904
300.85	31.824
301.22	31.279
301.59	29.363
301.95	29.988
302.32	30.966
302.69	30.204
303.05	31.762
303.42	30.045
303.79	30.444
304.15	30.473
304.52	29.915
304.89	30.597
305.25	30.812
305.62	30.810
305.99	27.826
306.35	29.053
306.72	29.240
307.09	29.710
307.45	27.455
307.82	29.630
308.19	29.691
308.55	30.000
308.92	28.950
309.29	29.290
309.65	27.750
310.02	28.702
310.38	27.617
310.75	27.772
311.12	28.257
311.48	29.151
311.85	28.244
312.22	28.653
312.58	28.571
312.95	27.767
313.31	27.715
313.68	27.205
314.05	29.762
314.41	27.002
314.78	27.746
315.14	28.720
315.51	28.193
315.87	27.190
316.24	28.198
316.61	26.858
316.97	27.064
317.34	28.302
317.70	27.831
318.07	27.491
318.43	27.504
318.80	27.583
319.16	28.147
319.53	26.106
319.89	26.613
320.26	29.609
320.62	26.740
320.99	26.883
321.35	27.829
321.72	28.178
322.08	27.424
322.45	25.159
322.81	25.892
323.18	26.732
323.54	27.962
323.91	24.932
324.27	25.641
324.64	26.125
325.00	25.345
325.37	26.391
325.73	25.885
326.10	26.181
326.46	25.764
326.83	25.120
327.19	27.068
327.56	25.080
327.92	25.656
328.29	26.841
328.65	26.455
329.01	25.920
329.38	26.058
329.74	25.363
330.11	25.977
330.47	25.746
330.84	24.935
331.20	25.888
331.56	24.698
331.93	25.577
332.29	23.895
332.66	26.616
333.02	25.172
333.38	25.829
333.75	25.521
334.11	24.916
334.48	25.043
334.84	24.916
335.20	25.406
335.57	24.853
335.93	25.988
336.29	24.959
336.66	25.557
337.02	25.235
337.38	25.623
337.75	25.591
338.11	25.485
338.47	25.402
338.84	24.047
339.20	23.810
339.56	25.315
339.93	25.334
340.29	23.529
340.65	25.314
341.02	24.457
341.38	24.466
341.74	25.166
342.11	23.873
342.47	23.954
342.83	25.103
343.20	23.848
343.56	23.272
343.92	24.030
344.28	25.120
344.65	25.591
345.01	23.889
345.37	23.237
345.73	23.492
346.10	24.143
346.46	25.359
346.82	22.685
347.19	24.189
347.55	23.263
347.91	22.432
348.27	23.083
348.63	23.339
349.00	24.448
349.36	23.813
349.72	24.618
350.08	24.224
350.45	23.229
350.81	24.388
351.17	22.727
351.53	23.480
351.89	23.621
352.26	22.902
352.62	23.228
352.98	24.080
353.34	24.114
353.70	22.477
354.07	23.769
354.43	23.425
354.79	23.159
355.15	23.507
355.51	24.396
355.87	22.816
356.24	23.480
356.60	23.288
356.96	22.365
357.32	22.155
357.68	24.156
358.04	23.556
358.40	23.688
358.77	23.291
359.13	23.724
359.49	23.202
359.85	23.455
360.21	22.808
360.57	22.920
360.93	22.294
361.29	22.294
361.66	24.310
362.02	22.230
362.38	23.304
362.74	22.788
363.10	22.861
363.46	22.099
363.82	23.633
364.18	22.902
364.54	23.104
364.90	23.025
365.26	23.248
365.62	22.099
365.98	22.092
366.35	22.414
366.71	23.109
367.07	22.526
367.43	21.827
367.79	21.875
368.15	20.896
368.51	22.812
368.87	21.535
369.23	22.592
369.59	22.252
369.95	22.308
370.31	21.287
370.67	21.929
371.03	22.479
371.39	21.745
371.75	21.842
372.11	22.366
372.47	22.260
372.83	22.706
373.19	22.138
373.55	22.199
373.91	20.166
374.27	21.892
374.63	20.339
374.99	22.305
375.35	22.043
375.71	22.230
376.07	22.281
376.42	21.803
376.78	22.158
377.14	22.215
377.50	21.411
377.86	21.461
378.22	21.450
378.58	21.671
378.94	21.605
379.30	21.043
379.66	21.854
380.02	22.522
380.38	22.014
380.74	21.453
381.09	21.904
381.45	20.867
381.81	20.567
382.17	20.940
382.53	21.656
382.89	22.354
383.25	20.900
383.61	20.807
383.97	20.936
384.32	21.398
384.68	21.866
385.04	22.392
385.40	22.005
385.76	20.831
386.12	22.016
386.48	20.790
386.83	21.577
387.19	20.848
387.55	21.319
387.91	21.478
388.27	21.832
388.62	21.127
388.98	21.050
389.34	20.405
389.70	20.401
390.06	21.829
390.42	20.234
390.77	20.885
391.13	21.424
391.49	21.416
391.85	21.969
392.20	21.871
392.56	22.103
392.92	20.943
393.28	20.235
393.64	20.872
393.99	20.865
394.35	20.306
394.71	20.627
395.07	21.715
395.42	20.960
395.78	21.036
396.14	21.988
396.50	21.420
396.85	20.732
397.21	21.841
397.57	20.622
397.92	20.451
398.28	19.967
398.64	20.477
399.00	19.936
399.35	20.344
399.71	21.082
400.07	20.662
400.42	21.075
400.78	20.645
401.14	21.609
401.49	20.449
401.85	21.553
402.21	20.972
402.57	22.023
402.92	20.848
403.28	19.570
403.63	20.483
403.99	20.567
404.35	21.688
404.70	21.737
405.06	21.056
405.42	21.005
405.77	20.673
406.13	20.011
406.49	20.921
406.84	20.135
407.20	21.062
407.55	21.169
407.91	21.570
408.27	20.861
408.62	20.580
408.98	20.520
409.34	20.164
409.69	20.411
410.05	19.499
410.40	19.965
410.76	19.519
411.11	20.261
411.47	20.432
411.83	20.328
412.18	19.928
412.54	20.360
412.89	19.528
413.25	20.410
413.60	20.093
413.96	19.808
414.31	19.953
414.67	21.415
415.03	20.307
415.38	20.379
415.74	20.278
416.09	20.675
416.45	21.138
416.80	22.065
417.16	21.197
417.51	20.701
417.87	20.213
418.22	20.109
418.58	20.892
418.93	20.583
419.29	20.456
419.64	20.533
420.00	20.525
420.35	20.035
420.71	19.545
421.06	20.247
421.42	20.553
421.77	19.600
422.12	20.342
422.48	20.134
422.83	19.978
423.19	19.924
423.54	19.254
423.90	21.121
424.25	20.253
424.61	20.429
424.96	19.085
425.31	19.759
425.67	20.090
426.02	20.135
426.38	19.837
426.73	20.127
427.09	20.581
427.44	19.696
427.79	19.954
428.15	21.450
428.50	20.629
428.85	19.929
429.21	20.421
429.56	20.189
429.92	20.587
430.27	19.884
430.62	19.530
430.98	20.010
431.33	19.204
431.68	18.765
432.04	19.245
432.39	19.594
432.74	20.141
433.10	20.266
433.45	21.080
433.80	20.794
434.16	19.653
434.51	20.279
434.86	20.142
435.22	19.233
435.57	20.510
435.92	20.774
436.28	20.334
436.63	20.151
436.98	20.327
437.34	20.091
437.69	19.373
438.04	20.000
438.39	20.140
438.75	19.822
439.10	19.590
439.45	20.350
439.81	19.722
440.16	20.748
440.51	20.495
440.86	20.342
441.22	19.535
441.57	19.685
441.92	19.595
442.27	20.052
442.63	20.173
442.98	20.151
443.33	20.193
443.68	19.970
444.03	19.133
444.39	19.444
444.74	19.203
445.09	20.221
445.44	19.819
445.79	19.932
446.15	19.053
446.50	20.833
446.85	19.671
447.20	19.005
447.55	19.250
447.91	20.831
448.26	19.223
448.61	19.790
448.96	20.044
449.31	19.912
449.66	20.377
450.02	19.773
450.37	19.933
450.72	20.331
451.07	20.652
451.42	19.324
451.77	19.817
452.12	20.136
452.47	20.049
452.83	20.338
453.18	21.021
453.53	20.367
453.88	20.229
454.23	19.640
454.58	20.163
454.93	20.417
455.28	19.461
455.63	19.976
455.98	19.177
456.34	20.486
456.69	19.512
457.04	20.167
457.39	20.114
457.74	20.270
458.09	19.147
458.44	19.441
458.79	20.318
459.14	20.076
459.49	19.139
459.84	20.272
460.19	19.548
460.54	18.974
460.89	19.670
461.24	19.359
461.59	20.125
461.94	19.090
462.29	20.366
462.64	20.226
462.99	19.834
463.34	20.739
463.69	20.871
464.04	20.380
464.39	19.748
464.74	19.285
465.09	19.733
465.44	20.131
465.79	19.597
466.14	19.184
466.49	19.316
466.84	19.732
467.19	20.387
467.54	19.580
467.89	20.012
468.24	20.266
468.59	19.107
468.94	19.082
469.29	20.770
469.64	20.064
469.99	19.087
470.34	19.608
470.68	19.172
471.03	20.680
471.38	20.331
471.73	20.379
472.08	19.700
472.43	19.119
472.78	19.910
473.13	19.587
473.48	19.071
473.83	19.788
474.17	19.392
474.52	19.727
474.87	18.931
475.22	19.589
475.57	19.150
475.92	19.366
476.27	18.825
476.61	19.410
476.96	19.645
477.31	18.972
477.66	19.592
478.01	19.495
478.36	19.773
478.70	19.504
479.05	19.561
479.40	19.940
479.75	20.109
480.10	19.797
480.45	19.048
480.79	19.493
481.14	19.211
481.49	19.076
481.84	18.777
482.19	19.039
482.53	19.192
482.88	19.265
483.23	18.990
483.58	19.569
483.92	20.201
484.27	18.536
484.62	19.567
484.97	19.127
485.31	18.765
485.66	18.793
486.01	18.657
486.36	18.642
486.70	18.494
487.05	18.396
487.40	18.139
487.75	18.205
488.09	18.523
488.44	18.706
488.79	18.674
489.13	18.402
489.48	18.698
489.83	18.641
490.17	18.662
490.52	18.260
490.87	18.578
491.22	18.927
491.56	19.280
491.91	18.280
492.26	19.465
492.60	18.724
492.95	19.257
493.30	18.972
493.64	18.553
493.99	19.275
494.34	19.274
494.68	19.124
495.03	19.039
495.37	19.586
495.72	18.695
496.07	18.688
496.41	18.940
496.76	18.827
497.11	19.066
497.45	18.544
497.80	18.767
498.14	18.909
498.49	18.477
498.84	18.598
499.18	18.236
499.53	18.695
499.87	18.733
500.22	19.300
500.56	18.431
500.91	19.481
501.26	19.247
501.60	18.807
501.95	18.145
502.29	18.533
502.64	18.615
502.98	18.141
503.33	18.664
503.67	18.896
504.02	18.540
504.36	18.597
504.71	19.868
505.06	18.771
505.40	18.437
505.75	18.148
506.09	18.385
506.44	19.032
506.78	19.140
507.13	18.226
507.47	18.583
507.82	18.978
508.16	19.206
508.51	19.227
508.85	19.183
509.19	18.943
509.54	19.287
509.88	18.299
510.23	17.990
510.57	18.871
510.92	18.831
511.26	18.926
511.61	18.858
511.95	18.865
512.30	19.000
512.64	18.172
512.98	19.016
513.33	18.750
513.67	18.799
514.02	19.065
514.36	18.588
514.70	18.560
515.05	18.114
515.39	18.311
515.74	19.628
516.08	18.627
516.42	20.055
516.77	19.093
517.11	18.400
517.46	19.019
517.80	18.078
518.14	19.606
518.49	18.026
518.83	17.967
519.17	18.747
519.52	18.788
519.86	19.237
520.20	19.123
520.55	19.163
520.89	18.736
521.23	19.451
521.58	18.187
521.92	18.017
522.26	18.780
522.61	19.133
522.95	19.039
523.29	18.713
523.64	18.786
523.98	18.721
524.32	18.570
524.66	19.362
525.01	18.876
525.35	18.562
525.69	19.747
526.04	19.096
526.38	18.952
526.72	18.974
527.06	18.155
527.41	19.468
527.75	18.868
528.09	18.904
528.43	19.890
528.78	19.797
529.12	19.807
529.46	18.410
529.80	19.568
530.15	18.916
530.49	18.412
530.83	19.074
531.17	19.188
531.51	18.884
531.86	18.357
532.20	19.159
532.54	19.083
532.88	18.988
533.22	18.525
533.57	18.853
533.91	18.998
534.25	18.119
534.59	18.655
534.93	17.235
535.27	18.042
535.62	18.786
535.96	18.794
536.30	19.622
536.64	18.012
536.98	18.691
537.32	19.437
537.66	17.666
538.01	18.947
538.35	18.964
538.69	17.961
539.03	18.221
539.37	19.053
539.71	18.827
540.05	18.277
540.39	18.553
540.73	18.165
541.07	18.758
541.42	19.527
541.76	19.482
542.10	18.681
542.44	19.825
542.78	19.069
543.12	19.325
543.46	18.734
543.80	18.860
544.14	18.885
544.48	17.883
544.82	19.327
545.16	18.336
545.50	18.500
545.84	19.444
546.18	20.221
546.52	18.492
546.86	19.278
547.20	18.605
547.54	18.619
547.88	18.613
548.22	18.397
548.56	19.446
548.90	19.336
549.24	19.330
549.58	18.750
549.92	18.337
550.26	18.864
550.60	18.696
550.94	18.792
551.28	20.345
551.62	20.207
551.96	19.324
552.30	18.655
552.64	19.741
552.98	18.879
553.32	19.462
553.66	18.241
554.00	18.983
554.34	18.908
554.68	19.288
555.02	19.280
555.36	17.952
555.69	19.372
556.03	18.535
556.37	18.292
556.71	20.078
557.05	18.480
557.39	18.733
557.73	18.261
558.07	19.182
558.41	18.986
558.75	19.152
559.08	19.657
559.42	19.256
559.76	18.674
560.10	19.202
560.44	18.646
560.78	19.821
561.12	19.263
561.45	18.461
561.79	18.477
562.13	19.015
562.47	19.403
562.81	18.347
563.15	18.487
563.48	18.447
563.82	19.027
564.16	18.719
564.50	17.782
564.84	18.967
565.17	19.133
565.51	19.520
565.85	19.062
566.19	18.214
566.52	17.870
566.86	18.681
567.20	18.764
567.54	19.323
567.88	18.623
568.21	18.023
568.55	18.580
568.89	18.659
569.23	18.378
569.56	18.331
569.90	18.397
570.24	18.433
570.57	18.430
570.91	17.847
571.25	18.120
571.59	18.331
571.92	17.869
572.26	17.871
572.60	17.912
572.93	17.769
573.27	18.409
573.61	17.569
573.95	18.376
574.28	18.202
574.62	17.629
574.96	17.676
575.29	17.931
575.63	18.021
575.97	17.308
576.30	17.236
576.64	18.025
576.98	17.715
577.31	18.007
577.65	17.951
577.98	17.972
578.32	17.796
578.66	18.118
578.99	18.083
579.33	17.952
579.67	17.563
580.00	17.542
580.34	17.479
580.67	17.673
581.01	17.885
581.35	17.949
581.68	17.559
582.02	17.689
582.35	17.567
582.69	17.883
583.02	17.656
583.36	17.549
583.70	17.916
584.03	17.997
584.37	17.542
584.70	18.039
585.04	17.583
585.37	17.764
585.71	18.157
586.04	17.703
586.38	17.668
586.72	17.555
587.05	18.194
587.39	17.699
587.72	17.907
588.06	17.755
588.39	17.579
588.73	17.570
589.06	17.771
589.40	18.404
589.73	17.765
590.07	18.600
590.40	18.676
590.73	18.472
591.07	18.482
591.40	18.483
591.74	18.304
592.07	17.637
592.41	18.066
592.74	17.979
593.08	17.969
593.41	17.923
593.75	17.570
594.08	17.616
594.41	17.986
594.75	17.637
595.08	18.141
595.42	18.302
595.75	18.131
596.09	18.422
596.42	17.917
596.75	18.470
597.09	18.407
597.42	18.449
597.75	17.444
598.09	18.137
598.42	17.625
598.76	17.887
599.09	18.095
599.42	17.682
599.76	18.453
600.09	17.763
600.42	18.474
600.76	18.287
601.09	18.295
601.42	18.303
601.76	18.332
602.09	18.322
602.42	17.338
602.76	17.723
603.09	17.685
603.42	18.275
603.76	17.498
604.09	17.553
604.42	17.702
604.76	18.254
605.09	18.571
605.42	18.082
605.75	18.279
606.09	18.630
606.42	18.001
606.75	18.422
607.09	17.805
607.42	17.838
607.75	18.073
608.08	18.075
608.42	18.918
608.75	17.373
609.08	17.950
609.41	19.091
609.75	18.636
610.08	18.210
610.41	17.699
610.74	17.922
611.07	18.417
611.41	18.258
611.74	18.451
612.07	18.593
612.40	18.177
612.73	18.522
613.07	19.007
613.40	18.596
613.73	17.624
614.06	18.100
614.39	18.333
614.72	18.232
615.06	18.002
615.39	18.317
615.72	17.764
616.05	18.533
616.38	18.671
616.71	18.177
617.05	18.506
617.38	18.258
617.71	19.179
618.04	18.564
618.37	18.344
618.70	17.956
619.03	18.193
619.36	18.279
619.69	18.602
620.03	19.569
620.36	18.176
620.69	19.987
621.02	18.886
621.35	17.192
621.68	19.027
622.01	19.262
622.34	18.063
622.67	20.014
623.00	18.993
623.33	18.556
623.66	18.031
623.99	18.699
624.32	19.173
624.65	18.038
624.99	18.526
625.32	18.036
625.65	17.586
625.98	18.410
626.31	18.694
626.64	18.299
626.97	17.368
627.30	19.022
627.63	19.859
627.96	19.092
628.29	19.142
628.62	18.477
628.95	19.681
629.28	20.070
629.61	18.366
629.94	18.583
630.26	18.891
630.59	19.858
630.92	18.475
631.25	19.764
