SpectraSuite Data File
++++++++++++++++++++++++++++++++++++
Date: Tue May 12 17:07:46 PDT 2015
User: schluterlab
Dark Spectrum Present: Yes
Reference Spectrum Present: Yes
Number of Sampled Component Spectra: 1
Spectrometers: USB2E3373
Integration Time (usec): 3000 (USB2E3373)
Spectra Averaged: 3 (USB2E3373)
Boxcar Smoothing: 0 (USB2E3373)
Correct for Electrical Dark: No (USB2E3373)
Strobe/Lamp Enabled: No (USB2E3373)
Correct for Detector Non-linearity: No (USB2E3373)
Correct for Stray Light: No (USB2E3373)
Number of Pixels in Processed Spectrum: 2048
>>>>>Begin Processed Spectral Data<<<<<
178.53	0.000
178.91	-241.667
179.29	-400.000
179.67	-3800.000
180.04	-153.333
180.42	625.000
180.80	1600.000
181.18	0.000
181.56	-250.000
181.94	0.000
182.31	1200.000
182.69	-2800.000
183.07	671.429
183.45	-3400.000
183.83	-1250.000
184.20	360.000
184.58	457.143
184.96	-307.692
185.34	-191.667
185.72	1900.000
186.09	-525.000
186.47	-3000.000
186.85	1000.000
187.23	680.000
187.61	1850.000
187.98	487.500
188.36	242.857
188.74	266.667
189.12	416.667
189.49	950.000
189.87	0.000
190.25	487.500
190.63	3500.000
191.00	-241.667
191.38	-3700.000
191.76	-725.000
192.14	600.000
192.51	-2700.000
192.89	1950.000
193.27	966.667
193.65	-1033.333
194.02	-800.000
194.40	628.571
194.78	-185.714
195.15	166.667
195.53	-3500.000
195.91	-520.000
196.29	2900.000
196.66	275.000
197.04	800.000
197.42	-1750.000
197.79	750.000
198.17	358.333
198.55	0.000
198.92	542.857
199.30	1400.000
199.68	2500.000
200.05	600.000
200.43	-450.000
200.81	188.889
201.18	3200.000
201.56	250.000
201.94	-650.000
202.31	-337.500
202.69	-620.000
203.07	2000.000
203.44	-483.333
203.82	275.000
204.19	620.000
204.57	-1450.000
204.95	-950.000
205.32	-760.000
205.70	583.333
206.08	700.000
206.45	-833.333
206.83	511.111
207.20	194.737
207.58	291.667
207.96	640.000
208.33	0.000
208.71	571.429
209.08	680.000
209.46	-3600.000
209.84	-850.000
210.21	640.000
210.59	-640.000
210.96	350.000
211.34	-950.000
211.71	409.091
212.09	900.000
212.46	1400.000
212.84	-383.333
213.22	411.111
213.59	-2100.000
213.97	330.000
214.34	900.000
214.72	966.667
215.09	1033.333
215.47	-2900.000
215.84	-360.000
216.22	-262.500
216.59	0.000
216.97	0.000
217.34	1350.000
217.72	-1100.000
218.09	933.333
218.47	337.500
218.84	1050.000
219.22	1133.333
219.59	1000.000
219.97	685.714
220.34	455.556
220.72	1550.000
221.09	2900.000
221.47	308.333
221.84	1133.333
222.22	350.000
222.59	233.333
222.97	228.571
223.34	225.000
223.72	-1450.000
224.09	1466.667
224.46	261.538
224.84	-875.000
225.21	422.222
225.59	293.333
225.96	1466.667
226.34	-600.000
226.71	-700.000
227.08	-620.000
227.46	0.000
227.83	-683.333
228.21	-1800.000
228.58	333.333
228.95	800.000
229.33	300.000
229.70	1175.000
230.08	353.846
230.45	3800.000
230.82	-1075.000
231.20	-866.667
231.57	-833.333
231.95	720.000
232.32	266.667
232.69	666.667
233.07	275.000
233.44	-2000.000
233.81	293.333
234.19	162.963
234.56	218.750
234.93	176.471
235.31	235.000
235.68	256.250
236.05	160.714
236.43	122.222
236.80	257.143
237.17	144.828
237.55	125.000
237.92	117.500
238.29	124.242
238.67	162.500
239.04	107.317
239.41	91.667
239.79	95.000
240.16	93.750
240.53	62.295
240.91	82.609
241.28	77.966
241.65	69.697
242.02	81.690
242.40	74.286
242.77	65.934
243.14	60.759
243.51	66.667
243.89	55.140
244.26	55.140
244.63	65.347
245.00	59.633
245.38	54.237
245.75	55.303
246.12	53.333
246.49	53.901
246.87	48.361
247.24	51.333
247.61	51.875
247.98	55.782
248.36	42.424
248.73	50.510
249.10	40.476
249.47	40.500
249.84	41.294
250.22	41.622
250.59	42.000
250.96	42.616
251.33	47.442
251.70	40.625
252.08	44.118
252.45	37.849
252.82	38.023
253.19	36.759
253.56	36.154
253.94	38.406
254.31	34.496
254.68	35.889
255.05	41.724
255.42	36.861
255.79	40.717
256.16	39.322
256.54	36.688
256.91	38.235
257.28	36.455
257.65	34.796
258.02	35.988
258.39	36.390
258.76	36.232
259.14	31.714
259.51	35.860
259.88	39.210
260.25	30.220
260.62	35.342
260.99	33.058
261.36	34.819
261.73	34.840
262.10	34.031
262.47	34.250
262.85	31.467
263.22	35.733
263.59	37.084
263.96	35.589
264.33	32.840
264.70	35.872
265.07	31.707
265.44	33.028
265.81	32.547
266.18	32.723
266.55	30.733
266.92	30.649
267.29	31.140
267.66	30.045
268.03	32.735
268.40	31.501
268.77	34.581
269.14	32.538
269.51	29.844
269.88	30.816
270.25	29.158
270.62	31.116
270.99	32.049
271.36	31.707
271.73	31.237
272.10	30.707
272.47	29.365
272.84	28.543
273.21	30.165
273.58	32.186
273.95	29.363
274.32	29.183
274.69	32.283
275.06	30.601
275.43	29.502
275.80	29.434
276.17	30.882
276.54	29.533
276.91	31.530
277.28	30.292
277.65	28.044
278.02	28.309
278.39	30.576
278.76	33.276
279.13	30.427
279.50	29.091
279.87	28.864
280.23	27.256
280.60	31.934
280.97	26.897
281.34	28.218
281.71	26.261
282.08	27.179
282.45	28.716
282.82	26.923
283.19	28.935
283.56	29.091
283.92	29.153
284.29	27.454
284.66	26.723
285.03	27.861
285.40	27.273
285.77	28.549
286.14	28.173
286.51	28.528
286.87	23.418
287.24	25.526
287.61	26.444
287.98	26.418
288.35	26.667
288.72	27.921
289.08	26.877
289.45	27.439
289.82	27.656
290.19	24.890
290.56	27.511
290.93	27.626
291.29	25.552
291.66	25.141
292.03	26.648
292.40	23.306
292.77	24.513
293.13	25.250
293.50	23.617
293.87	24.526
294.24	24.895
294.60	26.110
294.97	26.294
295.34	24.037
295.71	24.310
296.08	24.000
296.44	24.524
296.81	23.573
297.18	20.786
297.55	25.985
297.91	22.537
298.28	24.034
298.65	23.313
299.02	22.799
299.38	22.902
299.75	22.317
300.12	23.624
300.48	23.653
300.85	23.123
301.22	22.907
301.59	22.877
301.95	22.520
302.32	22.352
302.69	23.643
303.05	23.232
303.42	21.861
303.79	23.185
304.15	22.222
304.52	21.776
304.89	22.175
305.25	22.914
305.62	22.388
305.99	21.087
306.35	22.737
306.72	21.852
307.09	22.360
307.45	21.647
307.82	21.811
308.19	22.268
308.55	21.800
308.92	22.179
309.29	22.880
309.65	21.903
310.02	23.428
310.38	22.632
310.75	21.408
311.12	21.743
311.48	23.456
311.85	21.660
312.22	23.209
312.58	21.672
312.95	21.942
313.31	22.566
313.68	20.732
314.05	23.260
314.41	21.974
314.78	21.307
315.14	22.370
315.51	21.003
315.87	21.077
316.24	22.689
316.61	21.038
316.97	21.193
317.34	22.372
317.70	21.159
318.07	20.996
318.43	22.056
318.80	21.366
319.16	22.115
319.53	20.796
319.89	21.147
320.26	22.533
320.62	22.161
320.99	21.068
321.35	20.965
321.72	21.822
322.08	21.884
322.45	21.708
322.81	21.134
323.18	22.647
323.54	21.516
323.91	22.484
324.27	21.309
324.64	21.540
325.00	21.121
325.37	20.236
325.73	20.152
326.10	20.464
326.46	21.222
326.83	20.400
327.19	22.008
327.56	20.527
327.92	21.557
328.29	20.704
328.65	20.120
329.01	21.985
329.38	21.574
329.74	20.495
330.11	21.460
330.47	20.290
330.84	20.449
331.20	19.882
331.56	21.244
331.93	21.814
332.29	20.323
332.66	21.514
333.02	19.244
333.38	20.244
333.75	19.933
334.11	20.470
334.48	20.000
334.84	19.595
335.20	20.616
335.57	18.808
335.93	20.185
336.29	20.730
336.66	20.069
337.02	20.103
337.38	20.808
337.75	21.453
338.11	19.916
338.47	20.068
338.84	20.745
339.20	19.740
339.56	19.512
339.93	20.485
340.29	18.655
340.65	20.788
341.02	19.952
341.38	19.787
341.74	19.684
342.11	18.447
342.47	18.704
342.83	21.001
343.20	19.563
343.56	19.222
343.92	19.075
344.28	18.421
344.65	19.560
345.01	19.127
345.37	18.830
345.73	18.571
346.10	18.805
346.46	19.298
346.82	19.059
347.19	20.402
347.55	18.189
347.91	18.731
348.27	18.203
348.63	19.541
349.00	18.888
349.36	18.755
349.72	19.495
350.08	18.245
350.45	19.497
350.81	18.960
351.17	18.028
351.53	18.630
351.89	17.560
352.26	18.594
352.62	17.722
352.98	18.405
353.34	19.183
353.70	17.584
354.07	18.769
354.43	18.894
354.79	18.831
355.15	18.683
355.51	18.127
355.87	18.449
356.24	18.553
356.60	18.037
356.96	18.499
357.32	18.312
357.68	19.016
358.04	17.933
358.40	18.066
358.77	18.032
359.13	17.342
359.49	17.198
359.85	18.168
360.21	17.236
360.57	17.956
360.93	18.543
361.29	17.893
361.66	18.643
362.02	16.761
362.38	17.821
362.74	18.542
363.10	17.321
363.46	17.265
363.82	17.742
364.18	18.279
364.54	17.096
364.90	17.805
365.26	17.280
365.62	17.058
365.98	17.343
366.35	17.310
366.71	17.765
367.07	17.884
367.43	17.864
367.79	17.886
368.15	16.825
368.51	18.057
368.87	16.033
369.23	16.563
369.59	17.195
369.95	17.832
370.31	17.180
370.67	17.280
371.03	18.908
371.39	16.828
371.75	17.027
372.11	18.287
372.47	18.014
372.83	17.131
373.19	17.752
373.55	17.320
373.91	16.367
374.27	16.865
374.63	16.746
374.99	17.049
375.35	17.406
375.71	17.678
376.07	17.706
376.42	16.176
376.78	16.699
377.14	17.366
377.50	17.228
377.86	16.015
378.22	16.819
378.58	17.312
378.94	17.743
379.30	16.737
379.66	17.520
380.02	16.833
380.38	16.101
380.74	17.647
381.09	16.706
381.45	16.879
381.81	16.312
382.17	17.094
382.53	16.017
382.89	16.322
383.25	16.163
383.61	16.772
383.97	16.017
384.32	16.878
384.68	17.231
385.04	17.526
385.40	17.675
385.76	16.091
386.12	17.254
386.48	16.353
386.83	16.626
387.19	16.726
387.55	16.667
387.91	16.628
388.27	17.311
388.62	16.784
388.98	15.977
389.34	15.824
389.70	16.568
390.06	16.646
390.42	16.471
390.77	15.602
391.13	15.812
391.49	16.576
391.85	16.923
392.20	16.806
392.56	16.667
392.92	15.890
393.28	16.143
393.64	15.883
393.99	16.183
394.35	16.480
394.71	14.958
395.07	16.241
395.42	16.218
395.78	17.027
396.14	16.928
396.50	16.185
396.85	17.073
397.21	16.787
397.57	15.780
397.92	15.367
398.28	16.271
398.64	16.987
399.00	15.286
399.35	15.888
399.71	15.287
400.07	15.753
400.42	15.284
400.78	15.073
401.14	16.031
401.49	15.956
401.85	15.875
402.21	14.763
402.57	16.338
402.92	15.939
403.28	15.095
403.63	15.892
403.99	16.164
404.35	15.826
404.70	16.184
405.06	15.385
405.42	15.978
405.77	15.546
406.13	16.161
406.49	15.236
406.84	15.792
407.20	15.982
407.55	15.877
407.91	16.337
408.27	16.555
408.62	16.499
408.98	15.494
409.34	15.780
409.69	16.553
410.05	15.802
410.40	14.841
410.76	16.142
411.11	15.166
411.47	15.679
411.83	15.290
412.18	15.700
412.54	16.216
412.89	15.339
413.25	16.990
413.60	15.713
413.96	16.218
414.31	16.588
414.67	16.387
415.03	15.453
415.38	15.521
415.74	15.856
416.09	15.928
416.45	16.613
416.80	16.870
417.16	15.213
417.51	15.924
417.87	16.270
418.22	15.553
418.58	16.752
418.93	15.467
419.29	15.465
419.64	16.051
420.00	16.468
420.35	14.983
420.71	14.994
421.06	14.950
421.42	15.486
421.77	15.658
422.12	15.270
422.48	15.665
422.83	16.295
423.19	15.173
423.54	15.579
423.90	16.025
424.25	15.630
424.61	15.032
424.96	15.471
425.31	15.490
425.67	15.600
426.02	15.423
426.38	15.753
426.73	16.079
427.09	15.480
427.44	14.631
427.79	15.552
428.15	15.793
428.50	16.514
428.85	17.225
429.21	15.721
429.56	15.653
429.92	15.564
430.27	15.143
430.62	14.635
430.98	15.269
431.33	15.675
431.68	14.914
432.04	15.106
432.39	15.971
432.74	15.749
433.10	15.891
433.45	15.968
433.80	16.437
434.16	14.293
434.51	15.531
434.86	16.059
435.22	15.343
435.57	15.353
435.92	16.448
436.28	16.129
436.63	16.370
436.98	16.667
437.34	15.411
437.69	15.789
438.04	15.000
438.39	16.112
438.75	15.535
439.10	16.028
439.45	15.998
439.81	16.310
440.16	16.291
440.51	15.935
440.86	15.954
441.22	15.584
441.57	16.063
441.92	15.696
442.27	15.309
442.63	15.346
442.98	15.302
443.33	14.890
443.68	15.744
444.03	15.221
444.39	15.490
444.74	15.269
445.09	15.429
445.44	15.250
445.79	16.033
446.15	16.316
446.50	15.348
446.85	15.886
447.20	15.423
447.55	15.334
447.91	16.995
448.26	15.761
448.61	15.865
448.96	16.721
449.31	15.897
449.66	15.725
450.02	16.207
450.37	16.380
450.72	15.482
451.07	16.579
451.42	16.242
451.77	15.750
452.12	16.506
452.47	15.857
452.83	16.394
453.18	17.417
453.53	16.578
453.88	16.229
454.23	16.560
454.58	17.016
454.93	15.880
455.28	16.095
455.63	16.135
455.98	15.680
456.34	16.717
456.69	15.793
457.04	16.348
457.39	16.514
457.74	16.779
458.09	15.834
458.44	16.320
458.79	15.862
459.14	15.221
459.49	16.025
459.84	15.598
460.19	15.989
460.54	17.037
460.89	16.365
461.24	15.979
461.59	16.893
461.94	16.076
462.29	17.105
462.64	16.771
462.99	16.891
463.34	17.498
463.69	16.576
464.04	16.292
464.39	16.543
464.74	16.061
465.09	16.425
465.44	15.832
465.79	16.168
466.14	15.315
466.49	16.007
466.84	16.611
467.19	18.043
467.54	16.456
467.89	16.667
468.24	16.271
468.59	16.548
468.94	17.391
469.29	17.227
469.64	17.042
469.99	17.288
470.34	16.319
470.68	17.310
471.03	16.278
471.38	17.020
471.73	17.048
472.08	17.547
472.43	17.443
472.78	17.862
473.13	17.459
473.48	16.565
473.83	16.313
474.17	16.900
474.52	16.647
474.87	16.202
475.22	16.790
475.57	16.422
475.92	16.198
476.27	16.213
476.61	16.032
476.96	16.301
477.31	16.915
477.66	16.640
478.01	15.833
478.36	16.890
478.70	16.030
479.05	16.213
479.40	16.121
479.75	17.229
480.10	15.876
480.45	16.527
480.79	16.267
481.14	15.359
481.49	16.194
481.84	15.875
482.19	16.376
482.53	16.074
482.88	16.667
483.23	16.148
483.58	16.068
483.92	17.413
484.27	16.567
484.62	16.511
484.97	15.816
485.31	15.033
485.66	14.760
486.01	14.062
486.36	14.028
486.70	13.957
487.05	14.173
487.40	14.577
487.75	14.886
488.09	15.398
488.44	14.818
488.79	15.168
489.13	16.312
489.48	15.861
489.83	16.222
490.17	16.226
490.52	16.451
490.87	16.595
491.22	16.489
491.56	17.699
491.91	15.950
492.26	16.080
492.60	16.446
492.95	16.493
493.30	16.288
493.64	16.622
493.99	16.592
494.34	16.226
494.68	16.379
495.03	16.749
495.37	17.244
495.72	16.876
496.07	16.262
496.41	16.334
496.76	16.420
497.11	16.495
497.45	16.747
497.80	16.821
498.14	16.736
498.49	17.595
498.84	17.664
499.18	16.179
499.53	16.858
499.87	16.577
500.22	16.444
500.56	16.620
500.91	17.301
501.26	16.812
501.60	16.803
501.95	16.263
502.29	17.289
502.64	16.409
502.98	15.963
503.33	16.392
503.67	16.600
504.02	16.391
504.36	17.104
504.71	17.502
505.06	16.706
505.40	16.565
505.75	16.604
506.09	17.126
506.44	17.199
506.78	16.399
507.13	16.869
507.47	16.934
507.82	17.324
508.16	17.393
508.51	17.536
508.85	16.809
509.19	17.621
509.54	17.578
509.88	17.852
510.23	17.059
510.57	16.988
510.92	17.183
511.26	17.319
511.61	17.479
511.95	17.322
512.30	17.750
512.64	18.432
512.98	17.786
513.33	17.316
513.67	17.607
514.02	17.558
514.36	17.342
514.70	17.867
515.05	17.315
515.39	18.311
515.74	18.316
516.08	18.464
516.42	19.344
516.77	17.707
517.11	17.600
517.46	17.619
517.80	18.788
518.14	18.761
518.49	17.916
518.83	17.637
519.17	17.582
519.52	17.586
519.86	17.984
520.20	18.630
520.55	17.581
520.89	18.448
521.23	18.516
521.58	18.531
521.92	17.784
522.26	18.483
522.61	18.776
522.95	18.138
523.29	18.889
523.64	17.803
523.98	18.251
524.32	19.262
524.66	19.188
525.01	18.107
525.35	18.503
525.69	18.964
526.04	18.025
526.38	18.893
526.72	18.258
527.06	18.332
527.41	19.649
527.75	18.868
528.09	18.483
528.43	19.524
528.78	18.605
529.12	18.784
529.46	18.644
529.80	18.516
530.15	18.326
530.49	18.953
530.83	18.647
531.17	18.204
531.51	18.516
531.86	19.022
532.20	18.356
532.54	17.702
532.88	18.426
533.22	18.647
533.57	18.792
533.91	17.483
534.25	17.773
534.59	18.655
534.93	17.861
535.27	16.733
535.62	17.970
535.96	17.967
536.30	19.927
536.64	18.012
536.98	18.376
537.32	18.687
537.66	18.495
538.01	18.514
538.35	18.715
538.69	18.022
539.03	17.973
539.37	17.476
539.71	18.519
540.05	19.077
540.39	19.119
540.73	18.797
541.07	17.629
541.42	18.097
541.76	19.544
542.10	18.372
542.44	17.955
542.78	18.062
543.12	18.037
543.46	18.546
543.80	19.110
544.14	18.514
544.48	17.822
544.82	17.982
545.16	18.336
545.50	18.439
545.84	18.561
546.18	19.636
546.52	18.754
546.86	19.342
547.20	17.636
547.54	18.429
547.88	18.005
548.22	18.276
548.56	17.560
548.90	18.743
549.24	18.256
549.58	18.814
549.92	18.599
550.26	18.796
550.60	18.563
550.94	18.114
551.28	19.103
551.62	19.793
551.96	18.311
552.30	17.271
552.64	18.835
552.98	17.526
553.32	17.990
553.66	17.850
554.00	18.468
554.34	18.109
554.68	18.683
555.02	19.145
555.36	17.886
555.69	18.521
556.03	19.172
556.37	18.611
556.71	18.709
557.05	19.004
557.39	18.333
557.73	18.801
558.07	18.310
558.41	18.849
558.75	19.152
559.08	19.228
559.42	19.112
559.76	20.100
560.10	18.858
560.44	18.447
560.78	18.542
561.12	18.500
561.45	17.897
561.79	18.914
562.13	17.877
562.47	17.910
562.81	18.478
563.15	18.423
563.48	17.578
563.82	18.216
564.16	17.848
564.50	18.083
564.84	18.723
565.17	18.241
565.51	17.919
565.85	18.260
566.19	17.917
566.52	17.028
566.86	17.980
567.20	17.865
567.54	18.122
567.88	17.371
568.21	16.575
568.55	16.488
568.89	16.834
569.23	16.221
569.56	16.653
569.90	15.702
570.24	15.366
570.57	15.542
570.91	14.789
571.25	15.510
571.59	14.946
571.92	14.612
572.26	14.582
572.60	14.913
572.93	15.152
573.27	15.250
573.61	14.375
573.95	14.492
574.28	14.760
574.62	14.485
574.96	14.195
575.29	14.127
575.63	14.087
575.97	14.484
576.30	14.401
576.64	14.327
576.98	14.233
577.31	14.826
577.65	14.390
577.98	13.681
578.32	13.929
578.66	13.841
578.99	14.412
579.33	14.682
579.67	14.263
580.00	14.309
580.34	14.461
580.67	14.228
581.01	14.417
581.35	14.033
581.68	13.562
582.02	13.855
582.35	13.535
582.69	13.895
583.02	13.839
583.36	14.385
583.70	14.641
584.03	14.715
584.37	15.093
584.70	14.133
585.04	14.228
585.37	13.931
585.71	14.562
586.04	14.357
586.38	14.508
586.72	14.826
587.05	14.874
587.39	14.412
587.72	14.760
588.06	14.105
588.39	14.816
588.73	15.091
589.06	15.144
589.40	15.462
589.73	15.011
590.07	15.683
590.40	15.819
590.73	15.755
591.07	15.939
591.40	15.289
591.74	16.274
592.07	15.141
592.41	15.627
592.74	15.196
593.08	14.909
593.41	15.081
593.75	14.524
594.08	14.998
594.41	14.761
594.75	15.171
595.08	15.055
595.42	15.076
595.75	15.630
596.09	15.294
596.42	15.878
596.75	15.986
597.09	16.096
597.42	15.388
597.75	15.538
598.09	15.265
598.42	15.708
598.76	15.574
599.09	15.778
599.42	14.775
599.76	15.095
600.09	15.051
600.42	14.814
600.76	15.262
601.09	14.981
601.42	15.241
601.76	15.431
602.09	15.489
602.42	15.453
602.76	15.636
603.09	15.913
603.42	15.596
603.76	15.004
604.09	15.128
604.42	15.518
604.76	15.172
605.09	15.959
605.42	15.969
605.75	15.594
606.09	15.685
606.42	15.746
606.75	15.546
607.09	14.962
607.42	15.227
607.75	16.282
608.08	15.394
608.42	15.310
608.75	15.148
609.08	15.574
609.41	16.091
609.75	16.346
610.08	15.423
610.41	15.810
610.74	15.325
611.07	16.553
611.41	16.080
611.74	15.918
612.07	15.655
612.40	16.326
612.73	15.627
613.07	16.219
613.40	16.642
613.73	16.425
614.06	15.450
614.39	17.071
614.72	16.022
615.06	15.381
615.39	15.990
615.72	16.263
616.05	16.123
616.38	16.489
616.71	15.789
617.05	16.420
617.38	16.124
617.71	16.310
618.04	15.816
618.37	17.121
618.70	16.917
619.03	17.338
619.36	18.028
619.69	17.216
620.03	17.939
620.36	17.919
620.69	17.688
621.02	18.886
621.35	18.768
621.68	18.289
622.01	18.007
622.34	17.407
622.67	18.399
623.00	17.971
623.33	17.544
623.66	18.031
623.99	17.877
624.32	17.683
624.65	17.051
624.99	17.579
625.32	18.370
625.65	16.345
625.98	17.503
626.31	18.546
626.64	17.920
626.97	18.286
627.30	18.323
627.63	18.838
627.96	17.684
628.29	18.399
628.62	18.563
628.95	19.858
629.28	20.245
629.61	18.014
629.94	19.188
630.26	19.151
630.59	19.681
630.92	18.386
631.25	19.492
