SpectraSuite Data File
++++++++++++++++++++++++++++++++++++
Date: Tue May 12 17:05:43 PDT 2015
User: schluterlab
Dark Spectrum Present: Yes
Reference Spectrum Present: Yes
Number of Sampled Component Spectra: 1
Spectrometers: USB2E3373
Integration Time (usec): 3000 (USB2E3373)
Spectra Averaged: 3 (USB2E3373)
Boxcar Smoothing: 0 (USB2E3373)
Correct for Electrical Dark: No (USB2E3373)
Strobe/Lamp Enabled: No (USB2E3373)
Correct for Detector Non-linearity: No (USB2E3373)
Correct for Stray Light: No (USB2E3373)
Number of Pixels in Processed Spectrum: 2048
>>>>>Begin Processed Spectral Data<<<<<
178.53	0.000
178.91	-216.667
179.29	-775.000
179.67	-3600.000
180.04	-113.333
180.42	750.000
180.80	1550.000
181.18	0.000
181.56	-350.000
181.94	0.000
182.31	1166.667
182.69	-4000.000
183.07	571.429
183.45	-2600.000
183.83	-1450.000
184.20	310.000
184.58	385.714
184.96	-207.692
185.34	-258.333
185.72	1950.000
186.09	-750.000
186.47	-3000.000
186.85	800.000
187.23	800.000
187.61	2000.000
187.98	475.000
188.36	242.857
188.74	308.333
189.12	475.000
189.49	875.000
189.87	0.000
190.25	500.000
190.63	2800.000
191.00	-250.000
191.38	-3300.000
191.76	-550.000
192.14	575.000
192.51	-3100.000
192.89	1850.000
193.27	800.000
193.65	-900.000
194.02	-680.000
194.40	571.429
194.78	-257.143
195.15	246.667
195.53	-2700.000
195.91	-580.000
196.29	4200.000
196.66	287.500
197.04	725.000
197.42	-1500.000
197.79	450.000
198.17	350.000
198.55	0.000
198.92	571.429
199.30	800.000
199.68	2200.000
200.05	816.667
200.43	-466.667
200.81	161.111
201.18	2800.000
201.56	266.667
201.94	-800.000
202.31	-325.000
202.69	-460.000
203.07	3500.000
203.44	-550.000
203.82	333.333
204.19	600.000
204.57	-1250.000
204.95	-750.000
205.32	-540.000
205.70	550.000
206.08	750.000
206.45	-733.333
206.83	433.333
207.20	231.579
207.58	283.333
207.96	880.000
208.33	0.000
208.71	485.714
209.08	620.000
209.46	-3300.000
209.84	-900.000
210.21	920.000
210.59	-560.000
210.96	291.667
211.34	-1100.000
211.71	400.000
212.09	975.000
212.46	1950.000
212.84	-533.333
213.22	377.778
213.59	-2800.000
213.97	330.000
214.34	825.000
214.72	1733.333
215.09	1066.667
215.47	-3400.000
215.84	-310.000
216.22	-412.500
216.59	0.000
216.97	0.000
217.34	900.000
217.72	-1600.000
218.09	1133.333
218.47	462.500
218.84	725.000
219.22	1100.000
219.59	666.667
219.97	385.714
220.34	377.778
220.72	2250.000
221.09	3100.000
221.47	300.000
221.84	1033.333
222.22	280.000
222.59	222.222
222.97	192.857
223.34	225.000
223.72	-1750.000
224.09	1433.333
224.46	253.846
224.84	-900.000
225.21	488.889
225.59	320.000
225.96	1433.333
226.34	-960.000
226.71	-725.000
227.08	-440.000
227.46	0.000
227.83	-600.000
228.21	-1000.000
228.58	333.333
228.95	900.000
229.33	333.333
229.70	975.000
230.08	407.692
230.45	3800.000
230.82	-875.000
231.20	-966.667
231.57	-1066.667
231.95	700.000
232.32	233.333
232.69	616.667
233.07	300.000
233.44	-1700.000
233.81	246.667
234.19	174.074
234.56	262.500
234.93	205.882
235.31	215.000
235.68	268.750
236.05	185.714
236.43	181.481
236.80	342.857
237.17	175.862
237.55	125.000
237.92	135.000
238.29	154.545
238.67	178.125
239.04	129.268
239.41	97.917
239.79	120.000
240.16	125.000
240.53	104.918
240.91	94.203
241.28	108.475
241.65	78.788
242.02	100.000
242.40	110.000
242.77	82.418
243.14	82.278
243.51	93.939
243.89	74.766
244.26	73.832
244.63	80.198
245.00	86.239
245.38	66.102
245.75	74.242
246.12	61.481
246.49	65.248
246.87	68.852
247.24	70.000
247.61	62.500
247.98	68.027
248.36	64.848
248.73	64.286
249.10	58.333
249.47	61.000
249.84	55.224
250.22	63.784
250.59	63.000
250.96	56.962
251.33	59.535
251.70	58.036
252.08	62.185
252.45	55.378
252.82	54.373
253.19	57.312
253.56	53.846
253.94	54.710
254.31	56.202
254.68	57.840
255.05	59.655
255.42	53.650
255.79	55.375
256.16	56.271
256.54	55.519
256.91	55.882
257.28	53.512
257.65	49.843
258.02	51.622
258.39	53.868
258.76	52.754
259.14	50.857
259.51	56.560
259.88	52.584
260.25	49.451
260.62	54.247
260.99	48.209
261.36	51.532
261.73	54.521
262.10	52.094
262.47	49.500
262.85	50.933
263.22	53.985
263.59	50.639
263.96	51.378
264.33	48.395
264.70	49.631
265.07	52.927
265.44	51.147
265.81	51.415
266.18	52.860
266.55	52.246
266.92	51.230
267.29	53.289
267.66	50.000
268.03	51.121
268.40	47.146
268.77	48.458
269.14	50.542
269.51	50.111
269.88	47.143
270.25	50.972
270.62	50.429
270.99	51.521
271.36	48.780
271.73	49.476
272.10	49.091
272.47	48.016
272.84	49.301
273.21	47.521
273.58	50.202
273.95	50.103
274.32	49.416
274.69	50.394
275.06	48.452
275.43	47.893
275.80	48.491
276.17	47.426
276.54	48.224
276.91	51.306
277.28	45.985
277.65	49.631
278.02	47.610
278.39	45.324
278.76	48.966
279.13	46.263
279.50	48.545
279.87	46.741
280.23	47.330
280.60	48.905
280.97	49.828
281.34	45.875
281.71	48.522
282.08	46.838
282.45	45.101
282.82	46.990
283.19	45.469
283.56	44.298
283.92	48.534
284.29	45.757
284.66	43.193
285.03	46.600
285.40	44.793
285.77	43.827
286.14	46.594
286.51	42.178
286.87	43.513
287.24	43.243
287.61	43.313
287.98	44.179
288.35	41.926
288.72	40.061
289.08	43.994
289.45	42.530
289.82	44.844
290.19	42.460
290.56	42.795
290.93	41.583
291.29	40.746
291.66	42.090
292.03	41.795
292.40	40.515
292.77	39.554
293.13	40.799
293.50	37.652
293.87	38.076
294.24	40.140
294.60	38.896
294.97	38.462
295.34	38.380
295.71	38.239
296.08	38.000
296.44	38.628
296.81	36.973
297.18	36.629
297.55	37.685
297.91	36.453
298.28	35.990
298.65	34.724
299.02	35.464
299.38	37.770
299.75	35.732
300.12	35.092
300.48	36.066
300.85	36.710
301.22	35.814
301.59	35.259
301.95	33.372
302.32	36.205
302.69	33.597
303.05	35.915
303.42	33.632
303.79	34.236
304.15	33.113
304.52	33.932
304.89	34.009
305.25	35.261
305.62	33.049
305.99	33.478
306.35	33.474
306.72	33.923
307.09	33.023
307.45	33.369
307.82	32.202
308.19	33.093
308.55	31.800
308.92	33.268
309.29	33.136
309.65	34.093
310.02	33.976
310.38	32.702
310.75	34.716
311.12	33.525
311.48	35.521
311.85	34.351
312.22	34.288
312.58	31.584
312.95	34.563
313.31	33.614
313.68	33.583
314.05	35.440
314.41	34.451
314.78	34.470
315.14	35.735
315.51	37.370
315.87	35.584
316.24	36.508
316.61	35.721
316.97	35.321
317.34	37.197
317.70	37.138
318.07	37.544
318.43	37.522
318.80	37.478
319.16	38.899
319.53	38.761
319.89	38.082
320.26	40.689
320.62	40.934
320.99	42.135
321.35	39.796
321.72	42.030
322.08	42.382
322.45	42.870
322.81	43.184
323.18	43.783
323.54	45.122
323.91	45.059
324.27	44.297
324.64	46.280
325.00	46.293
325.37	46.206
325.73	47.639
326.10	46.562
326.46	48.390
326.83	48.960
327.19	50.201
327.56	49.201
327.92	51.311
328.29	50.245
328.65	52.397
329.01	53.379
329.38	52.115
329.74	51.921
330.11	53.258
330.47	52.003
330.84	51.941
331.20	53.892
331.56	53.282
331.93	54.577
332.29	54.932
332.66	54.422
333.02	53.265
333.38	54.363
333.75	53.128
334.11	53.356
334.48	55.726
334.84	55.236
335.20	55.518
335.57	52.813
335.93	54.500
336.29	53.980
336.66	55.575
337.02	55.432
337.38	54.686
337.75	54.899
338.11	55.949
338.47	55.461
338.84	54.276
339.20	55.671
339.56	53.995
339.93	54.431
340.29	54.202
340.65	56.664
341.02	55.189
341.38	56.814
341.74	55.565
342.11	56.427
342.47	54.061
342.83	55.373
343.20	54.325
343.56	54.091
343.92	56.152
344.28	55.502
344.65	55.990
345.01	54.206
345.37	53.365
345.73	55.794
346.10	55.378
346.46	55.901
346.82	53.627
347.19	55.023
347.55	54.254
347.91	54.909
348.27	54.222
348.63	55.222
349.00	55.446
349.36	55.798
349.72	54.817
350.08	56.056
350.45	55.979
350.81	54.434
351.17	54.237
351.53	55.196
351.89	54.079
352.26	54.497
352.62	56.410
352.98	55.521
353.34	54.777
353.70	54.969
354.07	56.692
354.43	54.608
354.79	54.594
355.15	54.594
355.51	55.136
355.87	54.066
356.24	55.427
356.60	54.262
356.96	56.179
357.32	54.635
357.68	54.405
358.04	56.003
358.40	54.423
358.77	55.447
359.13	55.030
359.49	55.967
359.85	55.324
360.21	55.498
360.57	55.182
360.93	56.782
361.29	56.494
361.66	55.854
362.02	53.906
362.38	55.700
362.74	55.202
363.10	54.628
363.46	54.696
363.82	55.750
364.18	56.615
364.54	57.868
364.90	56.426
365.26	55.864
365.62	55.870
365.98	55.540
366.35	54.690
366.71	56.142
367.07	55.563
367.43	55.944
367.79	54.388
368.15	55.156
368.51	56.237
368.87	55.842
369.23	56.687
369.59	55.361
369.95	56.993
370.31	55.715
370.67	55.725
371.03	56.022
371.39	55.332
371.75	56.246
372.11	55.269
372.47	56.575
372.83	56.560
373.19	55.380
373.55	55.876
373.91	56.768
374.27	56.217
374.63	54.576
374.99	55.728
375.35	57.728
375.71	56.530
376.07	56.631
376.42	54.668
376.78	57.033
377.14	56.488
377.50	55.868
377.86	55.413
378.22	56.612
378.58	57.506
378.94	56.246
379.30	56.519
379.66	56.532
380.02	57.067
380.38	56.792
380.74	57.670
381.09	57.009
381.45	55.376
381.81	55.496
382.17	58.120
382.53	56.629
382.89	57.599
383.25	56.069
383.61	55.216
383.97	55.909
384.32	57.143
384.68	58.170
385.04	56.096
385.40	56.524
385.76	55.120
386.12	56.710
386.48	56.960
386.83	57.396
387.19	56.478
387.55	55.595
387.91	56.813
388.27	56.930
388.62	55.869
388.98	55.160
389.34	55.205
389.70	55.425
390.06	56.037
390.42	56.200
390.77	55.897
391.13	56.608
391.49	56.080
391.85	55.569
392.20	54.648
392.56	55.675
392.92	55.138
393.28	53.756
393.64	55.791
393.99	55.661
394.35	54.208
394.71	53.378
395.07	55.231
395.42	55.913
395.78	55.460
396.14	55.482
396.50	56.137
396.85	54.939
397.21	56.197
397.57	53.915
397.92	54.015
398.28	55.157
398.64	54.974
399.00	53.982
399.35	54.053
399.71	54.912
400.07	53.995
400.42	54.448
400.78	55.249
401.14	54.727
401.49	53.341
401.85	54.461
402.21	54.482
402.57	55.057
402.92	54.606
403.28	53.222
403.63	54.326
403.99	54.524
404.35	55.100
404.70	55.286
405.06	52.442
405.42	54.219
405.77	52.701
406.13	52.928
406.49	53.553
406.84	52.059
407.20	54.224
407.55	53.477
407.91	54.818
408.27	54.154
408.62	53.696
408.98	52.868
409.34	51.841
409.69	53.018
410.05	52.236
410.40	52.473
410.76	52.776
411.11	53.258
411.47	52.716
411.83	51.084
412.18	53.080
412.54	53.453
412.89	52.566
413.25	53.022
413.60	52.570
413.96	52.065
414.31	53.837
414.67	54.066
415.03	53.065
415.38	52.934
415.74	53.253
416.09	53.779
416.45	53.458
416.80	53.175
417.16	51.941
417.51	53.631
417.87	53.755
418.22	53.584
418.58	53.631
418.93	53.837
419.29	52.126
419.64	53.907
420.00	55.310
420.35	53.310
420.71	54.842
421.06	53.914
421.42	53.598
421.77	54.581
422.12	54.024
422.48	53.724
422.83	54.241
423.19	54.104
423.54	53.922
423.90	55.946
424.25	55.696
424.61	56.645
424.96	54.771
425.31	55.337
425.67	55.387
426.02	55.356
426.38	54.551
426.73	56.854
427.09	57.592
427.44	55.656
427.79	58.262
428.15	57.867
428.50	56.514
428.85	57.907
429.21	55.970
429.56	56.680
429.92	56.589
430.27	56.120
430.62	54.919
430.98	55.639
431.33	56.401
431.68	55.951
432.04	56.492
432.39	57.355
432.74	58.372
433.10	58.915
433.45	58.013
433.80	60.232
434.16	57.593
434.51	59.030
434.86	58.737
435.22	59.589
435.57	58.447
435.92	59.306
436.28	59.620
436.63	59.265
436.98	60.698
437.34	60.160
437.69	59.071
438.04	58.925
438.39	61.705
438.75	60.412
439.10	60.335
439.45	60.430
439.81	60.150
440.16	59.879
440.51	60.191
440.86	61.254
441.22	60.011
441.57	60.420
441.92	59.033
442.27	60.155
442.63	61.382
442.98	59.267
443.33	59.829
443.68	59.658
444.03	59.755
444.39	61.299
444.74	60.559
445.09	59.768
445.44	60.840
445.79	61.647
446.15	61.211
446.50	61.023
446.85	60.508
447.20	61.393
447.55	61.446
447.91	63.239
448.26	61.821
448.61	62.355
448.96	62.636
449.31	62.431
449.66	61.905
450.02	61.480
450.37	62.299
450.72	61.653
451.07	61.373
451.42	63.071
451.77	63.058
452.12	63.301
452.47	62.940
452.83	63.493
453.18	62.462
453.53	62.937
453.88	64.571
454.23	64.149
454.58	63.578
454.93	63.765
455.28	63.097
455.63	64.480
455.98	63.170
456.34	64.316
456.69	64.756
457.04	63.842
457.39	64.000
457.74	64.020
458.09	63.784
458.44	62.486
458.79	63.979
459.14	62.520
459.49	62.741
459.84	63.804
460.19	62.373
460.54	63.305
460.89	64.765
461.24	62.486
461.59	63.605
461.94	64.184
462.29	64.645
462.64	65.389
462.99	65.003
463.34	64.485
463.69	65.457
464.04	65.112
464.39	63.595
464.74	62.603
465.09	64.306
465.44	63.493
465.79	63.364
466.14	63.222
466.49	64.243
466.84	64.047
467.19	64.675
467.54	63.063
467.89	64.906
468.24	64.852
468.59	65.714
468.94	65.640
469.29	64.081
469.64	64.566
469.99	64.139
470.34	65.338
470.68	66.276
471.03	65.510
471.38	65.232
471.73	66.101
472.08	66.667
472.43	66.418
472.78	66.005
473.13	64.393
473.48	65.954
473.83	65.548
474.17	66.201
474.52	65.699
474.87	65.378
475.22	64.991
475.57	64.743
475.92	64.742
476.27	64.418
476.61	65.147
476.96	65.622
477.31	65.450
477.66	66.452
478.01	64.930
478.36	66.220
478.70	64.367
479.05	65.690
479.40	65.923
479.75	66.435
480.10	66.021
480.45	64.846
480.79	64.562
481.14	66.191
481.49	64.044
481.84	64.732
482.19	65.633
482.53	64.163
482.88	64.740
483.23	64.682
483.58	66.248
483.92	66.088
484.27	63.913
484.62	66.553
484.97	63.732
485.31	63.341
485.66	60.754
486.01	59.152
486.36	57.993
486.70	58.129
487.05	58.761
487.40	60.518
487.75	61.515
488.09	61.335
488.44	62.173
488.79	62.687
489.13	64.054
489.48	64.123
489.83	63.845
490.17	63.006
490.52	65.461
490.87	65.043
491.22	66.179
491.56	65.788
491.91	65.457
492.26	65.791
492.60	66.287
492.95	65.066
493.30	66.515
493.64	65.678
493.99	66.324
494.34	65.217
494.68	65.693
495.03	65.918
495.37	65.916
495.72	67.040
496.07	65.094
496.41	65.508
496.76	64.500
497.11	64.824
497.45	64.884
497.80	66.311
498.14	66.297
498.49	65.506
498.84	65.935
499.18	64.260
499.53	65.870
499.87	66.352
500.22	67.066
500.56	65.738
500.91	66.048
501.26	65.825
501.60	65.938
501.95	65.278
502.29	65.422
502.64	65.770
502.98	64.606
503.33	65.657
503.67	64.901
504.02	65.428
504.36	64.118
504.71	67.171
505.06	65.931
505.40	65.793
505.75	65.856
506.09	65.096
506.44	66.729
506.78	66.352
507.13	66.747
507.47	67.152
507.82	65.888
508.16	67.320
508.51	66.763
508.85	66.904
509.19	67.156
509.54	66.357
509.88	67.379
510.23	65.882
510.57	66.120
510.92	67.233
511.26	68.223
511.61	66.224
511.95	66.401
512.30	67.350
512.64	68.432
512.98	67.299
513.33	67.828
513.67	68.462
514.02	67.117
514.36	66.719
514.70	68.693
515.05	68.673
515.39	69.627
515.74	70.366
516.08	68.627
516.42	70.109
516.77	67.840
517.11	68.000
517.46	67.511
517.80	68.105
518.14	69.296
518.49	68.467
518.83	67.582
519.17	68.497
519.52	70.344
519.86	68.338
520.20	67.836
520.55	69.813
520.89	69.368
521.23	70.853
521.58	69.248
521.92	69.504
522.26	70.438
522.61	70.469
522.95	71.952
523.29	69.591
523.64	68.960
523.98	68.955
524.32	70.358
524.66	69.449
525.01	70.651
525.35	67.001
525.69	72.065
526.04	69.899
526.38	70.041
526.72	68.854
527.06	68.421
527.41	69.649
527.75	70.663
528.09	68.633
528.43	71.019
528.78	70.304
529.12	71.042
529.46	68.147
529.80	68.867
530.15	68.297
530.49	69.013
530.83	69.896
531.17	69.557
531.51	70.080
531.86	68.539
532.20	68.356
532.54	69.617
532.88	69.706
533.22	69.896
533.57	69.311
533.91	67.832
534.25	66.128
534.59	68.655
534.93	67.691
535.27	66.135
535.62	67.328
535.96	66.371
536.30	67.946
536.64	68.385
536.98	67.716
537.32	67.562
537.66	68.878
538.01	68.111
538.35	68.060
538.69	66.444
539.03	67.475
539.37	66.141
539.71	67.963
540.05	66.277
540.39	67.925
540.73	68.038
541.07	67.629
541.42	68.408
541.76	66.523
542.10	66.523
542.44	67.145
542.78	66.897
543.12	65.828
543.46	66.604
543.80	68.170
544.14	68.235
544.48	66.971
544.82	67.706
545.16	65.149
545.50	66.380
545.84	66.982
546.18	69.376
546.52	67.869
546.86	68.279
547.20	66.667
547.54	65.738
547.88	65.085
548.22	66.302
548.56	64.172
548.90	64.947
549.24	67.151
549.58	65.979
549.92	68.500
550.26	68.695
550.60	67.731
550.94	68.385
551.28	69.310
551.62	69.586
551.96	67.770
552.30	65.063
552.64	68.350
552.98	66.559
553.32	65.557
553.66	65.472
554.00	67.246
554.34	68.242
554.68	66.734
555.02	66.259
555.36	65.492
555.69	65.707
556.03	65.478
556.37	64.691
556.71	67.927
557.05	65.858
557.39	66.267
557.73	67.790
558.07	67.069
558.41	67.855
558.75	67.373
559.08	69.049
559.42	69.005
559.76	67.783
560.10	66.896
560.44	66.291
560.78	66.880
561.12	67.133
561.45	64.894
561.79	64.732
562.13	63.361
562.47	65.801
562.81	65.517
563.15	65.740
563.48	64.224
563.82	65.502
564.16	66.294
564.50	63.713
564.84	64.742
565.17	63.933
565.51	67.241
565.85	65.700
566.19	65.000
566.52	64.440
566.86	64.098
567.20	63.876
567.54	62.227
567.88	62.963
568.21	61.408
568.55	61.430
568.89	59.991
569.23	59.016
569.56	58.387
569.90	57.384
570.24	57.479
570.57	56.587
570.91	55.725
571.25	55.813
571.59	54.428
571.92	54.037
572.26	53.639
572.60	53.957
572.93	55.405
573.27	54.767
573.61	53.709
573.95	53.959
574.28	54.048
574.62	53.214
574.96	52.396
575.29	52.456
575.63	52.391
575.97	51.996
576.30	53.075
576.64	53.247
576.98	52.542
577.31	52.945
577.65	52.124
577.98	51.857
578.32	50.967
578.66	51.769
578.99	52.570
579.33	52.481
579.67	52.366
580.00	52.075
580.34	52.056
580.67	51.723
581.01	51.723
581.35	51.819
581.68	50.958
582.02	50.984
582.35	51.046
582.69	51.332
583.02	51.498
583.36	52.141
583.70	52.663
584.03	53.865
584.37	53.786
584.70	52.973
585.04	51.630
585.37	51.984
585.71	53.685
586.04	51.594
586.38	52.574
586.72	52.149
587.05	52.985
587.39	52.668
587.72	53.842
588.06	52.943
588.39	52.917
588.73	52.683
589.06	54.129
589.40	54.147
589.73	54.015
590.07	54.976
590.40	55.157
590.73	56.188
591.07	56.433
591.40	55.928
591.74	55.317
592.07	56.115
592.41	56.075
592.74	54.962
593.08	54.167
593.41	53.321
593.75	52.943
594.08	53.095
594.41	53.568
594.75	53.973
595.08	53.395
595.42	53.884
595.75	53.373
596.09	54.119
596.42	54.771
596.75	55.449
597.09	56.376
597.42	55.347
597.75	54.604
598.09	55.396
598.42	55.651
598.76	54.241
599.09	54.910
599.42	53.633
599.76	53.630
600.09	52.644
600.42	53.004
600.76	53.705
601.09	53.020
601.42	52.904
601.76	53.348
602.09	53.311
602.42	51.867
602.76	54.307
603.09	54.525
603.42	53.872
603.76	53.507
604.09	53.565
604.42	54.313
604.76	54.366
605.09	55.224
605.42	53.312
605.75	54.244
606.09	53.826
606.42	52.875
606.75	54.800
607.09	52.152
607.42	54.520
607.75	53.463
608.08	53.331
608.42	53.943
608.75	54.044
609.08	54.597
609.41	54.682
609.75	55.769
610.08	56.025
610.41	54.589
610.74	54.026
611.07	55.662
611.41	54.634
611.74	55.449
612.07	55.539
612.40	55.458
612.73	55.766
613.07	55.043
613.40	55.990
613.73	55.966
614.06	54.750
614.39	55.909
614.72	55.148
615.06	53.858
615.39	55.198
615.72	53.775
616.05	54.847
616.38	54.338
616.71	55.724
617.05	57.331
617.38	56.011
617.71	56.637
618.04	56.758
618.37	56.754
618.70	56.755
619.03	57.509
619.36	57.789
619.69	59.367
620.03	60.404
620.36	59.024
620.69	58.557
621.02	59.171
621.35	59.957
621.68	58.776
622.01	61.919
622.34	59.286
622.67	58.778
623.00	58.135
623.33	58.907
623.66	59.148
623.99	59.932
624.32	58.808
624.65	57.670
624.99	59.162
625.32	58.918
625.65	58.966
625.98	58.996
626.31	59.866
626.64	60.592
626.97	59.832
627.30	59.472
627.63	61.303
627.96	60.407
628.29	62.541
628.62	62.019
628.95	64.894
629.28	64.943
629.61	62.654
629.94	61.711
630.26	61.958
630.59	62.234
630.92	61.076
631.25	61.469
