SpectraSuite Data File
++++++++++++++++++++++++++++++++++++
Date: Tue May 12 17:21:54 PDT 2015
User: schluterlab
Dark Spectrum Present: Yes
Reference Spectrum Present: Yes
Number of Sampled Component Spectra: 1
Spectrometers: USB2E3373
Integration Time (usec): 3000 (USB2E3373)
Spectra Averaged: 3 (USB2E3373)
Boxcar Smoothing: 0 (USB2E3373)
Correct for Electrical Dark: No (USB2E3373)
Strobe/Lamp Enabled: No (USB2E3373)
Correct for Detector Non-linearity: No (USB2E3373)
Correct for Stray Light: No (USB2E3373)
Number of Pixels in Processed Spectrum: 2048
>>>>>Begin Processed Spectral Data<<<<<
178.53	0.000
178.91	-291.667
179.29	-750.000
179.67	-4400.000
180.04	-166.667
180.42	500.000
180.80	1400.000
181.18	0.000
181.56	-287.500
181.94	0.000
182.31	1233.333
182.69	-2500.000
183.07	600.000
183.45	-3400.000
183.83	-1500.000
184.20	370.000
184.58	500.000
184.96	-200.000
185.34	-150.000
185.72	1900.000
186.09	-850.000
186.47	-2600.000
186.85	900.000
187.23	760.000
187.61	1850.000
187.98	412.500
188.36	264.286
188.74	325.000
189.12	400.000
189.49	850.000
189.87	0.000
190.25	425.000
190.63	1700.000
191.00	-241.667
191.38	-3200.000
191.76	-875.000
192.14	562.500
192.51	-3700.000
192.89	1400.000
193.27	1266.667
193.65	-966.667
194.02	-700.000
194.40	628.571
194.78	-221.429
195.15	260.000
195.53	-2800.000
195.91	-620.000
196.29	4300.000
196.66	268.750
197.04	925.000
197.42	-1550.000
197.79	650.000
198.17	325.000
198.55	0.000
198.92	428.571
199.30	1133.333
199.68	2050.000
200.05	733.333
200.43	-350.000
200.81	161.111
201.18	3700.000
201.56	300.000
201.94	-700.000
202.31	-325.000
202.69	-580.000
203.07	2800.000
203.44	-500.000
203.82	350.000
204.19	640.000
204.57	-1400.000
204.95	-675.000
205.32	-680.000
205.70	416.667
206.08	975.000
206.45	-933.333
206.83	311.111
207.20	184.211
207.58	325.000
207.96	500.000
208.33	0.000
208.71	514.286
209.08	620.000
209.46	-3300.000
209.84	-825.000
210.21	720.000
210.59	-420.000
210.96	316.667
211.34	-700.000
211.71	400.000
212.09	925.000
212.46	1350.000
212.84	-383.333
213.22	388.889
213.59	-2600.000
213.97	450.000
214.34	975.000
214.72	1333.333
215.09	1366.667
215.47	-2800.000
215.84	-340.000
216.22	-375.000
216.59	0.000
216.97	0.000
217.34	1150.000
217.72	-1200.000
218.09	1200.000
218.47	425.000
218.84	800.000
219.22	1166.667
219.59	800.000
219.97	628.571
220.34	322.222
220.72	1100.000
221.09	3000.000
221.47	250.000
221.84	1300.000
222.22	280.000
222.59	211.111
222.97	228.571
223.34	243.750
223.72	-1850.000
224.09	933.333
224.46	200.000
224.84	-775.000
225.21	477.778
225.59	280.000
225.96	1300.000
226.34	-580.000
226.71	-625.000
227.08	-580.000
227.46	0.000
227.83	-500.000
228.21	-1700.000
228.58	391.667
228.95	1075.000
229.33	422.222
229.70	975.000
230.08	307.692
230.45	3300.000
230.82	-675.000
231.20	-833.333
231.57	-800.000
231.95	540.000
232.32	275.000
232.69	516.667
233.07	325.000
233.44	-1350.000
233.81	226.667
234.19	177.778
234.56	237.500
234.93	147.059
235.31	210.000
235.68	231.250
236.05	157.143
236.43	133.333
236.80	357.143
237.17	151.724
237.55	125.000
237.92	117.500
238.29	127.273
238.67	118.750
239.04	102.439
239.41	95.833
239.79	105.000
240.16	95.833
240.53	75.410
240.91	55.072
241.28	81.356
241.65	57.576
242.02	73.239
242.40	67.143
242.77	59.341
243.14	67.089
243.51	69.697
243.89	57.009
244.26	56.075
244.63	56.436
245.00	65.138
245.38	52.542
245.75	61.364
246.12	58.519
246.49	53.191
246.87	50.000
247.24	55.333
247.61	53.750
247.98	51.020
248.36	52.727
248.73	56.633
249.10	44.643
249.47	45.500
249.84	43.781
250.22	52.973
250.59	45.000
250.96	38.819
251.33	42.791
251.70	46.429
252.08	42.437
252.45	39.841
252.82	42.966
253.19	41.502
253.56	39.231
253.94	39.855
254.31	41.473
254.68	37.979
255.05	43.103
255.42	41.241
255.79	38.111
256.16	40.678
256.54	40.909
256.91	39.542
257.28	42.475
257.65	36.991
258.02	39.528
258.39	40.115
258.76	39.130
259.14	38.286
259.51	38.484
259.88	38.906
260.25	37.637
260.62	36.712
260.99	35.537
261.36	35.376
261.73	35.106
262.10	36.911
262.47	37.000
262.85	34.667
263.22	38.046
263.59	36.829
263.96	38.847
264.33	34.074
264.70	37.592
265.07	35.610
265.44	36.239
265.81	37.028
266.18	34.783
266.55	36.170
266.92	33.781
267.29	33.991
267.66	37.220
268.03	36.323
268.40	39.112
268.77	33.480
269.14	32.321
269.51	32.517
269.88	34.286
270.25	30.238
270.62	33.262
270.99	32.454
271.36	32.724
271.73	33.124
272.10	32.727
272.47	31.151
272.84	30.739
273.21	33.678
273.58	34.008
273.95	33.881
274.32	30.545
274.69	35.039
275.06	33.151
275.43	33.142
275.80	32.075
276.17	31.618
276.54	29.907
276.91	30.784
277.28	33.577
277.65	32.657
278.02	31.801
278.39	32.374
278.76	31.897
279.13	30.071
279.50	30.182
279.87	29.050
280.23	31.123
280.60	30.839
280.97	31.552
281.34	30.528
281.71	32.348
282.08	31.453
282.45	31.588
282.82	31.605
283.19	31.320
283.56	30.579
283.92	31.107
284.29	30.449
284.66	30.084
285.03	29.851
285.40	30.248
285.77	29.630
286.14	31.579
286.51	30.675
286.87	27.057
287.24	30.781
287.61	31.003
287.98	29.552
288.35	28.444
288.72	28.073
289.08	28.979
289.45	28.049
289.82	28.750
290.19	29.575
290.56	29.985
290.93	28.201
291.29	27.624
291.66	28.390
292.03	28.331
292.40	28.184
292.77	25.627
293.13	27.532
293.50	25.101
293.87	27.236
294.24	28.671
294.60	26.514
294.97	27.692
295.34	26.560
295.71	26.413
296.08	26.267
296.44	24.905
296.81	25.310
297.18	22.940
297.55	24.384
297.91	24.138
298.28	25.121
298.65	25.153
299.02	25.332
299.38	23.981
299.75	23.049
300.12	24.197
300.48	25.059
300.85	25.030
301.22	23.372
301.59	22.759
301.95	24.271
302.32	23.632
302.69	22.964
303.05	23.906
303.42	22.982
303.79	22.427
304.15	22.662
304.52	23.573
304.89	21.748
305.25	22.024
305.62	21.855
305.99	22.174
306.35	23.158
306.72	23.933
307.09	21.843
307.45	21.014
307.82	20.988
308.19	22.474
308.55	21.200
308.92	22.866
309.29	23.077
309.65	21.308
310.02	22.008
310.38	22.034
310.75	19.190
311.12	20.690
311.48	22.297
311.85	21.565
312.22	22.254
312.58	20.603
312.95	21.748
313.31	20.787
313.68	20.638
314.05	22.711
314.41	22.253
314.78	21.591
315.14	22.085
315.51	22.327
315.87	20.255
316.24	20.542
316.61	21.218
316.97	21.284
317.34	21.114
317.70	20.896
318.07	21.085
318.43	21.090
318.80	21.716
319.16	21.154
319.53	19.912
319.89	21.147
320.26	23.091
320.62	23.077
320.99	21.544
321.35	21.985
321.72	21.347
322.08	21.145
322.45	21.617
322.81	22.324
323.18	22.025
323.54	22.909
323.91	23.028
324.27	21.839
324.64	20.675
325.00	20.862
325.37	22.850
325.73	20.995
326.10	21.955
326.46	22.048
326.83	21.040
327.19	22.249
327.56	20.927
327.92	21.967
328.29	22.177
328.65	22.603
329.01	21.557
329.38	23.689
329.74	20.495
330.11	22.242
330.47	21.910
330.84	20.535
331.20	21.235
331.56	23.143
331.93	22.070
332.29	20.748
332.66	21.429
333.02	20.962
333.38	21.640
333.75	22.269
334.11	22.232
334.48	21.111
334.84	20.777
335.20	20.616
335.57	21.662
335.93	20.521
336.29	20.149
336.66	21.184
337.02	20.445
337.38	21.496
337.75	21.875
338.11	21.941
338.47	20.152
338.84	21.084
339.20	19.827
339.56	19.765
339.93	20.652
340.29	19.328
340.65	20.704
341.02	21.078
341.38	20.936
341.74	20.764
342.11	18.948
342.47	20.098
342.83	21.247
343.20	21.261
343.56	19.539
343.92	20.231
344.28	20.335
344.65	19.967
345.01	20.873
345.37	20.272
345.73	19.841
346.10	19.442
346.46	20.734
346.82	18.441
347.19	20.788
347.55	19.126
347.91	19.109
348.27	18.978
348.63	19.699
349.00	19.802
349.36	19.533
349.72	19.725
350.08	19.565
350.45	20.640
350.81	20.948
351.17	18.490
351.53	18.938
351.89	19.425
352.26	19.274
352.62	19.910
352.98	19.248
353.34	20.339
353.70	18.884
354.07	19.615
354.43	19.124
354.79	20.121
355.15	19.219
355.51	18.353
355.87	20.256
356.24	19.630
356.60	18.417
356.96	17.817
357.32	18.839
357.68	18.943
358.04	20.213
358.40	19.565
358.77	18.933
359.13	19.895
359.49	18.681
359.85	18.838
360.21	18.053
360.57	18.759
360.93	19.553
361.29	19.048
361.66	19.463
362.02	18.182
362.38	19.192
362.74	18.542
363.10	19.074
363.46	17.887
363.82	19.705
364.18	18.919
364.54	19.170
364.90	19.478
365.26	19.153
365.62	17.818
365.98	18.926
366.35	18.069
366.71	18.876
367.07	18.430
367.43	18.536
367.79	18.152
368.15	18.521
368.51	18.401
368.87	17.595
369.23	18.850
369.59	18.274
369.95	18.601
370.31	17.454
370.67	17.765
371.03	18.908
371.39	18.213
371.75	18.562
372.11	18.627
372.47	18.288
372.83	17.743
373.19	18.574
373.55	19.038
373.91	17.472
374.27	18.783
374.63	18.508
374.99	18.666
375.35	17.742
375.71	18.008
376.07	18.833
376.42	17.903
376.78	18.561
377.14	17.759
377.50	18.227
377.86	17.168
378.22	18.769
378.58	18.826
378.94	19.071
379.30	18.193
379.66	18.724
380.02	18.065
380.38	18.384
380.74	18.339
381.09	18.575
381.45	17.688
381.81	17.730
382.17	17.705
382.53	17.996
382.89	18.687
383.25	17.999
383.61	17.752
383.97	17.936
384.32	18.143
384.68	18.717
385.04	18.992
385.40	18.149
385.76	18.373
386.12	18.553
386.48	17.143
386.83	18.276
387.19	17.903
387.55	17.786
387.91	17.494
388.27	18.560
388.62	18.545
388.98	18.134
389.34	18.382
389.70	17.276
390.06	18.841
390.42	17.952
390.77	18.857
391.13	17.924
391.49	18.451
391.85	18.338
392.20	18.355
392.56	17.622
392.92	18.136
393.28	17.713
393.64	17.546
393.99	17.546
394.35	19.011
394.71	17.129
395.07	18.674
395.42	17.506
395.78	18.692
396.14	18.614
396.50	18.592
396.85	17.500
397.21	17.509
397.57	18.410
397.92	17.620
398.28	17.595
398.64	18.266
399.00	18.065
399.35	17.767
399.71	17.605
400.07	18.094
400.42	17.731
400.78	17.478
401.14	17.733
401.49	17.281
401.85	17.729
402.21	17.750
402.57	18.552
402.92	17.455
403.28	16.885
403.63	17.657
403.99	17.370
404.35	18.757
404.70	18.370
405.06	17.013
405.42	17.534
405.77	18.467
406.13	18.059
406.49	17.055
406.84	17.484
407.20	17.751
407.55	17.846
407.91	17.932
408.27	17.526
408.62	17.682
408.98	17.268
409.34	18.293
409.69	17.548
410.05	17.352
410.40	17.668
410.76	17.287
411.11	17.002
411.47	17.469
411.83	17.633
412.18	16.908
412.54	17.477
412.89	17.168
413.25	18.073
413.60	17.757
413.96	17.714
414.31	18.477
414.67	18.001
415.03	17.178
415.38	18.170
415.74	17.246
416.09	18.239
416.45	18.100
416.80	18.089
417.16	17.505
417.51	17.707
417.87	17.710
418.22	17.497
418.58	17.834
418.93	18.084
419.29	16.513
419.64	17.202
420.00	18.377
420.35	17.247
420.71	18.145
421.06	17.187
421.42	17.847
421.77	17.324
422.12	16.979
422.48	17.206
422.83	18.025
423.19	16.847
423.54	17.883
423.90	18.120
424.25	16.786
424.61	17.876
424.96	17.165
425.31	16.585
425.67	17.789
426.02	16.545
426.38	17.095
426.73	17.235
427.09	18.031
427.44	16.657
427.79	17.153
428.15	17.914
428.50	18.114
428.85	17.166
429.21	17.234
429.56	16.550
429.92	17.255
430.27	16.739
430.62	16.691
430.98	17.365
431.33	16.935
431.68	16.642
432.04	16.762
432.39	16.520
432.74	17.974
433.10	17.220
433.45	17.346
433.80	17.761
434.16	16.973
434.51	17.234
434.86	17.420
435.22	17.180
435.57	17.190
435.92	17.871
436.28	17.684
436.63	17.342
436.98	17.849
437.34	17.751
437.69	17.245
438.04	17.473
438.39	17.280
438.75	17.149
439.10	17.593
439.45	17.298
439.81	17.582
440.16	17.171
440.51	17.455
440.86	18.177
441.22	16.991
441.57	17.533
441.92	17.275
442.27	16.804
442.63	17.175
442.98	17.295
443.33	16.711
443.68	17.254
444.03	16.824
444.39	17.279
444.74	16.563
445.09	16.904
445.44	17.481
445.79	17.057
446.15	17.158
446.50	17.352
446.85	17.181
447.20	16.468
447.55	17.673
447.91	17.848
448.26	18.104
448.61	16.528
448.96	17.211
449.31	18.042
449.66	17.996
450.02	17.018
450.37	17.657
450.72	17.851
451.07	18.034
451.42	17.427
451.77	18.041
452.12	17.470
452.47	17.740
452.83	18.479
453.18	17.898
453.53	17.821
453.88	18.286
454.23	18.013
454.58	17.949
454.93	18.087
455.28	17.931
455.63	17.967
455.98	18.105
456.34	18.298
456.69	17.683
457.04	17.184
457.39	17.200
457.74	18.356
458.09	16.957
458.44	17.689
458.79	17.719
459.14	17.349
459.49	18.233
459.84	17.663
460.19	17.119
460.54	18.291
460.89	17.537
461.24	17.010
461.59	17.460
461.94	18.085
462.29	18.021
462.64	18.216
462.99	17.083
463.34	18.859
463.69	17.665
464.04	17.617
464.39	17.687
464.74	17.526
465.09	18.050
465.44	17.682
465.79	17.311
466.14	16.958
466.49	17.146
466.84	17.503
467.19	18.746
467.54	18.258
467.89	18.134
468.24	17.371
468.59	18.214
468.94	18.659
469.29	19.120
469.64	18.328
469.99	18.316
470.34	17.647
470.68	17.724
471.03	17.945
471.38	18.079
471.73	17.701
472.08	17.613
472.43	17.815
472.78	17.990
473.13	17.772
473.48	17.543
473.83	18.198
474.17	18.359
474.52	17.476
474.87	17.510
475.22	18.104
475.57	17.576
475.92	17.833
476.27	16.322
476.61	17.534
476.96	17.503
477.31	18.715
477.66	18.304
478.01	17.638
478.36	17.302
478.70	16.824
479.05	18.149
479.40	17.708
479.75	18.073
480.10	17.957
480.45	17.554
480.79	17.834
481.14	17.309
481.49	16.789
481.84	17.986
482.19	17.598
482.53	17.128
482.88	17.608
483.23	16.960
483.58	17.594
483.92	18.053
484.27	17.594
484.62	17.445
484.97	16.751
485.31	16.707
485.66	16.210
486.01	15.941
486.36	15.628
486.70	15.782
487.05	15.878
487.40	16.263
487.75	16.572
488.09	16.648
488.44	16.539
488.79	16.939
489.13	17.059
489.48	17.060
489.83	17.056
490.17	17.217
490.52	17.528
490.87	17.414
491.22	17.332
491.56	17.260
491.91	17.294
492.26	17.862
492.60	18.405
492.95	17.626
493.30	17.607
493.64	18.284
493.99	17.934
494.34	17.526
494.68	17.530
495.03	17.916
495.37	18.460
495.72	17.902
496.07	18.104
496.41	17.116
496.76	18.151
497.11	18.123
497.45	17.887
497.80	17.099
498.14	18.123
498.49	17.874
498.84	17.991
499.18	17.642
499.53	18.144
499.87	17.161
500.22	18.563
500.56	17.502
500.91	18.506
501.26	18.328
501.60	18.033
501.95	17.159
502.29	17.378
502.64	17.380
502.98	17.119
503.33	17.639
503.67	17.395
504.02	17.644
504.36	17.330
504.71	17.833
505.06	17.691
505.40	17.782
505.75	17.867
506.09	17.406
506.44	17.622
506.78	17.864
507.13	17.693
507.47	18.001
507.82	18.443
508.16	18.520
508.51	18.261
508.85	17.949
509.19	18.013
509.54	17.871
509.88	18.299
510.23	18.137
510.57	17.326
510.92	17.832
511.26	18.072
511.61	17.578
511.95	18.019
512.30	18.100
512.64	17.913
512.98	18.350
513.33	17.930
513.67	18.281
514.02	17.870
514.36	18.328
514.70	18.133
515.05	18.700
515.39	17.708
515.74	19.081
516.08	18.682
516.42	18.689
516.77	18.027
517.11	17.600
517.46	18.750
517.80	18.078
518.14	18.986
518.49	18.467
518.83	18.132
519.17	19.357
519.52	19.825
519.86	18.801
520.20	19.726
520.55	19.163
520.89	18.621
521.23	18.808
521.58	18.015
521.92	18.950
522.26	18.424
522.61	18.776
522.95	18.318
523.29	18.596
523.64	18.555
523.98	19.249
524.32	19.031
524.66	18.551
525.01	18.876
525.35	18.503
525.69	19.085
526.04	19.036
526.38	19.011
526.72	19.451
527.06	19.042
527.41	19.105
527.75	19.416
528.09	18.001
528.43	19.646
528.78	19.320
529.12	20.650
529.46	18.469
529.80	18.750
530.15	19.800
530.49	18.472
530.83	19.561
531.17	19.127
531.51	19.497
531.86	18.780
532.20	18.974
532.54	18.519
532.88	19.113
533.22	19.744
533.57	19.463
533.91	18.531
534.25	18.984
534.59	17.836
534.93	18.658
535.27	18.953
535.62	18.028
535.96	18.381
536.30	19.561
536.64	18.075
536.98	19.824
537.32	19.688
537.66	18.686
538.01	18.824
538.35	19.588
538.69	18.871
539.03	18.719
539.37	18.143
539.71	18.333
540.05	18.954
540.39	19.057
540.73	18.671
541.07	18.068
541.42	18.221
541.76	18.681
542.10	18.866
542.44	18.766
542.78	19.069
543.12	19.264
543.46	19.110
543.80	18.484
544.14	19.009
544.48	18.796
544.82	18.654
545.16	18.276
545.50	19.115
545.84	20.391
546.18	19.441
546.52	18.951
546.86	18.891
547.20	18.734
547.54	19.063
547.88	18.127
548.22	19.065
548.56	18.916
548.90	18.921
549.24	19.141
549.58	18.170
549.92	18.795
550.26	18.796
550.60	18.496
550.94	18.453
551.28	20.276
551.62	18.897
551.96	18.581
552.30	18.326
552.64	20.194
552.98	17.784
553.32	18.758
553.66	18.762
554.00	19.498
554.34	19.507
554.68	18.817
555.02	19.280
555.36	18.684
555.69	19.306
556.03	18.471
556.37	18.802
556.71	19.166
557.05	17.955
557.39	18.667
557.73	18.801
558.07	19.182
558.41	18.643
558.75	19.357
559.08	19.442
559.42	18.898
559.76	19.886
560.10	18.926
560.44	18.978
560.78	19.821
561.12	18.754
561.45	17.835
561.79	18.477
562.13	18.762
562.47	19.208
562.81	18.543
563.15	19.392
563.48	17.391
563.82	19.464
564.16	19.963
564.50	18.927
564.84	18.176
565.17	19.311
565.51	19.212
565.85	19.309
566.19	18.869
566.52	18.412
566.86	18.681
567.20	19.101
567.54	18.777
567.88	18.727
568.21	17.224
568.55	18.482
568.89	18.339
569.23	17.256
569.56	17.851
569.90	16.960
570.24	17.615
570.57	17.359
570.91	16.755
571.25	16.578
571.59	16.610
571.92	15.958
572.26	15.768
572.60	16.773
572.93	16.705
573.27	16.284
573.61	16.188
573.95	16.135
574.28	16.311
574.62	16.022
574.96	15.823
575.29	16.346
575.63	15.901
575.97	16.139
576.30	15.996
576.64	16.225
576.98	16.229
577.31	15.946
577.65	16.202
577.98	16.086
578.32	15.543
578.66	16.058
578.99	16.048
579.33	16.193
579.67	16.086
580.00	16.028
580.34	15.713
580.67	15.503
581.01	16.305
581.35	15.643
581.68	15.389
582.02	15.739
582.35	15.376
582.69	16.298
583.02	15.824
583.36	16.241
583.70	16.325
584.03	16.455
584.37	16.406
584.70	16.024
585.04	15.632
585.37	15.352
585.71	16.202
586.04	16.098
586.38	16.208
586.72	16.422
587.05	16.264
587.39	15.853
587.72	16.199
588.06	16.091
588.39	16.453
588.73	16.181
589.06	15.728
589.40	16.870
589.73	16.323
590.07	16.678
590.40	17.178
590.73	17.701
591.07	17.306
591.40	16.727
591.74	16.599
592.07	16.805
592.41	16.667
592.74	16.111
593.08	16.374
593.41	16.278
593.75	15.842
594.08	16.354
594.41	16.520
594.75	16.301
595.08	16.187
595.42	17.051
595.75	16.354
596.09	16.580
596.42	16.642
596.75	17.067
597.09	16.880
597.42	16.857
597.75	16.673
598.09	16.373
598.42	16.157
598.76	16.230
599.09	16.513
599.42	16.159
599.76	16.825
600.09	15.864
600.42	16.367
600.76	16.179
601.09	16.293
601.42	16.297
601.76	16.398
602.09	17.145
602.42	16.562
602.76	16.660
603.09	16.855
603.42	16.294
603.76	16.486
604.09	16.468
604.42	16.723
604.76	16.792
605.09	16.653
605.42	16.904
605.75	16.779
606.09	17.138
606.42	16.159
606.75	16.595
607.09	16.147
607.42	16.874
607.75	16.322
608.08	16.044
608.42	17.366
608.75	16.816
609.08	16.498
609.41	16.818
609.75	16.941
610.08	17.041
610.41	16.469
610.74	16.753
611.07	17.099
611.41	17.609
611.74	16.730
612.07	16.474
612.40	17.154
612.73	17.324
613.07	17.233
613.40	16.842
613.73	17.524
614.06	17.150
614.39	17.172
614.72	16.625
615.06	16.815
615.39	17.228
615.72	16.215
616.05	17.730
616.38	17.453
616.71	17.526
617.05	17.298
617.38	16.854
617.71	18.054
618.04	17.779
618.37	16.732
618.70	17.206
619.03	17.094
619.36	17.965
619.69	17.942
620.03	18.591
620.36	17.469
620.69	17.305
621.02	17.867
621.35	17.049
621.68	18.289
622.01	19.041
622.34	17.844
622.67	18.610
623.00	17.903
623.33	17.814
623.66	17.432
623.99	19.178
624.32	18.225
624.65	17.446
624.99	17.377
625.32	18.704
625.65	17.724
625.98	18.131
626.31	18.620
626.64	17.920
626.97	17.368
627.30	18.012
627.63	18.524
627.96	18.623
628.29	17.904
628.62	18.392
628.95	18.440
629.28	19.895
629.61	18.629
629.94	18.237
630.26	20.624
630.59	20.035
630.92	18.296
631.25	19.220
