SpectraSuite Data File
++++++++++++++++++++++++++++++++++++
Date: Tue May 12 17:24:03 PDT 2015
User: schluterlab
Dark Spectrum Present: Yes
Reference Spectrum Present: Yes
Number of Sampled Component Spectra: 1
Spectrometers: USB2E3373
Integration Time (usec): 3000 (USB2E3373)
Spectra Averaged: 3 (USB2E3373)
Boxcar Smoothing: 0 (USB2E3373)
Correct for Electrical Dark: No (USB2E3373)
Strobe/Lamp Enabled: No (USB2E3373)
Correct for Detector Non-linearity: No (USB2E3373)
Correct for Stray Light: No (USB2E3373)
Number of Pixels in Processed Spectrum: 2048
>>>>>Begin Processed Spectral Data<<<<<
178.53	0.000
178.91	-225.000
179.29	-550.000
179.67	-2500.000
180.04	-106.667
180.42	650.000
180.80	1500.000
181.18	0.000
181.56	-287.500
181.94	0.000
182.31	866.667
182.69	-2900.000
183.07	614.286
183.45	-3500.000
183.83	-1800.000
184.20	440.000
184.58	657.143
184.96	-223.077
185.34	-175.000
185.72	1400.000
186.09	-850.000
186.47	-2800.000
186.85	966.667
187.23	580.000
187.61	1200.000
187.98	437.500
188.36	328.571
188.74	316.667
189.12	375.000
189.49	1000.000
189.87	0.000
190.25	362.500
190.63	2300.000
191.00	-200.000
191.38	-4000.000
191.76	-875.000
192.14	425.000
192.51	-3100.000
192.89	1550.000
193.27	1133.333
193.65	-1100.000
194.02	-720.000
194.40	442.857
194.78	-200.000
195.15	213.333
195.53	-3100.000
195.91	-560.000
196.29	3800.000
196.66	325.000
197.04	850.000
197.42	-1450.000
197.79	575.000
198.17	316.667
198.55	0.000
198.92	442.857
199.30	1233.333
199.68	1850.000
200.05	866.667
200.43	-516.667
200.81	250.000
201.18	4300.000
201.56	350.000
201.94	-950.000
202.31	-337.500
202.69	-580.000
203.07	3100.000
203.44	-466.667
203.82	233.333
204.19	520.000
204.57	-1150.000
204.95	-575.000
205.32	-500.000
205.70	616.667
206.08	775.000
206.45	-833.333
206.83	277.778
207.20	200.000
207.58	241.667
207.96	780.000
208.33	0.000
208.71	628.571
209.08	780.000
209.46	-3000.000
209.84	-775.000
210.21	960.000
210.59	-620.000
210.96	225.000
211.34	-625.000
211.71	418.182
212.09	875.000
212.46	1700.000
212.84	-400.000
213.22	411.111
213.59	-2200.000
213.97	350.000
214.34	900.000
214.72	1033.333
215.09	766.667
215.47	-2700.000
215.84	-330.000
216.22	-387.500
216.59	0.000
216.97	0.000
217.34	1700.000
217.72	-1350.000
218.09	1233.333
218.47	425.000
218.84	775.000
219.22	866.667
219.59	1133.333
219.97	514.286
220.34	355.556
220.72	1150.000
221.09	2700.000
221.47	233.333
221.84	1333.333
222.22	340.000
222.59	283.333
222.97	221.429
223.34	243.750
223.72	-1800.000
224.09	1400.000
224.46	253.846
224.84	-725.000
225.21	433.333
225.59	240.000
225.96	1200.000
226.34	-660.000
226.71	-550.000
227.08	-520.000
227.46	0.000
227.83	-450.000
228.21	-1300.000
228.58	325.000
228.95	600.000
229.33	400.000
229.70	1050.000
230.08	307.692
230.45	3000.000
230.82	-875.000
231.20	-833.333
231.57	-1100.000
231.95	620.000
232.32	283.333
232.69	483.333
233.07	375.000
233.44	-1850.000
233.81	213.333
234.19	159.259
234.56	150.000
234.93	158.824
235.31	190.000
235.68	200.000
236.05	146.429
236.43	122.222
236.80	300.000
237.17	124.138
237.55	121.875
237.92	95.000
238.29	121.212
238.67	112.500
239.04	119.512
239.41	62.500
239.79	72.500
240.16	56.250
240.53	68.852
240.91	65.217
241.28	64.407
241.65	65.152
242.02	74.648
242.40	62.857
242.77	41.758
243.14	48.101
243.51	51.515
243.89	53.271
244.26	46.729
244.63	42.574
245.00	48.624
245.38	32.203
245.75	38.636
246.12	45.926
246.49	36.170
246.87	31.967
247.24	34.667
247.61	36.875
247.98	34.014
248.36	30.909
248.73	36.735
249.10	29.167
249.47	29.000
249.84	35.323
250.22	26.486
250.59	27.000
250.96	29.958
251.33	25.581
251.70	29.911
252.08	26.891
252.45	29.084
252.82	27.376
253.19	27.273
253.56	23.846
253.94	26.087
254.31	22.868
254.68	25.436
255.05	26.552
255.42	19.343
255.79	23.779
256.16	30.169
256.54	26.299
256.91	25.163
257.28	21.405
257.65	22.571
258.02	22.419
258.39	24.355
258.76	25.217
259.14	16.857
259.51	21.866
259.88	20.365
260.25	21.154
260.62	23.562
260.99	20.110
261.36	19.499
261.73	21.809
262.10	23.037
262.47	19.250
262.85	18.933
263.22	23.650
263.59	20.205
263.96	20.802
264.33	17.284
264.70	23.096
265.07	21.463
265.44	20.642
265.81	21.934
266.18	22.654
266.55	22.459
266.92	21.029
267.29	22.149
267.66	17.489
268.03	19.507
268.40	19.027
268.77	22.467
269.14	18.221
269.51	21.826
269.88	21.429
270.25	18.359
270.62	19.957
270.99	21.298
271.36	19.512
271.73	17.400
272.10	17.576
272.47	19.444
272.84	19.162
273.21	19.628
273.58	21.457
273.95	18.686
274.32	19.844
274.69	21.063
275.06	18.944
275.43	19.349
275.80	18.491
276.17	19.853
276.54	19.065
276.91	19.963
277.28	18.431
277.65	17.528
278.02	20.404
278.39	16.187
278.76	17.241
279.13	18.505
279.50	18.727
279.87	17.505
280.23	17.680
280.60	17.883
280.97	18.448
281.34	17.492
281.71	17.043
282.08	17.949
282.45	17.061
282.82	18.395
283.19	18.283
283.56	17.686
283.92	17.590
284.29	18.636
284.66	16.975
285.03	18.740
285.40	18.182
285.77	17.284
286.14	17.647
286.51	17.638
286.87	16.930
287.24	17.267
287.61	17.021
287.98	16.418
288.35	16.741
288.72	16.237
289.08	16.667
289.45	18.140
289.82	17.500
290.19	18.009
290.56	18.341
290.93	15.252
291.29	15.884
291.66	15.113
292.03	14.867
292.40	15.447
292.77	14.624
293.13	16.120
293.50	16.329
293.87	15.176
294.24	16.783
294.60	15.747
294.97	16.503
295.34	13.546
295.71	16.032
296.08	16.000
296.44	14.612
296.81	14.888
297.18	12.801
297.55	16.133
297.91	14.163
298.28	14.976
298.65	13.620
299.02	15.440
299.38	14.988
299.75	13.902
300.12	15.596
300.48	15.457
300.85	14.899
301.22	14.302
301.59	13.679
301.95	14.002
302.32	14.319
302.69	14.932
303.05	14.927
303.42	14.013
303.79	15.385
304.15	13.531
304.52	13.953
304.89	15.032
305.25	15.573
305.62	15.245
305.99	13.804
306.35	13.053
306.72	14.152
307.09	14.803
307.45	14.784
307.82	12.449
308.19	14.227
308.55	14.500
308.92	15.702
309.29	14.892
309.65	15.857
310.02	14.604
310.38	15.653
310.75	14.079
311.12	13.027
311.48	15.637
311.85	15.935
312.22	15.855
312.58	14.772
312.95	15.728
313.31	16.292
313.68	15.291
314.05	17.949
314.41	15.922
314.78	16.098
315.14	17.251
315.51	18.354
315.87	17.153
316.24	17.274
316.61	17.189
316.97	18.440
317.34	17.700
317.70	18.262
318.07	18.238
318.43	18.805
318.80	19.264
319.16	18.357
319.53	18.230
319.89	19.086
320.26	20.857
320.62	19.872
320.99	20.305
321.35	21.614
321.72	20.968
322.08	22.068
322.45	20.073
322.81	21.226
323.18	22.647
323.54	23.432
323.91	23.028
324.27	23.431
324.64	23.097
325.00	22.931
325.37	24.958
325.73	25.717
326.10	25.186
326.46	24.030
326.83	25.200
327.19	26.667
327.56	25.799
327.92	26.967
328.29	26.514
328.65	27.140
329.01	27.802
329.38	26.734
329.74	26.132
330.11	26.586
330.47	28.048
330.84	26.661
331.20	27.073
331.56	27.893
331.93	28.914
332.29	26.871
332.66	27.041
333.02	27.835
333.38	28.447
333.75	26.522
334.11	27.768
334.48	28.889
334.84	27.618
335.20	26.946
335.57	27.372
335.93	28.511
336.29	27.612
336.66	29.503
337.02	26.775
337.38	27.343
337.75	27.365
338.11	28.186
338.47	26.926
338.84	27.688
339.20	28.571
339.56	28.595
339.93	28.344
340.29	27.563
340.65	28.583
341.02	28.962
341.38	27.258
341.74	28.073
342.11	28.464
342.47	28.466
342.83	28.958
343.20	28.133
343.56	27.164
343.92	28.159
344.28	27.831
344.65	28.769
345.01	27.143
345.37	27.644
345.73	28.413
346.10	28.367
346.46	28.708
346.82	27.160
347.19	28.671
347.55	28.962
347.91	27.190
348.27	27.730
348.63	28.006
349.00	28.789
349.36	28.405
349.72	28.211
350.08	28.804
350.45	27.570
350.81	28.517
351.17	27.042
351.53	28.176
351.89	27.661
352.26	27.891
352.62	28.054
352.98	28.528
353.34	29.969
353.70	28.593
354.07	29.308
354.43	28.955
354.79	28.170
355.15	27.489
355.51	29.003
355.87	28.539
356.24	29.484
356.60	27.702
356.96	26.914
357.32	28.937
357.68	29.222
358.04	29.331
358.40	29.760
358.77	29.151
359.13	28.529
359.49	28.243
359.85	28.965
360.21	28.083
360.57	29.416
360.93	29.076
361.29	29.582
361.66	30.872
362.02	28.054
362.38	29.726
362.74	28.309
363.10	29.874
363.46	28.867
363.82	30.154
364.18	29.445
364.54	30.401
364.90	29.451
365.26	29.493
365.62	29.627
365.98	28.562
366.35	28.897
366.71	29.493
367.07	30.444
367.43	30.289
367.79	29.455
368.15	28.833
368.51	30.255
368.87	29.552
369.23	29.868
369.59	29.804
369.95	29.580
370.31	28.474
370.67	29.840
371.03	29.832
371.39	30.125
371.75	30.914
372.11	30.659
372.47	30.548
372.83	30.591
373.19	29.883
373.55	30.515
373.91	30.249
374.27	30.159
374.63	30.237
374.99	30.323
375.35	30.914
375.71	31.201
376.07	30.703
376.42	29.731
376.78	30.443
377.14	30.865
377.50	30.150
377.86	30.621
378.22	30.835
378.58	31.598
378.94	30.779
379.30	30.564
379.66	31.547
380.02	32.141
380.38	30.972
380.74	31.142
381.09	31.075
381.45	30.925
381.81	30.792
382.17	30.830
382.53	31.734
382.89	31.165
383.25	31.380
383.61	31.009
383.97	31.914
384.32	32.731
384.68	32.145
385.04	31.419
385.40	32.088
385.76	32.651
386.12	31.602
386.48	32.036
386.83	31.907
387.19	32.038
387.55	31.095
387.91	32.217
388.27	32.540
388.62	32.512
388.98	31.778
389.34	31.826
389.70	31.073
390.06	31.707
390.42	32.696
390.77	32.310
391.13	32.227
391.49	32.244
391.85	33.908
392.20	32.718
392.56	33.094
392.92	31.948
393.28	32.455
393.64	32.282
393.99	32.484
394.35	31.430
394.71	31.001
395.07	31.995
395.42	32.670
395.78	32.943
396.14	32.470
396.50	31.769
396.85	31.524
397.21	31.348
397.57	32.277
397.92	31.774
398.28	31.550
398.64	32.286
399.00	31.908
399.35	31.294
399.71	31.898
400.07	30.879
400.42	33.075
400.78	32.082
401.14	32.413
401.49	30.991
401.85	31.981
402.21	31.810
402.57	32.914
402.92	32.606
403.28	31.504
403.63	32.137
403.99	31.665
404.35	33.822
404.70	31.542
405.06	31.668
405.42	32.077
405.77	31.533
406.13	31.562
406.49	31.836
406.84	31.416
407.20	32.306
407.55	31.262
407.91	32.482
408.27	31.837
408.62	33.353
408.98	30.692
409.34	31.151
409.69	30.741
410.05	30.710
410.40	31.213
410.76	30.681
411.11	30.806
411.47	32.284
411.83	31.459
412.18	31.703
412.54	31.892
412.89	30.147
413.25	31.414
413.60	31.717
413.96	31.777
414.31	30.874
414.67	31.782
415.03	31.418
415.38	30.915
415.74	31.965
416.09	31.605
416.45	32.450
416.80	32.649
417.16	31.509
417.51	31.529
417.87	31.977
418.22	30.620
418.58	31.847
418.93	32.302
419.29	30.376
419.64	30.951
420.00	32.936
420.35	31.127
420.71	31.330
421.06	31.254
421.42	31.952
421.77	31.982
422.12	31.808
422.48	31.330
422.83	31.473
423.19	30.940
423.54	30.664
423.90	31.597
424.25	31.370
424.61	31.805
424.96	31.282
425.31	32.458
425.67	31.706
426.02	31.520
426.38	31.272
426.73	32.909
427.09	32.028
427.44	31.908
427.79	31.961
428.15	32.174
428.50	32.857
428.85	32.451
429.21	32.577
429.56	32.203
429.92	32.123
430.27	31.882
430.62	30.837
430.98	31.936
431.33	31.855
431.68	31.062
432.04	31.195
432.39	32.492
432.74	32.787
433.10	31.617
433.45	32.338
433.80	31.936
434.16	32.212
434.51	31.992
434.86	32.934
435.22	32.469
435.57	32.187
435.92	32.726
436.28	33.641
436.63	32.199
436.98	33.164
437.34	33.447
437.69	32.027
438.04	32.527
438.39	32.574
438.75	32.183
439.10	32.920
439.45	32.222
439.81	33.430
440.16	32.141
440.51	32.995
440.86	32.479
441.22	31.981
441.57	32.703
441.92	32.478
442.27	33.144
442.63	33.689
442.98	31.897
443.33	32.673
443.68	32.545
444.03	32.187
444.39	32.580
444.74	32.557
445.09	32.754
445.44	32.412
445.79	32.846
446.15	32.895
446.50	33.017
446.85	33.167
447.20	32.736
447.55	32.518
447.91	33.617
448.26	31.896
448.61	33.057
448.96	33.606
449.31	32.893
449.66	33.001
450.02	32.361
450.37	33.592
450.72	32.452
451.07	33.159
451.42	33.195
451.77	34.021
452.12	33.466
452.47	33.111
452.83	34.479
453.18	33.273
453.53	34.044
453.88	33.257
454.23	34.399
454.58	32.925
454.93	34.090
455.28	32.987
455.63	34.693
455.98	33.108
456.34	34.590
456.69	33.902
457.04	33.294
457.39	33.657
457.74	33.446
458.09	32.117
458.44	32.640
458.79	33.475
459.14	33.333
459.49	33.012
459.84	34.130
460.19	33.616
460.54	33.732
460.89	33.635
461.24	32.761
461.59	33.787
461.94	32.506
462.29	34.325
462.64	34.548
462.99	33.077
463.34	34.802
463.69	33.757
464.04	33.391
464.39	33.486
464.74	32.767
465.09	33.488
465.44	32.590
465.79	32.226
466.14	32.273
466.49	32.990
466.84	33.445
467.19	34.036
467.54	33.153
467.89	33.920
468.24	33.468
468.59	33.274
468.94	33.454
469.29	33.720
469.64	34.019
469.99	34.447
470.34	33.017
470.68	33.448
471.03	33.489
471.38	33.841
471.73	33.312
472.08	34.573
472.43	33.209
472.78	34.187
473.13	32.791
473.48	34.046
473.83	32.980
474.17	34.468
474.52	33.590
474.87	32.575
475.22	33.581
475.57	32.791
475.92	33.163
476.27	32.699
476.61	32.761
476.96	32.915
477.31	34.036
477.66	33.924
478.01	32.955
478.36	33.162
478.70	32.407
479.05	32.636
479.40	33.581
479.75	33.317
480.10	33.979
480.45	33.053
480.79	32.673
481.14	32.715
481.49	31.656
481.84	32.850
482.19	33.100
482.53	32.148
482.88	32.706
483.23	32.521
483.58	33.259
483.92	33.090
484.27	32.320
484.62	32.088
484.97	32.100
485.31	32.194
485.66	30.390
486.01	29.520
486.36	29.470
486.70	29.821
487.05	29.929
487.40	30.983
487.75	31.172
488.09	30.966
488.44	31.485
488.79	30.961
489.13	32.102
489.48	32.881
489.83	32.319
490.17	31.998
490.52	32.472
490.87	32.284
491.22	32.979
491.56	32.762
491.91	33.020
492.26	33.007
492.60	33.303
492.95	32.895
493.30	33.076
493.64	33.019
493.99	33.587
494.34	32.945
494.68	32.935
495.03	32.465
495.37	33.724
495.72	33.380
496.07	32.659
496.41	31.712
496.76	32.756
497.11	32.476
497.45	32.880
497.80	33.133
498.14	33.426
498.49	33.008
498.84	33.364
499.18	32.861
499.53	32.568
499.87	32.390
500.22	33.579
500.56	33.055
500.91	34.323
501.26	33.670
501.60	32.240
501.95	32.168
502.29	33.067
502.64	33.083
502.98	31.792
503.33	32.561
503.67	32.627
504.02	32.602
504.36	33.303
504.71	32.923
505.06	32.332
505.40	32.288
505.75	33.583
506.09	32.991
506.44	32.331
506.78	33.412
507.13	33.786
507.47	32.751
507.82	33.577
508.16	33.709
508.51	33.043
508.85	33.048
509.19	33.138
509.54	33.203
509.88	33.665
510.23	33.382
510.57	33.156
510.92	33.267
511.26	33.936
511.61	32.644
511.95	33.549
512.30	33.950
512.64	33.541
512.98	34.854
513.33	32.992
513.67	33.868
514.02	34.182
514.36	33.749
514.70	33.547
515.05	34.310
515.39	33.772
515.74	35.101
516.08	34.314
516.42	34.918
516.77	34.240
517.11	35.467
517.46	33.782
517.80	33.752
518.14	35.662
518.49	33.076
518.83	33.626
519.17	35.164
519.52	34.790
519.86	33.406
520.20	34.411
520.55	33.296
520.89	33.793
521.23	35.572
521.58	33.964
521.92	34.752
522.26	34.242
522.61	35.354
522.95	35.736
523.29	34.971
523.64	34.393
523.98	34.918
524.32	34.717
524.66	35.478
525.01	34.556
525.35	34.178
525.69	35.521
526.04	34.146
526.38	34.550
526.72	34.248
527.06	34.299
527.41	34.946
527.75	35.180
528.09	33.955
528.43	35.631
528.78	34.466
529.12	35.280
529.46	34.775
529.80	34.638
530.15	34.826
530.49	34.477
530.83	34.613
531.17	35.117
531.51	34.457
531.86	34.058
532.20	33.869
532.54	34.777
532.88	35.853
533.22	34.552
533.57	35.021
533.91	34.615
534.25	33.295
534.59	33.918
534.93	33.220
535.27	34.434
535.62	33.606
535.96	33.333
536.30	35.710
536.64	35.031
536.98	34.739
537.32	35.062
537.66	34.821
538.01	33.189
538.35	34.685
538.69	34.041
539.03	33.582
539.37	33.799
539.71	34.259
540.05	34.892
540.39	34.780
540.73	35.000
541.07	33.689
541.42	33.706
541.76	35.388
542.10	33.970
542.44	33.416
542.78	33.921
543.12	33.006
543.46	34.461
543.80	33.897
544.14	34.056
544.48	33.273
544.82	33.211
545.16	33.698
545.50	34.235
545.84	34.659
546.18	34.915
546.52	34.820
546.86	35.397
547.20	32.881
547.54	33.946
547.88	32.725
548.22	33.090
548.56	32.410
548.90	33.452
549.24	33.986
549.58	33.827
549.92	34.512
550.26	34.618
550.60	34.398
550.94	34.464
551.28	35.655
551.62	35.448
551.96	34.189
552.30	33.817
552.64	34.239
552.98	32.474
553.32	33.355
553.66	34.463
554.00	33.012
554.34	34.887
554.68	34.476
555.02	34.352
555.36	33.511
555.69	34.293
556.03	33.185
556.37	33.779
556.71	34.289
557.05	33.159
557.39	34.200
557.73	35.175
558.07	33.870
558.41	34.270
558.75	33.995
559.08	34.882
559.42	34.717
559.76	35.495
560.10	33.448
560.44	33.842
560.78	33.887
561.12	33.694
561.45	33.917
561.79	32.959
562.13	33.228
562.47	34.199
562.81	33.572
563.15	33.355
563.48	31.801
563.82	33.437
564.16	33.085
564.50	32.550
564.84	33.374
565.17	32.086
565.51	33.128
565.85	34.608
566.19	33.988
566.52	32.732
566.86	33.041
567.20	33.315
567.54	33.352
567.88	32.186
568.21	31.203
568.55	31.469
568.89	31.068
569.23	30.630
569.56	30.032
569.90	30.255
570.24	29.983
570.57	29.721
570.91	28.705
571.25	29.093
571.59	28.370
571.92	28.391
572.26	28.652
572.60	28.214
572.93	28.148
573.27	28.461
573.61	28.668
573.95	27.515
574.28	28.405
574.62	27.667
574.96	27.215
575.29	27.462
575.63	27.774
575.97	27.118
576.30	26.803
576.64	27.779
576.98	27.165
577.31	27.525
577.65	27.301
577.98	26.900
578.32	26.469
578.66	27.002
578.99	27.376
579.33	27.018
579.67	27.094
580.00	27.241
580.34	27.112
580.67	26.823
581.01	27.672
581.35	26.913
581.68	26.926
582.02	26.409
582.35	26.552
582.69	26.989
583.02	26.684
583.36	26.956
583.70	27.300
584.03	28.014
584.37	27.511
584.70	27.395
585.04	26.790
585.37	27.074
585.71	27.461
586.04	27.402
586.38	27.005
586.72	27.696
587.05	27.638
587.39	27.105
587.72	27.860
588.06	27.142
588.39	27.047
588.73	27.213
589.06	27.954
589.40	28.169
589.73	28.155
590.07	29.272
590.40	28.885
590.73	29.379
591.07	28.501
591.40	29.661
591.74	28.571
592.07	28.203
592.41	29.137
592.74	28.231
593.08	28.125
593.41	27.588
593.75	27.555
594.08	27.872
594.41	27.729
594.75	27.671
595.08	27.606
595.42	28.111
595.75	27.312
596.09	28.363
596.42	27.968
596.75	29.127
597.09	29.261
597.42	28.816
597.75	28.398
598.09	28.314
598.42	28.070
598.76	27.255
599.09	28.430
599.42	27.370
599.76	27.748
600.09	27.390
600.42	27.486
600.76	26.920
601.09	27.580
601.42	27.490
601.76	27.784
602.09	28.182
602.42	28.096
602.76	28.615
603.09	28.544
603.42	27.927
603.76	27.079
604.09	27.796
604.42	27.910
604.76	28.092
605.09	27.837
605.42	27.753
605.75	28.188
606.09	27.812
606.42	27.546
606.75	27.672
607.09	27.556
607.42	28.566
607.75	28.503
608.08	28.473
608.42	28.523
608.75	27.856
609.08	27.717
609.41	28.455
609.75	29.533
610.08	28.642
610.41	28.107
610.74	28.139
611.07	27.831
611.41	28.128
611.74	28.872
612.07	28.902
612.40	28.411
612.73	28.957
613.07	28.332
613.40	28.822
613.73	28.308
614.06	28.550
614.39	29.141
614.72	28.378
615.06	27.695
615.39	27.624
615.72	28.025
616.05	28.729
616.38	29.224
616.71	29.300
617.05	28.885
617.38	29.213
617.71	29.415
618.04	28.772
618.37	28.683
618.70	29.330
619.03	29.243
619.36	29.523
619.69	30.211
620.03	30.528
620.36	30.186
620.69	30.013
621.02	30.163
621.35	29.871
621.68	30.531
622.01	31.734
622.34	30.517
622.67	30.267
623.00	29.680
623.33	29.825
623.66	29.674
623.99	30.000
624.32	29.743
624.65	29.493
624.99	30.020
625.32	30.261
625.65	29.517
625.98	30.056
626.31	29.970
626.64	30.068
626.97	31.293
627.30	31.056
627.63	32.025
627.96	30.829
628.29	30.363
628.62	30.539
628.95	32.890
629.28	32.778
629.61	31.986
629.94	32.325
630.26	32.149
630.59	33.333
630.92	31.031
631.25	33.817
