SpectraSuite Data File
++++++++++++++++++++++++++++++++++++
Date: Tue May 12 17:08:30 PDT 2015
User: schluterlab
Dark Spectrum Present: Yes
Reference Spectrum Present: Yes
Number of Sampled Component Spectra: 1
Spectrometers: USB2E3373
Integration Time (usec): 3000 (USB2E3373)
Spectra Averaged: 3 (USB2E3373)
Boxcar Smoothing: 0 (USB2E3373)
Correct for Electrical Dark: No (USB2E3373)
Strobe/Lamp Enabled: No (USB2E3373)
Correct for Detector Non-linearity: No (USB2E3373)
Correct for Stray Light: No (USB2E3373)
Number of Pixels in Processed Spectrum: 2048
>>>>>Begin Processed Spectral Data<<<<<
178.53	0.000
178.91	-191.667
179.29	-600.000
179.67	-3700.000
180.04	-146.667
180.42	775.000
180.80	1800.000
181.18	0.000
181.56	-375.000
181.94	0.000
182.31	1333.333
182.69	-3800.000
183.07	714.286
183.45	-3500.000
183.83	-1300.000
184.20	350.000
184.58	528.571
184.96	-176.923
185.34	-225.000
185.72	1850.000
186.09	-750.000
186.47	-3100.000
186.85	1200.000
187.23	780.000
187.61	1700.000
187.98	475.000
188.36	285.714
188.74	325.000
189.12	358.333
189.49	900.000
189.87	0.000
190.25	550.000
190.63	2600.000
191.00	-191.667
191.38	-3500.000
191.76	-825.000
192.14	575.000
192.51	-3100.000
192.89	1400.000
193.27	1200.000
193.65	-1200.000
194.02	-820.000
194.40	471.429
194.78	-207.143
195.15	233.333
195.53	-3000.000
195.91	-420.000
196.29	3700.000
196.66	262.500
197.04	700.000
197.42	-1650.000
197.79	750.000
198.17	341.667
198.55	0.000
198.92	471.429
199.30	1500.000
199.68	1700.000
200.05	483.333
200.43	-450.000
200.81	216.667
201.18	3400.000
201.56	208.333
201.94	-700.000
202.31	-500.000
202.69	-320.000
203.07	2900.000
203.44	-483.333
203.82	366.667
204.19	700.000
204.57	-1000.000
204.95	-650.000
205.32	-840.000
205.70	616.667
206.08	725.000
206.45	-966.667
206.83	433.333
207.20	178.947
207.58	191.667
207.96	740.000
208.33	0.000
208.71	557.143
209.08	700.000
209.46	-2900.000
209.84	-1100.000
210.21	820.000
210.59	-520.000
210.96	308.333
211.34	-950.000
211.71	418.182
212.09	825.000
212.46	1650.000
212.84	-450.000
213.22	455.556
213.59	-3700.000
213.97	380.000
214.34	950.000
214.72	1200.000
215.09	966.667
215.47	-3000.000
215.84	-300.000
216.22	-337.500
216.59	0.000
216.97	0.000
217.34	1600.000
217.72	-1700.000
218.09	933.333
218.47	500.000
218.84	700.000
219.22	1100.000
219.59	900.000
219.97	400.000
220.34	400.000
220.72	2000.000
221.09	2700.000
221.47	300.000
221.84	866.667
222.22	330.000
222.59	216.667
222.97	271.429
223.34	200.000
223.72	-1550.000
224.09	1100.000
224.46	300.000
224.84	-850.000
225.21	477.778
225.59	206.667
225.96	1233.333
226.34	-620.000
226.71	-825.000
227.08	-360.000
227.46	0.000
227.83	-483.333
228.21	-1200.000
228.58	350.000
228.95	1025.000
229.33	388.889
229.70	925.000
230.08	346.154
230.45	2500.000
230.82	-750.000
231.20	-933.333
231.57	-1300.000
231.95	540.000
232.32	283.333
232.69	450.000
233.07	308.333
233.44	-1500.000
233.81	220.000
234.19	170.370
234.56	218.750
234.93	241.176
235.31	185.000
235.68	325.000
236.05	157.143
236.43	140.741
236.80	257.143
237.17	165.517
237.55	121.875
237.92	127.500
238.29	106.061
238.67	131.250
239.04	114.634
239.41	77.083
239.79	100.000
240.16	87.500
240.53	85.246
240.91	81.159
241.28	83.051
241.65	72.727
242.02	73.239
242.40	91.429
242.77	63.736
243.14	56.962
243.51	66.667
243.89	48.598
244.26	57.944
244.63	46.535
245.00	56.881
245.38	45.763
245.75	54.545
246.12	58.519
246.49	50.355
246.87	42.623
247.24	54.000
247.61	44.375
247.98	52.381
248.36	42.424
248.73	47.959
249.10	45.238
249.47	41.500
249.84	41.791
250.22	43.784
250.59	38.500
250.96	40.506
251.33	39.535
251.70	40.625
252.08	41.176
252.45	34.661
252.82	38.023
253.19	38.735
253.56	36.538
253.94	36.957
254.31	37.597
254.68	39.721
255.05	39.310
255.42	39.781
255.79	36.156
256.16	37.966
256.54	36.039
256.91	40.850
257.28	34.114
257.65	32.288
258.02	33.628
258.39	37.536
258.76	39.130
259.14	32.286
259.51	37.901
259.88	37.082
260.25	34.066
260.62	32.329
260.99	30.854
261.36	33.983
261.73	33.245
262.10	33.508
262.47	31.500
262.85	34.667
263.22	34.961
263.59	32.481
263.96	31.830
264.33	32.593
264.70	33.907
265.07	34.390
265.44	33.716
265.81	32.783
266.18	31.121
266.55	31.206
266.92	30.425
267.29	35.088
267.66	29.148
268.03	30.269
268.40	30.233
268.77	35.022
269.14	29.501
269.51	33.630
269.88	34.286
270.25	30.670
270.62	30.687
270.99	32.860
271.36	31.098
271.73	30.608
272.10	31.919
272.47	32.143
272.84	29.142
273.21	29.339
273.58	32.591
273.95	31.211
274.32	32.101
274.69	32.087
275.06	30.419
275.43	32.184
275.80	30.000
276.17	30.147
276.54	31.589
276.91	31.530
277.28	30.839
277.65	30.627
278.02	30.515
278.39	30.576
278.76	28.793
279.13	31.673
279.50	32.182
279.87	29.423
280.23	30.571
280.60	30.109
280.97	29.483
281.34	29.703
281.71	30.087
282.08	30.940
282.45	28.547
282.82	29.933
283.19	29.571
283.56	26.942
283.92	30.456
284.29	28.453
284.66	27.563
285.03	28.524
285.40	30.083
285.77	28.241
286.14	28.019
286.51	28.221
286.87	28.639
287.24	27.628
287.61	28.419
287.98	27.910
288.35	28.741
288.72	28.680
289.08	27.477
289.45	28.201
289.82	28.125
290.19	29.429
290.56	29.403
290.93	28.489
291.29	27.901
291.66	28.107
292.03	26.788
292.40	28.049
292.77	27.019
293.13	27.960
293.50	26.991
293.87	25.610
294.24	28.671
294.60	26.110
294.97	28.252
295.34	28.287
295.71	29.435
296.08	28.400
296.44	28.335
296.81	26.923
297.18	26.489
297.55	26.232
297.91	27.463
298.28	27.899
298.65	28.221
299.02	26.176
299.38	27.578
299.75	25.610
300.12	27.523
300.48	28.689
300.85	28.844
301.22	28.488
301.59	27.594
301.95	27.655
302.32	28.172
302.69	27.376
303.05	30.079
303.42	26.906
303.79	29.144
304.15	28.603
304.52	29.175
304.89	29.104
305.25	29.477
305.62	29.211
305.99	27.500
306.35	27.684
306.72	28.928
307.09	29.296
307.45	29.250
307.82	29.115
308.19	29.278
308.55	28.500
308.92	30.815
309.29	31.558
309.65	29.732
310.02	30.122
310.38	29.312
310.75	29.797
311.12	28.831
311.48	32.239
311.85	29.962
312.22	31.519
312.58	30.612
312.95	30.485
313.31	30.337
313.68	31.238
314.05	31.319
314.41	31.564
314.78	31.061
315.14	32.417
315.51	32.923
315.87	32.391
316.24	32.866
316.61	33.393
316.97	32.018
317.34	31.896
317.70	33.275
318.07	33.452
318.43	33.831
318.80	32.399
319.16	34.003
319.53	33.363
319.89	33.602
320.26	34.264
320.62	34.615
320.99	36.034
321.35	35.529
321.72	36.338
322.08	36.380
322.45	36.149
322.81	37.603
323.18	37.389
323.54	37.021
323.91	38.985
324.27	37.489
324.64	36.938
325.00	38.017
325.37	38.533
325.73	38.280
326.10	39.105
326.46	39.306
326.83	38.160
327.19	39.920
327.56	39.936
327.92	40.820
328.29	40.426
328.65	40.582
329.01	39.949
329.38	40.609
329.74	39.795
330.11	40.747
330.47	41.176
330.84	38.309
331.20	39.255
331.56	42.142
331.93	41.146
332.29	39.881
332.66	39.796
333.02	39.948
333.38	40.489
333.75	41.034
334.11	41.862
334.48	40.085
334.84	40.203
335.20	39.692
335.57	39.631
335.93	39.277
336.29	40.133
336.66	41.424
337.02	39.692
337.38	39.725
337.75	40.878
338.11	40.169
338.47	39.797
338.84	39.119
339.20	40.606
339.56	38.940
339.93	40.385
340.29	37.143
340.65	40.402
341.02	39.019
341.38	38.752
341.74	39.535
342.11	38.314
342.47	39.295
342.83	39.130
343.20	40.663
343.56	38.046
343.92	40.297
344.28	39.713
344.65	40.261
345.01	38.175
345.37	38.782
345.73	39.206
346.10	38.566
346.46	38.915
346.82	37.809
347.19	39.335
347.55	38.720
347.91	38.822
348.27	38.962
348.63	38.212
349.00	39.071
349.36	38.988
349.72	39.450
350.08	39.363
350.45	38.157
350.81	39.526
351.17	36.826
351.53	38.645
351.89	38.617
352.26	37.868
352.62	38.386
352.98	38.804
353.34	39.137
353.70	37.691
354.07	39.231
354.43	38.326
354.79	37.585
355.15	38.668
355.51	37.991
355.87	37.500
356.24	38.106
356.60	37.671
356.96	38.741
357.32	39.789
357.68	38.106
358.04	39.818
358.40	38.081
358.77	38.993
359.13	38.063
359.49	37.287
359.85	39.241
360.21	37.816
360.57	38.905
360.93	38.889
361.29	39.033
361.66	39.448
362.02	38.423
362.38	39.322
362.74	38.500
363.10	38.990
363.46	37.500
363.82	38.990
364.18	38.762
364.54	39.557
364.90	39.157
365.26	38.237
365.62	38.950
365.98	39.160
366.35	37.931
366.71	37.960
367.07	38.567
367.43	39.154
367.79	37.699
368.15	38.263
368.51	38.525
368.87	38.315
369.23	37.976
369.59	38.436
369.95	39.021
370.31	38.398
370.67	38.584
371.03	39.146
371.39	40.166
371.75	39.218
372.11	38.749
372.47	39.795
372.83	38.885
373.19	39.479
373.55	39.313
373.91	37.431
374.27	38.823
374.63	38.102
374.99	39.016
375.35	39.987
375.71	39.446
376.07	38.660
376.42	38.171
376.78	40.141
377.14	39.843
377.50	38.202
377.86	38.245
378.22	39.732
378.58	39.225
378.94	39.590
379.30	39.600
379.66	39.675
380.02	39.062
380.38	39.578
380.74	40.138
381.09	39.778
381.45	39.249
381.81	39.303
382.17	38.339
382.53	38.632
382.89	40.154
383.25	39.432
383.61	40.000
383.97	38.572
384.32	40.145
384.68	40.582
385.04	39.742
385.40	39.739
385.76	39.204
386.12	40.507
386.48	40.851
386.83	39.976
387.19	39.694
387.55	40.283
387.91	40.069
388.27	40.155
388.62	39.671
388.98	39.009
389.34	39.084
389.70	40.743
390.06	40.183
390.42	40.160
390.77	39.926
391.13	39.710
391.49	39.625
391.85	40.369
392.20	39.511
392.56	40.860
392.92	38.742
393.28	39.798
393.64	40.080
393.99	40.130
394.35	39.082
394.71	38.540
395.07	39.781
395.42	40.808
395.78	40.284
396.14	40.301
396.50	39.771
396.85	41.037
397.21	40.794
397.57	39.390
397.92	39.804
398.28	38.334
398.64	40.430
399.00	38.642
399.35	38.862
399.71	39.790
400.07	39.212
400.42	40.060
400.78	38.416
401.14	39.342
401.49	39.574
401.85	39.919
402.21	39.367
402.57	40.455
402.92	40.303
403.28	39.499
403.63	38.140
403.99	39.867
404.35	40.152
404.70	39.811
405.06	39.191
405.42	39.797
405.77	39.912
406.13	39.046
406.49	39.056
406.84	39.538
407.20	39.726
407.55	40.492
407.91	40.906
408.27	38.872
408.62	39.740
408.98	38.971
409.34	39.100
409.69	38.830
410.05	37.984
410.40	39.105
410.76	39.038
411.11	38.922
411.47	38.086
411.83	38.430
412.18	39.493
412.54	38.919
412.89	38.171
413.25	39.567
413.60	38.318
413.96	38.001
414.31	39.906
414.67	40.472
415.03	38.953
415.38	39.495
415.74	38.598
416.09	40.100
416.45	40.595
416.80	40.924
417.16	39.020
417.51	39.554
417.87	39.362
418.22	38.518
418.58	39.554
418.93	39.798
419.29	38.632
419.64	39.491
420.00	38.842
420.35	39.547
420.71	39.207
421.06	39.670
421.42	39.781
421.77	39.311
422.12	39.305
422.48	39.137
422.83	39.007
423.19	39.255
423.54	39.166
423.90	40.034
424.25	39.351
424.61	39.756
424.96	38.848
425.31	40.230
425.67	39.562
426.02	39.596
426.38	39.265
426.73	40.370
427.09	40.747
427.44	39.561
427.79	39.280
428.15	40.601
428.50	40.629
428.85	40.564
429.21	39.708
429.56	39.482
429.92	39.831
430.27	39.090
430.62	38.718
430.98	39.671
431.33	38.911
431.68	38.716
432.04	39.576
432.39	39.297
432.74	40.632
433.10	40.587
433.45	40.264
433.80	39.879
434.16	39.884
434.51	39.938
434.86	40.229
435.22	39.492
435.57	39.893
435.92	40.068
436.28	41.071
436.63	39.384
436.98	40.822
437.34	41.324
437.69	40.538
438.04	40.753
438.39	39.755
438.75	40.423
439.10	39.342
439.45	39.288
439.81	39.098
440.16	40.396
440.51	39.583
440.86	41.140
441.22	40.152
441.57	40.472
441.92	40.128
442.27	40.052
442.63	40.650
442.98	39.386
443.33	40.332
443.68	39.688
444.03	39.397
444.39	39.783
444.74	39.130
445.09	39.916
445.44	39.692
445.79	39.864
446.15	40.053
446.50	39.821
446.85	39.791
447.20	39.154
447.55	40.185
447.91	39.851
448.26	40.096
448.61	41.349
448.96	40.850
449.31	40.924
449.66	40.199
450.02	40.303
450.37	40.366
450.72	40.882
451.07	40.081
451.42	41.138
451.77	41.123
452.12	41.974
452.47	40.948
452.83	40.676
453.18	40.300
453.53	39.550
453.88	40.057
454.23	41.604
454.58	39.918
454.93	39.914
455.28	40.698
455.63	41.844
455.98	40.158
456.34	40.851
456.69	41.646
457.04	40.752
457.39	39.886
457.74	41.160
458.09	39.304
458.44	39.540
458.79	40.637
459.14	40.862
459.49	39.921
459.84	39.620
460.19	39.548
460.54	41.254
460.89	39.606
461.24	39.920
461.59	40.136
461.94	40.721
462.29	39.703
462.64	40.892
462.99	40.307
463.34	40.959
463.69	40.593
464.04	40.530
464.39	41.156
464.74	39.273
465.09	40.104
465.44	40.207
465.79	40.555
466.14	39.004
466.49	39.555
466.84	41.360
467.19	40.363
467.54	39.940
467.89	39.143
468.24	39.490
468.59	39.464
468.94	39.251
469.29	40.134
469.64	40.257
469.99	39.203
470.34	38.204
470.68	40.069
471.03	41.027
471.38	40.199
471.73	39.059
472.08	41.683
472.43	40.658
472.78	40.269
473.13	38.360
473.48	40.892
473.83	38.869
474.17	39.392
474.52	39.277
474.87	39.341
475.22	39.121
475.57	39.297
475.92	39.755
476.27	38.955
476.61	39.357
476.96	39.603
477.31	39.486
477.66	40.150
478.01	38.577
478.36	39.753
478.70	39.206
479.05	39.435
479.40	39.534
479.75	39.325
480.10	39.932
480.45	38.002
480.79	38.894
481.14	39.182
481.49	38.243
481.84	38.478
482.19	38.865
482.53	38.208
482.88	37.858
483.23	37.979
483.58	39.004
483.92	38.894
484.27	38.955
484.62	38.795
484.97	37.398
485.31	37.112
485.66	37.480
486.01	36.496
486.36	36.756
486.70	36.479
487.05	36.812
487.40	36.467
487.75	37.656
488.09	37.273
488.44	37.157
488.79	37.348
489.13	37.365
489.48	37.675
489.83	37.656
490.17	37.903
490.52	38.071
490.87	36.983
491.22	38.697
491.56	38.603
491.91	37.590
492.26	37.996
492.60	38.314
492.95	37.970
493.30	38.126
493.64	38.365
493.99	38.327
494.34	37.786
494.68	37.583
495.03	38.033
495.37	38.271
495.72	37.622
496.07	38.095
496.41	37.185
496.76	37.400
497.11	37.232
497.45	36.607
497.80	38.647
498.14	38.141
498.49	37.651
498.84	38.879
499.18	37.706
499.53	37.115
499.87	37.646
500.22	37.955
500.56	37.837
500.91	37.894
501.26	36.610
501.60	37.705
501.95	37.231
502.29	37.778
502.64	36.568
502.98	36.861
503.33	37.194
503.67	37.307
504.02	37.304
504.36	36.742
504.71	37.890
505.06	37.494
505.40	37.482
505.75	37.371
506.09	37.517
506.44	37.406
506.78	37.335
507.13	37.567
507.47	37.797
507.82	36.983
508.16	37.482
508.51	36.715
508.85	36.372
509.19	37.885
509.54	37.109
509.88	37.295
510.23	37.255
510.57	35.859
510.92	37.463
511.26	37.902
511.61	36.140
511.95	37.332
512.30	36.450
512.64	37.643
512.98	36.853
513.33	36.527
513.67	37.079
514.02	37.247
514.36	37.124
514.70	38.080
515.05	36.441
515.39	37.226
515.74	38.163
516.08	37.636
516.42	38.306
516.77	37.440
517.11	37.280
517.46	37.662
517.80	36.483
518.14	37.296
518.49	36.659
518.83	37.033
519.17	37.493
519.52	37.630
519.86	38.147
520.20	37.370
520.55	37.083
520.89	38.046
521.23	37.675
521.58	37.464
521.92	36.676
522.26	37.085
522.61	36.542
522.95	37.598
523.29	37.427
523.64	36.069
523.98	38.732
524.32	37.370
524.66	36.638
525.01	36.331
525.35	36.712
525.69	37.869
526.04	37.716
526.38	38.081
526.72	36.396
527.06	36.606
527.41	38.150
527.75	37.797
528.09	36.364
528.43	36.486
528.78	36.673
529.12	37.387
529.46	36.762
529.80	36.390
530.15	36.948
530.49	36.041
530.83	37.294
531.17	37.269
531.51	36.481
531.86	36.051
532.20	36.403
532.54	36.472
532.88	36.290
533.22	36.868
533.57	35.937
533.91	36.364
534.25	36.526
534.59	36.959
534.93	36.405
535.27	36.084
535.62	35.531
535.96	35.520
536.30	36.137
536.64	35.466
536.98	35.997
537.32	35.500
537.66	36.671
538.01	36.347
538.35	36.744
538.69	35.680
539.03	34.826
539.37	35.801
539.71	35.864
540.05	35.938
540.39	36.289
540.73	35.380
541.07	35.696
541.42	35.448
541.76	35.388
542.10	35.388
542.44	36.284
542.78	35.242
543.12	35.644
543.46	35.714
543.80	35.777
544.14	36.161
544.48	34.976
544.82	36.514
545.16	34.244
545.50	35.280
545.84	35.543
546.18	35.826
546.52	36.000
546.86	35.848
547.20	34.432
547.54	34.896
547.88	34.793
548.22	34.426
548.56	34.826
548.90	33.986
549.24	34.807
549.58	34.472
549.92	34.578
550.26	36.241
550.60	35.462
550.94	35.414
551.28	35.931
551.62	37.034
551.96	35.608
552.30	35.003
552.64	36.117
552.98	35.052
553.32	34.891
553.66	34.528
554.00	34.363
554.34	36.218
554.68	34.745
555.02	35.506
555.36	35.306
555.69	35.013
556.03	34.204
556.37	34.863
556.71	35.919
557.05	33.093
557.39	34.800
557.73	35.782
558.07	34.742
558.41	35.161
558.75	34.542
559.08	36.455
559.42	35.147
559.76	35.638
560.10	34.618
560.44	34.041
560.78	34.079
561.12	34.393
561.45	33.292
561.79	33.583
562.13	34.555
562.47	35.042
562.81	35.329
563.15	34.260
563.48	33.292
563.82	35.122
564.16	35.261
564.50	34.780
564.84	35.076
565.17	33.512
565.51	36.022
565.85	34.238
566.19	34.643
566.52	32.852
566.86	34.034
567.20	34.213
567.54	33.024
567.88	34.116
568.21	32.851
568.55	33.609
568.89	33.303
569.23	32.140
569.56	32.987
569.90	32.016
570.24	33.049
570.57	33.128
570.91	32.637
571.25	31.821
571.59	31.782
571.92	31.243
572.26	30.836
572.60	31.075
572.93	32.174
573.27	31.964
573.61	31.754
573.95	31.524
574.28	31.653
574.62	31.183
574.96	31.013
575.29	30.269
575.63	30.577
575.97	30.039
576.30	30.726
576.64	31.331
576.98	30.764
577.31	31.041
577.65	31.050
577.98	30.710
578.32	30.674
578.66	31.143
578.99	30.417
579.33	31.461
579.67	30.533
580.00	30.360
580.34	30.733
580.67	30.403
581.01	30.832
581.35	30.650
581.68	30.090
582.02	30.327
582.35	30.484
582.69	30.542
583.02	30.636
583.36	30.943
583.70	30.920
584.03	31.022
584.37	30.868
584.70	30.853
585.04	30.764
585.37	30.343
585.71	31.730
586.04	30.748
586.38	30.740
586.72	30.759
587.05	30.674
587.39	30.544
587.72	30.983
588.06	30.767
588.39	31.244
588.73	31.027
589.06	31.106
589.40	31.362
589.73	30.744
590.07	31.229
590.40	31.359
590.73	32.281
591.07	31.727
591.40	31.417
591.74	31.494
592.07	31.406
592.41	31.335
592.74	30.758
593.08	30.339
593.41	30.551
593.75	30.512
594.08	30.674
594.41	31.313
594.75	31.062
595.08	30.864
595.42	30.908
595.75	30.734
596.09	31.005
596.42	30.117
596.75	30.889
597.09	31.531
597.42	31.061
597.75	30.832
598.09	31.186
598.42	31.049
598.76	30.493
599.09	30.673
599.42	29.896
599.76	30.767
600.09	30.102
600.42	30.283
600.76	29.742
601.09	30.963
601.42	30.517
601.76	30.899
602.09	30.648
602.42	30.129
602.76	30.323
603.09	30.845
603.42	31.083
603.76	30.043
604.09	29.461
604.42	30.169
604.76	30.541
605.09	30.939
605.42	30.719
605.75	30.280
606.09	30.604
606.42	30.477
606.75	30.587
607.09	30.675
607.42	30.494
607.75	29.936
608.08	30.097
608.42	30.369
608.75	29.782
609.08	30.136
609.41	30.591
609.75	30.769
610.08	30.665
610.41	30.698
610.74	31.082
611.07	30.923
611.41	30.538
611.74	30.306
612.07	30.299
612.40	31.043
612.73	31.003
613.07	31.019
613.40	31.529
613.73	30.904
614.06	29.550
614.39	31.162
614.72	30.537
615.06	30.020
615.39	30.099
615.72	29.622
616.05	30.688
616.38	29.528
616.71	29.897
617.05	29.929
617.38	30.449
617.71	30.934
618.04	29.893
618.37	30.684
618.70	30.139
619.03	30.586
619.36	31.093
619.69	31.398
620.03	32.942
620.36	31.342
620.69	31.673
621.02	30.978
621.35	30.301
621.68	32.153
622.01	32.472
622.34	30.881
622.67	31.812
623.00	30.701
623.33	30.972
623.66	30.539
623.99	31.370
624.32	30.352
624.65	30.744
624.99	30.629
625.32	30.461
625.65	29.862
625.98	30.683
626.31	31.825
626.64	30.979
626.97	31.446
627.30	31.134
627.63	32.025
627.96	30.673
628.29	31.766
628.62	30.796
628.95	32.713
629.28	32.165
629.61	30.053
629.94	30.510
630.26	31.889
630.59	32.713
630.92	30.583
631.25	31.732
