SpectraSuite Data File
++++++++++++++++++++++++++++++++++++
Date: Tue May 12 17:04:11 PDT 2015
User: schluterlab
Dark Spectrum Present: Yes
Reference Spectrum Present: Yes
Number of Sampled Component Spectra: 1
Spectrometers: USB2E3373
Integration Time (usec): 3000 (USB2E3373)
Spectra Averaged: 3 (USB2E3373)
Boxcar Smoothing: 0 (USB2E3373)
Correct for Electrical Dark: No (USB2E3373)
Strobe/Lamp Enabled: No (USB2E3373)
Correct for Detector Non-linearity: No (USB2E3373)
Correct for Stray Light: No (USB2E3373)
Number of Pixels in Processed Spectrum: 2048
>>>>>Begin Processed Spectral Data<<<<<
178.53	0.000
178.91	-241.667
179.29	-675.000
179.67	-3800.000
180.04	-146.667
180.42	725.000
180.80	1600.000
181.18	0.000
181.56	-325.000
181.94	0.000
182.31	1266.667
182.69	-3100.000
183.07	728.571
183.45	-2900.000
183.83	-1100.000
184.20	360.000
184.58	542.857
184.96	-276.923
185.34	-100.000
185.72	1650.000
186.09	-875.000
186.47	-2600.000
186.85	966.667
187.23	680.000
187.61	2000.000
187.98	375.000
188.36	278.571
188.74	366.667
189.12	358.333
189.49	925.000
189.87	0.000
190.25	512.500
190.63	2900.000
191.00	-191.667
191.38	-3300.000
191.76	-750.000
192.14	612.500
192.51	-2200.000
192.89	1750.000
193.27	1233.333
193.65	-1233.333
194.02	-720.000
194.40	628.571
194.78	-185.714
195.15	286.667
195.53	-3100.000
195.91	-680.000
196.29	4200.000
196.66	212.500
197.04	875.000
197.42	-1700.000
197.79	725.000
198.17	400.000
198.55	0.000
198.92	428.571
199.30	1033.333
199.68	1750.000
200.05	650.000
200.43	-533.333
200.81	216.667
201.18	3500.000
201.56	250.000
201.94	-625.000
202.31	-437.500
202.69	-500.000
203.07	3700.000
203.44	-500.000
203.82	316.667
204.19	780.000
204.57	-1200.000
204.95	-675.000
205.32	-740.000
205.70	600.000
206.08	850.000
206.45	-966.667
206.83	444.444
207.20	184.211
207.58	308.333
207.96	700.000
208.33	0.000
208.71	514.286
209.08	740.000
209.46	-3200.000
209.84	-875.000
210.21	900.000
210.59	-640.000
210.96	241.667
211.34	-950.000
211.71	409.091
212.09	1100.000
212.46	1750.000
212.84	-383.333
213.22	477.778
213.59	-2000.000
213.97	350.000
214.34	950.000
214.72	1500.000
215.09	1300.000
215.47	-3100.000
215.84	-340.000
216.22	-275.000
216.59	0.000
216.97	0.000
217.34	1250.000
217.72	-1550.000
218.09	1000.000
218.47	350.000
218.84	925.000
219.22	1366.667
219.59	1000.000
219.97	414.286
220.34	366.667
220.72	1600.000
221.09	3800.000
221.47	258.333
221.84	1100.000
222.22	380.000
222.59	277.778
222.97	207.143
223.34	325.000
223.72	-1050.000
224.09	1366.667
224.46	315.385
224.84	-1050.000
225.21	433.333
225.59	260.000
225.96	1366.667
226.34	-820.000
226.71	-775.000
227.08	-580.000
227.46	0.000
227.83	-550.000
228.21	-1700.000
228.58	400.000
228.95	1000.000
229.33	333.333
229.70	900.000
230.08	346.154
230.45	3700.000
230.82	-925.000
231.20	-1000.000
231.57	-900.000
231.95	700.000
232.32	216.667
232.69	483.333
233.07	283.333
233.44	-1650.000
233.81	266.667
234.19	148.148
234.56	268.750
234.93	229.412
235.31	180.000
235.68	293.750
236.05	196.429
236.43	159.259
236.80	235.714
237.17	196.552
237.55	112.500
237.92	125.000
238.29	154.545
238.67	140.625
239.04	109.756
239.41	108.333
239.79	105.000
240.16	87.500
240.53	83.607
240.91	86.957
241.28	86.441
241.65	74.242
242.02	76.056
242.40	85.714
242.77	71.429
243.14	70.886
243.51	72.727
243.89	68.224
244.26	49.533
244.63	58.416
245.00	55.046
245.38	43.220
245.75	55.303
246.12	60.000
246.49	53.901
246.87	50.000
247.24	46.000
247.61	53.125
247.98	53.061
248.36	45.455
248.73	51.020
249.10	39.286
249.47	44.000
249.84	48.756
250.22	47.568
250.59	43.500
250.96	42.616
251.33	39.535
251.70	45.536
252.08	40.756
252.45	35.458
252.82	37.643
253.19	38.735
253.56	38.462
253.94	42.754
254.31	37.209
254.68	38.676
255.05	41.724
255.42	39.051
255.79	40.065
256.16	36.949
256.54	39.610
256.91	37.582
257.28	36.120
257.65	33.229
258.02	35.398
258.39	37.249
258.76	38.551
259.14	34.286
259.51	35.569
259.88	37.690
260.25	35.165
260.62	33.425
260.99	34.986
261.36	32.312
261.73	32.447
262.10	35.340
262.47	34.000
262.85	34.133
263.22	35.476
263.59	34.015
263.96	30.827
264.33	33.333
264.70	35.872
265.07	33.659
265.44	33.257
265.81	35.377
266.18	33.181
266.55	35.934
266.92	33.781
267.29	34.868
267.66	32.960
268.03	31.390
268.40	33.827
268.77	34.141
269.14	29.935
269.51	34.298
269.88	33.673
270.25	30.454
270.62	33.476
270.99	34.077
271.36	32.724
271.73	31.027
272.10	29.293
272.47	30.159
272.84	29.341
273.21	33.264
273.58	33.401
273.95	31.828
274.32	32.490
274.69	33.268
275.06	33.698
275.43	31.226
275.80	31.509
276.17	32.537
276.54	32.336
276.91	35.634
277.28	30.474
277.65	31.734
278.02	29.412
278.39	31.295
278.76	32.586
279.13	31.495
279.50	30.545
279.87	29.236
280.23	29.466
280.60	31.204
280.97	28.793
281.34	28.548
281.71	29.043
282.08	30.940
282.45	31.081
282.82	28.763
283.19	30.843
283.56	31.736
283.92	30.130
284.29	28.619
284.66	29.748
285.03	29.851
285.40	29.256
285.77	29.630
286.14	30.031
286.51	28.834
286.87	28.323
287.24	28.529
287.61	28.116
287.98	26.716
288.35	29.185
288.72	27.011
289.08	27.778
289.45	28.049
289.82	28.438
290.19	26.208
290.56	29.403
290.93	28.345
291.29	27.762
291.66	27.542
292.03	28.331
292.40	25.610
292.77	27.019
293.13	27.675
293.50	25.236
293.87	24.526
294.24	25.874
294.60	26.918
294.97	27.413
295.34	26.959
295.71	23.653
296.08	25.867
296.44	26.557
296.81	23.697
297.18	25.222
297.55	25.862
297.91	24.015
298.28	25.604
298.65	24.908
299.02	25.452
299.38	25.300
299.75	25.732
300.12	24.541
300.48	25.644
300.85	25.626
301.22	24.535
301.59	23.585
301.95	24.037
302.32	24.913
302.69	25.566
303.05	26.263
303.42	23.318
303.79	24.919
304.15	25.083
304.52	26.744
304.89	25.160
305.25	25.695
305.62	25.480
305.99	24.674
306.35	24.842
306.72	25.494
307.09	25.569
307.45	25.238
307.82	26.132
308.19	27.423
308.55	26.100
308.92	27.282
309.29	26.233
309.65	26.660
310.02	26.471
310.38	25.922
310.75	27.387
311.12	26.916
311.48	27.896
311.85	28.531
312.22	29.226
312.58	26.336
312.95	30.000
313.31	29.682
313.68	27.580
314.05	29.487
314.41	29.702
314.78	31.061
315.14	30.427
315.51	31.977
315.87	31.387
316.24	32.400
316.61	30.976
316.97	31.376
317.34	32.794
317.70	32.572
318.07	34.164
318.43	34.007
318.80	35.201
319.16	34.353
319.53	34.867
319.89	34.498
320.26	36.592
320.62	36.538
320.99	36.130
321.35	36.364
321.72	37.666
322.08	39.705
322.45	38.601
322.81	38.609
323.18	40.231
323.54	40.941
323.91	42.067
324.27	41.468
324.64	40.311
325.00	43.707
325.37	41.821
325.73	42.664
326.10	43.828
326.46	44.674
326.83	43.120
327.19	44.578
327.56	45.367
327.92	45.574
328.29	46.154
328.65	47.003
329.01	45.252
329.38	47.377
329.74	44.919
330.11	45.699
330.47	47.826
330.84	46.247
331.20	47.124
331.56	48.618
331.93	48.161
332.29	46.684
332.66	48.980
333.02	47.079
333.38	48.778
333.75	47.039
334.11	46.644
334.48	47.949
334.84	46.199
335.20	49.016
335.57	47.439
335.93	48.360
336.29	48.425
336.66	50.600
337.02	47.476
337.38	48.839
337.75	49.578
338.11	48.270
338.47	47.502
338.84	47.756
339.20	47.706
339.56	46.846
339.93	48.746
340.29	48.487
340.65	48.785
341.02	48.673
341.38	48.112
341.74	48.754
342.11	48.664
342.47	49.139
342.83	49.139
343.20	48.019
343.56	46.942
343.92	48.472
344.28	49.043
344.65	49.796
345.01	47.857
345.37	47.596
345.73	48.016
346.10	47.968
346.46	49.123
346.82	48.765
347.19	48.764
347.55	46.995
347.91	48.489
348.27	48.180
348.63	48.259
349.00	48.591
349.36	49.805
349.72	50.535
350.08	48.680
350.45	49.886
350.81	50.153
351.17	49.307
351.53	50.038
351.89	50.194
352.26	48.148
352.62	49.321
352.98	49.847
353.34	49.307
353.70	49.618
354.07	49.385
354.43	50.077
354.79	48.975
355.15	50.766
355.51	49.396
355.87	50.452
356.24	49.885
356.60	49.315
356.96	49.962
357.32	50.038
357.68	50.220
358.04	50.912
358.40	50.600
358.77	51.991
359.13	49.850
359.49	50.111
359.85	51.452
360.21	49.851
360.57	50.146
360.93	51.732
361.29	51.443
361.66	51.678
362.02	50.639
362.38	51.659
362.74	52.371
363.10	51.262
363.46	51.174
363.82	52.735
364.18	52.063
364.54	52.217
364.90	52.410
365.26	52.255
365.62	53.384
365.98	51.824
366.35	52.414
366.71	52.394
367.07	52.423
367.43	51.713
367.79	51.529
368.15	50.611
368.51	53.343
368.87	53.057
369.23	52.391
369.59	53.877
369.95	53.566
370.31	53.251
370.67	53.366
371.03	52.381
371.39	55.332
371.75	53.733
372.11	53.773
372.47	54.041
372.83	54.521
373.19	53.941
373.55	53.402
373.91	52.417
374.27	53.042
374.63	54.644
374.99	54.380
375.35	55.309
375.71	55.211
376.07	54.377
376.42	53.133
376.78	54.785
377.14	54.128
377.50	53.683
377.86	55.157
378.22	55.088
378.58	55.872
378.94	56.065
379.30	55.670
379.66	55.810
380.02	56.833
380.38	54.450
380.74	55.825
381.09	55.374
381.45	54.566
381.81	55.437
382.17	55.433
382.53	54.889
382.89	55.825
383.25	55.654
383.61	54.928
383.97	55.009
384.32	56.118
384.68	56.684
385.04	56.038
385.40	57.888
385.76	56.173
386.12	55.535
386.48	56.778
386.83	56.846
387.19	55.948
387.55	56.832
387.91	56.351
388.27	55.919
388.62	56.573
388.98	57.493
389.34	54.789
389.70	56.427
390.06	57.134
390.42	56.693
390.77	56.757
391.13	57.333
391.49	56.866
391.85	57.046
392.20	57.032
392.56	56.691
392.92	55.643
393.28	57.063
393.64	55.619
393.99	56.491
394.35	56.622
394.71	56.936
395.07	56.326
395.42	56.909
395.78	57.557
396.14	57.229
396.50	57.521
396.85	57.561
397.21	58.123
397.57	57.860
397.92	56.788
398.28	56.536
398.64	57.708
399.00	55.692
399.35	55.985
399.71	56.236
400.07	56.792
400.42	56.716
400.78	56.774
401.14	56.254
401.49	56.624
401.85	55.272
402.21	56.532
402.57	56.673
402.92	56.424
403.28	55.072
403.63	55.798
403.99	55.850
404.35	56.448
404.70	57.118
405.06	55.250
405.42	55.835
405.77	55.237
406.13	54.447
406.49	54.974
406.84	55.104
407.20	55.365
407.55	55.692
407.91	56.414
408.27	57.126
408.62	55.411
408.98	55.588
409.34	55.523
409.69	56.378
410.05	55.456
410.40	54.594
410.76	53.291
411.11	55.273
411.47	55.123
411.83	55.302
412.18	54.529
412.54	54.955
412.89	55.162
413.25	55.758
413.60	55.491
413.96	54.817
414.31	55.018
414.67	55.680
415.03	54.278
415.38	55.079
415.74	56.033
416.09	55.340
416.45	56.173
416.80	55.613
417.16	54.551
417.51	55.541
417.87	54.881
418.22	54.739
418.58	56.688
418.93	55.205
419.29	54.529
419.64	54.512
420.00	55.310
420.35	55.285
420.71	55.076
421.06	55.032
421.42	55.325
421.77	55.636
422.12	55.127
422.48	53.826
422.83	55.971
423.19	54.590
423.54	55.403
423.90	55.663
424.25	55.476
424.61	53.918
424.96	54.941
425.31	54.625
425.67	56.510
426.02	54.964
426.38	54.609
426.73	57.027
427.09	56.346
427.44	55.768
427.79	56.204
428.15	57.631
428.50	55.429
428.85	55.908
429.21	54.511
429.56	54.387
429.92	55.246
430.27	55.007
430.62	53.793
430.98	55.289
431.33	55.091
431.68	53.432
432.04	53.544
432.39	55.379
432.74	55.913
433.10	55.703
433.45	56.002
433.80	56.757
434.16	56.122
434.51	56.140
434.86	55.797
435.22	55.970
435.57	56.728
435.92	57.598
436.28	56.336
436.63	54.673
436.98	56.363
437.34	56.221
437.69	56.103
438.04	55.968
438.39	56.334
438.75	56.626
439.10	55.909
439.45	56.586
439.81	56.796
440.16	56.302
440.51	56.700
440.86	56.296
441.22	55.628
441.57	55.801
441.92	55.281
442.27	56.495
442.63	55.691
442.98	55.388
443.33	55.437
443.68	56.288
444.03	55.184
444.39	56.309
444.74	56.263
445.09	56.451
445.44	55.473
445.79	56.628
446.15	57.526
446.50	56.751
446.85	55.827
447.20	55.721
447.55	57.368
447.91	57.059
448.26	56.283
448.61	56.716
448.96	56.536
449.31	56.656
449.66	57.254
450.02	56.564
450.37	56.857
450.72	56.584
451.07	56.370
451.42	55.898
451.77	57.102
452.12	57.572
452.47	56.501
452.83	58.085
453.18	56.697
453.53	56.069
453.88	57.486
454.23	56.537
454.58	55.944
454.93	56.223
455.28	57.405
455.63	58.038
455.98	56.232
456.34	58.480
456.69	56.220
457.04	55.549
457.39	56.457
457.74	57.376
458.09	56.261
458.44	55.476
458.79	56.233
459.14	56.519
459.49	56.002
459.84	56.848
460.19	56.497
460.54	56.638
460.89	56.716
461.24	55.613
461.59	56.746
461.94	55.733
462.29	55.664
462.64	57.852
462.99	57.198
463.34	56.513
463.69	56.201
464.04	56.419
464.39	56.153
464.74	54.924
465.09	56.587
465.44	55.495
465.79	54.927
466.14	54.425
466.49	56.864
466.84	55.351
467.19	55.653
467.54	55.676
467.89	55.164
468.24	56.340
468.59	55.774
468.94	56.643
469.29	55.528
469.64	55.563
469.99	55.656
470.34	55.851
470.68	56.759
471.03	55.771
471.38	56.291
471.73	55.715
472.08	57.012
472.43	56.983
472.78	56.146
473.13	55.507
473.48	57.824
473.83	55.830
474.17	56.049
474.52	54.976
474.87	55.031
475.22	56.025
475.57	55.194
475.92	54.522
476.27	54.842
476.61	54.692
476.96	55.590
477.31	55.835
477.66	55.448
478.01	55.080
478.36	54.583
478.70	53.697
479.05	55.335
479.40	53.571
479.75	54.369
480.10	54.937
480.45	54.388
480.79	53.825
481.14	54.018
481.49	53.431
481.84	53.254
482.19	53.537
482.53	53.931
482.88	54.077
483.23	54.443
483.58	54.758
483.92	54.753
484.27	53.339
484.62	54.032
484.97	53.409
485.31	52.633
485.66	51.107
486.01	50.484
486.36	50.148
486.70	49.597
487.05	50.619
487.40	50.855
487.75	51.686
488.09	51.591
488.44	52.040
488.79	52.447
489.13	51.362
489.48	52.217
489.83	51.960
490.17	51.569
490.52	52.972
490.87	52.629
491.22	53.590
491.56	52.569
491.91	52.599
492.26	52.695
492.60	53.303
492.95	53.512
493.30	52.502
493.64	53.863
493.99	52.907
494.34	52.712
494.68	51.749
495.03	52.896
495.37	53.760
495.72	52.960
496.07	53.369
496.41	52.650
496.76	52.047
497.11	52.528
497.45	51.644
497.80	52.919
498.14	52.982
498.49	51.811
498.84	52.804
499.18	51.600
499.53	52.641
499.87	52.066
500.22	52.649
500.56	52.786
500.91	52.365
501.26	52.320
501.60	51.412
501.95	52.061
502.29	52.133
502.64	50.948
502.98	51.134
503.33	50.913
503.67	51.832
504.02	51.545
504.36	51.538
504.71	52.886
505.06	51.244
505.40	51.708
505.75	50.889
506.09	51.703
506.44	51.551
506.78	52.552
507.13	52.206
507.47	52.159
507.82	52.506
508.16	52.523
508.51	52.077
508.85	51.187
509.19	52.080
509.54	51.611
509.88	52.859
510.23	51.863
510.57	50.579
510.92	51.648
511.26	51.958
511.61	51.108
511.95	51.020
512.30	52.100
512.64	51.973
512.98	51.922
513.33	52.766
513.67	51.994
514.02	51.169
514.36	51.973
514.70	51.787
515.05	51.838
515.39	52.083
515.74	53.198
516.08	53.105
516.42	53.770
516.77	52.213
517.11	53.120
517.46	51.455
517.80	52.649
518.14	51.775
518.49	51.544
518.83	50.989
519.17	52.302
519.52	52.267
519.86	52.153
520.20	52.055
520.55	52.063
520.89	52.184
521.23	53.329
521.58	51.004
521.92	52.245
522.26	52.666
522.61	52.941
522.95	51.832
523.29	52.398
523.64	52.543
523.98	51.819
524.32	52.076
524.66	50.957
525.01	51.834
525.35	51.562
525.69	53.101
526.04	52.112
526.38	51.207
526.72	52.506
527.06	50.562
527.41	53.083
527.75	51.491
528.09	51.174
528.43	52.471
528.78	51.819
529.12	53.341
529.46	51.140
529.80	51.051
530.15	51.679
530.49	50.602
530.83	50.701
531.17	50.861
531.51	50.092
531.86	50.543
532.20	50.742
532.54	51.664
532.88	51.593
533.22	51.798
533.57	51.068
533.91	49.709
534.25	49.394
534.59	51.287
534.93	49.602
535.27	48.378
535.62	48.483
535.96	48.877
536.30	51.432
536.64	50.994
536.98	49.843
537.32	50.125
537.66	49.298
538.01	49.721
538.35	49.844
538.69	50.121
539.03	49.067
539.37	49.090
539.71	49.444
540.05	49.908
540.39	49.434
540.73	50.063
541.07	49.561
541.42	50.187
541.76	50.185
542.10	48.335
542.44	48.815
542.78	48.521
543.12	48.344
543.46	48.622
543.80	49.561
544.14	48.916
544.48	49.088
544.82	48.685
545.16	48.087
545.50	49.416
545.84	49.558
546.18	49.090
546.52	49.836
546.86	48.743
547.20	49.289
547.54	48.575
547.88	46.776
548.22	48.695
548.56	47.555
548.90	47.390
549.24	48.263
549.58	47.874
549.92	48.527
550.26	49.358
550.60	47.771
550.94	49.729
551.28	48.621
551.62	50.897
551.96	47.838
552.30	46.869
552.64	49.191
552.98	46.778
553.32	46.671
553.66	47.492
554.00	46.654
554.34	47.936
554.68	48.051
555.02	48.540
555.36	47.939
555.69	47.644
556.03	47.580
556.37	47.929
556.71	47.523
557.05	46.723
557.39	47.400
557.73	48.046
558.07	48.089
558.41	48.252
558.75	46.990
559.08	49.178
559.42	49.821
559.76	47.897
560.10	46.662
560.44	46.184
560.78	47.762
561.12	47.235
561.45	46.308
561.79	46.879
562.13	46.999
562.47	46.334
562.81	47.885
563.15	47.253
563.48	45.466
563.82	47.785
564.16	47.699
564.50	45.087
564.84	45.167
565.17	46.821
565.51	47.475
565.85	48.612
566.19	45.179
566.52	46.691
566.86	45.476
567.20	46.011
567.54	46.015
567.88	45.801
568.21	43.884
568.55	44.261
568.89	44.161
569.23	43.529
569.56	44.010
569.90	42.580
570.24	42.419
570.57	42.148
570.91	40.967
571.25	41.489
571.59	40.863
571.92	40.231
572.26	40.270
572.60	40.850
572.93	40.569
573.27	40.810
573.61	40.958
573.95	40.563
574.28	39.699
574.62	39.916
574.96	39.873
575.29	39.280
575.63	39.176
575.97	39.484
576.30	39.509
576.64	39.917
576.98	39.912
577.31	40.336
577.65	39.067
577.98	39.330
578.32	38.540
578.66	39.094
578.99	39.291
579.33	40.009
579.67	39.072
580.00	38.730
580.34	38.869
580.67	38.949
581.01	39.522
581.35	38.819
581.68	38.137
582.02	38.496
582.35	38.598
582.69	38.656
583.02	38.595
583.36	39.443
583.70	39.428
584.03	40.418
584.37	39.727
584.70	38.343
585.04	38.449
585.37	38.661
585.71	39.461
586.04	39.136
586.38	39.071
586.72	39.768
587.05	39.758
587.39	39.343
587.72	39.424
588.06	38.714
588.39	39.023
588.73	39.689
589.06	39.772
589.40	40.501
589.73	40.085
590.07	40.220
590.40	40.035
590.73	41.388
591.07	40.873
591.40	40.559
591.74	40.666
592.07	40.932
592.41	40.288
592.74	39.436
593.08	39.030
593.41	38.570
593.75	38.858
594.08	39.236
594.41	39.720
594.75	40.000
595.08	39.918
595.42	39.335
595.75	38.993
596.09	39.173
596.42	39.621
596.75	41.226
597.09	40.570
597.42	39.469
597.75	39.878
598.09	39.967
598.42	39.494
598.76	39.090
599.09	39.389
599.42	38.720
599.76	39.111
600.09	37.797
600.42	38.778
600.76	38.987
601.09	38.695
601.42	38.930
601.76	38.668
602.09	39.882
602.42	38.706
602.76	39.507
603.09	40.008
603.42	38.899
603.76	39.732
604.09	38.907
604.42	39.699
604.76	39.036
605.09	40.327
605.42	38.887
605.75	39.124
606.09	38.332
606.42	38.820
606.75	39.098
607.09	38.531
607.42	38.690
607.75	39.092
608.08	39.115
608.42	39.052
608.75	39.709
609.08	38.891
609.41	39.045
609.75	39.927
610.08	39.838
610.41	39.833
610.74	39.394
611.07	39.745
611.41	39.898
611.74	39.245
612.07	38.969
612.40	39.620
612.73	39.641
613.07	39.888
613.40	40.602
613.73	40.290
614.06	39.450
614.39	40.202
614.72	39.729
615.06	38.823
615.39	39.257
615.72	38.722
616.05	39.377
616.38	38.914
616.71	39.664
617.05	40.088
617.38	39.719
617.71	40.101
618.04	39.877
618.37	39.633
618.70	39.145
619.03	40.110
619.36	40.264
619.69	41.095
620.03	40.965
620.36	39.563
620.69	40.932
621.02	41.236
621.35	41.046
621.68	42.183
622.01	42.140
622.34	41.151
622.67	42.978
623.00	40.027
623.33	40.418
623.66	40.319
623.99	41.370
624.32	41.192
624.65	40.158
624.99	40.974
625.32	40.681
625.65	40.345
625.98	40.167
626.31	42.582
626.64	40.850
626.97	41.239
627.30	42.003
627.63	42.308
627.96	41.628
628.29	42.079
628.62	41.232
628.95	44.770
629.28	45.574
629.61	42.794
629.94	42.697
630.26	42.461
630.59	42.199
630.92	42.601
631.25	42.339
