SpectraSuite Data File
++++++++++++++++++++++++++++++++++++
Date: Tue May 12 17:18:58 PDT 2015
User: schluterlab
Dark Spectrum Present: Yes
Reference Spectrum Present: Yes
Number of Sampled Component Spectra: 1
Spectrometers: USB2E3373
Integration Time (usec): 3000 (USB2E3373)
Spectra Averaged: 3 (USB2E3373)
Boxcar Smoothing: 0 (USB2E3373)
Correct for Electrical Dark: No (USB2E3373)
Strobe/Lamp Enabled: No (USB2E3373)
Correct for Detector Non-linearity: No (USB2E3373)
Correct for Stray Light: No (USB2E3373)
Number of Pixels in Processed Spectrum: 2048
>>>>>Begin Processed Spectral Data<<<<<
178.53	0.000
178.91	-241.667
179.29	-525.000
179.67	-3900.000
180.04	-113.333
180.42	700.000
180.80	1450.000
181.18	0.000
181.56	-325.000
181.94	0.000
182.31	1000.000
182.69	-3100.000
183.07	571.429
183.45	-3300.000
183.83	-1950.000
184.20	340.000
184.58	500.000
184.96	-284.615
185.34	-225.000
185.72	1650.000
186.09	-600.000
186.47	-3500.000
186.85	1100.000
187.23	660.000
187.61	1550.000
187.98	512.500
188.36	228.571
188.74	291.667
189.12	333.333
189.49	950.000
189.87	0.000
190.25	537.500
190.63	2300.000
191.00	-200.000
191.38	-3400.000
191.76	-800.000
192.14	637.500
192.51	-3100.000
192.89	1450.000
193.27	900.000
193.65	-1066.667
194.02	-740.000
194.40	585.714
194.78	-207.143
195.15	313.333
195.53	-2800.000
195.91	-480.000
196.29	3700.000
196.66	275.000
197.04	725.000
197.42	-1300.000
197.79	450.000
198.17	316.667
198.55	0.000
198.92	385.714
199.30	1433.333
199.68	2250.000
200.05	616.667
200.43	-433.333
200.81	177.778
201.18	3000.000
201.56	291.667
201.94	-825.000
202.31	-237.500
202.69	-460.000
203.07	3300.000
203.44	-633.333
203.82	350.000
204.19	800.000
204.57	-1250.000
204.95	-675.000
205.32	-720.000
205.70	716.667
206.08	700.000
206.45	-800.000
206.83	511.111
207.20	200.000
207.58	241.667
207.96	780.000
208.33	0.000
208.71	585.714
209.08	700.000
209.46	-3600.000
209.84	-625.000
210.21	800.000
210.59	-400.000
210.96	266.667
211.34	-875.000
211.71	418.182
212.09	825.000
212.46	1600.000
212.84	-266.667
213.22	388.889
213.59	-2500.000
213.97	320.000
214.34	825.000
214.72	1066.667
215.09	733.333
215.47	-2600.000
215.84	-310.000
216.22	-275.000
216.59	0.000
216.97	0.000
217.34	1300.000
217.72	-1450.000
218.09	933.333
218.47	525.000
218.84	800.000
219.22	1300.000
219.59	866.667
219.97	657.143
220.34	311.111
220.72	1500.000
221.09	3500.000
221.47	250.000
221.84	866.667
222.22	330.000
222.59	222.222
222.97	192.857
223.34	181.250
223.72	-1500.000
224.09	1166.667
224.46	246.154
224.84	-925.000
225.21	333.333
225.59	233.333
225.96	933.333
226.34	-680.000
226.71	-775.000
227.08	-520.000
227.46	0.000
227.83	-450.000
228.21	-1600.000
228.58	425.000
228.95	1100.000
229.33	311.111
229.70	1125.000
230.08	346.154
230.45	3500.000
230.82	-525.000
231.20	-1100.000
231.57	-1066.667
231.95	620.000
232.32	366.667
232.69	533.333
233.07	383.333
233.44	-1900.000
233.81	240.000
234.19	140.741
234.56	237.500
234.93	194.118
235.31	220.000
235.68	193.750
236.05	160.714
236.43	133.333
236.80	235.714
237.17	165.517
237.55	103.125
237.92	110.000
238.29	130.303
238.67	118.750
239.04	117.073
239.41	58.333
239.79	92.500
240.16	72.917
240.53	49.180
240.91	68.116
241.28	77.966
241.65	42.424
242.02	66.197
242.40	47.143
242.77	46.154
243.14	54.430
243.51	56.566
243.89	46.729
244.26	41.121
244.63	46.535
245.00	40.367
245.38	35.593
245.75	37.879
246.12	34.815
246.49	31.915
246.87	26.230
247.24	34.667
247.61	36.875
247.98	37.415
248.36	26.667
248.73	31.633
249.10	26.786
249.47	27.000
249.84	26.866
250.22	28.649
250.59	25.000
250.96	21.519
251.33	24.651
251.70	23.214
252.08	23.109
252.45	19.522
252.82	19.392
253.19	22.530
253.56	18.846
253.94	21.014
254.31	25.969
254.68	24.390
255.05	23.793
255.42	17.883
255.79	22.801
256.16	20.678
256.54	25.000
256.91	17.320
257.28	22.408
257.65	17.868
258.02	20.354
258.39	22.636
258.76	22.609
259.14	18.000
259.51	20.991
259.88	21.884
260.25	18.132
260.62	20.000
260.99	16.804
261.36	19.499
261.73	21.277
262.10	18.063
262.47	20.000
262.85	17.600
263.22	19.537
263.59	17.391
263.96	20.802
264.33	17.284
264.70	19.410
265.07	17.561
265.44	19.037
265.81	17.689
266.18	17.849
266.55	17.494
266.92	16.555
267.29	15.789
267.66	16.592
268.03	16.143
268.40	17.759
268.77	20.264
269.14	15.184
269.51	15.813
269.88	17.143
270.25	16.847
270.62	15.880
270.99	20.081
271.36	18.699
271.73	16.562
272.10	16.364
272.47	16.865
272.84	16.168
273.21	15.702
273.58	14.980
273.95	16.222
274.32	18.482
274.69	16.929
275.06	16.758
275.43	15.900
275.80	14.151
276.17	17.279
276.54	17.009
276.91	17.164
277.28	16.423
277.65	15.867
278.02	17.096
278.39	15.468
278.76	16.724
279.13	14.235
279.50	15.818
279.87	15.084
280.23	14.365
280.60	16.058
280.97	15.862
281.34	15.017
281.71	16.174
282.08	15.726
282.45	15.203
282.82	13.712
283.19	15.898
283.56	14.215
283.92	14.007
284.29	14.309
284.66	15.798
285.03	15.257
285.40	14.711
285.77	14.198
286.14	15.944
286.51	15.337
286.87	13.133
287.24	12.162
287.61	14.438
287.98	14.030
288.35	13.926
288.72	14.264
289.08	15.015
289.45	14.634
289.82	16.250
290.19	14.934
290.56	15.721
290.93	13.669
291.29	14.641
291.66	12.712
292.03	13.464
292.40	14.770
292.77	13.510
293.13	14.836
293.50	13.900
293.87	12.737
294.24	13.147
294.60	15.343
294.97	14.266
295.34	14.741
295.71	13.666
296.08	15.200
296.44	14.612
296.81	13.524
297.18	12.928
297.55	13.916
297.91	12.069
298.28	15.097
298.65	14.110
299.02	14.958
299.38	14.508
299.75	13.780
300.12	14.106
300.48	14.637
300.85	13.826
301.22	13.488
301.59	12.382
301.95	14.119
302.32	15.134
302.69	14.819
303.05	15.937
303.42	13.901
303.79	15.493
304.15	14.081
304.52	13.002
304.89	13.646
305.25	15.795
305.62	14.392
305.99	14.891
306.35	14.316
306.72	14.776
307.09	14.389
307.45	14.150
307.82	15.535
308.19	15.670
308.55	14.900
308.92	16.585
309.29	16.765
309.65	16.452
310.02	15.213
310.38	16.550
310.75	16.297
311.12	14.943
311.48	18.436
311.85	16.603
312.22	18.052
312.58	17.298
312.95	17.864
313.31	19.007
313.68	18.105
314.05	20.238
314.41	18.063
314.78	20.076
315.14	18.957
315.51	19.868
315.87	19.799
316.24	20.448
316.61	20.143
316.97	19.817
317.34	20.305
317.70	22.212
318.07	21.975
318.43	22.320
318.80	21.454
319.16	22.378
319.53	22.566
319.89	22.133
320.26	24.209
320.62	23.810
320.99	24.309
321.35	24.768
321.72	25.047
322.08	25.762
322.45	27.157
322.81	24.337
323.18	27.176
323.54	27.526
323.91	27.743
324.27	27.851
324.64	27.595
325.00	28.103
325.37	28.583
325.73	29.342
326.10	29.909
326.46	31.709
326.83	30.080
327.19	31.325
327.56	31.070
327.92	32.459
328.29	32.160
328.65	32.192
329.01	31.651
329.38	32.318
329.74	32.024
330.11	33.710
330.47	33.078
330.84	32.701
331.20	33.164
331.56	35.060
331.93	34.474
332.29	32.908
332.66	34.694
333.02	33.677
333.38	35.689
333.75	35.113
334.11	34.228
334.48	34.359
334.84	34.713
335.20	34.902
335.57	34.089
335.93	34.735
336.29	33.333
336.66	36.192
337.02	34.388
337.38	33.792
337.75	34.544
338.11	35.190
338.47	33.192
338.84	34.547
339.20	33.680
339.56	34.735
339.93	33.863
340.29	33.025
340.65	34.702
341.02	35.640
341.38	34.565
341.74	35.631
342.11	33.973
342.47	34.290
342.83	34.947
343.20	34.923
343.56	33.042
343.92	34.600
344.28	35.486
344.65	34.637
345.01	33.730
345.37	33.814
345.73	34.921
346.10	34.582
346.46	35.088
346.82	32.562
347.19	35.162
347.55	33.177
347.91	34.517
348.27	32.765
348.63	33.386
349.00	33.511
349.36	35.019
349.72	35.703
350.08	35.171
350.45	33.968
350.81	34.786
351.17	33.282
351.53	33.410
351.89	33.489
352.26	34.543
352.62	34.540
352.98	34.202
353.34	35.131
353.70	33.257
354.07	33.923
354.43	33.871
354.79	33.485
355.15	35.375
355.51	33.535
355.87	33.886
356.24	33.872
356.60	33.714
356.96	33.813
357.32	33.233
357.68	34.435
358.04	33.967
358.40	34.183
358.77	34.560
359.13	33.258
359.49	33.136
359.85	35.666
360.21	33.135
360.57	33.577
360.93	33.405
361.29	34.343
361.66	35.720
362.02	33.452
362.38	33.333
362.74	34.678
363.10	34.853
363.46	32.390
363.82	34.011
364.18	34.353
364.54	33.977
364.90	34.538
365.26	34.629
365.62	32.873
365.98	33.655
366.35	33.517
366.71	34.004
367.07	33.447
367.43	33.714
367.79	33.311
368.15	31.818
368.51	33.012
368.87	32.948
369.23	33.541
369.59	32.974
369.95	33.497
370.31	34.086
370.67	33.449
371.03	34.244
371.39	33.172
371.75	33.147
372.11	33.583
372.47	34.110
372.83	32.291
373.19	33.173
373.55	32.990
373.91	31.423
374.27	32.209
374.63	33.356
374.99	33.760
375.35	33.468
375.71	32.850
376.07	33.289
376.42	32.353
376.78	33.012
377.14	33.159
377.50	32.085
377.86	32.543
378.22	32.480
378.58	33.475
378.94	32.348
379.30	32.444
379.66	32.812
380.02	33.607
380.38	32.026
380.74	33.852
381.09	32.009
381.45	31.618
381.81	31.738
382.17	31.929
382.53	32.094
382.89	32.643
383.25	32.031
383.61	32.104
383.97	32.394
384.32	32.248
384.68	31.907
385.04	31.829
385.40	31.791
385.76	31.305
386.12	32.468
386.48	32.401
386.83	32.213
387.19	32.038
387.55	32.273
387.91	32.506
388.27	31.945
388.62	31.045
388.98	31.429
389.34	30.518
389.70	31.899
390.06	31.220
390.42	31.709
390.77	31.634
391.13	31.141
391.49	31.397
391.85	32.615
392.20	31.347
392.56	31.601
392.92	31.106
393.28	30.101
393.64	30.562
393.99	30.824
394.35	30.018
394.71	30.097
395.07	31.326
395.42	31.674
395.78	31.956
396.14	32.229
396.50	30.927
396.85	31.402
397.21	31.288
397.57	30.723
397.92	29.232
398.28	30.061
398.64	31.297
399.00	29.610
399.35	29.522
399.71	30.574
400.07	29.737
400.42	30.209
400.78	30.674
401.14	31.004
401.49	29.493
401.85	30.475
402.21	29.408
402.57	29.683
402.92	29.879
403.28	29.654
403.63	30.077
403.99	30.579
404.35	29.777
404.70	30.242
405.06	29.141
405.42	29.922
405.77	29.493
406.13	29.284
406.49	28.596
406.84	29.047
407.20	29.737
407.55	29.846
407.91	30.057
408.27	29.412
408.62	29.805
408.98	29.509
409.34	28.638
409.69	28.687
410.05	28.623
410.40	29.093
410.76	27.762
411.11	29.502
411.47	29.012
411.83	28.471
412.18	29.227
412.54	28.348
412.89	28.024
413.25	28.848
413.60	29.673
413.96	30.521
414.31	28.926
414.67	29.112
415.03	29.310
415.38	29.716
415.74	28.174
416.09	29.544
416.45	30.123
416.80	29.442
417.16	28.326
417.51	28.471
417.87	29.349
418.22	29.162
418.58	29.554
418.93	28.019
419.29	28.466
419.64	28.528
420.00	28.759
420.35	27.700
420.71	27.771
421.06	28.723
421.42	28.555
421.77	27.818
422.12	28.225
422.48	27.632
422.83	28.013
423.19	28.240
423.54	27.702
423.90	28.199
424.25	27.738
424.61	28.207
424.96	27.894
425.31	27.094
425.67	28.507
426.02	28.099
426.38	28.121
426.73	28.456
427.09	28.529
427.44	28.362
427.79	28.245
428.15	28.933
428.50	28.571
428.85	28.336
429.21	27.715
429.56	27.916
429.92	27.151
430.27	26.657
430.62	27.558
430.98	27.695
431.33	26.411
431.68	27.012
432.04	27.315
432.39	28.485
432.74	27.810
433.10	27.796
433.45	28.662
433.80	29.288
434.16	27.325
434.51	27.812
434.86	28.144
435.22	27.229
435.57	27.386
435.92	27.888
436.28	28.571
436.63	28.255
436.98	28.829
437.34	28.767
437.69	28.052
438.04	27.527
438.39	28.605
438.75	28.285
439.10	27.361
439.45	27.869
439.81	28.340
440.16	27.848
440.51	27.252
440.86	27.806
441.22	27.327
441.57	27.979
441.92	27.641
442.27	27.577
442.63	26.880
442.98	27.478
443.33	26.942
443.68	27.968
444.03	26.720
444.39	26.836
444.74	26.915
445.09	27.541
445.44	28.002
445.79	27.583
446.15	26.947
446.50	26.530
446.85	26.793
447.20	27.114
447.55	27.080
447.91	28.130
448.26	27.476
448.61	28.192
448.96	27.941
449.31	27.393
449.66	28.405
450.02	26.742
450.37	27.540
450.72	27.493
451.07	27.341
451.42	27.030
451.77	27.491
452.12	27.283
452.47	27.947
452.83	28.056
453.18	28.048
453.53	28.360
453.88	27.600
454.23	28.298
454.58	26.923
454.93	27.406
455.28	28.091
455.63	27.896
455.98	27.806
456.34	27.173
456.69	27.805
457.04	27.625
457.39	27.200
457.74	27.309
458.09	27.906
458.44	27.054
458.79	27.427
459.14	27.005
459.49	27.520
459.84	27.391
460.19	26.893
460.54	27.407
460.89	26.279
461.24	26.919
461.59	27.608
461.94	26.241
462.29	26.831
462.64	27.261
462.99	27.575
463.34	28.192
463.69	28.131
464.04	27.749
464.39	27.018
464.74	26.788
465.09	27.162
465.44	26.442
465.79	26.402
466.14	26.285
466.49	26.858
466.84	26.477
467.19	27.358
467.54	25.766
467.89	27.054
468.24	27.157
468.59	26.964
468.94	26.872
469.29	27.367
469.64	27.010
469.99	27.571
470.34	27.767
470.68	26.483
471.03	28.352
471.38	27.815
471.73	26.584
472.08	27.593
472.43	27.561
472.78	28.425
473.13	26.846
473.48	27.139
473.83	27.680
474.17	27.660
474.52	27.784
474.87	25.583
475.22	26.956
475.57	26.495
475.92	25.600
476.27	26.605
476.61	26.166
476.96	26.646
477.31	27.352
477.66	27.536
478.01	26.560
478.36	25.798
478.70	25.658
479.05	27.144
479.40	25.744
479.75	26.614
480.10	26.041
480.45	25.070
480.79	25.853
481.14	26.391
481.49	25.480
481.84	25.638
482.19	25.808
482.53	25.428
482.88	25.896
483.23	24.989
483.58	25.853
483.92	26.280
484.27	25.813
484.62	26.868
484.97	25.360
485.31	24.520
485.66	23.326
486.01	22.061
486.36	21.641
486.70	21.585
487.05	22.721
487.40	23.291
487.75	23.418
488.09	24.261
488.44	24.060
488.79	24.679
489.13	24.599
489.48	25.250
489.83	25.646
490.17	25.599
490.52	25.452
490.87	26.293
491.22	26.064
491.56	25.955
491.91	25.672
492.26	25.612
492.60	26.196
492.95	25.918
493.30	26.206
493.64	26.101
493.99	26.297
494.34	25.325
494.68	25.321
495.03	25.550
495.37	26.159
495.72	26.294
496.07	25.022
496.41	24.935
496.76	25.032
497.11	25.407
497.45	25.559
497.80	26.089
498.14	25.613
498.49	25.441
498.84	26.822
499.18	25.137
499.53	26.183
499.87	25.112
500.22	26.117
500.56	24.745
500.91	26.531
501.26	25.494
501.60	25.592
501.95	24.597
502.29	24.933
502.64	25.452
502.98	24.989
503.33	24.410
503.67	24.680
504.02	24.451
504.36	25.339
504.71	25.213
505.06	24.730
505.40	25.409
505.75	24.509
506.09	26.272
506.44	24.671
506.78	25.945
507.13	25.351
507.47	25.619
507.82	25.450
508.16	25.674
508.51	25.749
508.85	25.166
509.19	25.844
509.54	25.879
509.88	25.908
510.23	25.294
510.57	24.855
510.92	26.374
511.26	25.602
511.61	25.258
511.95	25.336
512.30	26.550
512.64	25.857
512.98	25.730
513.33	26.281
513.67	25.738
514.02	25.143
514.36	26.064
514.70	25.707
515.05	25.626
515.39	26.480
515.74	26.681
516.08	26.144
516.42	26.885
516.77	25.333
517.11	25.973
517.46	25.862
517.80	25.505
518.14	27.042
518.49	25.413
518.83	25.440
519.17	26.234
519.52	25.724
519.86	25.995
520.20	26.192
520.55	26.569
520.89	26.379
521.23	27.629
521.58	26.162
521.92	26.472
522.26	25.652
522.61	26.619
522.95	26.847
523.29	26.901
523.64	26.127
523.98	26.408
524.32	25.952
524.66	26.377
525.01	26.391
525.35	25.987
525.69	26.249
526.04	26.889
526.38	26.486
526.72	26.790
527.06	26.611
527.41	26.844
527.75	26.537
528.09	24.804
528.43	27.151
528.78	26.297
529.12	25.707
529.46	25.891
529.80	25.058
530.15	26.046
530.49	26.113
530.83	26.752
531.17	26.076
531.51	26.609
531.86	26.268
532.20	25.587
532.54	26.051
532.88	25.984
533.22	26.447
533.57	26.052
533.91	25.583
534.25	24.582
534.59	25.205
534.93	24.460
535.27	24.587
535.62	24.446
535.96	24.882
536.30	25.716
536.64	24.969
536.98	25.614
537.32	26.813
537.66	25.000
538.01	25.015
538.35	26.201
538.69	25.061
539.03	25.808
539.37	24.272
539.71	24.938
540.05	25.354
540.39	26.541
540.73	25.190
541.07	24.153
541.42	24.254
541.76	25.154
542.10	24.168
542.44	24.626
542.78	24.544
543.12	24.969
543.46	24.687
543.80	24.749
544.14	24.954
544.48	24.818
544.82	24.893
545.16	24.529
545.50	24.339
545.84	25.126
546.18	24.902
546.52	25.180
546.86	25.725
547.20	24.806
547.54	23.496
547.88	24.574
548.22	24.529
548.56	23.335
548.90	25.326
549.24	24.195
549.58	24.291
549.92	25.344
550.26	25.693
550.60	24.684
550.94	25.509
551.28	25.448
551.62	26.345
551.96	24.662
552.30	23.995
552.64	25.049
552.98	23.582
553.32	24.584
553.66	23.322
554.00	24.196
554.34	24.767
554.68	25.739
555.02	24.304
555.36	25.066
555.69	24.935
556.03	24.331
556.37	24.028
556.71	24.511
557.05	24.312
557.39	24.533
557.73	24.124
558.07	24.748
558.41	24.949
558.75	24.555
559.08	26.162
559.42	25.626
559.76	24.733
560.10	24.226
560.44	24.353
560.78	24.936
561.12	24.857
561.45	22.716
561.79	23.845
562.13	23.437
562.47	23.816
562.81	24.854
563.15	24.564
563.48	23.478
563.82	23.706
564.16	23.943
564.50	23.448
564.84	23.647
565.17	23.113
565.51	23.768
565.85	23.751
566.19	23.750
566.52	22.684
566.86	23.351
567.20	22.865
567.54	22.271
567.88	21.857
568.21	21.667
568.55	21.839
568.89	20.484
569.23	20.017
569.56	19.928
569.90	19.404
570.24	19.966
570.57	19.663
570.91	19.126
571.25	18.179
571.59	17.936
571.92	18.057
572.26	17.736
572.60	18.134
572.93	18.488
573.27	18.036
573.61	18.219
573.95	18.078
574.28	18.129
574.62	17.490
574.96	17.224
575.29	17.252
575.63	17.008
575.97	17.722
576.30	17.236
576.64	17.441
576.98	17.297
577.31	17.559
577.65	17.076
577.98	16.914
578.32	16.482
578.66	16.719
578.99	16.929
579.33	17.636
579.67	17.309
580.00	16.762
580.34	17.456
580.67	17.181
581.01	17.358
581.35	16.438
581.68	16.203
582.02	16.289
582.35	16.062
582.69	16.612
583.02	16.587
583.36	17.190
583.70	17.616
584.03	17.798
584.37	17.769
584.70	17.069
585.04	16.916
585.37	17.087
585.71	17.506
586.04	17.070
586.38	17.070
586.72	17.297
587.05	17.936
587.39	17.244
587.72	16.980
588.06	17.035
588.39	17.170
588.73	17.107
589.06	17.712
589.40	17.840
589.73	18.256
590.07	17.982
590.40	18.955
590.73	19.464
591.07	19.089
591.40	18.962
591.74	18.709
592.07	18.677
592.41	18.185
592.74	17.906
593.08	17.839
593.41	17.056
593.75	17.042
594.08	17.924
594.41	17.791
594.75	17.979
595.08	18.141
595.42	17.742
595.75	17.868
596.09	18.283
596.42	18.281
596.75	18.830
597.09	18.861
597.42	18.980
597.75	18.215
598.09	17.768
598.42	18.033
598.76	18.234
599.09	18.573
599.42	17.509
599.76	17.944
600.09	17.458
600.42	17.576
600.76	16.961
601.09	17.846
601.42	17.811
601.76	17.472
602.09	17.807
602.42	17.967
602.76	18.027
603.09	18.363
603.42	18.422
603.76	17.570
604.09	17.662
604.42	17.702
604.76	18.096
605.09	18.531
605.42	18.285
605.75	18.476
606.09	18.018
606.42	18.001
606.75	18.305
607.09	17.726
607.42	18.200
607.75	17.834
608.08	17.506
608.42	18.079
608.75	18.228
609.08	18.082
609.41	18.591
609.75	18.864
610.08	18.390
610.41	17.787
610.74	18.961
611.07	19.100
611.41	18.767
611.74	18.834
612.07	18.353
612.40	18.616
612.73	19.670
613.07	19.260
613.40	18.797
613.73	19.221
614.06	18.300
614.39	18.737
614.72	19.387
615.06	18.447
615.39	18.663
615.72	17.812
616.05	18.584
616.38	18.975
616.71	19.479
617.05	19.714
617.38	18.989
617.71	19.910
618.04	19.798
618.37	19.511
618.70	19.400
619.03	20.269
619.36	21.043
619.69	20.053
620.03	20.939
620.36	20.231
620.69	20.881
621.02	21.264
621.35	20.774
621.68	21.534
622.01	22.509
622.34	21.049
622.67	21.208
623.00	20.558
623.33	21.390
623.66	20.093
623.99	20.685
624.32	21.477
624.65	19.355
624.99	20.419
625.32	20.574
625.65	20.414
625.98	20.363
626.31	20.326
626.64	21.640
626.97	20.275
627.30	21.584
627.63	21.900
627.96	21.674
628.29	21.782
628.62	22.412
628.95	24.379
629.28	22.699
629.61	21.968
629.94	22.040
630.26	23.397
630.59	23.759
630.92	21.256
631.25	23.119
