SpectraSuite Data File
++++++++++++++++++++++++++++++++++++
Date: Tue May 12 16:45:41 PDT 2015
User: schluterlab
Dark Spectrum Present: Yes
Reference Spectrum Present: Yes
Number of Sampled Component Spectra: 1
Spectrometers: USB2E3373
Integration Time (usec): 3000 (USB2E3373)
Spectra Averaged: 3 (USB2E3373)
Boxcar Smoothing: 0 (USB2E3373)
Correct for Electrical Dark: No (USB2E3373)
Strobe/Lamp Enabled: No (USB2E3373)
Correct for Detector Non-linearity: No (USB2E3373)
Correct for Stray Light: No (USB2E3373)
Number of Pixels in Processed Spectrum: 2048
>>>>>Begin Processed Spectral Data<<<<<
178.53	0.000
178.91	-291.667
179.29	-575.000
179.67	-2800.000
180.04	-186.667
180.42	550.000
180.80	1700.000
181.18	0.000
181.56	-250.000
181.94	0.000
182.31	1200.000
182.69	-4300.000
183.07	542.857
183.45	-5100.000
183.83	-1750.000
184.20	380.000
184.58	528.571
184.96	-176.923
185.34	-216.667
185.72	2000.000
186.09	-975.000
186.47	-2900.000
186.85	1066.667
187.23	700.000
187.61	2150.000
187.98	475.000
188.36	257.143
188.74	350.000
189.12	333.333
189.49	825.000
189.87	0.000
190.25	562.500
190.63	2000.000
191.00	-200.000
191.38	-4000.000
191.76	-700.000
192.14	562.500
192.51	-3000.000
192.89	1650.000
193.27	933.333
193.65	-1066.667
194.02	-700.000
194.40	542.857
194.78	-142.857
195.15	206.667
195.53	-2200.000
195.91	-440.000
196.29	3200.000
196.66	262.500
197.04	1000.000
197.42	-1750.000
197.79	550.000
198.17	291.667
198.55	0.000
198.92	457.143
199.30	1133.333
199.68	1700.000
200.05	483.333
200.43	-350.000
200.81	200.000
201.18	2900.000
201.56	266.667
201.94	-800.000
202.31	-212.500
202.69	-360.000
203.07	3200.000
203.44	-366.667
203.82	300.000
204.19	800.000
204.57	-1450.000
204.95	-500.000
205.32	-660.000
205.70	733.333
206.08	900.000
206.45	-833.333
206.83	388.889
207.20	168.421
207.58	241.667
207.96	740.000
208.33	0.000
208.71	585.714
209.08	640.000
209.46	-2900.000
209.84	-775.000
210.21	680.000
210.59	-600.000
210.96	275.000
211.34	-950.000
211.71	390.909
212.09	1000.000
212.46	1400.000
212.84	-266.667
213.22	333.333
213.59	-3200.000
213.97	340.000
214.34	850.000
214.72	1133.333
215.09	1133.333
215.47	-3200.000
215.84	-190.000
216.22	-412.500
216.59	0.000
216.97	0.000
217.34	1700.000
217.72	-1550.000
218.09	1266.667
218.47	512.500
218.84	750.000
219.22	1000.000
219.59	1033.333
219.97	414.286
220.34	444.444
220.72	1400.000
221.09	3500.000
221.47	258.333
221.84	1100.000
222.22	280.000
222.59	233.333
222.97	214.286
223.34	243.750
223.72	-1350.000
224.09	1133.333
224.46	238.462
224.84	-400.000
225.21	433.333
225.59	293.333
225.96	1166.667
226.34	-800.000
226.71	-675.000
227.08	-380.000
227.46	0.000
227.83	-383.333
228.21	-1400.000
228.58	383.333
228.95	700.000
229.33	388.889
229.70	925.000
230.08	315.385
230.45	3400.000
230.82	-1025.000
231.20	-900.000
231.57	-1066.667
231.95	560.000
232.32	233.333
232.69	366.667
233.07	300.000
233.44	-1650.000
233.81	193.333
234.19	129.630
234.56	162.500
234.93	129.412
235.31	180.000
235.68	181.250
236.05	128.571
236.43	122.222
236.80	192.857
237.17	141.379
237.55	62.500
237.92	110.000
238.29	103.030
238.67	118.750
239.04	82.927
239.41	79.167
239.79	90.000
240.16	60.417
240.53	54.098
240.91	56.522
241.28	47.458
241.65	50.000
242.02	59.155
242.40	48.571
242.77	42.857
243.14	41.772
243.51	40.404
243.89	36.449
244.26	37.383
244.63	35.644
245.00	26.606
245.38	28.814
245.75	40.152
246.12	40.000
246.49	32.624
246.87	26.230
247.24	31.333
247.61	30.625
247.98	28.571
248.36	25.455
248.73	32.653
249.10	20.833
249.47	22.500
249.84	25.871
250.22	22.162
250.59	23.000
250.96	24.051
251.33	20.000
251.70	19.196
252.08	18.487
252.45	23.506
252.82	16.350
253.19	19.368
253.56	17.692
253.94	19.928
254.31	18.605
254.68	18.815
255.05	15.862
255.42	18.613
255.79	16.287
256.16	18.644
256.54	17.208
256.91	18.954
257.28	18.395
257.65	11.912
258.02	15.634
258.39	15.759
258.76	14.203
259.14	13.714
259.51	15.160
259.88	13.678
260.25	14.011
260.62	13.151
260.99	13.774
261.36	13.649
261.73	13.298
262.10	16.754
262.47	15.000
262.85	14.933
263.22	15.681
263.59	15.345
263.96	14.787
264.33	12.593
264.70	14.251
265.07	15.854
265.44	14.220
265.81	12.972
266.18	13.730
266.55	13.712
266.92	10.962
267.29	14.912
267.66	12.108
268.03	10.538
268.40	12.051
268.77	13.216
269.14	9.761
269.51	11.804
269.88	13.673
270.25	9.503
270.62	9.871
270.99	14.604
271.36	11.382
271.73	10.901
272.10	13.535
272.47	11.508
272.84	12.774
273.21	10.537
273.58	11.943
273.95	10.062
274.32	12.451
274.69	14.370
275.06	13.115
275.43	13.218
275.80	11.321
276.17	11.213
276.54	10.280
276.91	12.313
277.28	10.219
277.65	12.731
278.02	7.537
278.39	10.432
278.76	11.552
279.13	10.854
279.50	11.636
279.87	8.752
280.23	10.129
280.60	8.942
280.97	9.483
281.34	10.726
281.71	10.435
282.08	11.966
282.45	8.784
282.82	11.538
283.19	10.970
283.56	10.248
283.92	9.609
284.29	8.652
284.66	9.412
285.03	9.784
285.40	11.240
285.77	8.025
286.14	10.836
286.51	10.890
286.87	9.494
287.24	8.859
287.61	10.486
287.98	12.388
288.35	9.481
288.72	9.105
289.08	10.811
289.45	10.061
289.82	10.938
290.19	9.517
290.56	11.499
290.93	9.928
291.29	11.050
291.66	10.876
292.03	10.238
292.40	10.705
292.77	9.471
293.13	10.984
293.50	11.201
293.87	8.943
294.24	11.469
294.60	11.709
294.97	12.727
295.34	11.421
295.71	11.695
296.08	11.067
296.44	12.071
296.81	10.670
297.18	12.041
297.55	12.069
297.91	12.438
298.28	9.903
298.65	12.270
299.02	11.821
299.38	10.911
299.75	10.854
300.12	11.927
300.48	11.944
300.85	12.634
301.22	10.930
301.59	11.675
301.95	11.902
302.32	13.388
302.69	12.104
303.05	13.805
303.42	11.883
303.79	12.784
304.15	11.551
304.52	11.416
304.89	12.687
305.25	12.125
305.62	13.966
305.99	11.087
306.35	10.737
306.72	11.967
307.09	12.422
307.45	12.460
307.82	12.140
308.19	12.165
308.55	12.900
308.92	13.837
309.29	14.497
309.65	13.082
310.02	14.503
310.38	12.562
310.75	13.115
311.12	12.835
311.48	14.189
311.85	13.168
312.22	14.231
312.58	13.800
312.95	14.951
313.31	13.577
313.68	13.508
314.05	14.377
314.41	14.060
314.78	13.731
315.14	14.597
315.51	14.853
315.87	14.142
316.24	14.659
316.61	15.309
316.97	12.844
317.34	15.544
317.70	13.872
318.07	15.302
318.43	14.851
318.80	15.061
319.16	15.647
319.53	15.664
319.89	15.412
320.26	18.156
320.62	16.850
320.99	17.159
321.35	17.161
321.72	16.414
322.08	16.343
322.45	17.439
322.81	16.102
323.18	18.384
323.54	18.293
323.91	18.132
324.27	17.330
324.64	18.685
325.00	18.190
325.37	18.718
325.73	18.128
326.10	20.381
326.46	19.075
326.83	18.400
327.19	18.795
327.56	19.329
327.92	19.672
328.29	19.967
328.65	20.377
329.01	19.162
329.38	20.220
329.74	19.044
330.11	20.156
330.47	20.460
330.84	19.672
331.20	19.797
331.56	20.898
331.93	19.247
332.29	19.133
332.66	20.408
333.02	19.416
333.38	19.459
333.75	20.183
334.11	19.211
334.48	20.256
334.84	19.932
335.20	19.589
335.57	20.823
335.93	20.185
336.29	20.232
336.66	20.412
337.02	18.221
337.38	18.831
337.75	18.666
338.11	20.422
338.47	19.983
338.84	19.560
339.20	18.442
339.56	19.260
339.93	19.732
340.29	19.328
340.65	19.614
341.02	19.791
341.38	19.048
341.74	19.269
342.11	18.280
342.47	19.114
342.83	20.263
343.20	20.372
343.56	19.539
343.92	19.075
344.28	18.900
344.65	20.375
345.01	19.762
345.37	19.071
345.73	18.968
346.10	18.247
346.46	19.219
346.82	19.136
347.19	19.474
347.55	19.126
347.91	18.580
348.27	17.893
348.63	20.332
349.00	19.117
349.36	18.833
349.72	19.419
350.08	18.866
350.45	19.421
350.81	19.037
351.17	17.951
351.53	18.784
351.89	18.182
352.26	18.443
352.62	19.306
352.98	19.862
353.34	19.569
353.70	17.737
354.07	19.154
354.43	18.894
354.79	18.299
355.15	19.296
355.51	18.958
355.87	20.181
356.24	19.246
356.60	18.189
356.96	18.954
357.32	20.196
357.68	19.750
358.04	19.453
358.40	19.190
358.77	18.407
359.13	18.619
359.49	18.681
359.85	18.690
360.21	18.722
360.57	20.000
360.93	18.687
361.29	19.769
361.66	20.507
362.02	18.182
362.38	20.202
362.74	19.179
363.10	20.056
363.46	18.854
363.82	19.495
364.18	19.132
364.54	20.029
364.90	19.679
365.26	18.390
365.62	19.751
365.98	19.133
366.35	19.310
366.71	20.264
367.07	19.522
367.43	19.812
367.79	19.415
368.15	18.589
368.51	20.055
368.87	19.769
369.23	19.127
369.59	19.960
369.95	19.301
370.31	19.302
370.67	19.084
371.03	20.238
371.39	18.906
371.75	18.702
372.11	20.190
372.47	19.795
372.83	19.171
373.19	20.768
373.55	19.794
373.91	18.439
374.27	19.114
374.63	20.203
374.99	20.283
375.35	19.960
375.71	20.515
376.07	20.756
376.42	19.182
376.78	20.360
377.14	20.380
377.50	20.662
377.86	20.243
378.22	20.049
378.58	20.581
378.94	20.519
379.30	19.891
379.66	20.349
380.02	20.293
380.38	20.023
380.74	21.396
381.09	21.086
381.45	19.769
381.81	20.449
382.17	21.551
382.53	19.976
382.89	20.757
383.25	20.308
383.61	19.769
383.97	20.456
384.32	21.157
384.68	21.985
385.04	20.516
385.40	20.344
385.76	20.772
386.12	20.284
386.48	20.608
386.83	21.394
387.19	21.084
387.55	21.084
387.91	21.882
388.27	20.940
388.62	21.362
388.98	20.233
389.34	20.345
389.70	21.108
390.06	21.341
390.42	20.666
390.77	20.332
391.13	20.760
391.49	20.629
391.85	21.723
392.20	21.216
392.56	21.565
392.92	20.606
393.28	21.357
393.64	20.183
393.99	21.636
394.35	20.954
394.71	20.748
395.07	21.350
395.42	20.433
395.78	21.900
396.14	21.265
396.50	21.239
396.85	20.000
397.21	20.999
397.57	21.399
397.92	20.624
398.28	20.629
398.64	21.466
399.00	20.417
399.35	20.612
399.71	20.861
400.07	20.434
400.42	20.597
400.78	20.880
401.14	20.904
401.49	21.141
401.85	20.973
402.21	20.855
402.57	20.826
402.92	20.364
403.28	20.644
403.63	20.954
403.99	21.351
404.35	21.395
404.70	21.205
405.06	20.382
405.42	20.886
405.77	21.169
406.13	20.445
406.49	20.125
406.84	20.530
407.20	21.062
407.55	21.415
407.91	20.038
408.27	21.407
408.62	21.171
408.98	20.284
409.34	20.397
409.69	20.473
410.05	20.453
410.40	20.259
410.76	19.863
411.11	20.557
411.47	20.679
411.83	19.566
412.18	19.988
412.54	20.480
412.89	20.354
413.25	21.095
413.60	20.561
413.96	20.826
414.31	21.547
414.67	21.105
415.03	20.626
415.38	20.442
415.74	21.036
416.09	21.049
416.45	22.172
416.80	21.103
417.16	21.006
417.51	20.318
417.87	20.213
418.22	21.021
418.58	21.274
418.93	20.702
419.29	19.717
419.64	21.260
420.00	21.480
420.35	20.790
420.71	20.945
421.06	20.718
421.42	20.841
421.77	20.766
422.12	20.948
422.48	20.750
422.83	21.540
423.19	20.896
423.54	21.997
423.90	20.781
424.25	20.859
424.61	21.242
424.96	20.892
425.31	21.018
425.67	21.998
426.02	21.088
426.38	21.587
426.73	21.573
427.09	21.471
427.44	20.484
427.79	21.670
428.15	22.451
428.50	21.943
428.85	22.105
429.21	22.042
429.56	22.134
429.92	21.780
430.27	21.335
430.62	20.901
430.98	21.956
431.33	20.262
431.68	20.790
432.04	21.521
432.39	22.558
432.74	21.546
433.10	21.595
433.45	21.769
433.80	22.339
434.16	21.913
434.51	21.827
434.86	22.863
435.22	22.312
435.57	23.118
435.92	22.937
436.28	23.099
436.63	22.366
436.98	23.029
437.34	22.317
437.69	22.116
438.04	22.366
438.39	23.468
438.75	22.773
439.10	22.936
439.45	21.933
439.81	23.193
440.16	22.289
440.51	22.748
440.86	23.134
441.22	22.944
441.57	22.940
441.92	22.261
442.27	22.629
442.63	22.409
442.98	22.683
443.33	22.764
443.68	23.139
444.03	23.139
444.39	24.247
444.74	23.137
445.09	22.959
445.44	22.423
445.79	22.271
446.15	22.263
446.50	22.416
446.85	22.510
447.20	21.940
447.55	21.968
447.91	24.028
448.26	23.163
448.61	23.715
448.96	23.747
449.31	23.707
449.66	23.754
450.02	23.015
450.37	24.098
450.72	24.077
451.07	23.618
451.42	23.118
451.77	23.769
452.12	22.518
452.47	24.058
452.83	23.831
453.18	24.264
453.53	23.801
453.88	24.286
454.23	23.649
454.58	23.951
454.93	22.869
455.28	24.174
455.63	24.173
455.98	22.730
456.34	23.283
456.69	23.841
457.04	24.045
457.39	23.314
457.74	23.818
458.09	23.077
458.44	23.439
458.79	24.032
459.14	23.895
459.49	23.726
459.84	23.478
460.19	23.503
460.54	23.932
460.89	24.254
461.24	23.482
461.59	23.696
461.94	23.700
462.29	23.799
462.64	24.497
462.99	23.736
463.34	23.266
463.69	24.077
464.04	23.719
464.39	23.469
464.74	22.685
465.09	23.157
465.44	23.286
465.79	22.918
466.14	22.787
466.49	23.060
466.84	23.746
467.19	23.667
467.54	23.724
467.89	23.944
468.24	24.493
468.59	23.452
468.94	24.094
469.29	24.924
469.64	23.408
469.99	24.100
470.34	24.225
470.68	24.483
471.03	24.550
471.38	23.841
471.73	23.253
472.08	24.005
472.43	24.209
472.78	23.752
473.13	23.342
473.48	24.083
473.83	23.263
474.17	24.134
474.52	24.645
474.87	23.650
475.22	23.758
475.57	23.400
475.92	23.454
476.27	23.286
476.61	23.753
476.96	23.929
477.31	23.599
477.66	23.886
478.01	23.517
478.36	23.841
478.70	23.176
479.05	23.536
479.40	23.909
479.75	23.982
480.10	23.524
480.45	24.090
480.79	23.364
481.14	23.062
481.49	22.781
481.84	23.175
482.19	23.013
482.53	23.452
482.88	23.701
483.23	23.049
483.58	23.294
483.92	24.314
484.27	22.902
484.62	22.963
484.97	22.867
485.31	21.870
485.66	21.613
486.01	21.280
486.36	21.004
486.70	20.878
487.05	21.056
487.40	21.439
487.75	21.940
488.09	22.273
488.44	22.562
488.79	22.770
489.13	22.844
489.48	23.332
489.83	22.310
490.17	22.626
490.52	22.567
490.87	22.629
491.22	23.759
491.56	23.452
491.91	22.984
492.26	23.786
492.60	23.781
492.95	21.976
493.30	23.021
493.64	23.046
493.99	22.943
494.34	22.994
494.68	22.311
495.03	23.799
495.37	23.278
495.72	22.704
496.07	22.642
496.41	23.545
496.76	22.921
497.11	22.965
497.45	22.709
497.80	23.679
498.14	22.561
498.49	22.609
498.84	23.598
499.18	22.486
499.53	22.646
499.87	22.147
500.22	22.616
500.56	23.027
500.91	22.913
501.26	23.381
501.60	22.541
501.95	21.998
502.29	22.933
502.64	22.276
502.98	22.855
503.33	22.851
503.67	23.046
504.02	22.794
504.36	22.851
504.71	23.888
505.06	23.604
505.40	22.789
505.75	22.732
506.09	23.285
506.44	23.778
506.78	23.771
507.13	22.928
507.47	23.532
507.82	23.893
508.16	24.596
508.51	22.995
508.85	23.599
509.19	22.565
509.54	23.730
509.88	24.018
510.23	23.284
510.57	22.828
510.92	23.027
511.26	23.896
511.61	22.895
511.95	23.295
512.30	23.200
512.64	23.157
512.98	22.963
513.33	23.617
513.67	24.029
514.02	23.429
514.36	23.416
514.70	23.520
515.05	23.388
515.39	24.068
515.74	24.112
516.08	24.346
516.42	24.863
516.77	23.573
517.11	24.213
517.46	23.922
517.80	24.413
518.14	24.113
518.49	23.429
518.83	23.242
519.17	24.681
519.52	24.140
519.86	24.142
520.20	24.493
520.55	23.629
520.89	24.540
521.23	23.481
521.58	24.326
521.92	23.965
522.26	23.104
522.61	24.242
522.95	24.444
523.29	23.918
523.64	23.873
523.98	25.352
524.32	23.414
524.66	24.522
525.01	23.018
525.35	24.278
525.69	24.865
526.04	24.509
526.38	23.779
526.72	24.403
527.06	23.714
527.41	24.244
527.75	23.981
528.09	23.540
528.43	24.832
528.78	24.091
529.12	24.383
529.46	23.846
529.80	23.715
530.15	23.748
530.49	23.767
530.83	23.522
531.17	23.985
531.51	24.096
531.86	23.732
532.20	24.227
532.54	24.043
532.88	24.485
533.22	24.193
533.57	24.222
533.91	23.252
534.25	22.966
534.59	23.684
534.93	23.322
535.27	23.164
535.62	22.929
535.96	22.813
536.30	24.193
536.64	22.981
536.98	23.789
537.32	23.312
537.66	23.342
538.01	23.344
538.35	23.019
538.69	23.119
539.03	22.388
539.37	23.180
539.71	23.272
540.05	23.631
540.39	24.151
540.73	24.304
541.07	23.463
541.42	24.005
541.76	23.736
542.10	23.613
542.44	23.317
542.78	23.222
543.12	22.761
543.46	22.682
543.80	23.308
544.14	23.344
544.48	23.358
544.82	23.792
545.16	23.072
545.50	23.233
545.84	23.864
546.18	23.537
546.52	23.410
546.86	23.146
547.20	22.093
547.54	22.926
547.88	23.236
548.22	23.315
548.56	22.510
548.90	23.072
549.24	23.184
549.58	22.616
549.92	23.838
550.26	23.394
550.60	22.821
550.94	23.948
551.28	23.793
551.62	24.138
551.96	23.041
552.30	22.808
552.64	24.272
552.98	23.067
553.32	23.175
553.66	22.671
554.00	23.359
554.34	22.969
554.68	23.522
555.02	23.829
555.36	22.939
555.69	23.364
556.03	23.121
556.37	22.243
556.71	24.185
557.05	22.346
557.39	23.400
557.73	23.181
558.07	22.334
558.41	23.646
558.75	24.213
559.08	23.159
559.42	23.550
559.76	24.020
560.10	21.748
560.44	23.092
560.78	23.593
561.12	22.759
561.45	22.653
561.79	22.097
562.13	22.805
562.47	22.518
562.81	23.422
563.15	23.012
563.48	22.050
563.82	23.082
564.16	22.139
564.50	21.459
564.84	22.188
565.17	22.282
565.51	22.537
565.85	22.764
566.19	22.083
566.52	21.661
566.86	22.242
567.20	22.921
567.54	21.288
567.88	22.118
568.21	21.018
568.55	21.109
568.89	21.670
569.23	20.708
569.56	21.006
569.90	20.661
570.24	20.170
570.57	20.182
570.91	20.062
571.25	19.721
571.59	19.261
571.92	18.811
572.26	18.625
572.60	19.356
572.93	19.551
573.27	19.299
573.61	19.274
573.95	19.024
574.28	19.026
574.62	19.143
574.96	18.671
575.29	18.384
575.63	18.304
575.97	18.257
576.30	18.704
576.64	19.022
576.98	18.691
577.31	18.791
577.65	18.701
577.98	18.338
578.32	17.890
578.66	18.002
578.99	18.796
579.33	18.719
579.67	18.371
580.00	18.207
580.34	18.619
580.67	18.501
581.01	18.565
581.35	18.386
581.68	17.975
582.02	17.906
582.35	17.919
582.69	18.301
583.02	18.171
583.36	18.161
583.70	18.999
584.03	19.065
584.37	19.056
584.70	18.786
585.04	18.035
585.37	18.079
585.71	18.742
586.04	18.223
586.38	18.386
586.72	18.250
587.05	18.888
587.39	19.014
587.72	18.858
588.06	18.500
588.39	18.782
588.73	18.469
589.06	18.792
589.40	19.624
589.73	19.240
590.07	20.110
590.40	19.617
590.73	20.382
591.07	19.772
591.40	19.561
591.74	19.196
592.07	19.717
592.41	19.744
592.74	19.041
593.08	18.555
593.41	18.253
593.75	18.448
594.08	18.817
594.41	19.094
594.75	18.836
595.08	18.930
595.42	19.157
595.75	19.019
596.09	19.013
596.42	18.973
596.75	19.792
597.09	20.058
597.42	19.429
597.75	19.108
598.09	19.450
598.42	19.257
598.76	18.504
599.09	19.161
599.42	18.685
599.76	18.996
600.09	18.746
600.42	18.888
600.76	18.525
601.09	18.847
601.42	19.043
601.76	18.439
602.09	19.684
602.42	18.299
602.76	19.127
603.09	19.608
603.42	19.193
603.76	19.234
604.09	18.313
604.42	18.757
604.76	19.202
605.09	19.306
605.42	19.626
605.75	19.068
606.09	18.516
606.42	18.677
606.75	18.772
607.09	19.108
607.42	18.722
607.75	18.869
608.08	19.171
608.42	18.624
608.75	18.742
609.08	18.698
609.41	19.364
609.75	19.734
610.08	19.379
610.41	19.499
610.74	19.481
611.07	19.964
611.41	19.509
611.74	19.981
612.07	20.087
612.40	19.688
612.73	19.321
613.07	19.970
613.40	19.449
613.73	19.271
614.06	19.150
614.39	20.808
614.72	19.839
615.06	18.645
615.39	19.406
615.72	18.780
616.05	19.538
616.38	19.026
616.71	19.371
617.05	19.714
617.38	19.944
617.71	19.516
618.04	19.686
618.37	19.344
618.70	18.649
619.03	19.963
619.36	20.477
619.69	19.459
620.03	20.874
620.36	20.231
620.69	21.264
621.02	20.245
621.35	20.845
621.68	21.165
622.01	21.107
622.34	20.466
622.67	21.699
623.00	20.082
623.33	20.040
623.66	20.027
623.99	20.342
624.32	20.393
624.65	19.882
624.99	20.757
625.32	19.639
625.65	19.655
625.98	20.014
626.31	20.623
626.64	21.033
626.97	19.816
627.30	20.186
627.63	20.801
627.96	20.266
628.29	21.370
628.62	22.156
628.95	22.695
629.28	22.524
629.61	20.299
629.94	20.916
630.26	22.964
630.59	22.163
630.92	22.242
631.25	22.303
631.58	22.662
