SpectraSuite Data File
++++++++++++++++++++++++++++++++++++
Date: Tue May 12 16:52:22 PDT 2015
User: schluterlab
Dark Spectrum Present: Yes
Reference Spectrum Present: Yes
Number of Sampled Component Spectra: 1
Spectrometers: USB2E3373
Integration Time (usec): 3000 (USB2E3373)
Spectra Averaged: 3 (USB2E3373)
Boxcar Smoothing: 0 (USB2E3373)
Correct for Electrical Dark: No (USB2E3373)
Strobe/Lamp Enabled: No (USB2E3373)
Correct for Detector Non-linearity: No (USB2E3373)
Correct for Stray Light: No (USB2E3373)
Number of Pixels in Processed Spectrum: 2048
>>>>>Begin Processed Spectral Data<<<<<
178.53	0.000
178.91	-241.667
179.29	-675.000
179.67	-2600.000
180.04	-146.667
180.42	950.000
180.80	1550.000
181.18	0.000
181.56	-287.500
181.94	0.000
182.31	1133.333
182.69	-2600.000
183.07	571.429
183.45	-4000.000
183.83	-1550.000
184.20	310.000
184.58	414.286
184.96	-330.769
185.34	-283.333
185.72	1650.000
186.09	-1050.000
186.47	-3900.000
186.85	1100.000
187.23	580.000
187.61	1750.000
187.98	400.000
188.36	271.429
188.74	383.333
189.12	400.000
189.49	975.000
189.87	0.000
190.25	537.500
190.63	3200.000
191.00	-216.667
191.38	-3800.000
191.76	-825.000
192.14	550.000
192.51	-3900.000
192.89	1800.000
193.27	966.667
193.65	-933.333
194.02	-820.000
194.40	471.429
194.78	-192.857
195.15	240.000
195.53	-2900.000
195.91	-760.000
196.29	4400.000
196.66	281.250
197.04	875.000
197.42	-1800.000
197.79	800.000
198.17	308.333
198.55	0.000
198.92	457.143
199.30	1266.667
199.68	1650.000
200.05	733.333
200.43	-433.333
200.81	200.000
201.18	3000.000
201.56	250.000
201.94	-925.000
202.31	-312.500
202.69	-540.000
203.07	3400.000
203.44	-433.333
203.82	291.667
204.19	780.000
204.57	-1100.000
204.95	-900.000
205.32	-840.000
205.70	650.000
206.08	700.000
206.45	-633.333
206.83	444.444
207.20	173.684
207.58	258.333
207.96	640.000
208.33	0.000
208.71	485.714
209.08	640.000
209.46	-2200.000
209.84	-675.000
210.21	740.000
210.59	-640.000
210.96	291.667
211.34	-850.000
211.71	390.909
212.09	1175.000
212.46	2050.000
212.84	-500.000
213.22	466.667
213.59	-3000.000
213.97	270.000
214.34	775.000
214.72	1233.333
215.09	1100.000
215.47	-2300.000
215.84	-310.000
216.22	-450.000
216.59	0.000
216.97	0.000
217.34	1600.000
217.72	-1750.000
218.09	1400.000
218.47	400.000
218.84	925.000
219.22	1166.667
219.59	1066.667
219.97	571.429
220.34	477.778
220.72	2200.000
221.09	3000.000
221.47	275.000
221.84	1233.333
222.22	360.000
222.59	194.444
222.97	228.571
223.34	256.250
223.72	-1750.000
224.09	866.667
224.46	253.846
224.84	-650.000
225.21	455.556
225.59	306.667
225.96	1433.333
226.34	-520.000
226.71	-725.000
227.08	-400.000
227.46	0.000
227.83	-533.333
228.21	-1600.000
228.58	425.000
228.95	900.000
229.33	444.444
229.70	1000.000
230.08	353.846
230.45	3300.000
230.82	-825.000
231.20	-1000.000
231.57	-1200.000
231.95	680.000
232.32	258.333
232.69	516.667
233.07	300.000
233.44	-1750.000
233.81	266.667
234.19	188.889
234.56	225.000
234.93	211.765
235.31	230.000
235.68	287.500
236.05	192.857
236.43	133.333
236.80	321.429
237.17	141.379
237.55	140.625
237.92	140.000
238.29	103.030
238.67	143.750
239.04	104.878
239.41	108.333
239.79	82.500
240.16	106.250
240.53	90.164
240.91	82.609
241.28	86.441
241.65	77.273
242.02	94.366
242.40	87.143
242.77	64.835
243.14	63.291
243.51	72.727
243.89	54.206
244.26	56.075
244.63	59.406
245.00	54.128
245.38	43.220
245.75	53.030
246.12	51.852
246.49	51.064
246.87	44.262
247.24	46.000
247.61	53.125
247.98	55.782
248.36	49.091
248.73	50.510
249.10	45.833
249.47	45.500
249.84	47.761
250.22	45.946
250.59	44.500
250.96	41.772
251.33	41.860
251.70	41.964
252.08	45.798
252.45	38.645
252.82	43.726
253.19	38.735
253.56	37.308
253.94	42.754
254.31	43.411
254.68	41.463
255.05	37.586
255.42	40.511
255.79	39.414
256.16	39.322
256.54	33.442
256.91	40.523
257.28	41.137
257.65	34.796
258.02	35.988
258.39	36.103
258.76	38.261
259.14	36.571
259.51	38.484
259.88	39.210
260.25	36.264
260.62	36.438
260.99	37.190
261.36	38.997
261.73	37.500
262.10	36.911
262.47	35.250
262.85	35.733
263.22	35.476
263.59	36.317
263.96	39.098
264.33	36.543
264.70	36.855
265.07	36.829
265.44	36.009
265.81	36.085
266.18	34.783
266.55	35.934
266.92	39.150
267.29	37.281
267.66	35.426
268.03	36.323
268.40	34.461
268.77	37.885
269.14	30.803
269.51	34.521
269.88	34.082
270.25	30.670
270.62	37.124
270.99	36.511
271.36	34.146
271.73	33.753
272.10	33.737
272.47	33.929
272.84	35.529
273.21	33.058
273.58	35.425
273.95	35.113
274.32	36.381
274.69	34.449
275.06	33.515
275.43	33.716
275.80	31.698
276.17	33.824
276.54	36.262
276.91	34.515
277.28	29.927
277.65	34.686
278.02	33.272
278.39	33.633
278.76	33.276
279.13	32.028
279.50	34.727
279.87	31.657
280.23	34.622
280.60	33.394
280.97	31.897
281.34	34.488
281.71	34.783
282.08	34.530
282.45	31.419
282.82	33.612
283.19	33.545
283.56	32.727
283.92	33.713
284.29	32.612
284.66	32.101
285.03	31.343
285.40	32.397
285.77	30.401
286.14	33.127
286.51	31.748
286.87	30.222
287.24	30.180
287.61	30.699
287.98	31.791
288.35	29.481
288.72	30.501
289.08	30.931
289.45	30.640
289.82	31.406
290.19	31.332
290.56	32.314
290.93	31.511
291.29	31.077
291.66	31.073
292.03	28.331
292.40	31.572
292.77	29.944
293.13	31.241
293.50	29.690
293.87	28.455
294.24	28.531
294.60	29.610
294.97	30.769
295.34	29.748
295.71	29.172
296.08	29.600
296.44	28.971
296.81	29.032
297.18	30.165
297.55	29.310
297.91	27.217
298.28	29.227
298.65	29.202
299.02	30.036
299.38	29.856
299.75	28.171
300.12	28.440
300.48	29.040
300.85	29.917
301.22	28.721
301.59	28.656
301.95	29.522
302.32	31.199
302.69	28.167
303.05	30.303
303.42	28.587
303.79	28.494
304.15	29.263
304.52	28.118
304.89	28.891
305.25	30.812
305.62	29.211
305.99	29.239
306.35	29.474
306.72	29.344
307.09	29.814
307.45	28.933
307.82	29.012
308.19	29.381
308.55	30.100
308.92	30.029
309.29	30.572
309.65	29.732
310.02	30.730
310.38	30.110
310.75	29.122
311.12	29.981
311.48	31.853
311.85	30.630
312.22	30.468
312.58	29.932
312.95	30.874
313.31	31.086
313.68	31.332
314.05	32.692
314.41	30.354
314.78	30.303
315.14	31.848
315.51	32.923
315.87	32.208
316.24	32.773
316.61	30.528
316.97	31.927
317.34	32.704
317.70	32.485
318.07	33.185
318.43	33.304
318.80	33.975
319.16	32.867
319.53	32.389
319.89	32.079
320.26	34.823
320.62	34.432
320.99	33.651
321.35	34.045
321.72	34.535
322.08	33.241
322.45	32.788
322.81	33.394
323.18	33.481
323.54	34.321
323.91	35.086
324.27	34.660
324.64	34.083
325.00	34.914
325.37	33.895
325.73	34.739
326.10	34.300
326.46	34.269
326.83	33.200
327.19	35.181
327.56	34.026
327.92	35.492
328.29	34.697
328.65	35.445
329.01	36.185
329.38	34.856
329.74	35.098
330.11	35.187
330.47	35.294
330.84	33.650
331.20	34.264
331.56	35.406
331.93	36.441
332.29	34.524
332.66	35.884
333.02	33.935
333.38	34.642
333.75	34.862
334.11	35.319
334.48	35.812
334.84	34.375
335.20	34.731
335.57	34.257
335.93	33.305
336.29	33.582
336.66	35.763
337.02	34.388
337.38	33.448
337.75	34.291
338.11	34.346
338.47	34.293
338.84	34.716
339.20	34.719
339.56	33.558
339.93	34.030
340.29	33.613
340.65	34.367
341.02	33.789
341.38	34.154
341.74	32.890
342.11	33.306
342.47	32.568
342.83	34.290
343.20	34.196
343.56	31.930
343.92	33.443
344.28	33.573
344.65	33.904
345.01	32.619
345.37	33.093
345.73	33.175
346.10	32.669
346.46	32.695
346.82	31.250
347.19	33.617
347.55	33.099
347.91	32.175
348.27	31.991
348.63	32.753
349.00	33.054
349.36	33.230
349.72	32.187
350.08	32.531
350.45	31.455
350.81	33.104
351.17	31.818
351.53	31.948
351.89	31.779
352.26	32.577
352.62	31.900
352.98	32.209
353.34	32.820
353.70	31.422
354.07	31.923
354.43	31.106
354.79	31.967
355.15	32.312
355.51	32.175
355.87	33.133
356.24	32.102
356.60	30.670
356.96	30.705
357.32	30.294
357.68	32.012
358.04	31.383
358.40	30.585
358.77	30.879
359.13	31.231
359.49	30.912
359.85	31.571
360.21	30.684
360.57	31.898
360.93	33.045
361.29	32.540
361.66	32.140
362.02	31.037
362.38	31.241
362.74	31.352
363.10	31.066
363.46	30.249
363.82	30.785
364.18	30.797
364.54	31.617
364.90	30.991
365.26	31.367
365.62	31.008
365.98	30.351
366.35	31.034
366.71	31.575
367.07	31.195
367.43	30.490
367.79	30.186
368.15	29.919
368.51	29.841
368.87	30.707
369.23	31.532
369.59	32.030
369.95	31.049
370.31	30.664
370.67	30.881
371.03	30.252
371.39	30.332
371.75	30.705
372.11	30.727
372.47	30.068
372.83	31.611
373.19	31.803
373.55	30.722
373.91	29.765
374.27	30.225
374.63	29.220
374.99	30.458
375.35	30.914
375.71	31.596
376.07	29.973
376.42	29.412
376.78	30.186
377.14	29.161
377.50	30.025
377.86	29.853
378.22	29.311
378.58	29.903
378.94	30.899
379.30	29.109
379.66	29.380
380.02	30.323
380.38	30.152
380.74	29.527
381.09	28.972
381.45	29.306
381.81	29.433
382.17	29.060
382.53	29.334
382.89	29.568
383.25	29.189
383.61	28.876
383.97	28.914
384.32	29.295
384.68	29.590
385.04	29.543
385.40	29.300
385.76	29.432
386.12	29.746
386.48	29.726
386.83	29.095
387.19	29.211
387.55	28.975
387.91	29.446
388.27	29.982
388.62	28.638
388.98	28.571
389.34	28.733
389.70	28.243
390.06	28.537
390.42	28.007
390.77	29.177
391.13	29.028
391.49	29.038
391.85	29.108
392.20	28.605
392.56	28.973
392.92	28.130
393.28	28.195
393.64	28.727
393.99	27.801
394.35	28.605
394.71	27.382
395.07	27.798
395.42	28.513
395.78	28.933
396.14	28.614
396.50	28.339
396.85	27.805
397.21	27.858
397.57	27.675
397.92	27.210
398.28	27.468
398.64	27.632
399.00	27.205
399.35	26.785
399.71	26.711
400.07	27.340
400.42	27.522
400.78	27.331
401.14	27.129
401.49	26.728
401.85	27.636
402.21	26.655
402.57	27.828
402.92	27.818
403.28	27.208
403.63	26.604
403.99	27.624
404.35	27.022
404.70	27.584
405.06	26.165
405.42	26.810
405.77	27.453
406.13	27.278
406.49	26.777
406.84	26.565
407.20	26.998
407.55	27.508
407.91	27.058
408.27	27.411
408.62	26.730
408.98	27.144
409.34	26.768
409.69	26.322
410.05	26.237
410.40	26.031
410.76	26.274
411.11	26.422
411.47	26.728
411.83	25.893
412.18	26.147
412.54	26.426
412.89	25.015
413.25	25.485
413.60	26.577
413.96	27.229
414.31	26.210
414.67	27.933
415.03	26.501
415.38	27.571
415.74	26.279
416.09	27.108
416.45	27.473
416.80	27.967
417.16	26.480
417.51	26.497
417.87	27.409
418.22	25.699
418.58	27.070
418.93	26.948
419.29	25.262
419.64	26.651
420.00	26.790
420.35	26.481
420.71	26.371
421.06	26.074
421.42	26.598
421.77	26.763
422.12	26.681
422.48	26.246
422.83	26.395
423.19	27.052
423.54	26.385
423.90	26.954
424.25	27.628
424.61	27.104
424.96	26.990
425.31	26.765
425.67	27.273
426.02	27.818
426.38	26.488
426.73	27.126
427.09	28.055
427.44	27.349
427.79	26.701
428.15	28.226
428.50	27.486
428.85	27.572
429.21	27.066
429.56	27.567
429.92	27.250
430.27	27.286
430.62	26.187
430.98	27.046
431.33	26.462
431.68	26.617
432.04	26.953
432.39	28.156
432.74	28.571
433.10	28.184
433.45	28.604
433.80	28.185
434.16	28.271
434.51	27.812
434.86	28.634
435.22	27.877
435.57	28.156
435.92	28.913
436.28	29.493
436.63	28.417
436.98	28.153
437.34	28.596
437.69	28.108
438.04	27.634
438.39	28.546
438.75	28.341
439.10	28.980
439.45	28.208
439.81	29.786
440.16	29.664
440.51	27.928
440.86	28.832
441.22	28.950
441.57	28.819
441.92	28.924
442.27	28.299
442.63	28.811
442.98	28.825
443.33	29.031
443.68	29.225
444.03	28.652
444.39	29.237
444.74	28.054
445.09	28.225
445.44	29.490
445.79	29.337
446.15	28.368
446.50	28.903
446.85	29.781
447.20	29.453
447.55	29.527
447.91	29.728
448.26	29.127
448.61	29.132
448.96	29.847
449.31	29.593
449.66	29.845
450.02	28.849
450.37	29.317
450.72	29.972
451.07	30.017
451.42	29.698
451.77	30.928
452.12	29.212
452.47	29.830
452.83	30.761
453.18	29.910
453.53	30.018
453.88	30.514
454.23	30.796
454.58	29.953
454.93	30.472
455.28	30.600
455.63	30.437
455.98	29.893
456.34	30.699
456.69	30.732
457.04	29.475
457.39	30.057
457.74	30.236
458.09	29.085
458.44	30.778
458.79	30.875
459.14	29.405
459.49	29.558
459.84	30.707
460.19	30.113
460.54	29.516
460.89	30.757
461.24	28.981
461.59	30.215
461.94	29.965
462.29	29.634
462.64	31.972
462.99	30.902
463.34	30.914
463.69	31.095
464.04	30.455
464.39	29.880
464.74	29.543
465.09	30.238
465.44	30.468
465.79	29.559
466.14	29.995
466.49	30.602
466.84	29.543
467.19	30.463
467.54	30.931
467.89	31.162
468.24	30.284
468.59	30.179
468.94	30.254
469.29	30.605
469.64	31.061
469.99	31.041
470.34	30.550
470.68	29.862
471.03	31.154
471.38	30.861
471.73	30.176
472.08	30.333
472.43	31.471
472.78	30.730
473.13	30.413
473.48	30.868
473.83	30.448
474.17	31.003
474.52	30.569
474.87	30.188
475.22	31.354
475.57	29.486
475.92	30.455
476.27	29.869
476.61	30.241
476.96	30.460
477.31	30.848
477.66	30.918
478.01	30.634
478.36	31.153
478.70	29.975
479.05	29.812
479.40	30.258
479.75	30.139
480.10	30.542
480.45	29.552
480.79	29.724
481.14	29.910
481.49	29.872
481.84	30.211
482.19	29.782
482.53	30.171
482.88	30.421
483.23	28.913
483.58	30.296
483.92	29.936
484.27	29.538
484.62	30.136
484.97	29.684
485.31	28.845
485.66	28.071
486.01	27.381
486.36	27.171
486.70	27.207
487.05	27.411
487.40	28.134
487.75	28.164
488.09	28.210
488.44	28.649
488.79	28.671
489.13	28.742
489.48	29.165
489.83	29.608
490.17	29.397
490.52	29.974
490.87	29.784
491.22	30.984
491.56	30.215
491.91	29.122
492.26	29.666
492.60	30.296
492.95	29.724
493.30	29.663
493.64	29.515
493.99	29.606
494.34	30.076
494.68	30.367
495.03	30.804
495.37	30.392
495.72	29.184
496.07	30.323
496.41	30.365
496.76	29.802
497.11	30.249
497.45	30.031
497.80	30.120
498.14	30.005
498.49	30.084
498.84	30.093
499.18	29.433
499.53	29.536
499.87	29.245
500.22	29.940
500.56	30.501
500.91	30.659
501.26	30.593
501.60	30.055
501.95	29.659
502.29	30.622
502.64	29.863
502.98	28.724
503.33	30.022
503.67	29.845
504.02	29.781
504.36	29.819
504.71	30.274
505.06	30.033
505.40	29.949
505.75	30.122
506.09	29.538
506.44	29.417
506.78	29.584
507.13	30.005
507.47	30.180
507.82	30.900
508.16	31.259
508.51	29.807
508.85	30.152
509.19	30.103
509.54	30.273
509.88	30.582
510.23	30.147
510.57	30.309
510.92	30.619
511.26	29.869
511.61	30.379
511.95	30.015
512.30	30.300
512.64	29.751
512.98	29.933
513.33	30.174
513.67	30.295
514.02	30.753
514.36	30.893
514.70	29.653
515.05	29.888
515.39	30.263
515.74	31.110
516.08	31.590
516.42	31.257
516.77	30.027
517.11	30.027
517.46	30.172
517.80	29.765
518.14	31.549
518.49	31.147
518.83	29.451
519.17	30.394
519.52	30.803
519.86	30.354
520.20	31.014
520.55	30.808
520.89	30.862
521.23	31.600
521.58	31.038
521.92	30.321
522.26	30.983
522.61	31.610
522.95	31.471
523.29	31.988
523.64	30.347
523.98	31.573
524.32	30.277
524.66	31.130
525.01	31.657
525.35	30.819
525.69	31.908
526.04	30.815
526.38	30.606
526.72	30.549
527.06	30.869
527.41	31.137
527.75	31.528
528.09	30.885
528.43	30.995
528.78	30.471
529.12	31.547
529.46	30.625
529.80	31.425
530.15	29.582
530.49	30.144
530.83	30.591
531.17	30.504
531.51	31.698
531.86	30.133
532.20	30.593
532.54	30.132
532.88	31.043
533.22	30.774
533.57	30.506
533.91	29.604
534.25	29.890
534.59	30.819
534.93	29.863
535.27	28.799
535.62	29.872
535.96	30.378
536.30	30.165
536.64	29.876
536.98	30.019
537.32	30.188
537.66	29.464
538.01	30.650
538.35	30.069
538.69	29.854
539.03	29.291
539.37	29.066
539.71	30.000
540.05	29.354
540.39	29.748
540.73	29.494
541.07	29.737
541.42	29.229
541.76	29.963
542.10	29.285
542.44	30.050
542.78	29.452
543.12	29.080
543.46	28.822
543.80	29.261
544.14	29.659
544.48	29.075
544.82	29.174
545.16	28.780
545.50	29.809
545.84	29.482
546.18	31.079
546.52	29.770
546.86	30.303
547.20	28.811
547.54	29.259
547.88	29.197
548.22	30.176
548.56	29.051
548.90	27.758
549.24	29.375
549.58	28.737
549.92	29.601
550.26	30.088
550.60	29.674
550.94	30.054
551.28	30.414
551.62	31.655
551.96	29.730
552.30	28.016
552.64	29.968
552.98	29.253
553.32	29.001
553.66	28.860
554.00	29.022
554.34	30.826
554.68	29.637
555.02	29.056
555.36	28.989
555.69	29.450
556.03	28.981
556.37	30.019
556.71	29.857
557.05	28.506
557.39	29.933
557.73	29.447
558.07	28.974
558.41	30.500
558.75	28.591
559.08	30.236
559.42	30.494
559.76	29.651
560.10	29.250
560.44	29.263
560.78	29.348
561.12	29.434
561.45	29.161
561.79	29.463
562.13	28.932
562.47	28.293
562.81	29.668
563.15	28.636
563.48	27.764
563.82	29.070
564.16	28.794
564.50	28.632
564.84	28.024
565.17	29.055
565.51	29.126
565.85	29.611
566.19	27.917
566.52	27.918
566.86	28.605
567.20	28.539
567.54	28.384
567.88	28.221
568.21	27.459
568.55	27.189
568.89	26.734
569.23	27.265
569.56	26.877
569.90	25.943
570.24	25.826
570.57	25.276
570.91	24.992
571.25	25.148
571.59	24.083
571.92	24.193
572.26	23.693
572.60	24.604
572.93	24.727
573.27	24.612
573.61	23.877
573.95	24.328
574.28	24.333
574.62	23.871
574.96	23.146
575.29	23.206
575.63	23.392
575.97	23.880
576.30	23.791
576.64	23.547
576.98	23.311
577.31	23.897
577.65	23.761
577.98	23.052
578.32	22.959
578.66	22.745
578.99	23.642
579.33	23.387
579.67	23.563
580.00	22.793
580.34	23.111
580.67	23.378
581.01	23.875
581.35	23.097
581.68	22.839
582.02	22.691
582.35	22.821
582.69	22.915
583.02	22.810
583.36	23.497
583.70	23.749
584.03	23.888
584.37	23.423
584.70	23.414
585.04	23.293
585.37	23.219
585.71	24.045
586.04	23.400
586.38	23.605
586.72	24.299
587.05	23.829
587.39	23.515
587.72	23.762
588.06	23.318
588.39	23.849
588.73	23.835
589.06	24.219
589.40	24.789
589.73	24.385
590.07	24.605
590.40	25.087
590.73	25.927
591.07	25.009
591.40	25.948
591.74	25.244
592.07	24.459
592.41	24.580
592.74	24.167
593.08	23.698
593.41	23.968
593.75	23.895
594.08	23.961
594.41	24.308
594.75	24.452
595.08	24.726
595.42	24.819
595.75	24.383
596.09	24.678
596.42	24.217
596.75	25.801
597.09	24.598
597.42	24.776
597.75	24.381
598.09	24.046
598.42	24.357
598.76	25.019
599.09	25.156
599.42	24.118
599.76	24.152
600.09	24.305
600.42	24.344
600.76	23.623
601.09	23.921
601.42	24.498
601.76	24.096
602.09	25.092
602.42	24.399
602.76	24.478
603.09	24.849
603.42	24.330
603.76	24.331
604.09	23.706
604.42	24.331
604.76	24.496
605.09	24.531
605.42	23.974
605.75	24.358
606.09	24.063
606.42	24.126
606.75	24.174
607.09	24.793
607.42	24.267
607.75	24.084
608.08	24.695
608.42	25.168
608.75	24.433
609.08	24.901
609.41	25.500
609.75	25.229
610.08	24.685
610.41	24.638
610.74	25.022
611.07	24.920
611.41	24.791
611.74	25.478
612.07	25.337
612.40	25.682
612.73	25.562
613.07	26.102
613.40	25.664
613.73	25.662
614.06	24.350
614.39	25.859
614.72	25.414
615.06	24.481
615.39	24.208
615.72	25.073
616.05	25.314
616.38	25.977
616.71	25.719
617.05	24.437
617.38	24.607
617.71	25.703
618.04	25.687
618.37	25.737
618.70	25.346
619.03	25.885
619.36	27.575
619.69	26.781
620.03	26.941
620.36	26.782
620.69	26.437
621.02	27.310
621.35	26.218
621.68	27.360
622.01	28.635
622.34	27.167
622.67	27.177
623.00	26.481
623.33	27.328
623.66	26.480
623.99	26.712
624.32	26.829
624.65	26.531
624.99	26.842
625.32	27.188
625.65	26.000
625.98	27.197
626.31	27.077
626.64	26.576
626.97	27.927
627.30	28.804
627.63	27.237
627.96	27.230
628.29	28.135
628.62	27.288
628.95	29.965
629.28	29.360
629.61	28.998
629.94	27.571
630.26	27.556
630.59	29.610
630.92	29.058
631.25	30.372
