SpectraSuite Data File
++++++++++++++++++++++++++++++++++++
Date: Tue May 12 17:24:14 PDT 2015
User: schluterlab
Dark Spectrum Present: Yes
Reference Spectrum Present: Yes
Number of Sampled Component Spectra: 1
Spectrometers: USB2E3373
Integration Time (usec): 3000 (USB2E3373)
Spectra Averaged: 3 (USB2E3373)
Boxcar Smoothing: 0 (USB2E3373)
Correct for Electrical Dark: No (USB2E3373)
Strobe/Lamp Enabled: No (USB2E3373)
Correct for Detector Non-linearity: No (USB2E3373)
Correct for Stray Light: No (USB2E3373)
Number of Pixels in Processed Spectrum: 2048
>>>>>Begin Processed Spectral Data<<<<<
178.53	0.000
178.91	-225.000
179.29	-750.000
179.67	-3800.000
180.04	-113.333
180.42	725.000
180.80	1550.000
181.18	0.000
181.56	-350.000
181.94	0.000
182.31	766.667
182.69	-3000.000
183.07	514.286
183.45	-2900.000
183.83	-1650.000
184.20	280.000
184.58	342.857
184.96	-253.846
185.34	-216.667
185.72	1550.000
186.09	-700.000
186.47	-2800.000
186.85	1000.000
187.23	620.000
187.61	1650.000
187.98	525.000
188.36	300.000
188.74	325.000
189.12	275.000
189.49	1125.000
189.87	0.000
190.25	475.000
190.63	3100.000
191.00	-175.000
191.38	-3800.000
191.76	-425.000
192.14	512.500
192.51	-3000.000
192.89	2100.000
193.27	966.667
193.65	-1066.667
194.02	-740.000
194.40	485.714
194.78	-250.000
195.15	206.667
195.53	-3900.000
195.91	-560.000
196.29	4300.000
196.66	206.250
197.04	850.000
197.42	-1850.000
197.79	800.000
198.17	291.667
198.55	0.000
198.92	500.000
199.30	1033.333
199.68	2200.000
200.05	633.333
200.43	-400.000
200.81	227.778
201.18	2900.000
201.56	233.333
201.94	-850.000
202.31	-250.000
202.69	-520.000
203.07	2900.000
203.44	-566.667
203.82	300.000
204.19	600.000
204.57	-1150.000
204.95	-725.000
205.32	-820.000
205.70	466.667
206.08	775.000
206.45	-966.667
206.83	400.000
207.20	210.526
207.58	325.000
207.96	860.000
208.33	0.000
208.71	600.000
209.08	740.000
209.46	-2800.000
209.84	-1100.000
210.21	860.000
210.59	-660.000
210.96	208.333
211.34	-925.000
211.71	290.909
212.09	925.000
212.46	1400.000
212.84	-466.667
213.22	433.333
213.59	-3400.000
213.97	350.000
214.34	850.000
214.72	1333.333
215.09	1166.667
215.47	-3500.000
215.84	-320.000
216.22	-525.000
216.59	0.000
216.97	0.000
217.34	1250.000
217.72	-1750.000
218.09	1166.667
218.47	437.500
218.84	750.000
219.22	1133.333
219.59	1166.667
219.97	542.857
220.34	355.556
220.72	1900.000
221.09	3600.000
221.47	333.333
221.84	933.333
222.22	370.000
222.59	238.889
222.97	221.429
223.34	262.500
223.72	-1650.000
224.09	1133.333
224.46	261.538
224.84	-625.000
225.21	433.333
225.59	340.000
225.96	1066.667
226.34	-680.000
226.71	-775.000
227.08	-580.000
227.46	0.000
227.83	-633.333
228.21	-2050.000
228.58	333.333
228.95	1050.000
229.33	344.444
229.70	1150.000
230.08	376.923
230.45	3700.000
230.82	-800.000
231.20	-1266.667
231.57	-1166.667
231.95	620.000
232.32	316.667
232.69	616.667
233.07	291.667
233.44	-1650.000
233.81	266.667
234.19	174.074
234.56	206.250
234.93	200.000
235.31	185.000
235.68	331.250
236.05	178.571
236.43	192.593
236.80	285.714
237.17	213.793
237.55	134.375
237.92	135.000
238.29	190.909
238.67	175.000
239.04	126.829
239.41	95.833
239.79	137.500
240.16	122.917
240.53	104.918
240.91	91.304
241.28	122.034
241.65	95.455
242.02	108.451
242.40	114.286
242.77	83.516
243.14	97.468
243.51	97.980
243.89	82.243
244.26	84.112
244.63	86.139
245.00	78.899
245.38	85.593
245.75	76.515
246.12	88.889
246.49	73.759
246.87	74.590
247.24	75.333
247.61	73.125
247.98	81.633
248.36	74.545
248.73	67.347
249.10	72.024
249.47	67.500
249.84	74.627
250.22	77.838
250.59	74.500
250.96	64.979
251.33	70.233
251.70	68.304
252.08	70.588
252.45	67.729
252.82	64.259
253.19	64.822
253.56	62.308
253.94	63.043
254.31	67.442
254.68	66.899
255.05	67.586
255.42	67.153
255.79	66.450
256.16	73.220
256.54	69.481
256.91	66.993
257.28	70.234
257.65	59.561
258.02	63.422
258.39	63.037
258.76	64.638
259.14	63.429
259.51	65.598
259.88	68.085
260.25	57.692
260.62	66.027
260.99	61.708
261.36	62.117
261.73	64.894
262.10	67.277
262.47	58.250
262.85	63.733
263.22	64.781
263.59	63.939
263.96	63.659
264.33	60.988
264.70	64.128
265.07	61.707
265.44	61.697
265.81	62.500
266.18	64.073
266.55	59.102
266.92	61.298
267.29	63.377
267.66	60.090
268.03	63.901
268.40	61.099
268.77	61.674
269.14	60.954
269.51	59.243
269.88	58.980
270.25	58.531
270.62	62.876
270.99	61.866
271.36	60.569
271.73	59.748
272.10	59.394
272.47	60.913
272.84	60.279
273.21	59.711
273.58	60.121
273.95	63.655
274.32	60.311
274.69	61.024
275.06	59.199
275.43	56.705
275.80	58.113
276.17	56.801
276.54	60.000
276.91	63.246
277.28	59.307
277.65	59.041
278.02	58.824
278.39	57.554
278.76	56.207
279.13	59.609
279.50	57.273
279.87	58.101
280.23	56.906
280.60	60.219
280.97	60.690
281.34	58.746
281.71	57.565
282.08	56.752
282.45	57.770
282.82	57.358
283.19	55.962
283.56	56.033
283.92	58.632
284.29	56.240
284.66	55.126
285.03	57.546
285.40	55.702
285.77	55.556
286.14	54.799
286.51	53.528
286.87	53.956
287.24	53.604
287.61	54.711
287.98	52.388
288.35	52.000
288.72	51.442
289.08	53.453
289.45	55.183
289.82	52.344
290.19	51.098
290.56	52.693
290.93	51.079
291.29	49.309
291.66	50.989
292.03	51.473
292.40	46.612
292.77	50.000
293.13	48.930
293.50	48.583
293.87	45.528
294.24	49.510
294.60	47.914
294.97	49.371
295.34	47.809
295.71	46.518
296.08	44.933
296.44	46.506
296.81	46.278
297.18	43.853
297.55	44.828
297.91	43.350
298.28	44.928
298.65	43.190
299.02	43.908
299.38	44.125
299.75	43.902
300.12	42.431
300.48	44.379
300.85	44.219
301.22	43.605
301.59	42.335
301.95	41.424
302.32	43.423
302.69	43.439
303.05	44.332
303.42	41.256
303.79	42.579
304.15	42.574
304.52	41.226
304.89	42.004
305.25	42.492
305.62	41.258
305.99	41.522
306.35	41.895
306.72	41.831
307.09	41.718
307.45	42.555
307.82	41.461
308.19	42.062
308.55	41.200
308.92	43.180
309.29	43.097
309.65	42.121
310.02	44.118
310.38	42.772
310.75	40.887
311.12	41.284
311.48	43.533
311.85	43.225
312.22	45.654
312.58	43.732
312.95	43.689
313.31	43.352
313.68	43.715
314.05	45.238
314.41	45.810
314.78	45.739
315.14	46.825
315.51	47.304
315.87	45.803
316.24	47.526
316.61	45.927
316.97	46.881
317.34	47.889
317.70	47.147
318.07	49.733
318.43	50.264
318.80	49.912
319.16	50.962
319.53	50.177
319.89	52.509
320.26	56.704
320.62	53.022
320.99	53.384
321.35	54.917
321.72	56.546
322.08	56.971
322.45	57.312
322.81	58.554
323.18	59.414
323.54	60.192
323.91	63.101
324.27	61.627
324.64	62.803
325.00	64.052
325.37	64.418
325.73	65.683
326.10	67.191
326.46	66.722
326.83	66.800
327.19	70.442
327.56	69.569
327.92	72.049
328.29	72.422
328.65	74.058
329.01	73.909
329.38	73.181
329.74	73.954
330.11	76.021
330.47	77.835
330.84	75.065
331.20	75.719
331.56	79.188
331.93	77.759
332.29	76.616
332.66	78.571
333.02	78.265
333.38	79.319
333.75	79.650
334.11	77.685
334.48	80.598
334.84	76.774
335.20	78.614
335.57	79.849
335.93	79.310
336.29	77.612
336.66	81.046
337.02	80.496
337.38	80.482
337.75	80.574
338.11	80.928
338.47	80.694
338.84	80.102
339.20	80.087
339.56	79.563
339.93	77.676
340.29	78.151
340.65	81.056
341.02	79.405
341.38	79.064
341.74	81.561
342.11	81.803
342.47	78.917
342.83	83.511
343.20	79.547
343.56	79.666
343.92	81.916
344.28	80.861
344.65	81.826
345.01	80.873
345.37	80.288
345.73	79.683
346.10	79.761
346.46	82.775
346.82	79.552
347.19	81.066
347.55	80.718
347.91	78.852
348.27	80.558
348.63	81.804
349.00	80.579
349.36	81.946
349.72	80.963
350.08	82.298
350.45	81.417
350.81	80.963
351.17	81.125
351.53	79.908
351.89	82.517
352.26	80.952
352.62	82.428
352.98	81.212
353.34	81.741
353.70	80.887
354.07	82.000
354.43	80.722
354.79	79.499
355.15	83.231
355.51	80.363
355.87	81.024
356.24	82.833
356.60	80.213
356.96	81.653
357.32	79.653
357.68	80.396
358.04	82.067
358.40	81.109
358.77	81.893
359.13	82.658
359.49	80.430
359.85	80.715
360.21	79.866
360.57	81.752
360.93	81.746
361.29	82.179
361.66	82.699
362.02	79.616
362.38	81.385
362.74	82.095
363.10	81.697
363.46	79.144
363.82	80.435
364.18	82.432
364.54	83.119
364.90	81.325
365.26	81.749
365.62	81.215
365.98	81.555
366.35	80.897
366.71	81.194
367.07	81.843
367.43	79.852
367.79	80.851
368.15	80.868
368.51	81.737
368.87	80.842
369.23	82.328
369.59	80.850
369.95	81.259
370.31	81.588
370.67	81.194
371.03	81.232
371.39	80.817
371.75	82.275
372.11	79.946
372.47	82.192
372.83	83.549
373.19	81.289
373.55	80.481
373.91	80.525
374.27	80.688
374.63	82.237
374.99	81.199
375.35	82.124
375.71	80.739
376.07	81.499
376.42	79.348
376.78	83.237
377.14	83.552
377.50	80.961
377.86	82.191
378.22	81.231
378.58	82.506
378.94	81.171
379.30	81.747
379.66	81.156
380.02	80.938
380.38	82.670
380.74	82.065
381.09	82.009
381.45	80.751
381.81	81.324
382.17	80.342
382.53	80.864
382.89	80.544
383.25	81.231
383.61	80.058
383.97	81.104
384.32	81.917
384.68	81.937
385.04	79.601
385.40	81.020
385.76	79.462
386.12	81.880
386.48	81.337
386.83	81.235
387.19	81.272
387.55	81.508
387.91	80.889
388.27	81.678
388.62	80.282
388.98	79.883
389.34	80.250
389.70	81.545
390.06	80.549
390.42	80.814
390.77	79.853
391.13	82.016
391.49	79.189
391.85	80.800
392.20	78.546
392.56	79.749
392.92	78.271
393.28	81.390
393.64	81.422
393.99	80.202
394.35	79.341
394.71	79.614
395.07	79.805
395.42	79.157
395.78	80.074
396.14	80.783
396.50	79.904
396.85	78.171
397.21	80.144
397.57	80.036
397.92	79.145
398.28	79.812
398.64	77.836
399.00	78.781
399.35	78.798
399.71	78.146
400.07	79.338
400.42	78.687
400.78	80.059
401.14	78.391
401.49	78.629
401.85	78.100
402.21	76.743
402.57	77.678
402.92	78.303
403.28	78.222
403.63	77.045
403.99	79.131
404.35	77.608
404.70	78.559
405.06	76.249
405.42	78.037
405.77	75.744
406.13	75.651
406.49	77.942
406.84	75.353
407.20	77.169
407.55	77.785
407.91	77.345
408.27	77.259
408.62	77.292
408.98	76.878
409.34	76.330
409.69	76.042
410.05	75.313
410.40	75.795
410.76	75.959
411.11	76.955
411.47	75.309
411.83	74.985
412.18	76.570
412.54	75.676
412.89	74.749
413.25	75.770
413.60	74.241
413.96	74.985
414.31	76.092
414.67	76.350
415.03	76.437
415.38	75.962
415.74	76.500
416.09	75.703
416.45	77.569
416.80	75.561
417.16	75.175
417.51	74.713
417.87	76.533
418.22	76.306
418.58	77.389
418.93	74.123
419.29	74.923
419.64	74.621
420.00	74.403
420.35	76.016
420.71	74.096
421.06	75.221
421.42	75.187
421.77	76.069
422.12	74.366
422.48	74.268
422.83	74.275
423.19	74.190
423.54	73.341
423.90	75.028
424.25	74.188
424.61	73.651
424.96	74.591
425.31	74.220
425.67	75.084
426.02	74.762
426.38	74.271
426.73	75.304
427.09	74.318
427.44	73.438
427.79	73.299
428.15	75.486
428.50	75.143
428.85	73.604
429.21	72.880
429.56	72.134
429.92	72.999
430.27	73.053
430.62	71.561
430.98	71.956
431.33	72.329
431.68	72.346
432.04	71.288
432.39	73.930
432.74	74.005
433.10	73.754
433.45	74.153
433.80	75.179
434.16	73.095
434.51	73.529
434.86	73.435
435.22	73.744
435.57	72.851
435.92	74.047
436.28	74.942
436.63	73.474
436.98	74.212
437.34	71.975
437.69	72.116
438.04	72.742
438.39	72.796
438.75	71.158
439.10	72.369
439.45	70.661
439.81	72.354
440.16	72.812
440.51	71.227
440.86	74.302
441.22	71.212
441.57	71.969
441.92	72.606
442.27	71.907
442.63	71.951
442.98	70.420
443.33	71.505
443.68	71.831
444.03	71.018
444.39	71.940
444.74	70.859
445.09	70.879
445.44	72.051
445.79	71.589
446.15	70.947
446.50	70.992
446.85	72.161
447.20	70.398
447.55	70.854
447.91	70.751
448.26	70.607
448.61	71.752
448.96	71.950
449.31	71.067
449.66	71.539
450.02	70.016
450.37	71.904
450.72	71.295
451.07	70.157
451.42	70.184
451.77	72.279
452.12	70.164
452.47	71.628
452.83	70.592
453.18	70.511
453.53	71.166
453.88	70.857
454.23	69.727
454.58	70.163
454.93	69.344
455.28	71.909
455.63	71.454
455.98	69.938
456.34	70.760
456.69	71.341
457.04	70.823
457.39	70.800
457.74	70.270
458.09	68.782
458.44	67.251
458.79	69.708
459.14	69.831
459.49	69.592
459.84	69.402
460.19	68.305
460.54	69.459
460.89	69.616
461.24	67.869
461.59	69.274
461.94	69.149
462.29	69.165
462.64	69.347
462.99	68.458
463.34	68.503
463.69	68.966
464.04	68.912
464.39	68.632
464.74	67.175
465.09	68.195
465.44	68.226
465.79	67.937
466.14	66.720
466.49	67.824
466.84	67.559
467.19	68.717
467.54	68.048
467.89	67.723
468.24	69.021
468.59	67.500
468.94	68.297
469.29	67.624
469.64	68.617
469.99	67.352
470.34	67.489
470.68	66.276
471.03	68.312
471.38	67.616
471.73	68.256
472.08	69.537
472.43	68.281
472.78	68.374
473.13	66.834
473.48	66.687
473.83	66.372
474.17	66.505
474.52	65.521
474.87	65.833
475.22	66.305
475.57	64.690
475.92	65.815
476.27	64.853
476.61	66.059
476.96	65.831
477.31	66.221
477.66	68.009
478.01	66.013
478.36	66.478
478.70	64.715
479.05	66.632
479.40	65.427
479.75	66.584
480.10	65.440
480.45	65.266
480.79	65.300
481.14	65.097
481.49	64.181
481.84	63.940
482.19	64.498
482.53	64.822
482.88	64.740
483.23	64.456
483.58	65.664
483.92	64.808
484.27	64.127
484.62	64.134
484.97	63.265
485.31	62.121
485.66	61.439
486.01	60.863
486.36	60.168
486.70	60.233
487.05	60.406
487.40	60.565
487.75	61.100
488.09	60.824
488.44	62.046
488.79	61.958
489.13	62.374
489.48	63.084
489.83	62.636
490.17	61.561
490.52	64.126
490.87	63.362
491.22	63.298
491.56	63.417
491.91	62.455
492.26	62.851
492.60	64.009
492.95	62.347
493.30	62.875
493.64	62.534
493.99	61.628
494.34	62.214
494.68	63.391
495.03	62.910
495.37	61.909
495.72	62.238
496.07	61.635
496.41	61.599
496.76	61.714
497.11	62.382
497.45	61.903
497.80	61.770
498.14	61.535
498.49	61.467
498.84	62.056
499.18	60.558
499.53	61.415
499.87	62.040
500.22	61.492
500.56	61.978
500.91	62.384
501.26	60.864
501.60	61.248
501.95	61.201
502.29	61.289
502.64	60.256
502.98	60.071
503.33	61.203
503.67	59.912
504.02	59.875
504.36	60.679
504.71	61.116
505.06	60.113
505.40	59.569
505.75	60.056
506.09	60.056
506.44	60.902
506.78	61.342
507.13	61.415
507.47	59.534
507.82	61.849
508.16	61.489
508.51	60.773
508.85	60.969
509.19	60.744
509.54	60.986
509.88	60.318
510.23	59.118
510.57	59.073
510.92	61.289
511.26	61.044
511.61	59.527
511.95	59.233
512.30	59.000
512.64	60.384
512.98	60.277
513.33	60.400
513.67	59.865
514.02	58.182
514.36	59.398
514.70	60.320
515.05	59.350
515.39	61.458
515.74	61.126
516.08	60.621
516.42	62.240
516.77	59.893
517.11	59.200
517.46	60.129
517.80	59.366
518.14	60.169
518.49	59.978
518.83	59.066
519.17	59.956
519.52	60.131
519.86	59.837
520.20	59.890
520.55	59.356
520.89	59.598
521.23	60.923
521.58	58.864
521.92	59.417
522.26	60.190
522.61	59.418
522.95	61.562
523.29	61.170
523.64	59.249
523.98	59.859
524.32	60.092
524.66	58.609
525.01	59.053
525.35	58.456
525.69	60.265
526.04	59.072
526.38	58.152
526.72	59.845
527.06	58.309
527.41	60.339
527.75	60.560
528.09	57.736
528.43	58.694
528.78	58.795
529.12	59.663
529.46	58.036
529.80	58.061
530.15	58.928
530.49	58.604
530.83	58.196
531.17	59.225
531.51	59.227
531.86	57.911
532.20	58.529
532.54	59.071
532.88	58.651
533.22	58.745
533.57	59.549
533.91	57.517
534.25	56.780
534.59	58.655
534.93	56.769
535.27	56.175
535.62	55.951
535.96	56.442
536.30	58.623
536.64	58.075
536.98	57.206
537.32	58.188
537.66	57.462
538.01	57.214
538.35	58.141
538.69	57.039
539.03	56.281
539.37	56.978
539.71	56.481
540.05	57.169
540.39	56.541
540.73	57.532
541.07	57.152
541.42	56.592
541.76	56.412
542.10	56.843
542.44	57.357
542.78	55.947
543.12	55.031
543.46	55.451
543.80	56.266
544.14	56.966
544.48	55.839
544.82	56.391
545.16	54.038
545.50	56.238
545.84	55.745
546.18	57.997
546.52	57.705
546.86	56.802
547.20	55.491
547.54	55.478
547.88	55.657
548.22	56.102
548.56	54.213
548.90	54.330
549.24	55.022
549.58	56.314
549.92	55.861
550.26	57.539
550.60	54.957
550.94	57.531
551.28	56.414
551.62	57.724
551.96	55.743
552.30	54.384
552.64	55.210
552.98	56.250
553.32	55.250
553.66	54.267
554.00	55.470
554.34	56.325
554.68	54.772
555.02	55.737
555.36	54.654
555.69	54.777
556.03	54.331
556.37	54.238
556.71	56.128
557.05	54.194
557.39	55.600
557.73	55.323
558.07	55.667
558.41	55.860
558.75	55.882
559.08	56.755
559.42	56.979
559.76	55.952
560.10	54.233
560.44	53.816
560.78	55.563
561.12	54.164
561.45	53.254
561.79	53.059
562.13	53.948
562.47	55.289
562.81	54.847
563.15	53.782
563.48	52.547
563.82	55.583
564.16	54.291
564.50	52.321
564.84	53.556
565.17	52.466
565.51	55.049
565.85	54.411
566.19	53.571
566.52	53.851
566.86	53.415
567.20	53.371
567.54	53.930
567.88	53.521
568.21	52.671
568.55	52.091
568.89	51.551
569.23	51.769
569.56	51.717
569.90	50.054
570.24	50.562
570.57	50.454
570.91	48.799
571.25	49.021
571.59	48.928
571.92	48.251
572.26	48.652
572.60	48.431
572.93	49.971
573.27	49.081
573.61	49.459
573.95	49.029
574.28	48.861
574.62	48.160
574.96	47.333
575.29	47.725
575.63	47.609
575.97	47.274
576.30	48.089
576.64	47.945
576.98	47.922
577.31	48.735
577.65	47.772
577.98	47.643
578.32	47.757
578.66	47.589
578.99	47.409
579.33	47.564
579.67	47.357
580.00	47.283
580.34	47.519
580.67	47.114
581.01	47.773
581.35	47.386
581.68	47.450
582.02	47.366
582.35	47.047
582.69	47.031
583.02	47.051
583.36	47.901
583.70	47.729
584.03	48.372
584.37	48.258
584.70	47.450
585.04	46.895
585.37	47.475
585.71	48.045
586.04	46.846
586.38	46.972
586.72	47.104
587.05	47.324
587.39	47.130
587.72	47.548
588.06	47.480
588.39	47.416
588.73	47.262
589.06	47.739
589.40	47.668
589.73	48.345
590.07	49.108
590.40	48.293
590.73	49.651
591.07	49.108
591.40	48.663
591.74	48.458
592.07	48.211
592.41	48.721
592.74	48.114
593.08	47.754
593.41	47.876
593.75	46.764
594.08	47.706
594.41	47.214
594.75	47.397
595.08	47.428
595.42	48.124
595.75	47.187
596.09	48.071
596.42	47.706
596.75	48.718
597.09	48.906
597.42	47.265
597.75	48.114
598.09	46.943
598.42	47.572
598.76	47.494
599.09	48.290
599.42	47.197
599.76	47.151
600.09	46.508
600.42	47.341
600.76	47.349
601.09	47.497
601.42	46.603
601.76	46.975
602.09	47.204
602.42	46.617
602.76	47.324
603.09	48.115
603.42	47.743
603.76	47.072
604.09	47.159
604.42	46.478
604.76	47.096
605.09	46.000
605.42	47.582
605.75	47.217
606.09	47.169
606.42	46.298
606.75	47.377
607.09	46.940
607.42	46.926
607.75	46.935
608.08	46.913
608.42	46.644
608.75	46.170
609.08	46.282
609.41	47.773
609.75	47.619
610.08	46.987
610.41	47.650
610.74	46.623
611.07	48.113
611.41	48.146
611.74	47.945
612.07	48.170
612.40	48.635
612.73	48.427
613.07	47.897
613.40	48.622
613.73	47.529
614.06	46.050
614.39	48.182
614.72	47.464
615.06	47.379
615.39	47.030
615.72	46.757
616.05	47.212
616.38	46.017
616.71	46.989
617.05	47.721
617.38	47.753
617.71	48.763
618.04	48.009
618.37	47.916
618.70	47.864
619.03	46.703
619.36	47.864
619.69	47.823
620.03	49.054
620.36	49.454
620.69	48.276
621.02	49.321
621.35	49.427
621.68	49.484
622.01	49.594
622.34	49.235
622.67	49.087
623.00	48.060
623.33	47.166
623.66	48.570
623.99	49.041
624.32	48.442
624.65	48.190
624.99	49.561
625.32	49.232
625.65	49.793
625.98	48.536
626.31	50.519
626.64	48.823
626.97	49.885
627.30	48.680
627.63	50.157
627.96	47.809
628.29	50.578
628.62	49.187
628.95	50.355
629.28	51.008
629.61	50.264
629.94	49.352
630.26	49.740
630.59	51.152
630.92	48.700
