SpectraSuite Data File
++++++++++++++++++++++++++++++++++++
Date: Tue May 12 16:52:12 PDT 2015
User: schluterlab
Dark Spectrum Present: Yes
Reference Spectrum Present: Yes
Number of Sampled Component Spectra: 1
Spectrometers: USB2E3373
Integration Time (usec): 3000 (USB2E3373)
Spectra Averaged: 3 (USB2E3373)
Boxcar Smoothing: 0 (USB2E3373)
Correct for Electrical Dark: No (USB2E3373)
Strobe/Lamp Enabled: No (USB2E3373)
Correct for Detector Non-linearity: No (USB2E3373)
Correct for Stray Light: No (USB2E3373)
Number of Pixels in Processed Spectrum: 2048
>>>>>Begin Processed Spectral Data<<<<<
178.53	0.000
178.91	-275.000
179.29	-775.000
179.67	-3800.000
180.04	-153.333
180.42	600.000
180.80	2200.000
181.18	0.000
181.56	-287.500
181.94	0.000
182.31	966.667
182.69	-3200.000
183.07	557.143
183.45	-4200.000
183.83	-1400.000
184.20	380.000
184.58	485.714
184.96	-200.000
185.34	-225.000
185.72	1700.000
186.09	-1150.000
186.47	-2900.000
186.85	1300.000
187.23	600.000
187.61	1450.000
187.98	475.000
188.36	335.714
188.74	350.000
189.12	341.667
189.49	850.000
189.87	0.000
190.25	450.000
190.63	2200.000
191.00	-191.667
191.38	-3000.000
191.76	-675.000
192.14	575.000
192.51	-2800.000
192.89	1700.000
193.27	1066.667
193.65	-1233.333
194.02	-700.000
194.40	557.143
194.78	-242.857
195.15	240.000
195.53	-3000.000
195.91	-600.000
196.29	3900.000
196.66	262.500
197.04	800.000
197.42	-1500.000
197.79	475.000
198.17	316.667
198.55	0.000
198.92	414.286
199.30	1200.000
199.68	1600.000
200.05	616.667
200.43	-233.333
200.81	183.333
201.18	3500.000
201.56	266.667
201.94	-800.000
202.31	-212.500
202.69	-440.000
203.07	3600.000
203.44	-516.667
203.82	333.333
204.19	660.000
204.57	-1450.000
204.95	-725.000
205.32	-720.000
205.70	483.333
206.08	875.000
206.45	-733.333
206.83	377.778
207.20	136.842
207.58	316.667
207.96	600.000
208.33	0.000
208.71	614.286
209.08	640.000
209.46	-3700.000
209.84	-725.000
210.21	640.000
210.59	-660.000
210.96	283.333
211.34	-875.000
211.71	472.727
212.09	825.000
212.46	1900.000
212.84	-466.667
213.22	355.556
213.59	-2000.000
213.97	260.000
214.34	900.000
214.72	1100.000
215.09	1300.000
215.47	-3700.000
215.84	-300.000
216.22	-500.000
216.59	0.000
216.97	0.000
217.34	1600.000
217.72	-1750.000
218.09	1166.667
218.47	537.500
218.84	775.000
219.22	1066.667
219.59	1066.667
219.97	571.429
220.34	444.444
220.72	1300.000
221.09	3300.000
221.47	308.333
221.84	1366.667
222.22	370.000
222.59	255.556
222.97	271.429
223.34	243.750
223.72	-1800.000
224.09	1100.000
224.46	223.077
224.84	-800.000
225.21	366.667
225.59	273.333
225.96	1066.667
226.34	-660.000
226.71	-375.000
227.08	-480.000
227.46	0.000
227.83	-600.000
228.21	-1600.000
228.58	408.333
228.95	1025.000
229.33	388.889
229.70	1050.000
230.08	392.308
230.45	4800.000
230.82	-975.000
231.20	-833.333
231.57	-900.000
231.95	560.000
232.32	308.333
232.69	266.667
233.07	325.000
233.44	-1600.000
233.81	233.333
234.19	137.037
234.56	256.250
234.93	217.647
235.31	180.000
235.68	206.250
236.05	164.286
236.43	100.000
236.80	192.857
237.17	131.034
237.55	115.625
237.92	115.000
238.29	87.879
238.67	115.625
239.04	90.244
239.41	60.417
239.79	77.500
240.16	64.583
240.53	57.377
240.91	49.275
241.28	59.322
241.65	43.939
242.02	56.338
242.40	57.143
242.77	45.055
243.14	34.177
243.51	46.465
243.89	34.579
244.26	33.645
244.63	36.634
245.00	33.028
245.38	27.119
245.75	30.303
246.12	35.556
246.49	24.823
246.87	20.492
247.24	25.333
247.61	22.500
247.98	21.769
248.36	21.212
248.73	25.000
249.10	16.667
249.47	19.500
249.84	23.881
250.22	18.378
250.59	21.500
250.96	20.675
251.33	19.535
251.70	20.089
252.08	19.748
252.45	18.725
252.82	15.589
253.19	15.810
253.56	13.846
253.94	15.580
254.31	14.341
254.68	17.073
255.05	16.897
255.42	15.693
255.79	13.681
256.16	14.915
256.54	15.584
256.91	10.131
257.28	11.706
257.65	9.091
258.02	9.440
258.39	14.900
258.76	13.913
259.14	10.286
259.51	11.953
259.88	13.070
260.25	9.341
260.62	10.959
260.99	7.989
261.36	10.585
261.73	9.840
262.10	10.471
262.47	9.750
262.85	7.200
263.22	10.797
263.59	9.463
263.96	12.030
264.33	8.148
264.70	12.776
265.07	6.098
265.44	11.927
265.81	9.434
266.18	9.611
266.55	9.693
266.92	8.501
267.29	9.649
267.66	7.848
268.03	7.848
268.40	9.302
268.77	11.674
269.14	5.857
269.51	6.459
269.88	8.980
270.25	5.832
270.62	8.155
270.99	10.751
271.36	8.537
271.73	9.434
272.10	9.697
272.47	7.738
272.84	6.986
273.21	8.058
273.58	9.109
273.95	6.571
274.32	8.366
274.69	10.827
275.06	8.379
275.43	7.471
275.80	8.491
276.17	10.846
276.54	8.972
276.91	7.276
277.28	8.029
277.65	7.380
278.02	8.088
278.39	7.014
278.76	8.276
279.13	6.584
279.50	8.727
279.87	8.566
280.23	5.525
280.60	8.394
280.97	7.759
281.34	7.261
281.71	8.870
282.08	9.231
282.45	6.588
282.82	8.528
283.19	8.903
283.56	5.950
283.92	7.818
284.29	7.155
284.66	6.723
285.03	8.458
285.40	7.603
285.77	7.716
286.14	8.359
286.51	7.362
286.87	5.380
287.24	6.156
287.61	6.687
287.98	7.612
288.35	6.667
288.72	6.525
289.08	6.607
289.45	7.317
289.82	9.219
290.19	8.785
290.56	8.151
290.93	7.626
291.29	7.873
291.66	5.791
292.03	8.275
292.40	7.588
292.77	6.685
293.13	6.847
293.50	6.748
293.87	7.317
294.24	8.531
294.60	8.345
294.97	9.930
295.34	8.234
295.71	7.884
296.08	10.000
296.44	8.767
296.81	7.692
297.18	6.971
297.55	8.744
297.91	7.759
298.28	9.903
298.65	8.098
299.02	8.082
299.38	8.993
299.75	8.171
300.12	9.748
300.48	10.304
300.85	9.654
301.22	9.302
301.59	8.608
301.95	9.335
302.32	10.477
302.69	10.068
303.05	11.111
303.42	10.090
303.79	10.401
304.15	10.781
304.52	10.571
304.89	11.087
305.25	10.234
305.62	11.834
305.99	11.522
306.35	11.789
306.72	11.655
307.09	11.491
307.45	11.616
307.82	11.420
308.19	12.165
308.55	10.400
308.92	13.739
309.29	13.116
309.65	11.695
310.02	12.576
310.38	14.158
310.75	12.633
311.12	11.782
311.48	13.514
311.85	14.122
312.22	14.040
312.58	13.605
312.95	14.175
313.31	12.734
313.68	13.508
314.05	15.842
314.41	15.177
314.78	15.057
315.14	15.071
315.51	15.610
315.87	15.420
316.24	16.713
316.61	15.219
316.97	14.954
317.34	16.262
317.70	16.330
318.07	17.260
318.43	16.960
318.80	18.039
319.16	17.570
319.53	16.726
319.89	17.294
320.26	19.367
320.62	17.399
320.99	16.969
321.35	18.089
321.72	18.596
322.08	20.960
322.45	19.619
322.81	19.213
323.18	19.982
323.54	20.819
323.91	21.487
324.27	20.778
324.64	20.156
325.00	22.845
325.37	22.597
325.73	23.272
326.10	24.938
326.46	24.277
326.83	23.680
327.19	24.016
327.56	23.083
327.92	23.934
328.29	26.187
328.65	26.199
329.01	25.920
329.38	25.719
329.74	23.997
330.11	26.499
330.47	26.939
330.84	24.763
331.20	25.888
331.56	28.152
331.93	27.973
332.29	25.085
332.66	26.871
333.02	26.632
333.38	26.091
333.75	27.606
334.11	28.104
334.48	26.581
334.84	26.267
335.20	27.288
335.57	27.708
335.93	26.493
336.29	26.617
336.66	28.559
337.02	26.176
337.38	26.741
337.75	26.605
338.11	27.932
338.47	26.418
338.84	26.672
339.20	26.494
339.56	26.409
339.93	27.258
340.29	25.966
340.65	27.829
341.02	27.031
341.38	26.683
341.74	27.326
342.11	26.628
342.47	26.333
342.83	27.892
343.20	27.243
343.56	25.894
343.92	26.094
344.28	28.469
344.65	27.547
345.01	25.873
345.37	26.522
345.73	27.063
346.10	25.498
346.46	27.671
346.82	26.466
347.19	28.053
347.55	27.244
347.91	27.115
348.27	26.026
348.63	28.323
349.00	28.332
349.36	27.393
349.72	27.752
350.08	27.640
350.45	27.190
350.81	27.752
351.17	27.196
351.53	27.252
351.89	28.205
352.26	27.438
352.62	27.677
352.98	27.071
353.34	29.122
353.70	27.141
354.07	28.231
354.43	28.648
354.79	26.651
355.15	28.331
355.51	27.568
355.87	27.334
356.24	28.329
356.60	27.093
356.96	27.672
357.32	27.958
357.68	28.414
358.04	28.571
358.40	27.511
358.77	28.249
359.13	27.252
359.49	27.057
359.85	27.774
360.21	27.935
360.57	28.029
360.93	28.283
361.29	27.345
361.66	28.784
362.02	27.770
362.38	27.633
362.74	27.247
363.10	28.050
363.46	27.348
363.82	28.541
364.18	27.952
364.54	28.684
364.90	27.711
365.26	29.563
365.62	27.693
365.98	27.873
366.35	27.724
366.71	28.661
367.07	27.850
367.43	27.401
367.79	27.992
368.15	27.476
368.51	27.843
368.87	26.970
369.23	28.482
369.59	28.658
369.95	29.301
370.31	27.926
370.67	26.926
371.03	28.641
371.39	27.978
371.75	28.123
372.11	27.940
372.47	28.630
372.83	27.192
373.19	29.404
373.55	27.835
373.91	27.901
374.27	28.241
374.63	28.000
374.99	28.369
375.35	27.957
375.71	29.354
376.07	27.586
376.42	27.813
376.78	28.645
377.14	27.392
377.50	28.090
377.86	27.995
378.22	26.935
378.58	29.298
378.94	27.339
379.30	28.260
379.66	27.875
380.02	28.035
380.38	26.991
380.74	28.258
381.09	27.395
381.45	26.936
381.81	28.014
382.17	27.656
382.53	27.115
382.89	27.262
383.25	27.709
383.61	27.493
383.97	27.175
384.32	27.366
384.68	28.461
385.04	27.843
385.40	27.699
385.76	26.156
386.12	26.407
386.48	27.538
386.83	26.039
387.19	27.150
387.55	27.503
387.91	27.887
388.27	26.651
388.62	26.585
388.98	26.181
389.34	25.521
389.70	25.884
390.06	26.463
390.42	26.712
390.77	26.966
391.13	25.830
391.49	25.953
391.85	26.769
392.20	26.103
392.56	26.165
392.92	25.491
393.28	25.617
393.64	24.369
393.99	24.363
394.35	24.603
394.71	24.427
395.07	24.209
395.42	24.649
395.78	24.738
396.14	25.723
396.50	25.090
396.85	25.427
397.21	24.368
397.57	24.626
397.92	23.570
398.28	23.828
398.64	24.666
399.00	24.105
399.35	22.974
399.71	23.344
400.07	23.345
400.42	24.060
400.78	23.050
401.14	23.664
401.49	22.638
401.85	22.943
402.21	22.847
402.57	23.279
402.92	22.667
403.28	22.494
403.63	22.778
403.99	22.738
404.35	23.505
404.70	22.032
405.06	21.673
405.42	22.202
405.77	22.106
406.13	21.150
406.49	21.660
406.84	21.320
407.20	22.146
407.55	21.354
407.91	21.698
408.27	21.831
408.62	21.585
408.98	21.289
409.34	20.807
409.69	21.655
410.05	20.513
410.40	20.200
410.76	20.893
411.11	20.794
411.47	21.111
411.83	21.090
412.18	20.954
412.54	19.339
412.89	19.469
413.25	21.266
413.60	20.327
413.96	20.766
414.31	20.366
414.67	20.546
415.03	20.562
415.38	21.073
415.74	20.531
416.09	20.737
416.45	21.332
416.80	21.488
417.16	20.433
417.51	21.338
417.87	21.277
418.22	21.021
418.58	21.146
418.93	21.237
419.29	20.826
419.64	21.623
420.00	22.613
420.35	20.732
420.71	20.362
421.06	21.248
421.42	22.050
421.77	21.210
422.12	21.940
422.48	21.469
422.83	22.154
423.19	21.868
423.54	22.106
423.90	23.160
424.25	23.005
424.61	22.867
424.96	21.400
425.31	22.715
425.67	23.008
426.02	22.827
426.38	23.454
426.73	23.540
427.09	23.606
427.44	24.029
427.79	23.785
428.15	24.573
428.50	24.629
428.85	24.045
429.21	24.095
429.56	23.629
429.92	24.515
430.27	24.238
430.62	24.327
430.98	24.351
431.33	24.395
431.68	23.160
432.04	24.884
432.39	25.082
432.74	26.347
433.10	25.637
433.45	25.330
433.80	26.089
434.16	25.171
434.51	25.593
434.86	26.783
435.22	24.905
435.57	26.141
435.92	27.433
436.28	27.477
436.63	26.472
436.98	27.477
437.34	26.941
437.69	26.764
438.04	27.043
438.39	27.788
438.75	26.392
439.10	27.415
439.45	26.512
439.81	28.282
440.16	28.729
440.51	27.703
440.86	28.832
441.22	28.030
441.57	29.239
441.92	28.529
442.27	27.835
442.63	27.846
442.98	27.909
443.33	28.816
443.68	28.320
444.03	28.558
444.39	29.002
444.74	29.296
445.09	28.594
445.44	29.012
445.79	28.801
446.15	29.632
446.50	29.272
446.85	29.233
447.20	28.607
447.55	29.255
447.91	29.835
448.26	29.446
448.61	29.298
448.96	30.174
449.31	30.638
449.66	30.731
450.02	29.390
450.37	30.428
450.72	30.468
451.07	30.774
451.42	31.002
451.77	30.183
452.12	30.516
452.47	30.984
452.83	30.704
453.18	31.652
453.53	31.380
453.88	31.257
454.23	30.854
454.58	31.002
454.93	31.269
455.28	31.151
455.63	31.147
455.98	30.739
456.34	31.489
456.69	31.402
457.04	32.220
457.39	31.600
457.74	30.968
458.09	31.499
458.44	31.271
458.79	32.042
459.14	31.151
459.49	30.521
459.84	32.717
460.19	31.751
460.54	31.282
460.89	30.597
461.24	30.985
461.59	32.483
461.94	33.097
462.29	32.666
462.64	32.601
462.99	32.182
463.34	32.534
463.69	33.091
464.04	32.412
464.39	31.368
464.74	30.598
465.09	31.863
465.44	32.209
465.79	31.791
466.14	31.902
466.49	31.470
466.84	31.661
467.19	31.752
467.54	31.111
467.89	32.336
468.24	31.789
468.59	32.857
468.94	32.488
469.29	32.315
469.64	32.797
469.99	32.134
470.34	33.080
470.68	32.897
471.03	32.155
471.38	32.715
471.73	32.462
472.08	34.181
472.43	33.520
472.78	33.867
473.13	32.541
473.48	32.824
473.83	33.569
474.17	32.584
474.52	32.701
474.87	32.405
475.22	33.352
475.57	32.424
475.92	32.397
476.27	32.699
476.61	32.440
476.96	32.079
477.31	32.545
477.66	33.011
478.01	32.439
478.36	33.213
478.70	31.712
479.05	32.322
479.40	32.688
479.75	32.870
480.10	33.059
480.45	31.559
480.79	32.396
481.14	32.573
481.49	32.159
481.84	32.894
482.19	32.489
482.53	31.840
482.88	31.989
483.23	32.476
483.58	32.316
483.92	33.501
484.27	32.577
484.62	32.385
484.97	31.944
485.31	31.496
485.66	30.469
486.01	30.208
486.36	29.936
486.70	29.887
487.05	30.112
487.40	30.437
487.75	31.172
488.09	30.625
488.44	31.262
488.79	31.204
489.13	31.392
489.48	31.762
489.83	32.110
490.17	32.329
490.52	32.817
490.87	32.198
491.22	32.846
491.56	33.992
491.91	32.975
492.26	32.873
492.60	32.984
492.95	33.439
493.30	33.348
493.64	33.423
493.99	32.111
494.34	31.959
494.68	32.581
495.03	33.273
495.37	33.498
495.72	33.473
496.07	32.704
496.41	32.363
496.76	33.010
497.11	32.991
497.45	32.705
497.80	33.503
498.14	33.287
498.49	33.519
498.84	33.364
499.18	32.587
499.53	33.073
499.87	33.019
500.22	33.395
500.56	32.591
500.91	34.137
501.26	33.532
501.60	33.197
501.95	32.124
502.29	32.978
502.64	32.863
502.98	32.548
503.33	32.873
503.67	33.422
504.02	32.378
504.36	33.213
504.71	33.018
505.06	34.069
505.40	32.943
505.75	33.396
506.09	33.271
506.44	33.412
506.78	34.216
507.13	34.222
507.47	32.703
507.82	33.382
508.16	34.787
508.51	33.382
508.85	33.428
509.19	33.970
509.54	33.057
509.88	34.510
510.23	34.461
510.57	33.446
510.92	34.066
511.26	34.789
511.61	33.481
511.95	33.649
512.30	33.800
512.64	33.541
512.98	33.624
513.33	33.965
513.67	34.024
514.02	34.494
514.36	33.749
514.70	34.987
515.05	34.576
515.39	34.759
515.74	34.718
516.08	34.314
516.42	35.792
516.77	33.867
517.11	35.307
517.46	35.237
517.80	34.954
518.14	35.268
518.49	34.123
518.83	33.242
519.17	34.221
519.52	34.899
519.86	34.496
520.20	34.904
520.55	34.426
520.89	34.943
521.23	35.280
521.58	34.768
521.92	33.936
522.26	33.827
522.61	35.294
522.95	35.976
523.29	35.556
523.64	34.566
523.98	35.446
524.32	34.660
524.66	35.072
525.01	33.787
525.35	34.649
525.69	35.220
526.04	34.146
526.38	34.314
526.72	34.129
527.06	33.116
527.41	34.583
527.75	34.632
528.09	33.233
528.43	35.387
528.78	34.347
529.12	35.641
529.46	32.963
529.80	34.112
530.15	34.119
530.49	33.815
530.83	34.613
531.17	34.133
531.51	34.028
531.86	33.937
532.20	34.302
532.54	33.773
532.88	34.291
533.22	34.430
533.57	34.777
533.91	33.450
534.25	32.833
534.59	32.982
534.93	32.480
535.27	32.954
535.62	33.547
535.96	33.924
536.30	34.857
536.64	34.534
536.98	33.606
537.32	34.437
537.66	34.120
538.01	33.437
538.35	33.812
538.69	33.556
539.03	33.396
539.37	33.495
539.71	34.630
540.05	33.908
540.39	35.346
540.73	34.684
541.07	33.563
541.42	34.017
541.76	33.785
542.10	33.539
542.44	34.040
542.78	33.103
543.12	33.436
543.46	32.957
543.80	33.709
544.14	33.560
544.48	33.516
544.82	34.190
545.16	33.394
545.50	33.067
545.84	34.154
546.18	34.525
546.52	34.033
546.86	33.785
547.20	33.721
547.54	33.249
547.88	33.637
548.22	33.273
548.56	34.060
548.90	33.333
549.24	35.123
549.58	33.376
549.92	35.036
550.26	35.227
550.60	34.597
550.94	35.210
551.28	35.034
551.62	35.379
551.96	35.270
552.30	34.410
552.64	35.275
552.98	33.247
553.32	33.995
553.66	34.463
554.00	35.071
554.34	35.419
554.68	35.887
555.02	34.623
555.36	35.173
555.69	34.097
556.03	34.713
556.37	34.162
556.71	34.876
557.05	34.535
557.39	35.133
557.73	35.377
558.07	36.419
558.41	35.504
558.75	35.021
559.08	36.169
559.42	36.578
559.76	36.565
560.10	35.788
560.44	33.776
560.78	35.230
561.12	35.156
561.45	34.355
561.79	34.831
562.13	34.681
562.47	34.653
562.81	35.784
563.15	34.131
563.48	33.602
563.82	35.246
564.16	34.453
564.50	33.695
564.84	34.650
565.17	33.155
565.51	35.099
565.85	34.732
566.19	33.571
566.52	33.995
566.86	34.851
567.20	33.708
567.54	34.552
567.88	33.803
568.21	32.252
568.55	32.831
568.89	32.847
569.23	32.399
569.56	32.827
569.90	31.836
570.24	31.278
570.57	30.727
570.91	30.640
571.25	30.842
571.59	30.598
571.92	30.086
572.26	29.704
572.60	29.575
572.93	30.679
573.27	30.557
573.61	30.401
573.95	30.055
574.28	30.126
574.62	29.367
574.96	29.543
575.29	29.409
575.63	29.588
575.97	29.333
576.30	29.233
576.64	29.506
576.98	29.789
577.31	30.190
577.65	29.842
577.98	29.151
578.32	28.872
578.66	29.763
578.99	29.159
579.33	29.905
579.67	29.102
580.00	29.626
580.34	29.593
580.67	29.776
581.01	30.173
581.35	29.994
581.68	29.313
582.02	29.493
582.35	29.731
582.69	30.333
583.02	29.987
583.36	30.584
583.70	30.551
584.03	31.320
584.37	31.424
584.70	31.177
585.04	30.930
585.37	30.568
585.71	31.146
586.04	30.432
586.38	30.931
586.72	31.609
587.05	31.523
587.39	31.631
587.72	31.715
588.06	31.686
588.39	31.960
588.73	31.626
589.06	32.419
589.40	32.488
589.73	32.121
590.07	33.253
590.40	33.310
590.73	33.603
591.07	34.307
591.40	33.373
591.74	33.685
592.07	32.612
592.41	33.973
592.74	33.175
593.08	32.910
593.41	32.226
593.75	32.299
594.08	33.107
594.41	32.812
594.75	33.288
595.08	33.059
595.42	33.213
595.75	33.268
596.09	33.021
596.42	33.248
596.75	34.655
597.09	34.668
597.42	33.633
597.75	34.037
598.09	33.238
598.42	34.313
598.76	33.732
599.09	34.241
599.42	32.699
599.76	33.412
600.09	33.119
600.42	33.978
600.76	33.719
601.09	33.586
601.42	34.002
601.76	33.727
602.09	34.180
602.42	33.198
602.76	34.042
603.09	34.201
603.42	33.615
603.76	33.731
604.09	32.971
604.42	33.446
604.76	34.018
605.09	34.163
605.42	34.945
605.75	34.110
606.09	34.468
606.42	34.386
606.75	33.890
607.09	33.991
607.42	33.829
607.75	33.997
608.08	34.322
608.42	34.648
608.75	34.403
609.08	34.052
609.41	35.273
609.75	34.799
610.08	34.667
610.41	34.387
610.74	34.935
611.07	34.834
611.41	35.774
611.74	35.612
612.07	35.645
612.40	36.160
612.73	36.096
613.07	35.834
613.40	35.639
613.73	35.746
614.06	34.600
614.39	35.152
614.72	35.309
615.06	34.718
615.39	35.198
615.72	35.576
616.05	35.008
616.38	34.703
616.71	34.889
617.05	35.805
617.38	35.730
617.71	35.996
618.04	36.175
618.37	35.575
618.70	35.855
619.03	36.752
619.36	37.060
619.69	36.346
620.03	37.704
620.36	38.150
620.69	38.123
621.02	38.247
621.35	37.679
621.68	38.938
622.01	39.336
622.34	38.237
622.67	37.149
623.00	37.577
623.33	36.640
623.66	35.995
623.99	37.603
624.32	37.669
624.65	36.340
624.99	37.525
625.32	36.941
625.65	37.724
625.98	36.820
626.31	38.427
626.64	37.054
626.97	37.567
627.30	39.286
627.63	38.069
627.96	38.106
628.29	39.769
628.62	38.238
628.95	39.539
629.28	39.877
629.61	39.104
629.94	38.634
630.26	40.035
630.59	39.894
630.92	39.641
631.25	39.710
631.58	42.237
631.91	41.389
632.24	39.553
632.57	39.489
632.90	42.340
633.23	42.078
633.56	42.255
