SpectraSuite Data File
++++++++++++++++++++++++++++++++++++
Date: Tue May 12 17:20:46 PDT 2015
User: schluterlab
Dark Spectrum Present: Yes
Reference Spectrum Present: Yes
Number of Sampled Component Spectra: 1
Spectrometers: USB2E3373
Integration Time (usec): 3000 (USB2E3373)
Spectra Averaged: 3 (USB2E3373)
Boxcar Smoothing: 0 (USB2E3373)
Correct for Electrical Dark: No (USB2E3373)
Strobe/Lamp Enabled: No (USB2E3373)
Correct for Detector Non-linearity: No (USB2E3373)
Correct for Stray Light: No (USB2E3373)
Number of Pixels in Processed Spectrum: 2048
>>>>>Begin Processed Spectral Data<<<<<
178.53	0.000
178.91	-200.000
179.29	-750.000
179.67	-4300.000
180.04	-226.667
180.42	675.000
180.80	1850.000
181.18	0.000
181.56	-275.000
181.94	0.000
182.31	933.333
182.69	-2300.000
183.07	571.429
183.45	-3800.000
183.83	-1700.000
184.20	330.000
184.58	442.857
184.96	-200.000
185.34	-225.000
185.72	1400.000
186.09	-975.000
186.47	-3100.000
186.85	866.667
187.23	460.000
187.61	2150.000
187.98	512.500
188.36	214.286
188.74	325.000
189.12	366.667
189.49	800.000
189.87	0.000
190.25	487.500
190.63	2800.000
191.00	-283.333
191.38	-3400.000
191.76	-525.000
192.14	637.500
192.51	-2800.000
192.89	1700.000
193.27	1000.000
193.65	-1100.000
194.02	-800.000
194.40	542.857
194.78	-135.714
195.15	260.000
195.53	-2400.000
195.91	-600.000
196.29	4200.000
196.66	275.000
197.04	800.000
197.42	-1800.000
197.79	675.000
198.17	250.000
198.55	0.000
198.92	442.857
199.30	1300.000
199.68	2000.000
200.05	733.333
200.43	-600.000
200.81	216.667
201.18	3800.000
201.56	283.333
201.94	-1050.000
202.31	-275.000
202.69	-540.000
203.07	2800.000
203.44	-450.000
203.82	358.333
204.19	820.000
204.57	-1400.000
204.95	-850.000
205.32	-740.000
205.70	550.000
206.08	750.000
206.45	-1000.000
206.83	388.889
207.20	178.947
207.58	300.000
207.96	620.000
208.33	0.000
208.71	685.714
209.08	620.000
209.46	-3000.000
209.84	-750.000
210.21	1040.000
210.59	-660.000
210.96	341.667
211.34	-900.000
211.71	363.636
212.09	825.000
212.46	1050.000
212.84	-516.667
213.22	544.444
213.59	-2200.000
213.97	380.000
214.34	800.000
214.72	1166.667
215.09	1100.000
215.47	-3100.000
215.84	-350.000
216.22	-425.000
216.59	0.000
216.97	0.000
217.34	1650.000
217.72	-1400.000
218.09	1233.333
218.47	412.500
218.84	725.000
219.22	1066.667
219.59	966.667
219.97	585.714
220.34	477.778
220.72	1550.000
221.09	3800.000
221.47	316.667
221.84	933.333
222.22	340.000
222.59	222.222
222.97	285.714
223.34	268.750
223.72	-1600.000
224.09	1433.333
224.46	169.231
224.84	-825.000
225.21	355.556
225.59	340.000
225.96	1266.667
226.34	-600.000
226.71	-900.000
227.08	-620.000
227.46	0.000
227.83	-500.000
228.21	-1450.000
228.58	416.667
228.95	1050.000
229.33	522.222
229.70	1025.000
230.08	361.538
230.45	3400.000
230.82	-900.000
231.20	-1033.333
231.57	-1233.333
231.95	580.000
232.32	316.667
232.69	600.000
233.07	333.333
233.44	-1600.000
233.81	320.000
234.19	181.481
234.56	318.750
234.93	235.294
235.31	220.000
235.68	318.750
236.05	207.143
236.43	192.593
236.80	335.714
237.17	224.138
237.55	168.750
237.92	150.000
238.29	163.636
238.67	196.875
239.04	131.707
239.41	125.000
239.79	145.000
240.16	122.917
240.53	106.557
240.91	105.797
241.28	123.729
241.65	100.000
242.02	94.366
242.40	108.571
242.77	98.901
243.14	96.203
243.51	92.929
243.89	91.589
244.26	94.393
244.63	107.921
245.00	96.330
245.38	77.966
245.75	90.909
246.12	92.593
246.49	75.177
246.87	83.607
247.24	82.000
247.61	77.500
247.98	90.476
248.36	83.636
248.73	79.082
249.10	77.381
249.47	72.000
249.84	75.124
250.22	77.297
250.59	70.000
250.96	68.776
251.33	75.349
251.70	77.232
252.08	73.950
252.45	69.721
252.82	64.259
253.19	73.123
253.56	73.462
253.94	68.478
254.31	74.419
254.68	72.125
255.05	71.379
255.42	69.708
255.79	71.987
256.16	69.831
256.54	73.377
256.91	73.203
257.28	73.913
257.65	65.831
258.02	65.782
258.39	69.914
258.76	68.116
259.14	62.857
259.51	71.720
259.88	71.429
260.25	65.110
260.62	67.123
260.99	62.534
261.36	63.231
261.73	66.489
262.10	67.539
262.47	65.000
262.85	63.200
263.22	66.838
263.59	65.473
263.96	65.414
264.33	64.938
264.70	66.585
265.07	65.366
265.44	64.908
265.81	67.689
266.18	61.556
266.55	67.139
266.92	66.667
267.29	64.474
267.66	65.471
268.03	63.453
268.40	61.099
268.77	66.520
269.14	60.738
269.51	61.470
269.88	61.429
270.25	59.827
270.62	64.163
270.99	60.446
271.36	60.366
271.73	61.635
272.10	61.010
272.47	60.119
272.84	57.884
273.21	63.430
273.58	63.158
273.95	60.780
274.32	58.366
274.69	62.205
275.06	59.927
275.43	58.429
275.80	61.132
276.17	57.904
276.54	59.813
276.91	60.821
277.28	57.482
277.65	61.808
278.02	57.537
278.39	59.353
278.76	60.345
279.13	60.854
279.50	57.091
279.87	54.562
280.23	57.274
280.60	59.489
280.97	58.276
281.34	57.261
281.71	57.391
282.08	56.410
282.45	54.730
282.82	57.525
283.19	54.531
283.56	56.198
283.92	56.678
284.29	56.739
284.66	55.630
285.03	55.887
285.40	55.537
285.77	53.086
286.14	55.728
286.51	53.988
286.87	53.797
287.24	54.204
287.61	54.103
287.98	55.373
288.35	53.778
288.72	52.959
289.08	52.853
289.45	52.439
289.82	52.656
290.19	52.269
290.56	51.674
290.93	50.360
291.29	50.691
291.66	50.989
292.03	51.473
292.40	49.322
292.77	48.050
293.13	49.501
293.50	48.583
293.87	47.154
294.24	49.231
294.60	50.875
294.97	51.189
295.34	48.871
295.71	48.620
296.08	49.600
296.44	50.699
296.81	48.263
297.18	46.641
297.55	48.030
297.91	45.443
298.28	46.618
298.65	45.521
299.02	46.683
299.38	46.043
299.75	46.585
300.12	44.725
300.48	45.199
300.85	47.437
301.22	44.186
301.59	44.693
301.95	46.558
302.32	44.703
302.69	44.570
303.05	47.026
303.42	42.713
303.79	45.395
304.15	46.535
304.52	44.926
304.89	44.350
305.25	46.051
305.62	47.548
305.99	47.283
306.35	46.316
306.72	45.265
307.09	46.687
307.45	45.512
307.82	44.342
308.19	44.742
308.55	44.800
308.92	46.124
309.29	46.450
309.65	45.391
310.02	47.059
310.38	45.962
310.75	45.612
311.12	46.360
311.48	48.069
311.85	44.752
312.22	45.941
312.58	45.967
312.95	47.573
313.31	47.285
313.68	46.717
314.05	47.802
314.41	47.393
314.78	47.727
315.14	50.332
315.51	48.155
315.87	48.449
316.24	48.739
316.61	47.896
316.97	48.807
317.34	48.518
317.70	49.956
318.07	51.246
318.43	49.912
318.80	49.650
319.16	49.913
319.53	49.115
319.89	49.283
320.26	52.980
320.62	51.007
320.99	51.192
321.35	50.742
321.72	52.657
322.08	51.154
322.45	51.499
322.81	52.973
323.18	52.753
323.54	54.355
323.91	55.213
324.27	54.200
324.64	55.363
325.00	54.655
325.37	54.890
325.73	55.902
326.10	55.261
326.46	54.831
326.83	54.000
327.19	55.743
327.56	55.192
327.92	56.721
328.29	55.237
328.65	56.678
329.01	57.399
329.38	55.753
329.74	54.825
330.11	57.515
330.47	56.948
330.84	57.377
331.20	56.599
331.56	56.995
331.93	58.084
332.29	55.952
332.66	57.398
333.02	56.357
333.38	57.766
333.75	57.381
334.11	55.956
334.48	55.812
334.84	56.503
335.20	56.886
335.57	57.095
335.93	56.098
336.29	55.390
336.66	58.233
337.02	55.603
337.38	56.406
337.75	58.024
338.11	55.781
338.47	56.393
338.84	55.123
339.20	54.978
339.56	55.425
339.93	56.187
340.29	56.723
340.65	56.245
341.02	55.833
341.38	55.501
341.74	56.728
342.11	56.928
342.47	55.455
342.83	57.916
343.20	56.184
343.56	54.567
343.92	56.813
344.28	55.981
344.65	57.294
345.01	54.683
345.37	55.849
345.73	54.206
346.10	54.821
346.46	56.140
346.82	54.552
347.19	55.023
347.55	55.113
347.91	56.118
348.27	56.623
348.63	56.566
349.00	55.446
349.36	56.887
349.72	56.193
350.08	56.366
350.45	56.131
350.81	56.957
351.17	55.085
351.53	56.197
351.89	55.400
352.26	55.329
352.62	55.053
352.98	56.288
353.34	55.316
353.70	55.046
354.07	55.615
354.43	56.528
354.79	54.214
355.15	55.743
355.51	54.456
355.87	56.250
356.24	56.659
356.60	55.403
356.96	56.103
357.32	55.916
357.68	55.507
358.04	57.067
358.40	56.372
358.77	56.273
359.13	56.607
359.49	56.116
359.85	57.483
360.21	54.903
360.57	56.131
360.93	55.988
361.29	55.411
361.66	57.420
362.02	55.185
362.38	55.195
362.74	56.688
363.10	55.400
363.46	54.972
363.82	56.171
364.18	56.757
364.54	58.083
364.90	55.957
365.26	56.905
365.62	57.528
365.98	54.921
366.35	55.655
366.71	56.836
367.07	57.270
367.43	56.011
367.79	54.987
368.15	56.106
368.51	57.822
368.87	56.590
369.23	56.895
369.59	56.979
369.95	57.343
370.31	57.221
370.67	55.656
371.03	57.983
371.39	57.133
371.75	57.920
372.11	57.716
372.47	56.507
372.83	56.288
373.19	56.820
373.55	57.595
373.91	56.768
374.27	57.606
374.63	58.305
374.99	57.547
375.35	58.266
375.71	58.047
376.07	57.759
376.42	56.841
376.78	56.712
377.14	57.602
377.50	56.804
377.86	57.207
378.22	58.074
378.58	58.596
378.94	58.057
379.30	59.430
379.66	57.556
380.02	58.886
380.38	58.138
380.74	58.247
381.09	57.710
381.45	56.647
381.81	57.979
382.17	57.204
382.53	57.708
382.89	58.368
383.25	58.851
383.61	56.369
383.97	57.888
384.32	58.047
384.68	58.824
385.04	56.800
385.40	57.888
385.76	58.280
386.12	59.617
386.48	57.994
386.83	57.579
387.19	58.657
387.55	57.892
387.91	58.661
388.27	58.180
388.62	58.040
388.98	57.434
389.34	57.287
389.70	55.955
390.06	58.476
390.42	57.064
390.77	57.248
391.13	57.755
391.49	58.137
391.85	58.462
392.20	58.105
392.56	57.288
392.92	56.878
393.28	56.726
393.64	57.913
393.99	56.846
394.35	57.034
394.71	57.539
395.07	57.238
395.42	56.616
395.78	57.866
396.14	56.807
396.50	57.641
396.85	56.829
397.21	57.160
397.57	57.382
397.92	55.170
398.28	56.591
398.64	57.301
399.00	56.066
399.35	55.180
399.71	55.795
400.07	56.450
400.42	55.940
400.78	55.367
401.14	55.725
401.49	55.703
401.85	55.678
402.21	55.536
402.57	56.314
402.92	56.424
403.28	53.938
403.63	55.386
403.99	56.152
404.35	54.982
404.70	56.468
405.06	54.520
405.42	54.219
405.77	53.638
406.13	54.664
406.49	53.439
406.84	52.566
407.20	55.765
407.55	53.969
407.91	53.989
408.27	53.972
408.62	53.696
408.98	53.755
409.34	52.542
409.69	54.076
410.05	53.667
410.40	52.179
410.76	52.204
411.11	52.725
411.47	52.593
411.83	51.904
412.18	51.872
412.54	53.093
412.89	52.153
413.25	53.478
413.60	51.636
413.96	52.364
414.31	53.188
414.67	52.514
415.03	52.874
415.38	52.555
415.74	52.748
416.09	52.780
416.45	53.975
416.80	53.688
417.16	52.260
417.51	52.357
417.87	51.752
418.22	52.855
418.58	52.229
418.93	52.647
419.29	51.879
419.64	51.787
420.00	52.088
420.35	51.800
420.71	52.217
421.06	52.443
421.42	52.101
421.77	52.249
422.12	52.040
422.48	51.053
422.83	51.842
423.19	52.376
423.54	50.741
423.90	53.341
424.25	53.440
424.61	52.641
424.96	52.174
425.31	52.107
425.67	53.704
426.02	53.393
426.38	51.459
426.73	53.326
427.09	52.966
427.44	53.236
427.79	52.601
428.15	53.565
428.50	53.829
428.85	52.557
429.21	52.782
429.56	52.094
429.92	52.412
430.27	52.346
430.62	50.563
430.98	52.545
431.33	52.520
431.68	51.111
432.04	52.561
432.39	53.019
432.74	53.279
433.10	51.993
433.45	53.016
433.80	52.454
434.16	52.076
434.51	52.528
434.86	53.185
435.22	52.944
435.57	53.646
435.92	54.013
436.28	52.535
436.63	52.620
436.98	52.928
437.34	53.196
437.69	52.800
438.04	52.634
438.39	52.948
438.75	54.176
439.10	53.157
439.45	51.894
439.81	53.383
440.16	53.935
440.51	52.309
440.86	54.017
441.22	53.517
441.57	53.281
441.92	53.504
442.27	52.784
442.63	53.811
442.98	52.047
443.33	53.508
443.68	53.119
444.03	53.252
444.39	54.049
444.74	52.899
445.09	53.607
445.44	54.145
445.79	53.314
446.15	54.789
446.50	53.112
446.85	52.988
447.20	53.085
447.55	54.323
447.91	53.703
448.26	53.461
448.61	54.947
448.96	54.303
449.31	53.740
449.66	54.707
450.02	52.782
450.37	54.303
450.72	54.050
451.07	52.763
451.42	53.764
451.77	53.551
452.12	55.360
452.47	53.645
452.83	54.028
453.18	53.754
453.53	54.529
453.88	53.829
454.23	53.864
454.58	52.448
454.93	53.648
455.28	54.406
455.63	53.901
455.98	52.171
456.34	54.468
456.69	52.622
457.04	52.208
457.39	51.714
457.74	54.223
458.09	52.106
458.44	53.176
458.79	52.891
459.14	52.482
459.49	53.058
459.84	53.478
460.19	52.881
460.54	53.048
460.89	52.932
461.24	51.718
461.59	52.154
461.94	51.655
462.29	52.403
462.64	53.141
462.99	53.231
463.34	52.690
463.69	52.934
464.04	53.022
464.39	52.204
464.74	52.052
465.09	52.002
465.44	51.578
465.79	51.878
466.14	49.603
466.49	52.143
466.84	51.338
467.19	51.377
467.54	50.571
467.89	51.291
468.24	50.898
468.59	51.429
468.94	52.415
469.29	50.519
469.64	49.904
469.99	51.221
470.34	49.968
470.68	50.621
471.03	52.769
471.38	50.530
471.73	50.555
472.08	52.381
472.43	50.714
472.78	50.448
473.13	50.000
473.48	50.795
473.83	50.000
474.17	49.483
474.52	50.948
474.87	48.835
475.22	49.515
475.57	50.787
475.92	50.026
476.27	48.531
476.61	49.062
476.96	49.164
477.31	49.614
477.66	50.510
478.01	49.716
478.36	49.434
478.70	47.494
479.05	49.320
479.40	48.611
479.75	50.397
480.10	47.967
480.45	48.693
480.79	48.018
481.14	48.597
481.49	47.301
481.84	48.549
482.19	49.214
482.53	48.397
482.88	48.835
483.23	48.218
483.58	48.609
483.92	49.177
484.27	47.217
484.62	49.278
484.97	47.370
485.31	46.983
485.66	48.471
486.01	48.754
486.36	47.973
486.70	47.674
487.05	47.147
487.40	47.009
487.75	47.718
488.09	47.642
488.44	47.355
488.79	47.206
489.13	46.846
489.48	46.944
489.83	46.330
490.17	46.201
490.52	46.167
490.87	46.983
491.22	46.144
491.56	46.684
491.91	46.013
492.26	45.791
492.60	46.606
492.95	46.307
493.30	45.632
493.64	45.687
493.99	45.886
494.34	45.316
494.68	45.905
495.03	46.969
495.37	45.745
495.72	46.434
496.07	44.879
496.41	44.831
496.76	46.095
497.11	45.373
497.45	44.805
497.80	45.320
498.14	45.076
498.49	44.661
498.84	45.607
499.18	43.921
499.53	44.740
499.87	44.519
500.22	45.048
500.56	45.497
500.91	45.640
501.26	45.108
501.60	44.353
501.95	43.907
502.29	44.711
502.64	44.111
502.98	44.020
503.33	44.454
503.67	43.709
504.02	44.021
504.36	43.982
504.71	45.506
505.06	43.735
505.40	44.268
505.75	44.013
506.09	42.790
506.44	44.831
506.78	43.715
507.13	44.498
507.47	43.862
507.82	43.358
508.16	44.929
508.51	42.995
508.85	43.400
509.19	43.955
509.54	43.457
509.88	43.809
510.23	43.431
510.57	43.002
510.92	43.606
511.26	43.022
511.61	42.245
511.95	43.106
512.30	42.200
512.64	43.094
512.98	42.901
513.33	43.340
513.67	43.086
514.02	42.701
514.36	42.523
514.70	42.347
515.05	42.302
515.39	43.311
515.74	43.958
516.08	42.429
516.42	44.426
516.77	42.187
517.11	41.813
517.46	42.295
517.80	41.944
518.14	41.972
518.49	42.172
518.83	40.714
519.17	42.263
519.52	42.545
519.86	42.234
520.20	41.808
520.55	41.210
520.89	41.897
521.23	42.874
521.58	40.734
521.92	41.691
522.26	40.284
522.61	41.117
522.95	41.562
523.29	41.111
523.64	40.983
523.98	40.786
524.32	40.542
524.66	41.217
525.01	40.533
525.35	39.364
525.69	42.745
526.04	40.928
526.38	40.612
526.72	40.453
527.06	40.213
527.41	40.992
527.75	39.805
528.09	39.133
528.43	39.597
528.78	40.608
529.12	41.902
529.46	39.860
529.80	40.070
530.15	39.658
530.49	40.433
530.83	40.037
531.17	40.467
531.51	40.343
531.86	39.372
532.20	39.864
532.54	38.795
532.88	41.349
533.22	40.585
533.57	39.414
533.91	38.345
534.25	39.123
534.59	40.117
534.93	38.737
535.27	38.702
535.62	39.090
535.96	39.953
536.30	40.219
536.64	39.441
536.98	39.585
537.32	39.125
537.66	38.265
538.01	39.567
538.35	40.112
538.69	39.199
539.03	38.930
539.37	38.228
539.71	39.630
540.05	38.338
540.39	38.994
540.73	39.177
541.07	37.704
541.42	38.682
541.76	38.163
542.10	37.731
542.44	38.342
542.78	37.130
543.12	38.098
543.46	39.223
543.80	38.596
544.14	38.080
544.48	37.774
544.82	38.654
545.16	37.098
545.50	39.152
545.84	37.689
546.18	38.231
546.52	36.590
546.86	37.460
547.20	37.855
547.54	36.225
547.88	38.443
548.22	37.766
548.56	36.889
548.90	36.655
549.24	38.029
549.58	35.760
549.92	36.608
550.26	38.878
550.60	37.458
550.94	37.178
551.28	36.897
551.62	38.483
551.96	35.541
552.30	36.190
552.64	38.900
552.98	36.920
553.32	37.580
553.66	38.111
554.00	37.323
554.34	38.083
554.68	36.761
555.02	37.203
555.36	37.101
555.69	36.976
556.03	37.197
556.37	35.182
556.71	37.027
557.05	35.125
557.39	36.667
557.73	35.243
558.07	36.217
558.41	36.669
558.75	36.867
559.08	36.812
559.42	36.578
559.76	36.992
560.10	35.788
560.44	35.634
560.78	36.573
561.12	37.063
561.45	36.295
561.79	36.579
562.13	35.313
562.47	36.535
562.81	36.044
563.15	35.359
563.48	35.031
563.82	36.681
564.16	36.381
564.50	35.564
564.84	35.137
565.17	34.938
565.51	36.823
565.85	36.027
566.19	35.714
566.52	35.921
566.86	36.894
567.20	36.854
567.54	35.972
567.88	37.037
568.21	36.595
568.55	35.846
568.89	36.907
569.23	36.238
569.56	37.141
569.90	36.723
570.24	36.286
570.57	36.762
570.91	36.537
571.25	36.507
571.59	36.464
571.92	35.953
572.26	35.984
572.60	35.796
572.93	36.228
573.27	36.014
573.61	35.842
573.95	36.927
574.28	36.694
574.62	36.050
574.96	35.850
575.29	36.156
575.63	35.100
575.97	35.516
576.30	35.763
576.64	36.074
576.98	36.336
577.31	36.663
577.65	36.006
577.98	36.502
578.32	35.893
578.66	36.198
578.99	35.893
579.33	35.476
579.67	35.680
580.00	35.428
580.34	35.606
580.67	35.414
581.01	36.252
581.35	35.957
581.68	35.931
582.02	36.212
582.35	35.921
582.69	35.870
583.02	35.732
583.36	35.921
583.70	36.131
584.03	36.192
584.37	35.840
584.70	35.805
585.04	35.951
585.37	35.730
585.71	36.539
586.04	35.835
586.38	35.456
586.72	35.650
587.05	35.847
587.39	35.752
587.72	35.716
588.06	35.759
588.39	36.054
588.73	35.358
589.06	35.921
589.40	36.150
589.73	35.202
590.07	36.719
590.40	36.272
590.73	36.284
591.07	36.281
591.40	35.609
591.74	35.349
592.07	34.817
592.41	35.651
592.74	35.005
593.08	35.156
593.41	35.129
593.75	34.788
594.08	34.678
594.41	34.832
594.75	34.726
595.08	36.043
595.42	35.418
595.75	35.505
596.09	34.967
596.42	34.450
596.75	35.697
597.09	34.874
597.42	34.980
597.75	34.807
598.09	33.156
598.42	34.353
598.76	34.348
599.09	35.528
599.42	34.637
599.76	34.328
600.09	34.305
600.42	34.151
600.76	34.126
601.09	34.208
601.42	34.389
601.76	35.052
602.09	34.952
602.42	34.196
602.76	34.269
603.09	34.879
603.42	34.936
603.76	34.635
604.09	34.093
604.42	34.388
604.76	34.137
605.09	34.163
605.42	33.726
605.75	33.360
606.09	34.162
606.42	33.822
606.75	34.085
607.09	33.873
607.42	34.472
607.75	34.315
608.08	33.834
608.42	33.809
608.75	33.676
609.08	32.644
609.41	33.773
609.75	34.799
610.08	33.858
610.41	33.816
610.74	33.939
611.07	33.879
611.41	33.874
611.74	34.273
612.07	33.622
612.40	33.041
612.73	34.348
613.07	34.364
613.40	33.333
613.73	33.699
614.06	33.250
614.39	34.596
614.72	33.601
615.06	32.641
615.39	32.822
615.72	31.897
616.05	33.802
616.38	32.826
616.71	32.610
617.05	32.784
617.38	33.258
617.71	33.915
618.04	32.417
618.37	31.962
618.70	32.044
619.03	32.357
619.36	32.726
619.69	33.179
620.03	34.116
620.36	32.820
620.69	33.908
621.02	32.405
621.35	31.662
621.68	32.743
622.01	34.834
622.34	32.119
622.67	34.270
623.00	32.131
623.33	32.591
623.66	31.936
623.99	33.151
624.32	32.656
624.65	31.929
624.99	32.252
625.32	32.465
625.65	31.724
625.98	31.520
626.31	32.789
626.64	30.904
626.97	31.752
627.30	32.376
627.63	32.418
627.96	30.986
628.29	31.188
628.62	32.164
628.95	31.826
629.28	32.165
629.61	32.162
629.94	31.201
630.26	32.236
630.59	32.004
630.92	31.749
