SpectraSuite Data File
++++++++++++++++++++++++++++++++++++
Date: Tue May 12 17:06:10 PDT 2015
User: schluterlab
Dark Spectrum Present: Yes
Reference Spectrum Present: Yes
Number of Sampled Component Spectra: 1
Spectrometers: USB2E3373
Integration Time (usec): 3000 (USB2E3373)
Spectra Averaged: 3 (USB2E3373)
Boxcar Smoothing: 0 (USB2E3373)
Correct for Electrical Dark: No (USB2E3373)
Strobe/Lamp Enabled: No (USB2E3373)
Correct for Detector Non-linearity: No (USB2E3373)
Correct for Stray Light: No (USB2E3373)
Number of Pixels in Processed Spectrum: 2048
>>>>>Begin Processed Spectral Data<<<<<
178.53	0.000
178.91	-183.333
179.29	-650.000
179.67	-3600.000
180.04	-180.000
180.42	475.000
180.80	1600.000
181.18	0.000
181.56	-350.000
181.94	0.000
182.31	1266.667
182.69	-3700.000
183.07	628.571
183.45	-3400.000
183.83	-1400.000
184.20	400.000
184.58	485.714
184.96	-246.154
185.34	-241.667
185.72	1650.000
186.09	-700.000
186.47	-2500.000
186.85	1233.333
187.23	620.000
187.61	1350.000
187.98	487.500
188.36	285.714
188.74	283.333
189.12	341.667
189.49	800.000
189.87	0.000
190.25	575.000
190.63	2700.000
191.00	-183.333
191.38	-3700.000
191.76	-625.000
192.14	512.500
192.51	-3500.000
192.89	2000.000
193.27	1166.667
193.65	-1133.333
194.02	-660.000
194.40	557.143
194.78	-178.571
195.15	273.333
195.53	-3200.000
195.91	-660.000
196.29	3000.000
196.66	331.250
197.04	850.000
197.42	-1600.000
197.79	825.000
198.17	316.667
198.55	0.000
198.92	514.286
199.30	833.333
199.68	1950.000
200.05	633.333
200.43	-383.333
200.81	227.778
201.18	5000.000
201.56	308.333
201.94	-750.000
202.31	-325.000
202.69	-800.000
203.07	3700.000
203.44	-450.000
203.82	300.000
204.19	680.000
204.57	-1700.000
204.95	-675.000
205.32	-760.000
205.70	433.333
206.08	775.000
206.45	-1066.667
206.83	344.444
207.20	173.684
207.58	266.667
207.96	800.000
208.33	0.000
208.71	742.857
209.08	620.000
209.46	-2900.000
209.84	-700.000
210.21	900.000
210.59	-760.000
210.96	316.667
211.34	-850.000
211.71	436.364
212.09	925.000
212.46	1650.000
212.84	-516.667
213.22	422.222
213.59	-3100.000
213.97	410.000
214.34	1000.000
214.72	1000.000
215.09	1166.667
215.47	-3900.000
215.84	-250.000
216.22	-375.000
216.59	0.000
216.97	0.000
217.34	1650.000
217.72	-1650.000
218.09	1200.000
218.47	537.500
218.84	675.000
219.22	900.000
219.59	1200.000
219.97	528.571
220.34	422.222
220.72	2000.000
221.09	3200.000
221.47	350.000
221.84	1066.667
222.22	380.000
222.59	255.556
222.97	228.571
223.34	218.750
223.72	-1550.000
224.09	1200.000
224.46	284.615
224.84	-1125.000
225.21	288.889
225.59	326.667
225.96	1333.333
226.34	-740.000
226.71	-800.000
227.08	-680.000
227.46	0.000
227.83	-683.333
228.21	-1800.000
228.58	375.000
228.95	1300.000
229.33	377.778
229.70	975.000
230.08	407.692
230.45	3400.000
230.82	-1075.000
231.20	-1066.667
231.57	-1066.667
231.95	660.000
232.32	316.667
232.69	533.333
233.07	300.000
233.44	-1350.000
233.81	326.667
234.19	166.667
234.56	300.000
234.93	205.882
235.31	200.000
235.68	318.750
236.05	175.000
236.43	148.148
236.80	285.714
237.17	186.207
237.55	165.625
237.92	117.500
238.29	136.364
238.67	150.000
239.04	129.268
239.41	110.417
239.79	102.500
240.16	97.917
240.53	81.967
240.91	84.058
241.28	105.085
241.65	78.788
242.02	102.817
242.40	91.429
242.77	69.231
243.14	67.089
243.51	78.788
243.89	71.028
244.26	65.421
244.63	64.356
245.00	66.055
245.38	60.169
245.75	68.939
246.12	71.111
246.49	55.319
246.87	59.016
247.24	59.333
247.61	65.625
247.98	67.347
248.36	61.212
248.73	59.184
249.10	60.714
249.47	54.500
249.84	55.721
250.22	58.378
250.59	57.500
250.96	52.743
251.33	53.953
251.70	54.464
252.08	52.941
252.45	46.614
252.82	50.951
253.19	51.779
253.56	51.923
253.94	46.377
254.31	53.101
254.68	51.568
255.05	51.724
255.42	53.650
255.79	48.534
256.16	53.559
256.54	49.351
256.91	50.327
257.28	50.502
257.65	45.141
258.02	50.147
258.39	48.138
258.76	47.246
259.14	45.429
259.51	53.353
259.88	48.328
260.25	47.527
260.62	48.493
260.99	43.526
261.36	49.861
261.73	46.543
262.10	47.906
262.47	45.500
262.85	52.000
263.22	47.558
263.59	42.455
263.96	49.373
264.33	45.679
264.70	47.420
265.07	48.049
265.44	44.954
265.81	44.340
266.18	45.538
266.55	45.626
266.92	47.651
267.29	47.368
267.66	44.395
268.03	44.395
268.40	43.975
268.77	47.577
269.14	41.432
269.51	44.766
269.88	44.694
270.25	45.788
270.62	46.567
270.99	46.045
271.36	45.325
271.73	43.606
272.10	43.636
272.47	44.444
272.84	41.118
273.21	45.248
273.58	44.737
273.95	43.943
274.32	43.969
274.69	45.669
275.06	45.173
275.43	44.061
275.80	43.585
276.17	44.853
276.54	44.299
276.91	45.336
277.28	44.891
277.65	43.911
278.02	44.118
278.39	43.525
278.76	42.069
279.13	43.238
279.50	42.000
279.87	42.086
280.23	42.726
280.60	41.788
280.97	42.759
281.34	42.409
281.71	41.391
282.08	44.444
282.45	41.892
282.82	44.983
283.19	41.494
283.56	41.322
283.92	43.648
284.29	42.097
284.66	42.017
285.03	43.284
285.40	42.149
285.77	40.741
286.14	40.557
286.51	41.411
286.87	39.715
287.24	39.640
287.61	42.857
287.98	39.403
288.35	40.296
288.72	40.971
289.08	39.640
289.45	42.378
289.82	39.375
290.19	38.214
290.56	40.175
290.93	40.432
291.29	39.088
291.66	38.701
292.03	40.673
292.40	38.211
292.77	37.604
293.13	37.375
293.50	37.112
293.87	37.263
294.24	38.601
294.60	38.358
294.97	39.860
295.34	37.981
295.71	38.896
296.08	36.933
296.44	37.484
296.81	37.469
297.18	35.741
297.55	37.315
297.91	36.823
298.28	35.386
298.65	36.933
299.02	35.464
299.38	35.492
299.75	36.829
300.12	36.468
300.48	39.227
300.85	36.949
301.22	36.279
301.59	36.910
301.95	36.289
302.32	36.205
302.69	35.520
303.05	37.486
303.42	34.978
303.79	37.053
304.15	37.954
304.52	37.315
304.89	36.780
305.25	37.264
305.62	38.166
305.99	37.283
306.35	37.368
306.72	38.189
307.09	38.716
307.45	38.015
307.82	37.243
308.19	38.969
308.55	38.000
308.92	39.058
309.29	38.955
309.65	39.643
310.02	39.351
310.38	40.179
310.75	38.187
311.12	38.314
311.48	41.313
311.85	39.790
312.22	41.452
312.58	41.691
312.95	42.621
313.31	43.633
313.68	42.777
314.05	42.949
314.41	44.693
314.78	44.318
315.14	46.351
315.51	44.844
315.87	44.161
316.24	45.938
316.61	45.300
316.97	45.596
317.34	47.170
317.70	48.727
318.07	47.153
318.43	49.824
318.80	49.912
319.16	50.612
319.53	49.558
319.89	51.523
320.26	52.793
320.62	54.212
320.99	53.003
321.35	53.061
321.72	54.649
322.08	56.417
322.45	54.678
322.81	56.908
323.18	57.194
323.54	58.362
323.91	61.469
324.27	59.240
324.64	60.208
325.00	59.741
325.37	59.612
325.73	61.804
326.10	63.215
326.46	61.354
326.83	62.160
327.19	63.614
327.56	64.457
327.92	65.656
328.29	64.648
328.65	67.551
329.01	65.612
329.38	65.651
329.74	65.158
330.11	66.203
330.47	67.690
330.84	65.229
331.20	66.497
331.56	66.062
331.93	67.836
332.29	64.456
332.66	67.857
333.02	66.838
333.38	66.928
333.75	67.056
334.11	66.779
334.48	67.009
334.84	65.034
335.20	68.007
335.57	65.743
335.93	66.442
336.29	64.511
336.66	68.782
337.02	66.980
337.38	67.240
337.75	66.554
338.11	67.848
338.47	66.554
338.84	67.570
339.20	67.965
339.56	66.779
339.93	67.642
340.29	65.798
340.65	67.058
341.02	67.739
341.38	66.831
341.74	68.605
342.11	67.362
342.47	68.089
342.83	67.925
343.20	68.068
343.56	66.561
343.92	67.878
344.28	67.464
344.65	69.356
345.01	66.984
345.37	67.067
345.73	66.667
346.10	67.410
346.46	69.139
346.82	66.975
347.19	66.847
347.55	66.589
347.91	66.239
348.27	66.305
348.63	68.117
349.00	67.022
349.36	69.261
349.72	67.584
350.08	70.963
350.45	68.241
350.81	66.972
351.17	67.180
351.53	69.592
351.89	68.531
352.26	66.969
352.62	67.195
352.98	70.399
353.34	68.105
353.70	67.431
354.07	69.692
354.43	69.355
354.79	67.730
355.15	69.602
355.51	69.184
355.87	68.750
356.24	69.669
356.60	69.330
356.96	69.447
357.32	69.329
357.68	69.090
358.04	68.693
358.40	69.265
358.77	69.722
359.13	68.694
359.49	67.680
359.85	69.993
360.21	69.762
360.57	68.686
360.93	70.130
361.29	69.697
361.66	71.290
362.02	69.673
362.38	70.924
362.74	70.771
363.10	71.529
363.46	69.890
363.82	69.846
364.18	71.408
364.54	72.961
364.90	70.884
365.26	70.992
365.62	71.133
365.98	71.370
366.35	70.759
366.71	71.756
367.07	72.628
367.43	71.793
367.79	72.141
368.15	71.099
368.51	70.986
368.87	72.147
369.23	70.894
369.59	72.960
369.95	73.427
370.31	73.101
370.67	71.409
371.03	73.459
371.39	74.030
371.75	73.552
372.11	73.827
372.47	74.658
372.83	73.012
373.19	72.721
373.55	73.265
373.91	72.376
374.27	74.008
374.63	74.847
374.99	73.787
375.35	75.806
375.71	75.726
376.07	75.729
376.42	73.849
376.78	73.988
377.14	75.623
377.50	74.095
377.86	75.529
378.22	76.356
378.58	77.240
378.94	75.438
379.30	75.379
379.66	75.978
380.02	76.950
380.38	76.112
380.74	76.413
381.09	77.044
381.45	75.491
381.81	77.423
382.17	78.205
382.53	76.845
382.89	78.356
383.25	76.791
383.61	77.406
383.97	76.665
384.32	77.697
384.68	78.372
385.04	78.077
385.40	77.699
385.76	77.706
386.12	79.530
386.48	79.514
386.83	79.890
387.19	78.975
387.55	79.623
387.91	79.677
388.27	79.774
388.62	79.225
388.98	77.085
389.34	78.287
389.70	78.774
390.06	79.695
390.42	79.827
390.77	80.221
391.13	80.447
391.49	79.250
391.85	79.938
392.20	79.738
392.56	80.108
392.92	80.460
393.28	80.381
393.64	80.046
393.99	79.312
394.35	78.693
394.71	78.227
395.07	81.326
395.42	80.796
395.78	81.555
396.14	81.627
396.50	79.422
396.85	81.280
397.21	81.709
397.57	80.753
397.92	79.549
398.28	81.081
398.64	80.803
399.00	81.080
399.35	80.140
399.71	81.071
400.07	80.651
400.42	80.239
400.78	80.000
401.14	81.503
401.49	79.378
401.85	81.112
402.21	80.785
402.57	81.987
402.92	80.485
403.28	79.833
403.63	80.989
403.99	79.493
404.35	81.419
404.70	81.394
405.06	80.180
405.42	80.910
405.77	79.879
406.13	80.152
406.49	78.738
406.84	78.342
407.20	79.852
407.55	81.662
407.91	82.323
408.27	81.261
408.62	80.485
408.98	81.195
409.34	79.369
409.69	80.958
410.05	79.726
410.40	80.330
410.76	79.508
411.11	80.332
411.47	79.630
411.83	78.559
412.18	80.072
412.54	80.240
412.89	79.823
413.25	80.046
413.60	79.322
413.96	80.132
414.31	79.811
414.67	80.385
415.03	80.651
415.38	81.199
415.74	81.996
416.09	79.325
416.45	80.478
416.80	81.270
417.16	79.313
417.51	79.490
417.87	80.100
418.22	80.377
418.58	80.892
418.93	80.309
419.29	78.743
419.64	79.770
420.00	80.370
420.35	81.243
420.71	80.747
421.06	80.636
421.42	81.002
421.77	81.621
422.12	81.312
422.48	78.582
422.83	81.306
423.19	79.590
423.54	80.197
423.90	80.521
424.25	82.058
424.61	80.209
424.96	79.729
425.31	80.022
425.67	81.762
426.02	81.380
426.38	79.872
426.73	79.873
427.09	81.791
427.44	79.291
427.79	81.818
428.15	80.318
428.50	80.857
428.85	80.306
429.21	79.579
429.56	79.462
429.92	81.203
430.27	79.632
430.62	78.463
430.98	78.992
431.33	79.032
431.68	79.654
432.04	79.203
432.39	80.296
432.74	79.742
433.10	80.897
433.45	81.045
433.80	81.191
434.16	80.242
434.51	81.063
434.86	81.219
435.22	80.659
435.57	80.616
435.92	81.104
436.28	81.567
436.63	79.795
436.98	80.349
437.34	79.395
437.69	80.683
438.04	79.247
438.39	80.794
438.75	80.122
439.10	80.356
439.45	78.236
439.81	79.931
440.16	78.261
440.51	78.491
440.86	81.709
441.22	78.680
441.57	79.948
441.92	79.763
442.27	80.619
442.63	79.319
442.98	78.664
443.33	80.611
443.68	79.577
444.03	79.123
444.39	80.085
444.74	78.986
445.09	80.147
445.44	79.756
445.79	78.996
446.15	79.526
446.50	79.536
446.85	78.835
447.20	78.607
447.55	81.022
447.91	79.702
448.26	77.902
448.61	78.773
448.96	79.194
449.31	78.988
449.66	78.571
450.02	79.687
450.37	79.567
450.72	80.331
451.07	78.301
451.42	79.668
451.77	78.866
452.12	78.843
452.47	79.040
452.83	79.268
453.18	78.498
453.53	78.390
453.88	79.200
454.23	79.547
454.58	78.089
454.93	77.621
455.28	78.152
455.63	79.669
455.98	75.917
456.34	77.751
456.69	78.171
457.04	78.759
457.39	78.400
457.74	78.209
458.09	77.204
458.44	77.492
458.79	77.082
459.14	77.469
459.49	77.463
459.84	77.337
460.19	76.158
460.54	76.011
460.89	76.493
461.24	76.060
461.59	77.268
461.94	76.418
462.29	76.831
462.64	76.884
462.99	76.264
463.34	77.252
463.69	76.104
464.04	78.066
464.39	76.588
464.74	75.674
465.09	76.146
465.44	75.789
465.79	75.830
466.14	74.404
466.49	75.800
466.84	74.972
467.19	73.931
467.54	74.835
467.89	74.707
468.24	75.622
468.59	73.988
468.94	75.302
469.29	74.343
469.64	74.662
469.99	74.936
470.34	74.004
470.68	72.897
471.03	74.383
471.38	74.305
471.73	73.612
472.08	75.277
472.43	74.115
472.78	74.264
473.13	72.904
473.48	73.350
473.83	74.676
474.17	73.678
474.52	72.749
474.87	72.598
475.22	72.930
475.57	72.246
475.92	72.151
476.27	70.675
476.61	73.083
476.96	70.951
477.31	73.830
477.66	73.967
478.01	71.222
478.36	71.524
478.70	72.258
479.05	72.699
479.40	71.230
479.75	73.188
480.10	71.394
480.45	71.942
480.79	70.737
481.14	70.994
481.49	71.180
481.84	70.449
482.19	71.354
482.53	69.873
482.88	69.892
483.23	70.681
483.58	71.095
483.92	70.704
484.27	69.264
484.62	70.204
484.97	69.186
485.31	69.864
485.66	69.689
486.01	68.806
486.36	68.883
486.70	67.993
487.05	67.736
487.40	67.118
487.75	67.661
488.09	66.790
488.44	67.718
488.79	66.852
489.13	67.712
489.48	67.359
489.83	67.598
490.17	66.887
490.52	68.475
490.87	67.284
491.22	68.262
491.56	67.369
491.91	67.966
492.26	66.281
492.60	67.517
492.95	67.467
493.30	66.242
493.64	66.217
493.99	66.458
494.34	65.979
494.68	66.401
495.03	66.502
495.37	65.241
495.72	65.408
496.07	65.858
496.41	64.987
496.76	65.935
497.11	65.895
497.45	65.541
497.80	66.126
498.14	65.049
498.49	65.135
498.84	65.607
499.18	64.808
499.53	66.100
499.87	64.960
500.22	65.131
500.56	64.531
500.91	64.796
501.26	65.090
501.60	64.936
501.95	63.575
502.29	64.133
502.64	62.594
502.98	62.650
503.33	64.454
503.67	63.046
504.02	62.696
504.36	62.127
504.71	63.907
505.06	63.491
505.40	63.734
505.75	63.050
506.09	62.483
506.44	63.299
506.78	63.658
507.13	63.936
507.47	62.688
507.82	62.822
508.16	63.204
508.51	62.271
508.85	61.206
509.19	62.555
509.54	61.865
509.88	61.909
510.23	61.471
510.57	59.990
510.92	62.338
511.26	62.450
511.61	59.183
511.95	61.424
512.30	62.600
512.64	61.371
512.98	61.251
513.33	60.092
513.67	60.694
514.02	60.727
514.36	60.955
514.70	60.853
515.05	59.936
515.39	62.500
515.74	61.564
516.08	61.275
516.42	62.568
516.77	60.107
517.11	60.373
517.46	60.129
517.80	60.295
518.14	61.296
518.49	60.419
518.83	57.692
519.17	59.068
519.52	59.967
519.86	59.837
520.20	59.452
520.55	60.090
520.89	59.540
521.23	59.638
521.58	59.036
521.92	58.776
522.26	58.116
522.61	59.715
522.95	59.399
523.29	58.772
523.64	57.225
523.98	58.509
524.32	58.535
524.66	58.029
525.01	57.929
525.35	57.572
525.69	58.700
526.04	59.012
526.38	57.387
526.72	58.473
527.06	58.190
527.41	57.316
527.75	58.125
528.09	56.954
528.43	57.108
528.78	57.185
529.12	58.399
529.46	57.919
529.80	56.016
530.15	56.983
530.49	56.017
530.83	56.551
531.17	56.888
531.51	56.346
531.86	55.012
532.20	55.871
532.54	56.497
532.88	57.152
533.22	55.941
533.57	56.010
533.91	56.002
534.25	55.626
534.59	55.614
534.93	54.437
535.27	54.013
535.62	54.842
535.96	55.024
536.30	55.820
536.64	53.478
536.98	55.570
537.32	55.437
537.66	54.273
538.01	54.056
538.35	55.271
538.69	54.915
539.03	54.415
539.37	52.791
539.71	54.815
540.05	52.000
540.39	55.157
540.73	54.051
541.07	52.698
541.42	53.669
541.76	53.268
542.10	53.576
542.44	53.741
542.78	52.926
543.12	52.761
543.46	53.947
543.80	53.885
544.14	54.118
544.48	52.737
544.82	54.251
545.16	52.459
545.50	53.841
545.84	51.389
546.18	53.836
546.52	53.311
546.86	52.289
547.20	51.550
547.54	51.678
547.88	50.669
548.22	51.913
548.56	51.562
548.90	51.305
549.24	50.726
549.58	51.353
549.92	52.259
550.26	50.710
550.60	51.364
550.94	52.578
551.28	50.690
551.62	53.379
551.96	52.027
552.30	50.494
552.64	51.586
552.98	50.387
553.32	49.808
553.66	49.967
554.00	50.322
554.34	51.065
554.68	51.882
555.02	52.206
555.36	49.867
555.69	49.804
556.03	49.363
556.37	50.478
556.71	49.674
557.05	48.755
557.39	48.533
557.73	49.865
558.07	50.302
558.41	50.240
558.75	50.000
559.08	50.608
559.42	50.251
559.76	49.394
560.10	49.966
560.44	49.701
560.78	49.297
561.12	49.269
561.45	48.436
561.79	47.940
562.13	49.084
562.47	48.670
562.81	48.471
563.15	49.321
563.48	46.460
563.82	49.095
564.16	49.129
564.50	47.438
564.84	49.362
565.17	47.534
565.51	49.631
565.85	50.524
566.19	47.024
566.52	47.353
566.86	47.986
567.20	49.213
567.54	47.980
567.88	48.409
568.21	47.678
568.55	47.763
568.89	47.035
569.23	47.239
569.56	46.805
569.90	46.748
570.24	47.019
570.57	46.431
570.91	46.708
571.25	46.234
571.59	45.629
571.92	45.075
572.26	45.040
572.60	45.598
572.93	46.205
573.27	45.807
573.61	44.938
573.95	45.344
574.28	45.759
574.62	45.622
574.96	44.846
575.29	44.216
575.63	44.170
575.97	44.377
576.30	44.141
576.64	45.147
576.98	45.113
577.31	45.308
577.65	44.627
577.98	44.641
578.32	44.378
578.66	44.362
578.99	44.556
579.33	44.407
579.67	43.619
580.00	43.568
580.34	43.451
580.67	43.199
581.01	44.679
581.35	44.226
581.68	43.761
582.02	44.048
582.35	43.902
582.69	43.758
583.02	44.092
583.36	43.852
583.70	43.602
584.03	44.295
584.37	43.640
584.70	43.145
585.04	43.231
585.37	43.463
585.71	43.483
586.04	43.929
586.38	42.734
586.72	43.243
587.05	43.103
587.39	43.262
587.72	43.108
588.06	42.960
588.39	43.321
588.73	43.449
589.06	43.216
589.40	42.754
589.73	43.068
590.07	43.274
590.40	43.763
590.73	43.224
591.07	43.757
591.40	42.715
591.74	42.330
592.07	43.053
592.41	42.926
592.74	42.475
593.08	42.611
593.41	42.041
593.75	42.196
594.08	42.532
594.41	42.131
594.75	42.158
595.08	42.593
595.42	42.462
595.75	41.955
596.09	42.405
596.42	41.843
596.75	42.588
597.09	42.963
597.42	42.327
597.75	41.785
598.09	41.855
598.42	41.616
598.76	40.864
599.09	42.074
599.42	40.623
599.76	42.130
600.09	40.915
600.42	41.885
600.76	40.721
601.09	41.181
601.42	41.429
601.76	41.819
602.09	41.280
602.42	40.185
602.76	41.518
603.09	40.988
603.42	41.431
603.76	40.926
604.09	40.861
604.42	41.431
604.76	40.893
605.09	40.939
605.42	41.325
605.75	40.861
606.09	41.010
606.42	41.375
606.75	40.381
607.09	41.058
607.42	39.815
607.75	40.565
608.08	40.414
608.42	40.436
608.75	40.394
609.08	41.003
609.41	40.864
609.75	41.300
610.08	40.063
610.41	40.843
610.74	40.130
611.07	40.518
611.41	40.037
611.74	40.296
612.07	39.981
612.40	40.838
612.73	41.138
613.07	41.257
613.40	40.401
613.73	40.539
614.06	39.400
614.39	40.303
614.72	40.131
615.06	39.367
615.39	40.050
615.72	39.448
616.05	40.683
616.38	39.777
616.71	39.338
617.05	38.880
617.38	39.831
617.71	40.045
618.04	39.372
618.37	40.078
618.70	39.261
619.03	39.744
619.36	40.704
619.69	39.446
620.03	40.313
620.36	39.499
620.69	41.315
621.02	40.693
621.35	39.828
621.68	39.454
622.01	40.000
622.34	39.621
622.67	39.958
623.00	39.278
623.33	39.744
623.66	39.587
623.99	39.315
624.32	38.686
624.65	38.051
624.99	40.027
625.32	38.544
625.65	38.345
625.98	38.006
626.31	39.540
626.64	38.193
626.97	39.480
627.30	39.286
627.63	40.188
627.96	38.811
628.29	39.851
628.62	37.468
628.95	39.894
629.28	40.316
629.61	39.455
629.94	38.029
630.26	39.341
630.59	39.894
630.92	39.283
