SpectraSuite Data File
++++++++++++++++++++++++++++++++++++
Date: Tue May 12 16:45:30 PDT 2015
User: schluterlab
Dark Spectrum Present: Yes
Reference Spectrum Present: Yes
Number of Sampled Component Spectra: 1
Spectrometers: USB2E3373
Integration Time (usec): 3000 (USB2E3373)
Spectra Averaged: 3 (USB2E3373)
Boxcar Smoothing: 0 (USB2E3373)
Correct for Electrical Dark: No (USB2E3373)
Strobe/Lamp Enabled: No (USB2E3373)
Correct for Detector Non-linearity: No (USB2E3373)
Correct for Stray Light: No (USB2E3373)
Number of Pixels in Processed Spectrum: 2048
>>>>>Begin Processed Spectral Data<<<<<
178.53	0.000
178.91	-266.667
179.29	-525.000
179.67	-3900.000
180.04	-166.667
180.42	1000.000
180.80	1250.000
181.18	0.000
181.56	-375.000
181.94	0.000
182.31	1233.333
182.69	-2200.000
183.07	500.000
183.45	-3300.000
183.83	-1250.000
184.20	400.000
184.58	442.857
184.96	-246.154
185.34	-216.667
185.72	1550.000
186.09	-925.000
186.47	-2600.000
186.85	1033.333
187.23	600.000
187.61	1550.000
187.98	412.500
188.36	314.286
188.74	350.000
189.12	350.000
189.49	825.000
189.87	0.000
190.25	437.500
190.63	2300.000
191.00	-208.333
191.38	-2500.000
191.76	-575.000
192.14	450.000
192.51	-2900.000
192.89	1150.000
193.27	1000.000
193.65	-733.333
194.02	-640.000
194.40	585.714
194.78	-228.571
195.15	233.333
195.53	-2900.000
195.91	-580.000
196.29	4000.000
196.66	262.500
197.04	875.000
197.42	-1900.000
197.79	850.000
198.17	358.333
198.55	0.000
198.92	471.429
199.30	1133.333
199.68	1800.000
200.05	633.333
200.43	-516.667
200.81	233.333
201.18	3400.000
201.56	333.333
201.94	-675.000
202.31	-237.500
202.69	-480.000
203.07	3500.000
203.44	-550.000
203.82	325.000
204.19	400.000
204.57	-1100.000
204.95	-725.000
205.32	-760.000
205.70	383.333
206.08	725.000
206.45	-766.667
206.83	377.778
207.20	231.579
207.58	233.333
207.96	700.000
208.33	0.000
208.71	628.571
209.08	460.000
209.46	-3200.000
209.84	-625.000
210.21	720.000
210.59	-460.000
210.96	358.333
211.34	-625.000
211.71	409.091
212.09	750.000
212.46	1850.000
212.84	-366.667
213.22	400.000
213.59	-3400.000
213.97	380.000
214.34	1000.000
214.72	866.667
215.09	1100.000
215.47	-2600.000
215.84	-420.000
216.22	-400.000
216.59	0.000
216.97	0.000
217.34	900.000
217.72	-1700.000
218.09	966.667
218.47	500.000
218.84	725.000
219.22	833.333
219.59	666.667
219.97	442.857
220.34	411.111
220.72	1350.000
221.09	3400.000
221.47	225.000
221.84	1100.000
222.22	290.000
222.59	244.444
222.97	214.286
223.34	250.000
223.72	-1450.000
224.09	966.667
224.46	269.231
224.84	-775.000
225.21	477.778
225.59	226.667
225.96	966.667
226.34	-640.000
226.71	-725.000
227.08	-760.000
227.46	0.000
227.83	-416.667
228.21	-1800.000
228.58	383.333
228.95	775.000
229.33	377.778
229.70	1075.000
230.08	346.154
230.45	4000.000
230.82	-725.000
231.20	-833.333
231.57	-800.000
231.95	500.000
232.32	216.667
232.69	433.333
233.07	283.333
233.44	-1300.000
233.81	226.667
234.19	100.000
234.56	193.750
234.93	200.000
235.31	180.000
235.68	181.250
236.05	157.143
236.43	122.222
236.80	92.857
237.17	144.828
237.55	75.000
237.92	122.500
238.29	136.364
238.67	93.750
239.04	90.244
239.41	58.333
239.79	70.000
240.16	64.583
240.53	57.377
240.91	55.072
241.28	54.237
241.65	62.121
242.02	63.380
242.40	60.000
242.77	39.560
243.14	43.038
243.51	55.556
243.89	41.121
244.26	39.252
244.63	28.713
245.00	28.440
245.38	27.966
245.75	35.606
246.12	38.519
246.49	29.787
246.87	17.213
247.24	27.333
247.61	27.500
247.98	31.973
248.36	22.424
248.73	29.082
249.10	23.214
249.47	22.500
249.84	20.896
250.22	21.622
250.59	24.500
250.96	25.316
251.33	24.186
251.70	19.196
252.08	24.370
252.45	17.530
252.82	18.631
253.19	17.391
253.56	18.462
253.94	19.203
254.31	19.380
254.68	19.512
255.05	17.931
255.42	17.153
255.79	20.521
256.16	18.305
256.54	17.857
256.91	16.993
257.28	15.050
257.65	10.972
258.02	14.749
258.39	16.905
258.76	17.681
259.14	14.571
259.51	18.950
259.88	15.805
260.25	15.385
260.62	16.164
260.99	13.774
261.36	15.599
261.73	15.691
262.10	15.445
262.47	13.250
262.85	15.200
263.22	16.967
263.59	13.043
263.96	17.293
264.33	12.099
264.70	14.005
265.07	16.341
265.44	16.055
265.81	12.736
266.18	13.730
266.55	13.239
266.92	12.528
267.29	16.009
267.66	11.435
268.03	12.108
268.40	13.319
268.77	15.198
269.14	11.063
269.51	12.695
269.88	13.265
270.25	11.879
270.62	12.232
270.99	11.765
271.36	12.805
271.73	10.692
272.10	12.525
272.47	9.722
272.84	11.976
273.21	12.810
273.58	13.158
273.95	10.472
274.32	13.619
274.69	13.386
275.06	14.936
275.43	11.494
275.80	10.943
276.17	11.765
276.54	13.084
276.91	13.246
277.28	12.591
277.65	10.886
278.02	14.154
278.39	9.712
278.76	14.655
279.13	11.744
279.50	10.364
279.87	9.683
280.23	10.866
280.60	9.854
280.97	11.034
281.34	10.396
281.71	11.304
282.08	12.991
282.45	10.811
282.82	10.368
283.19	10.970
283.56	10.909
283.92	10.749
284.29	11.980
284.66	11.933
285.03	11.609
285.40	9.091
285.77	12.191
286.14	11.765
286.51	10.276
286.87	8.070
287.24	9.760
287.61	10.942
287.98	11.642
288.35	9.778
288.72	9.863
289.08	10.210
289.45	11.738
289.82	10.469
290.19	9.224
290.56	12.082
290.93	10.072
291.29	8.840
291.66	10.311
292.03	9.818
292.40	10.976
292.77	9.192
293.13	10.699
293.50	8.637
293.87	7.317
294.24	8.811
294.60	11.171
294.97	10.769
295.34	9.827
295.71	11.695
296.08	9.600
296.44	10.673
296.81	9.801
297.18	7.605
297.55	9.852
297.91	8.128
298.28	10.266
298.65	9.571
299.02	9.288
299.38	9.233
299.75	9.146
300.12	10.780
300.48	11.124
300.85	9.654
301.22	9.651
301.59	8.844
301.95	9.685
302.32	9.430
302.69	9.276
303.05	10.438
303.42	8.632
303.79	9.642
304.15	9.681
304.52	9.197
304.89	9.915
305.25	9.232
305.62	9.595
305.99	8.478
306.35	8.947
306.72	9.573
307.09	9.627
307.45	8.976
307.82	9.259
308.19	9.897
308.55	8.600
308.92	9.127
309.29	10.454
309.65	9.316
310.02	9.838
310.38	9.172
310.75	9.257
311.12	9.291
311.48	10.521
311.85	8.874
312.22	9.838
312.58	8.260
312.95	10.388
313.31	9.644
313.68	9.193
314.05	10.531
314.41	9.311
314.78	9.280
315.14	8.910
315.51	10.028
315.87	10.219
316.24	9.711
316.61	9.221
316.97	9.083
317.34	11.231
317.70	9.219
318.07	10.676
318.43	10.457
318.80	10.158
319.16	10.140
319.53	10.265
319.89	7.975
320.26	11.173
320.62	10.348
320.99	10.200
321.35	10.853
321.72	10.911
322.08	10.803
322.45	9.083
322.81	9.332
323.18	10.568
323.54	11.411
323.91	10.970
324.27	10.610
324.64	9.343
325.00	10.517
325.37	10.118
325.73	11.298
326.10	10.605
326.46	10.487
326.83	10.000
327.19	10.522
327.56	10.703
327.92	10.492
328.29	10.966
328.65	10.959
329.01	10.351
329.38	11.252
329.74	10.162
330.11	10.860
330.47	10.401
330.84	9.750
331.20	10.321
331.56	10.967
331.93	11.121
332.29	9.184
332.66	9.949
333.02	9.536
333.38	10.035
333.75	10.759
334.11	10.067
334.48	10.085
334.84	10.304
335.20	10.009
335.57	10.747
335.93	9.756
336.29	9.038
336.66	11.063
337.02	9.666
337.38	10.232
337.75	10.473
338.11	9.705
338.47	9.568
338.84	8.721
339.20	8.831
339.56	10.008
339.93	8.863
340.29	9.328
340.65	9.472
341.02	10.700
341.38	10.427
341.74	9.385
342.11	9.098
342.47	8.860
342.83	9.516
343.20	9.135
343.56	8.817
343.92	9.331
344.28	9.250
344.65	8.965
345.01	9.206
345.37	8.574
345.73	9.206
346.10	9.801
346.46	9.091
346.82	8.333
347.19	9.969
347.55	9.368
347.91	8.988
348.27	8.366
348.63	9.335
349.00	9.063
349.36	9.105
349.72	8.792
350.08	10.016
350.45	9.368
350.81	8.486
351.17	8.937
351.53	8.776
351.89	8.780
352.26	8.541
352.62	8.748
352.98	10.123
353.34	9.553
353.70	8.257
354.07	9.462
354.43	9.908
354.79	8.732
355.15	8.959
355.51	9.063
355.87	9.262
356.24	9.546
356.60	8.676
356.96	9.022
357.32	9.043
357.68	8.664
358.04	9.574
358.40	9.520
358.77	9.166
359.13	7.883
359.49	8.006
359.85	8.265
360.21	7.727
360.57	8.102
360.93	8.514
361.29	9.163
361.66	8.874
362.02	8.310
362.38	8.514
362.74	8.563
363.10	8.345
363.46	8.425
363.82	8.696
364.18	7.183
364.54	8.011
364.90	9.572
365.26	8.536
365.62	8.425
365.98	7.639
366.35	8.000
366.71	8.050
367.07	8.669
367.43	8.798
367.79	8.444
368.15	7.870
368.51	8.546
368.87	7.269
369.23	7.484
369.59	8.227
369.95	8.741
370.31	7.940
370.67	8.397
371.03	8.964
371.39	8.587
371.75	8.025
372.11	9.109
372.47	8.288
372.83	8.022
373.19	8.293
373.55	8.522
373.91	7.251
374.27	8.003
374.63	7.797
374.99	8.827
375.35	7.191
375.71	7.982
376.07	7.560
376.42	7.801
376.78	7.771
377.14	8.060
377.50	7.990
377.86	7.559
378.22	8.166
378.58	8.777
378.94	7.725
379.30	7.035
379.66	8.188
380.02	8.739
380.38	7.143
380.74	8.420
381.09	8.119
381.45	7.457
381.81	6.915
382.17	7.692
382.53	7.499
382.89	8.220
383.25	7.578
383.61	7.608
383.97	7.678
384.32	8.620
384.68	8.853
385.04	8.148
385.40	8.244
385.76	8.367
386.12	7.174
386.48	7.416
386.83	7.029
387.19	7.892
387.55	7.126
387.91	7.737
388.27	8.090
388.62	8.568
388.98	7.230
389.34	7.377
389.70	6.781
390.06	7.500
390.42	7.588
390.77	8.292
391.13	7.483
391.49	7.078
391.85	7.754
392.20	8.641
392.56	7.766
392.92	7.692
393.28	7.231
393.64	6.938
393.99	8.062
394.35	7.652
394.71	7.117
395.07	6.326
395.42	8.255
395.78	8.390
396.14	8.133
396.50	7.521
396.85	7.073
397.21	6.679
397.57	7.531
397.92	6.412
398.28	7.336
398.64	7.853
399.00	7.429
399.35	6.817
399.71	7.395
400.07	6.906
400.42	6.925
400.78	6.979
401.14	7.868
401.49	6.912
401.85	7.590
402.21	7.381
402.57	7.062
402.92	7.333
403.28	7.220
403.63	7.240
403.99	6.876
404.35	7.268
404.70	7.029
405.06	6.625
405.42	7.301
405.77	7.387
406.13	7.104
406.49	6.481
406.84	6.599
407.20	7.192
407.55	7.077
407.91	7.403
408.27	7.459
408.62	7.333
408.98	7.510
409.34	6.897
409.69	6.658
410.05	7.394
410.40	6.125
410.76	6.411
411.11	6.813
411.47	7.346
411.83	6.444
412.18	6.703
412.54	6.547
412.89	6.549
413.25	7.697
413.60	7.185
413.96	6.643
414.31	7.143
414.67	6.952
415.03	7.024
415.38	6.940
415.74	6.064
416.09	7.370
416.45	7.628
416.80	7.377
417.16	7.766
417.51	7.006
417.87	7.509
418.22	6.987
418.58	6.688
418.93	7.139
419.29	6.161
419.64	7.389
420.00	7.458
420.35	6.794
420.71	6.768
421.06	6.357
421.42	7.081
421.77	6.996
422.12	7.001
422.48	6.677
422.83	6.975
423.19	6.479
423.54	7.351
423.90	7.418
424.25	7.045
424.61	7.661
424.96	6.042
425.31	6.787
425.67	7.071
426.02	7.067
426.38	6.651
426.73	6.189
427.09	6.940
427.44	6.472
427.79	6.518
428.15	7.189
428.50	7.486
428.85	6.408
429.21	7.509
429.56	6.879
429.92	7.409
430.27	6.580
430.62	6.608
430.98	6.886
431.33	6.250
431.68	6.617
432.04	5.898
432.39	7.574
432.74	7.260
433.10	6.811
433.45	6.950
433.80	7.336
434.16	6.674
434.51	7.121
434.86	6.968
435.22	6.807
435.57	6.817
435.92	7.513
436.28	7.546
436.63	6.645
436.98	7.376
437.34	7.078
437.69	6.719
438.04	6.667
438.39	7.531
438.75	6.960
439.10	6.908
439.45	7.349
439.81	7.577
440.16	6.604
440.51	7.545
440.86	7.920
441.22	7.359
441.57	6.562
441.92	6.713
442.27	6.443
442.63	6.961
442.98	7.220
443.33	7.659
443.68	6.942
444.03	6.975
444.39	7.015
444.74	6.936
445.09	6.477
445.44	7.705
445.79	6.628
446.15	7.421
446.50	6.962
446.85	7.371
447.20	6.716
447.55	6.145
447.91	7.672
448.26	7.348
448.61	6.910
448.96	7.244
449.31	7.481
449.66	7.143
450.02	6.699
450.37	7.052
450.72	7.769
451.07	7.679
451.42	8.180
451.77	7.904
452.12	8.054
452.47	7.290
452.83	7.775
453.18	7.087
453.53	7.697
453.88	7.600
454.23	8.077
454.58	7.401
454.93	6.806
455.28	7.466
455.63	7.565
455.98	7.501
456.34	7.356
456.69	7.622
457.04	7.041
457.39	7.600
457.74	8.615
458.09	6.345
458.44	7.448
458.79	6.737
459.14	6.601
459.49	7.531
459.84	6.957
460.19	7.006
460.54	8.148
460.89	6.876
461.24	6.816
461.59	7.540
461.94	7.092
462.29	7.838
462.64	7.977
462.99	7.997
463.34	7.907
463.69	8.590
464.04	7.542
464.39	7.499
464.74	6.858
465.09	7.487
465.44	7.508
465.79	7.131
466.14	7.525
466.49	6.891
466.84	6.745
467.19	7.499
467.54	7.808
467.89	7.277
468.24	7.006
468.59	7.143
468.94	8.031
469.29	7.575
469.64	7.395
469.99	8.290
470.34	7.147
470.68	7.448
471.03	7.538
471.38	7.947
471.73	7.707
472.08	8.089
472.43	7.635
472.78	7.426
473.13	7.447
473.48	7.396
473.83	7.538
474.17	7.842
474.52	7.701
474.87	7.049
475.22	6.796
475.57	7.765
475.92	7.511
476.27	6.420
476.61	7.024
476.96	6.949
477.31	6.530
477.66	6.871
478.01	7.220
478.36	7.003
478.70	7.047
479.05	6.799
479.40	6.994
479.75	7.895
480.10	7.212
480.45	6.816
480.79	6.959
481.14	5.896
481.49	6.953
481.84	7.168
482.19	7.074
482.53	7.159
482.88	7.034
483.23	6.766
483.58	6.643
483.92	7.587
484.27	6.550
484.62	7.003
484.97	6.973
485.31	6.104
485.66	5.825
486.01	5.859
486.36	5.655
486.70	5.770
487.05	5.970
487.40	6.125
487.75	6.146
488.09	6.222
488.44	6.087
488.79	6.595
489.13	6.271
489.48	6.672
489.83	7.006
490.17	6.647
490.52	7.063
490.87	7.457
491.22	7.270
491.56	6.719
491.91	6.810
492.26	7.261
492.60	7.380
492.95	6.661
493.30	6.779
493.64	7.233
493.99	7.111
494.34	6.320
494.68	6.906
495.03	7.050
495.37	7.114
495.72	7.413
496.07	6.739
496.41	7.298
496.76	6.965
497.11	7.541
497.45	7.102
497.80	7.322
498.14	7.212
498.49	7.196
498.84	7.009
499.18	6.947
499.53	7.487
499.87	7.143
500.22	7.600
500.56	6.825
500.91	7.282
501.26	7.625
501.60	6.785
501.95	6.944
502.29	7.333
502.64	7.014
502.98	7.114
503.33	7.216
503.67	6.711
504.02	6.449
504.36	6.787
504.71	7.143
505.06	7.227
505.40	6.972
505.75	7.063
506.09	7.793
506.44	7.002
506.78	6.522
507.13	6.883
507.47	6.938
507.82	7.883
508.16	7.741
508.51	7.053
508.85	7.028
509.19	7.000
509.54	8.154
509.88	7.061
510.23	7.010
510.57	6.853
510.92	7.243
511.26	6.978
511.61	6.745
511.95	7.765
512.30	8.100
512.64	7.321
512.98	7.996
513.33	7.889
513.67	7.561
514.02	7.481
514.36	7.529
514.70	7.093
515.05	7.459
515.39	7.785
515.74	8.256
516.08	7.843
516.42	8.033
516.77	7.627
517.11	7.947
517.46	7.274
517.80	7.264
518.14	7.606
518.49	7.222
518.83	6.923
519.17	7.820
519.52	7.865
519.86	8.174
520.20	8.000
520.55	7.349
520.89	7.184
521.23	7.652
521.58	7.860
521.92	7.813
522.26	7.109
522.61	8.081
522.95	7.688
523.29	7.661
523.64	7.457
523.98	7.160
524.32	7.958
524.66	8.116
525.01	7.929
525.35	7.602
525.69	7.586
526.04	8.626
526.38	8.181
526.72	8.115
527.06	7.865
527.41	9.069
527.75	8.217
528.09	7.947
528.43	7.566
528.78	7.573
529.12	7.947
529.46	7.189
529.80	7.593
530.15	8.132
530.49	7.160
530.83	8.227
531.17	7.319
531.51	7.419
531.86	7.911
532.20	7.664
532.54	6.780
532.88	7.370
533.22	7.861
533.57	6.955
533.91	7.634
534.25	6.347
534.59	8.012
534.93	7.736
535.27	6.773
535.62	7.643
535.96	7.092
536.30	8.227
536.64	6.646
536.98	7.363
537.32	7.438
537.66	7.207
538.01	7.554
538.35	7.923
538.69	7.403
539.03	8.147
539.37	7.342
539.71	8.210
540.05	6.831
540.39	8.050
540.73	7.468
541.07	7.528
541.42	7.338
541.76	8.200
542.10	7.891
542.44	7.045
542.78	7.111
543.12	7.362
543.46	7.519
543.80	7.456
544.14	7.245
544.48	7.543
544.82	8.073
545.16	7.104
545.50	7.130
545.84	8.649
546.18	7.932
546.52	7.803
546.86	8.188
547.20	6.718
547.54	7.853
547.88	7.238
548.22	7.407
548.56	7.425
548.90	8.185
549.24	7.454
549.58	7.603
549.92	8.251
550.26	8.519
550.60	7.917
550.94	7.259
551.28	8.207
551.62	9.103
551.96	8.514
552.30	7.053
552.64	7.573
552.98	7.088
553.32	7.298
553.66	7.492
554.00	8.237
554.34	8.123
554.68	7.796
555.02	8.011
555.36	8.178
555.69	7.984
556.03	8.280
556.37	8.158
556.71	7.888
557.05	7.339
557.39	8.333
557.73	8.019
558.07	7.579
558.41	7.745
558.75	8.345
559.08	8.292
559.42	7.802
559.76	7.983
560.10	8.190
560.44	7.764
560.78	7.801
561.12	7.374
561.45	7.822
561.79	6.866
562.13	7.581
562.47	7.528
562.81	7.027
563.15	7.240
563.48	6.584
563.82	7.798
564.16	7.027
564.50	7.233
564.84	7.903
565.17	7.962
565.51	7.266
565.85	7.279
566.19	7.917
566.52	6.498
566.86	7.706
567.20	7.303
567.54	6.714
567.88	7.460
568.21	6.640
568.55	7.101
568.89	6.706
569.23	6.255
569.56	6.909
569.90	6.468
570.24	6.133
570.57	6.295
570.91	5.959
571.25	6.020
571.59	6.176
571.92	5.840
572.26	5.418
572.60	5.804
572.93	6.124
573.27	5.686
573.61	5.604
573.95	5.578
574.28	5.429
574.62	5.426
574.96	5.493
575.29	5.592
575.63	5.465
575.97	5.574
576.30	5.366
576.64	5.351
576.98	5.572
577.31	6.002
577.65	5.768
577.98	5.426
578.32	5.256
578.66	5.443
578.99	5.328
579.33	5.480
579.67	5.516
580.00	5.205
580.34	5.364
580.67	5.324
581.01	5.947
581.35	5.446
581.68	5.226
582.02	5.235
582.35	5.438
582.69	5.363
583.02	5.459
583.36	5.484
583.70	5.442
584.03	5.593
584.37	5.502
584.70	5.623
585.04	5.448
585.37	5.433
585.71	5.775
586.04	5.901
586.38	5.506
586.72	5.766
587.05	6.125
587.39	5.588
587.72	5.977
588.06	5.836
588.39	5.655
588.73	5.966
589.06	5.661
589.40	6.197
589.73	5.703
590.07	6.108
590.40	6.481
590.73	6.537
591.07	6.565
591.40	6.028
591.74	5.925
592.07	5.990
592.41	6.035
592.74	6.811
593.08	5.990
593.41	5.925
593.75	6.003
594.08	6.375
594.41	5.865
594.75	6.062
595.08	5.898
595.42	6.550
595.75	6.252
596.09	6.013
596.42	6.482
596.75	6.450
597.09	6.191
597.42	5.755
597.75	6.288
598.09	6.319
598.42	6.610
598.76	6.245
599.09	6.473
599.42	6.228
599.76	6.750
600.09	6.034
600.42	6.319
600.76	6.288
601.09	5.834
601.42	6.230
601.76	6.015
602.09	6.586
602.42	6.396
602.76	6.490
603.09	6.297
603.42	6.642
603.76	6.038
604.09	5.682
604.42	6.177
604.76	6.361
605.09	6.367
605.42	6.542
605.75	6.711
606.09	6.542
606.42	6.351
606.75	6.529
607.09	6.317
607.42	6.348
607.75	6.648
608.08	6.255
608.42	6.460
608.75	5.648
609.08	6.115
609.41	6.727
609.75	6.319
610.08	7.149
610.41	6.280
610.74	7.013
611.07	7.276
611.41	6.858
611.74	6.740
612.07	6.503
612.40	6.725
612.73	6.690
613.07	6.792
613.40	6.667
613.73	6.840
614.06	6.800
614.39	7.273
614.72	6.881
615.06	6.726
615.39	7.228
615.72	6.244
616.05	7.082
616.38	7.255
616.71	6.023
617.05	6.425
617.38	5.899
617.71	7.480
618.04	7.179
618.37	6.948
618.70	6.293
619.03	6.838
619.36	7.538
619.69	7.256
620.03	8.545
620.36	7.386
620.69	7.727
621.02	7.473
621.35	7.092
621.68	7.743
622.01	8.856
622.34	6.118
622.67	8.708
623.00	6.943
623.33	7.625
623.66	8.117
623.99	7.808
624.32	7.656
624.65	7.966
624.99	8.046
625.32	7.682
625.65	7.310
625.98	6.764
626.31	7.270
626.64	8.276
626.97	7.192
627.30	8.385
627.63	7.535
627.96	7.746
628.29	8.003
628.62	7.870
628.95	8.511
629.28	8.589
629.61	8.260
629.94	8.211
630.26	8.232
630.59	10.284
630.92	7.892
631.25	8.432
631.58	9.257
631.91	7.422
632.24	8.066
632.57	8.350
632.90	9.110
633.23	9.549
633.56	9.378
633.89	9.325
634.22	9.688
634.55	8.710
634.88	9.529
635.20	9.305
635.53	9.524
635.86	11.186
636.19	9.989
636.52	8.108
636.85	9.709
637.18	10.401
637.51	9.162
637.83	9.840
638.16	8.792
638.49	9.701
638.82	9.742
639.15	9.988
639.48	9.479
639.81	9.158
640.13	9.080
640.46	8.976
640.79	7.932
641.12	9.055
641.45	10.867
641.77	9.775
642.10	9.505
642.43	10.100
642.76	8.665
643.09	10.519
643.41	11.220
643.74	10.647
644.07	10.619
644.40	8.876
644.73	10.210
645.05	11.590
645.38	10.720
645.71	11.381
646.04	11.756
646.36	10.798
646.69	10.880
647.02	10.400
647.35	10.079
647.67	10.535
648.00	10.749
648.33	10.677
648.66	9.697
648.98	10.580
649.31	10.121
649.64	8.714
649.96	8.962
650.29	9.286
650.62	10.309
650.94	12.801
651.27	11.164
651.60	11.581
651.92	12.135
652.25	11.339
