SpectraSuite Data File
++++++++++++++++++++++++++++++++++++
Date: Tue May 12 17:10:59 PDT 2015
User: schluterlab
Dark Spectrum Present: Yes
Reference Spectrum Present: Yes
Number of Sampled Component Spectra: 1
Spectrometers: USB2E3373
Integration Time (usec): 3000 (USB2E3373)
Spectra Averaged: 3 (USB2E3373)
Boxcar Smoothing: 0 (USB2E3373)
Correct for Electrical Dark: No (USB2E3373)
Strobe/Lamp Enabled: No (USB2E3373)
Correct for Detector Non-linearity: No (USB2E3373)
Correct for Stray Light: No (USB2E3373)
Number of Pixels in Processed Spectrum: 2048
>>>>>Begin Processed Spectral Data<<<<<
178.53	0.000
178.91	-266.667
179.29	-650.000
179.67	-3900.000
180.04	-106.667
180.42	625.000
180.80	1650.000
181.18	0.000
181.56	-287.500
181.94	0.000
182.31	700.000
182.69	-2900.000
183.07	457.143
183.45	-3200.000
183.83	-1450.000
184.20	350.000
184.58	485.714
184.96	-261.538
185.34	-150.000
185.72	1150.000
186.09	-725.000
186.47	-2700.000
186.85	700.000
187.23	560.000
187.61	1800.000
187.98	450.000
188.36	235.714
188.74	425.000
189.12	400.000
189.49	650.000
189.87	0.000
190.25	437.500
190.63	2200.000
191.00	-241.667
191.38	-3900.000
191.76	-650.000
192.14	537.500
192.51	-2100.000
192.89	1850.000
193.27	933.333
193.65	-700.000
194.02	-500.000
194.40	471.429
194.78	-192.857
195.15	260.000
195.53	-3400.000
195.91	-680.000
196.29	3600.000
196.66	256.250
197.04	725.000
197.42	-1050.000
197.79	650.000
198.17	266.667
198.55	0.000
198.92	471.429
199.30	1000.000
199.68	1900.000
200.05	500.000
200.43	-383.333
200.81	233.333
201.18	2900.000
201.56	300.000
201.94	-700.000
202.31	-337.500
202.69	-520.000
203.07	2900.000
203.44	-500.000
203.82	308.333
204.19	680.000
204.57	-900.000
204.95	-825.000
205.32	-540.000
205.70	400.000
206.08	800.000
206.45	-1066.667
206.83	455.556
207.20	178.947
207.58	291.667
207.96	560.000
208.33	0.000
208.71	600.000
209.08	560.000
209.46	-3300.000
209.84	-700.000
210.21	820.000
210.59	-380.000
210.96	191.667
211.34	-675.000
211.71	336.364
212.09	700.000
212.46	1600.000
212.84	-466.667
213.22	388.889
213.59	-3100.000
213.97	320.000
214.34	1075.000
214.72	1066.667
215.09	666.667
215.47	-2200.000
215.84	-270.000
216.22	-312.500
216.59	0.000
216.97	0.000
217.34	1050.000
217.72	-1350.000
218.09	1300.000
218.47	375.000
218.84	775.000
219.22	1266.667
219.59	933.333
219.97	471.429
220.34	288.889
220.72	2000.000
221.09	3300.000
221.47	233.333
221.84	866.667
222.22	390.000
222.59	244.444
222.97	250.000
223.34	250.000
223.72	-2050.000
224.09	1633.333
224.46	230.769
224.84	-700.000
225.21	422.222
225.59	240.000
225.96	1666.667
226.34	-440.000
226.71	-600.000
227.08	-640.000
227.46	0.000
227.83	-383.333
228.21	-950.000
228.58	325.000
228.95	900.000
229.33	233.333
229.70	1175.000
230.08	315.385
230.45	2600.000
230.82	-950.000
231.20	-733.333
231.57	-866.667
231.95	560.000
232.32	258.333
232.69	550.000
233.07	308.333
233.44	-1450.000
233.81	253.333
234.19	155.556
234.56	181.250
234.93	200.000
235.31	155.000
235.68	231.250
236.05	182.143
236.43	148.148
236.80	178.571
237.17	168.966
237.55	118.750
237.92	115.000
238.29	139.394
238.67	137.500
239.04	121.951
239.41	89.583
239.79	85.000
240.16	77.083
240.53	86.885
240.91	78.261
241.28	77.966
241.65	74.242
242.02	83.099
242.40	78.571
242.77	64.835
243.14	55.696
243.51	72.727
243.89	62.617
244.26	53.271
244.63	49.505
245.00	53.211
245.38	38.983
245.75	47.727
246.12	49.630
246.49	45.390
246.87	45.902
247.24	50.000
247.61	40.625
247.98	45.578
248.36	44.242
248.73	43.878
249.10	39.286
249.47	39.000
249.84	36.816
250.22	40.000
250.59	40.000
250.96	42.616
251.33	37.674
251.70	36.161
252.08	37.815
252.45	39.044
252.82	33.460
253.19	38.735
253.56	33.077
253.94	34.058
254.31	35.659
254.68	37.282
255.05	36.207
255.42	33.577
255.79	37.134
256.16	35.254
256.54	35.714
256.91	36.928
257.28	31.438
257.65	31.975
258.02	30.383
258.39	32.092
258.76	34.493
259.14	31.429
259.51	33.528
259.88	37.386
260.25	30.495
260.62	33.151
260.99	29.752
261.36	35.376
261.73	30.319
262.10	32.461
262.47	31.500
262.85	32.533
263.22	32.391
263.59	32.481
263.96	31.579
264.33	29.383
264.70	31.941
265.07	33.659
265.44	30.734
265.81	33.019
266.18	29.519
266.55	30.969
266.92	29.754
267.29	31.140
267.66	30.269
268.03	28.924
268.40	32.558
268.77	29.075
269.14	29.718
269.51	29.844
269.88	30.612
270.25	28.510
270.62	29.614
270.99	31.643
271.36	32.520
271.73	29.140
272.10	29.495
272.47	30.159
272.84	29.341
273.21	29.339
273.58	28.138
273.95	26.899
274.32	30.350
274.69	29.921
275.06	28.597
275.43	29.885
275.80	28.491
276.17	29.044
276.54	30.841
276.91	31.343
277.28	28.285
277.65	30.074
278.02	29.412
278.39	30.216
278.76	28.621
279.13	27.936
279.50	28.364
279.87	27.374
280.23	28.545
280.60	26.642
280.97	28.276
281.34	28.548
281.71	31.304
282.08	25.983
282.45	28.885
282.82	29.933
283.19	26.709
283.56	26.777
283.92	27.362
284.29	27.953
284.66	25.882
285.03	26.700
285.40	26.942
285.77	25.617
286.14	26.935
286.51	28.221
286.87	25.791
287.24	26.577
287.61	26.596
287.98	26.866
288.35	25.333
288.72	26.252
289.08	24.925
289.45	27.134
289.82	25.938
290.19	26.061
290.56	25.910
290.93	26.187
291.29	23.619
291.66	24.859
292.03	24.684
292.40	24.390
292.77	23.259
293.13	25.392
293.50	24.157
293.87	23.306
294.24	24.056
294.60	21.938
294.97	24.615
295.34	21.780
295.71	23.653
296.08	23.200
296.44	22.363
296.81	23.325
297.18	22.053
297.55	22.167
297.91	20.197
298.28	22.826
298.65	21.840
299.02	21.351
299.38	21.463
299.75	21.585
300.12	22.362
300.48	22.600
300.85	20.977
301.22	20.698
301.59	19.929
301.95	19.253
302.32	21.537
302.69	20.475
303.05	21.661
303.42	18.274
303.79	21.127
304.15	21.232
304.52	19.239
304.89	21.429
305.25	20.245
305.62	20.789
305.99	19.565
306.35	20.526
306.72	21.332
307.09	19.358
307.45	20.803
307.82	21.091
308.19	20.722
308.55	19.900
308.92	19.529
309.29	20.414
309.65	19.623
310.02	19.675
310.38	19.242
310.75	18.322
311.12	19.157
311.48	21.429
311.85	20.992
312.22	21.203
312.58	19.631
312.95	19.223
313.31	19.569
313.68	18.480
314.05	19.780
314.41	18.901
314.78	18.655
315.14	20.853
315.51	19.205
315.87	19.982
316.24	18.301
316.61	19.517
316.97	18.165
317.34	19.677
317.70	19.052
318.07	19.840
318.43	19.069
318.80	19.440
319.16	18.881
319.53	18.850
319.89	18.190
320.26	19.274
320.62	19.048
320.99	18.684
321.35	19.109
321.72	19.070
322.08	19.206
322.45	18.529
322.81	19.122
323.18	19.005
323.54	20.209
323.91	19.764
324.27	19.275
324.64	18.080
325.00	18.707
325.37	17.875
325.73	18.212
326.10	19.387
326.46	18.580
326.83	17.920
327.19	18.394
327.56	18.770
327.92	19.508
328.29	19.067
328.65	19.521
329.01	18.905
329.38	19.120
329.74	17.848
330.11	18.766
330.47	18.159
330.84	16.997
331.20	18.274
331.56	18.912
331.93	19.076
332.29	17.092
332.66	18.197
333.02	18.986
333.38	17.976
333.75	19.099
334.11	18.037
334.48	18.889
334.84	18.328
335.20	19.076
335.57	18.052
335.93	17.998
336.29	18.740
336.66	18.525
337.02	16.938
337.38	18.057
337.75	17.990
338.11	18.734
338.47	18.205
338.84	17.189
339.20	18.182
339.56	17.241
339.93	17.893
340.29	16.218
340.65	19.279
341.02	18.262
341.38	17.406
341.74	17.276
342.11	17.028
342.47	17.309
342.83	17.884
343.20	17.462
343.56	16.759
343.92	17.836
344.28	17.544
344.65	17.685
345.01	17.063
345.37	16.907
345.73	17.302
346.10	16.175
346.46	17.065
346.82	16.590
347.19	17.774
347.55	17.330
347.91	16.616
348.27	16.654
348.63	17.089
349.00	17.669
349.36	17.276
349.72	17.049
350.08	17.547
350.45	18.126
350.81	16.437
351.17	16.487
351.53	15.704
351.89	17.483
352.26	15.873
352.62	17.044
352.98	17.025
353.34	17.026
353.70	16.131
354.07	16.692
354.43	16.820
354.79	15.793
355.15	16.003
355.51	17.221
355.87	16.867
356.24	16.936
356.60	16.438
356.96	15.921
357.32	16.729
357.68	17.548
358.04	16.945
358.40	17.241
358.77	17.881
359.13	17.568
359.49	16.753
359.85	16.381
360.21	14.710
360.57	16.788
360.93	16.234
361.29	16.450
361.66	17.450
362.02	16.690
362.38	16.089
362.74	15.782
363.10	17.251
363.46	15.953
363.82	16.199
364.18	16.643
364.54	16.881
364.90	16.734
365.26	15.267
365.62	15.884
365.98	15.003
366.35	16.069
366.71	16.239
367.07	16.382
367.43	16.588
367.79	15.758
368.15	16.418
368.51	15.575
368.87	15.217
369.23	16.216
369.59	16.925
369.95	16.014
370.31	16.016
370.67	15.892
371.03	16.947
371.39	16.274
371.75	15.771
372.11	16.519
372.47	16.712
372.83	15.636
373.19	16.998
373.55	16.357
373.91	15.193
374.27	15.873
374.63	16.678
374.99	14.960
375.35	15.591
375.71	15.501
376.07	15.119
376.42	14.834
376.78	14.900
377.14	16.055
377.50	15.169
377.86	14.734
378.22	15.600
378.58	16.102
378.94	15.993
379.30	15.100
379.66	15.232
380.02	15.777
380.38	15.222
380.74	15.859
381.09	15.713
381.45	14.971
381.81	15.366
382.17	15.690
382.53	15.297
382.89	14.962
383.25	15.571
383.61	15.101
383.97	15.297
384.32	15.130
384.68	16.102
385.04	15.299
385.40	15.658
385.76	15.682
386.12	15.090
386.48	15.319
386.83	14.914
387.19	14.782
387.55	15.901
387.91	15.878
388.27	15.348
388.62	15.434
388.98	14.402
389.34	14.694
389.70	14.800
390.06	15.366
390.42	14.004
390.77	15.111
391.13	15.389
391.49	15.426
391.85	15.815
392.20	15.077
392.56	15.711
392.92	15.216
393.28	15.247
393.64	14.106
393.99	15.056
394.35	15.539
394.71	13.691
395.07	15.024
395.42	14.930
395.78	15.731
396.14	15.783
396.50	14.982
396.85	15.183
397.21	15.042
397.57	15.362
397.92	14.096
398.28	14.286
398.64	15.009
399.00	14.057
399.35	14.707
399.71	15.177
400.07	15.240
400.42	14.925
400.78	15.308
401.14	14.739
401.49	14.459
401.85	14.542
402.21	15.114
402.57	14.841
402.92	15.273
403.28	13.962
403.63	14.715
403.99	15.380
404.35	15.006
404.70	14.589
405.06	14.093
405.42	15.380
405.77	14.939
406.13	15.347
406.49	14.099
406.84	14.608
407.20	15.011
407.55	15.138
407.91	15.252
408.27	14.615
408.62	14.902
408.98	14.784
409.34	14.787
409.69	14.997
410.05	14.132
410.40	14.547
410.76	14.425
411.11	14.633
411.47	14.136
411.83	14.177
412.18	13.587
412.54	15.135
412.89	13.746
413.25	15.279
413.60	15.129
413.96	14.123
414.31	15.880
414.67	13.904
415.03	14.432
415.38	14.132
415.74	14.403
416.09	14.678
416.45	14.997
416.80	15.266
417.16	14.513
417.51	14.968
417.87	14.581
418.22	14.945
418.58	15.032
418.93	14.218
419.29	13.986
419.64	14.779
420.00	15.453
420.35	13.763
420.71	14.236
421.06	14.597
421.42	14.393
421.77	14.436
422.12	14.994
422.48	14.484
422.83	14.621
423.19	15.119
423.54	13.988
423.90	14.383
424.25	14.364
424.61	15.090
424.96	13.326
425.31	14.395
425.67	15.264
426.02	14.526
426.38	14.527
426.73	14.575
427.09	14.353
427.44	14.181
427.79	14.408
428.15	14.319
428.50	15.086
428.85	14.227
429.21	14.425
429.56	14.506
429.92	14.073
430.27	14.272
430.62	14.342
430.98	14.721
431.33	13.911
431.68	13.284
432.04	13.813
432.39	14.764
432.74	14.520
433.10	14.175
433.45	14.532
433.80	14.892
434.16	14.398
434.51	14.035
434.86	14.480
435.22	14.100
435.57	15.412
435.92	14.912
436.28	15.380
436.63	14.587
436.98	14.640
437.34	14.441
437.69	14.502
438.04	15.269
438.39	14.536
438.75	14.699
439.10	14.949
439.45	14.698
439.81	15.038
440.16	14.970
440.51	14.302
440.86	14.416
441.22	14.610
441.57	14.646
441.92	14.166
442.27	14.072
442.63	14.583
442.98	14.547
443.33	13.980
443.68	14.336
444.03	14.185
444.39	14.030
444.74	14.493
445.09	14.376
445.44	13.762
445.79	14.084
446.15	14.316
446.50	14.241
446.85	14.193
447.20	14.129
447.55	13.703
447.91	15.184
448.26	14.430
448.61	14.151
448.96	13.998
449.31	15.017
449.66	15.338
450.02	14.587
450.37	14.714
450.72	14.711
451.07	14.776
451.42	15.116
451.77	14.662
452.12	15.258
452.47	15.371
452.83	15.211
453.18	15.255
453.53	14.920
453.88	14.914
454.23	15.456
454.58	15.152
454.93	14.531
455.28	13.892
455.63	14.421
455.98	15.228
456.34	15.562
456.69	14.451
457.04	14.141
457.39	14.971
457.74	15.541
458.09	14.318
458.44	14.786
458.79	14.430
459.14	13.912
459.49	14.892
459.84	15.326
460.19	15.198
460.54	15.100
460.89	14.446
461.24	14.777
461.59	14.286
461.94	15.603
462.29	15.503
462.64	15.452
462.99	15.419
463.34	15.489
463.69	15.245
464.04	15.314
464.39	14.997
464.74	14.244
465.09	14.916
465.44	15.506
465.79	14.535
466.14	14.308
466.49	14.162
466.84	15.106
467.19	15.524
467.54	14.775
467.89	15.082
468.24	14.534
468.59	15.298
468.94	14.855
469.29	14.966
469.64	16.206
469.99	15.488
470.34	15.117
470.68	15.034
471.03	15.210
471.38	15.430
471.73	15.415
472.08	15.590
472.43	15.208
472.78	15.557
473.13	15.019
473.48	15.098
473.83	14.723
474.17	15.198
474.52	15.581
474.87	15.463
475.22	14.963
475.57	14.638
475.92	15.074
476.27	14.146
476.61	15.013
476.96	14.734
477.31	15.424
477.66	15.620
478.01	15.162
478.36	14.418
478.70	14.640
479.05	14.592
479.40	15.179
479.75	14.846
480.10	15.924
480.45	15.173
480.79	15.346
481.14	13.932
481.49	14.684
481.84	15.303
482.19	14.716
482.53	14.141
482.88	14.651
483.23	14.659
483.58	14.722
483.92	14.945
484.27	14.683
484.62	15.195
484.97	14.375
485.31	13.464
485.66	13.469
486.01	12.965
486.36	13.283
486.70	12.691
487.05	13.259
487.40	13.628
487.75	13.978
488.09	13.778
488.44	14.372
488.79	14.231
489.13	14.110
489.48	14.503
489.83	14.345
490.17	14.079
490.52	14.427
490.87	14.569
491.22	14.938
491.56	14.844
491.91	14.158
492.26	14.254
492.60	14.989
492.95	14.952
493.30	14.786
493.64	14.555
493.99	15.116
494.34	14.792
494.68	14.431
495.03	15.177
495.37	15.263
495.72	14.872
496.07	14.510
496.41	14.813
496.76	14.648
497.11	15.081
497.45	14.862
497.80	14.365
498.14	15.210
498.49	15.042
498.84	15.000
499.18	14.260
499.53	14.607
499.87	14.241
500.22	15.246
500.56	14.253
500.91	15.167
501.26	15.204
501.60	14.709
501.95	14.695
502.29	14.533
502.64	13.983
502.98	14.406
503.33	14.833
503.67	15.541
504.02	14.420
504.36	14.706
504.71	14.995
505.06	14.923
505.40	14.319
505.75	15.154
506.09	15.306
506.44	14.850
506.78	14.839
507.13	15.221
507.47	14.993
507.82	15.572
508.16	15.777
508.51	14.928
508.85	15.812
509.19	14.733
509.54	14.648
509.88	15.564
510.23	15.588
510.57	14.672
510.92	15.485
511.26	15.060
511.61	14.919
511.95	15.331
512.30	14.950
512.64	14.849
512.98	15.274
513.33	15.369
513.67	15.329
514.02	15.169
514.36	15.472
514.70	15.093
515.05	14.864
515.39	15.296
515.74	15.309
516.08	15.577
516.42	15.464
516.77	14.933
517.11	14.773
517.46	15.948
517.80	14.691
518.14	15.887
518.49	15.215
518.83	14.835
519.17	14.698
519.52	16.002
519.86	16.240
520.20	15.836
520.55	14.302
520.89	14.885
521.23	15.304
521.58	15.548
521.92	15.102
522.26	14.988
522.61	15.211
522.95	15.976
523.29	15.673
523.64	14.740
523.98	16.021
524.32	15.456
524.66	15.710
525.01	15.148
525.35	14.791
525.69	15.713
526.04	15.705
526.38	15.480
526.72	15.155
527.06	14.902
527.41	16.082
527.75	15.703
528.09	15.412
528.43	15.192
528.78	15.504
529.12	14.931
529.46	15.956
529.80	15.479
530.15	15.498
530.49	13.839
530.83	15.905
531.17	15.314
531.51	15.144
531.86	14.795
532.20	15.142
532.54	15.129
532.88	15.428
533.22	15.783
533.57	15.436
533.91	14.744
534.25	15.061
534.59	15.088
534.93	15.017
535.27	14.912
535.62	15.169
535.96	15.662
536.30	15.905
536.64	14.720
536.98	14.726
537.32	15.438
537.66	15.306
538.01	15.294
538.35	16.220
538.69	14.867
539.03	15.858
539.37	16.141
539.71	15.123
540.05	15.077
540.39	15.912
540.73	15.190
541.07	14.994
541.42	14.366
541.76	14.920
542.10	14.797
542.44	14.900
542.78	15.104
543.12	15.276
543.46	14.724
543.80	15.351
544.14	15.356
544.48	15.207
544.82	15.229
545.16	14.754
545.50	15.058
545.84	15.593
546.18	16.320
546.52	15.016
546.86	16.183
547.20	15.439
547.54	15.136
547.88	15.389
548.22	15.665
548.56	14.673
548.90	14.828
549.24	15.098
549.58	15.786
549.92	14.800
550.26	15.348
550.60	15.170
550.94	14.722
551.28	15.310
551.62	15.517
551.96	14.932
552.30	14.370
552.64	15.340
552.98	14.046
553.32	14.725
553.66	14.853
554.00	14.672
554.34	15.180
554.68	15.457
555.02	15.547
555.36	15.093
555.69	14.987
556.03	15.541
556.37	15.615
556.71	15.645
557.05	14.024
557.39	16.000
557.73	16.509
558.07	15.225
558.41	15.079
558.75	16.484
559.08	15.868
559.42	15.963
559.76	16.108
560.10	15.760
560.44	14.997
560.78	16.368
561.12	15.766
561.45	15.207
561.79	15.418
562.13	15.161
562.47	15.055
562.81	15.094
563.15	15.643
563.48	14.410
563.82	15.221
564.16	15.672
564.50	15.310
564.84	14.894
565.17	14.914
565.51	15.825
565.85	15.608
566.19	14.702
566.52	14.922
566.86	15.353
567.20	15.225
567.54	14.410
567.88	15.336
568.21	14.578
568.55	14.932
568.89	14.462
569.23	14.021
569.56	14.137
569.90	13.798
570.24	14.072
570.57	13.757
570.91	13.853
571.25	14.057
571.59	13.424
571.92	13.079
572.26	13.181
572.60	13.413
572.93	13.715
573.27	13.728
573.61	13.102
573.95	13.496
574.28	13.306
574.62	13.228
574.96	13.223
575.29	13.063
575.63	13.310
575.97	13.169
576.30	12.655
576.64	13.306
576.98	13.304
577.31	13.035
577.65	13.286
577.98	13.123
578.32	12.878
578.66	13.200
578.99	13.216
579.33	13.239
579.67	13.132
580.00	13.093
580.34	13.344
580.67	13.356
581.01	13.386
581.35	13.317
581.68	12.984
582.02	12.888
582.35	12.916
582.69	13.303
583.02	13.170
583.36	13.225
583.70	13.558
584.03	13.323
584.37	13.428
584.70	13.237
585.04	12.491
585.37	12.962
585.71	13.483
586.04	13.068
586.38	12.928
586.72	13.205
587.05	13.742
587.39	13.375
587.72	13.174
588.06	13.509
588.39	13.536
588.73	13.648
589.06	13.802
589.40	13.991
589.73	13.930
590.07	14.001
590.40	14.111
590.73	14.212
591.07	14.118
591.40	13.892
591.74	14.407
592.07	13.436
592.41	13.949
592.74	14.061
593.08	13.118
593.41	13.645
593.75	13.060
594.08	13.705
594.41	13.392
594.75	13.664
595.08	13.615
595.42	14.450
595.75	13.722
596.09	13.799
596.42	13.875
596.75	14.704
597.09	14.239
597.42	13.714
597.75	13.428
598.09	13.993
598.42	13.668
598.76	13.840
599.09	13.939
599.42	13.979
599.76	14.077
600.09	13.661
600.42	13.985
600.76	13.052
601.09	13.669
601.42	14.080
601.76	14.035
602.09	14.202
602.42	13.900
602.76	13.776
603.09	14.706
603.42	14.239
603.76	13.702
604.09	13.572
604.42	14.200
604.76	14.737
605.09	14.490
605.42	13.816
605.75	13.976
606.09	14.499
606.42	13.867
606.75	13.758
607.09	13.857
607.42	14.303
607.75	14.092
608.08	14.379
608.42	14.471
608.75	13.350
609.08	13.726
609.41	14.409
609.75	14.744
610.08	13.714
610.41	14.185
610.74	13.896
611.07	14.643
611.41	13.948
611.74	14.436
612.07	14.162
612.40	14.522
612.73	14.428
613.07	14.293
613.40	14.787
613.73	14.528
614.06	14.000
614.39	14.293
614.72	14.515
615.06	13.996
615.39	15.347
615.72	13.843
616.05	15.068
616.38	14.460
616.71	14.324
617.05	13.674
617.38	14.382
617.71	15.242
618.04	15.087
618.37	14.564
618.70	14.261
619.03	14.530
619.36	15.389
619.69	14.644
620.03	15.199
620.36	15.350
620.69	16.156
621.02	15.217
621.35	14.971
621.68	16.077
622.01	16.236
622.34	15.659
622.67	14.958
623.00	15.997
623.33	15.587
623.66	15.236
623.99	16.233
624.32	15.244
624.65	14.549
624.99	15.078
625.32	15.898
625.65	15.172
625.98	14.993
626.31	15.727
626.64	14.351
626.97	15.455
627.30	15.062
627.63	16.091
627.96	15.102
628.29	15.429
628.62	15.056
628.95	16.489
629.28	15.162
629.61	16.608
629.94	16.076
630.26	16.638
630.59	16.667
630.92	15.157
631.25	16.772
