SpectraSuite Data File
++++++++++++++++++++++++++++++++++++
Date: Tue May 12 17:13:18 PDT 2015
User: schluterlab
Dark Spectrum Present: Yes
Reference Spectrum Present: Yes
Number of Sampled Component Spectra: 1
Spectrometers: USB2E3373
Integration Time (usec): 3000 (USB2E3373)
Spectra Averaged: 3 (USB2E3373)
Boxcar Smoothing: 0 (USB2E3373)
Correct for Electrical Dark: No (USB2E3373)
Strobe/Lamp Enabled: No (USB2E3373)
Correct for Detector Non-linearity: No (USB2E3373)
Correct for Stray Light: No (USB2E3373)
Number of Pixels in Processed Spectrum: 2048
>>>>>Begin Processed Spectral Data<<<<<
178.53	0.000
178.91	-225.000
179.29	-825.000
179.67	-3600.000
180.04	-133.333
180.42	250.000
180.80	1800.000
181.18	0.000
181.56	-300.000
181.94	0.000
182.31	1200.000
182.69	-3400.000
183.07	571.429
183.45	-3900.000
183.83	-1350.000
184.20	420.000
184.58	457.143
184.96	-276.923
185.34	-216.667
185.72	1550.000
186.09	-950.000
186.47	-3800.000
186.85	900.000
187.23	440.000
187.61	1350.000
187.98	650.000
188.36	235.714
188.74	375.000
189.12	358.333
189.49	875.000
189.87	0.000
190.25	412.500
190.63	2800.000
191.00	-225.000
191.38	-3300.000
191.76	-750.000
192.14	562.500
192.51	-2100.000
192.89	1250.000
193.27	833.333
193.65	-1033.333
194.02	-780.000
194.40	528.571
194.78	-157.143
195.15	226.667
195.53	-2900.000
195.91	-700.000
196.29	3800.000
196.66	225.000
197.04	875.000
197.42	-1400.000
197.79	500.000
198.17	233.333
198.55	0.000
198.92	457.143
199.30	1133.333
199.68	1700.000
200.05	650.000
200.43	-333.333
200.81	188.889
201.18	3200.000
201.56	291.667
201.94	-750.000
202.31	-175.000
202.69	-600.000
203.07	2900.000
203.44	-516.667
203.82	283.333
204.19	620.000
204.57	-1450.000
204.95	-700.000
205.32	-860.000
205.70	466.667
206.08	950.000
206.45	-1033.333
206.83	411.111
207.20	136.842
207.58	241.667
207.96	620.000
208.33	0.000
208.71	485.714
209.08	740.000
209.46	-2900.000
209.84	-625.000
210.21	780.000
210.59	-520.000
210.96	341.667
211.34	-800.000
211.71	390.909
212.09	775.000
212.46	1850.000
212.84	-250.000
213.22	511.111
213.59	-3500.000
213.97	300.000
214.34	775.000
214.72	1166.667
215.09	766.667
215.47	-3200.000
215.84	-290.000
216.22	-362.500
216.59	0.000
216.97	0.000
217.34	1100.000
217.72	-1350.000
218.09	1166.667
218.47	450.000
218.84	800.000
219.22	1166.667
219.59	733.333
219.97	528.571
220.34	311.111
220.72	1950.000
221.09	2300.000
221.47	191.667
221.84	1166.667
222.22	280.000
222.59	311.111
222.97	185.714
223.34	193.750
223.72	-1650.000
224.09	1300.000
224.46	300.000
224.84	-700.000
225.21	355.556
225.59	246.667
225.96	1466.667
226.34	-500.000
226.71	-750.000
227.08	-600.000
227.46	0.000
227.83	-566.667
228.21	-2100.000
228.58	333.333
228.95	925.000
229.33	244.444
229.70	950.000
230.08	346.154
230.45	4200.000
230.82	-975.000
231.20	-1066.667
231.57	-966.667
231.95	680.000
232.32	283.333
232.69	500.000
233.07	283.333
233.44	-1550.000
233.81	260.000
234.19	137.037
234.56	231.250
234.93	229.412
235.31	185.000
235.68	256.250
236.05	146.429
236.43	148.148
236.80	192.857
237.17	113.793
237.55	112.500
237.92	137.500
238.29	127.273
238.67	128.125
239.04	92.683
239.41	100.000
239.79	85.000
240.16	102.083
240.53	70.492
240.91	85.507
241.28	72.881
241.65	66.667
242.02	76.056
242.40	72.857
242.77	62.637
243.14	53.165
243.51	66.667
243.89	57.009
244.26	63.551
244.63	53.465
245.00	56.881
245.38	42.373
245.75	53.788
246.12	57.778
246.49	49.645
246.87	47.541
247.24	52.667
247.61	47.500
247.98	46.939
248.36	46.667
248.73	45.918
249.10	44.048
249.47	43.500
249.84	40.796
250.22	47.027
250.59	38.000
250.96	43.038
251.33	41.860
251.70	41.964
252.08	40.336
252.45	33.466
252.82	33.080
253.19	35.573
253.56	37.308
253.94	36.594
254.31	38.372
254.68	39.024
255.05	37.931
255.42	37.956
255.79	36.156
256.16	36.949
256.54	35.714
256.91	32.680
257.28	35.452
257.65	33.229
258.02	35.398
258.39	33.811
258.76	35.652
259.14	30.571
259.51	38.192
259.88	35.258
260.25	34.066
260.62	32.329
260.99	34.160
261.36	33.705
261.73	31.649
262.10	32.984
262.47	35.250
262.85	33.600
263.22	34.447
263.59	31.714
263.96	31.579
264.33	29.136
264.70	35.135
265.07	34.390
265.44	32.798
265.81	33.255
266.18	32.723
266.55	32.151
266.92	33.110
267.29	32.018
267.66	31.390
268.03	29.596
268.40	32.135
268.77	32.599
269.14	29.718
269.51	30.067
269.88	32.041
270.25	27.214
270.62	32.403
270.99	33.063
271.36	30.691
271.73	29.769
272.10	27.677
272.47	31.151
272.84	27.146
273.21	30.372
273.58	31.984
273.95	28.953
274.32	30.934
274.69	30.709
275.06	30.419
275.43	30.460
275.80	29.623
276.17	31.066
276.54	31.028
276.91	31.903
277.28	29.015
277.65	28.782
278.02	31.066
278.39	30.576
278.76	32.069
279.13	30.071
279.50	29.091
279.87	26.816
280.23	31.860
280.60	29.562
280.97	28.448
281.34	29.043
281.71	29.217
282.08	31.795
282.45	29.561
282.82	28.595
283.19	29.412
283.56	28.926
283.92	30.456
284.29	29.617
284.66	28.067
285.03	28.690
285.40	28.430
285.77	27.932
286.14	29.412
286.51	26.840
286.87	27.690
287.24	27.628
287.61	28.116
287.98	27.910
288.35	24.148
288.72	27.466
289.08	27.027
289.45	27.439
289.82	26.094
290.19	26.647
290.56	29.258
290.93	25.036
291.29	25.829
291.66	25.989
292.03	24.684
292.40	26.423
292.77	25.487
293.13	26.676
293.50	25.506
293.87	24.932
294.24	26.014
294.60	27.725
294.97	26.154
295.34	26.826
295.71	25.361
296.08	25.867
296.44	25.159
296.81	23.573
297.18	23.828
297.55	25.000
297.91	23.153
298.28	25.000
298.65	26.258
299.02	24.005
299.38	23.741
299.75	23.780
300.12	24.771
300.48	25.527
300.85	25.387
301.22	23.140
301.59	23.821
301.95	23.104
302.32	24.563
302.69	24.095
303.05	24.804
303.42	23.094
303.79	25.677
304.15	25.193
304.52	25.793
304.89	23.881
305.25	25.028
305.62	24.840
305.99	24.674
306.35	25.053
306.72	25.182
307.09	24.845
307.45	25.554
307.82	25.514
308.19	26.186
308.55	24.800
308.92	26.987
309.29	27.022
309.65	26.462
310.02	27.282
310.38	26.221
310.75	27.290
311.12	26.533
311.48	29.344
311.85	29.198
312.22	29.895
312.58	29.446
312.95	29.612
313.31	30.243
313.68	28.987
314.05	30.769
314.41	30.261
314.78	30.871
315.14	33.081
315.51	33.207
315.87	32.299
316.24	32.213
316.61	32.587
316.97	32.477
317.34	34.232
317.70	35.031
318.07	35.409
318.43	36.467
318.80	35.377
319.16	36.276
319.53	36.460
319.89	36.290
320.26	39.758
320.62	39.011
320.99	38.322
321.35	39.332
321.72	41.366
322.08	40.628
322.45	39.328
322.81	41.995
323.18	42.007
323.54	43.206
323.91	44.515
324.27	44.209
324.64	44.810
325.00	46.466
325.37	46.796
325.73	46.037
326.10	46.479
326.46	46.573
326.83	46.720
327.19	48.112
327.56	46.565
327.92	48.525
328.29	48.691
328.65	50.428
329.01	47.819
329.38	49.323
329.74	49.103
330.11	50.478
330.47	49.361
330.84	48.576
331.20	48.985
331.56	50.950
331.93	51.839
332.29	50.935
332.66	52.126
333.02	48.625
333.38	50.349
333.75	49.625
334.11	50.000
334.48	50.256
334.84	50.760
335.20	53.208
335.57	51.301
335.93	50.126
336.29	48.093
336.66	52.916
337.02	50.984
337.38	51.161
337.75	51.689
338.11	51.814
338.47	51.990
338.84	49.534
339.20	50.649
339.56	51.051
339.93	49.498
340.29	49.664
340.65	50.796
341.02	49.638
341.38	49.097
341.74	51.993
342.11	51.503
342.47	49.385
342.83	51.928
343.20	50.606
343.56	49.563
343.92	50.702
344.28	50.718
344.65	51.263
345.01	50.317
345.37	49.920
345.73	50.476
346.10	48.765
346.46	52.871
346.82	50.386
347.19	51.236
347.55	49.493
347.91	51.057
348.27	49.961
348.63	50.791
349.00	48.972
349.36	50.584
349.72	51.223
350.08	51.087
350.45	49.962
350.81	50.382
351.17	49.307
351.53	50.115
351.89	49.650
352.26	49.660
352.62	50.226
352.98	51.227
353.34	50.385
353.70	50.535
354.07	50.385
354.43	50.614
354.79	49.658
355.15	51.608
355.51	51.133
355.87	51.054
356.24	50.654
356.60	50.000
356.96	50.417
357.32	49.359
357.68	50.367
358.04	50.380
358.40	49.625
358.77	50.113
359.13	50.751
359.49	49.741
359.85	49.367
360.21	49.406
360.57	49.343
360.93	50.072
361.29	50.216
361.66	51.081
362.02	48.509
362.38	49.351
362.74	49.894
363.10	49.299
363.46	48.550
363.82	48.597
364.18	49.218
364.54	51.001
364.90	49.665
365.26	51.006
365.62	48.826
365.98	49.484
366.35	49.655
366.71	49.618
367.07	49.352
367.43	50.638
367.79	48.338
368.15	48.236
368.51	49.897
368.87	48.505
369.23	49.965
369.59	48.887
369.95	49.510
370.31	49.897
370.67	49.688
371.03	50.560
371.39	50.277
371.75	49.686
372.11	48.810
372.47	49.315
372.83	49.830
373.19	50.308
373.55	49.210
373.91	48.412
374.27	47.884
374.63	48.407
374.99	50.404
375.35	49.395
375.71	48.879
376.07	48.475
376.42	49.425
376.78	48.812
377.14	49.345
377.50	48.127
377.86	49.776
378.22	47.837
378.58	48.789
378.94	47.858
379.30	49.121
379.66	49.910
380.02	49.267
380.38	48.009
380.74	48.385
381.09	48.248
381.45	49.133
381.81	48.404
382.17	47.863
382.53	48.710
382.89	48.492
383.25	48.905
383.61	47.608
383.97	47.810
384.32	47.981
384.68	48.604
385.04	47.069
385.40	48.339
385.76	47.396
386.12	47.866
386.48	47.477
386.83	48.289
387.19	47.762
387.55	48.587
387.91	46.767
388.27	46.698
388.62	46.772
388.98	47.055
389.34	46.460
389.70	46.344
390.06	47.988
390.42	47.378
390.77	46.130
391.13	47.254
391.49	45.675
391.85	46.523
392.20	46.305
392.56	46.774
392.92	45.929
393.28	45.348
393.64	45.298
393.99	44.813
394.35	45.262
394.71	44.451
395.07	45.073
395.42	46.019
395.78	46.823
396.14	44.639
396.50	45.247
396.85	44.878
397.21	45.909
397.57	45.846
397.92	44.079
398.28	44.181
398.64	45.084
399.00	43.773
399.35	44.552
399.71	43.709
400.07	44.521
400.42	43.224
400.78	43.284
401.14	44.745
401.49	44.643
401.85	43.917
402.21	43.292
402.57	43.327
402.92	44.061
403.28	43.019
403.63	43.143
403.99	43.124
404.35	43.025
404.70	43.768
405.06	41.887
405.42	43.387
405.77	43.550
406.13	42.354
406.49	42.069
406.84	42.922
407.20	43.721
407.55	42.523
407.91	43.714
408.27	42.753
408.62	42.164
408.98	42.224
409.34	41.905
409.69	40.946
410.05	41.264
410.40	42.108
410.76	40.240
411.11	41.114
411.47	40.802
411.83	40.187
412.18	41.486
412.54	41.021
412.89	40.177
413.25	41.391
413.60	40.187
413.96	41.592
414.31	41.204
414.67	40.596
415.03	40.166
415.38	39.874
415.74	41.314
416.09	40.662
416.45	41.112
416.80	42.399
417.16	39.020
417.51	40.318
417.87	40.426
418.22	40.401
418.58	40.127
418.93	39.619
419.29	39.495
419.64	39.794
420.00	39.737
420.35	40.244
420.71	39.732
421.06	39.317
421.42	39.609
421.77	39.811
422.12	39.967
422.48	39.291
422.83	39.397
423.19	38.607
423.54	38.453
423.90	40.374
424.25	39.571
424.61	39.292
424.96	39.187
425.31	39.190
425.67	40.011
426.02	39.148
426.38	38.973
426.73	39.618
427.09	39.324
427.44	40.236
427.79	38.765
428.15	40.660
428.50	40.229
428.85	38.272
429.21	39.060
429.56	38.584
429.92	38.687
430.27	38.655
430.62	37.690
430.98	37.525
431.33	39.063
431.68	37.481
432.04	38.438
432.39	39.572
432.74	39.286
433.10	38.594
433.45	39.115
433.80	39.768
434.16	37.940
434.51	37.564
434.86	39.140
435.22	38.628
435.57	37.819
435.92	39.328
436.28	38.652
436.63	38.142
436.98	39.020
437.34	37.785
437.69	38.522
438.04	38.817
438.39	37.303
438.75	38.252
439.10	37.345
439.45	37.535
439.81	38.057
440.16	38.470
440.51	37.782
440.86	38.974
441.22	36.688
441.57	37.218
441.92	37.611
442.27	36.701
442.63	36.941
442.98	37.716
443.33	37.172
443.68	37.173
444.03	37.559
444.39	37.382
444.74	37.629
445.09	37.757
445.44	37.194
445.79	37.086
446.15	37.053
446.50	36.392
446.85	37.450
447.20	36.070
447.55	37.575
447.91	38.839
448.26	38.072
448.61	37.645
448.96	37.527
449.31	38.119
449.66	38.261
450.02	36.413
450.37	37.590
450.72	36.694
451.07	37.813
451.42	37.759
451.77	37.743
452.12	38.003
452.47	37.789
452.83	37.127
453.18	37.357
453.53	37.123
453.88	37.200
454.23	38.059
454.58	37.762
454.93	37.155
455.28	38.311
455.63	37.589
455.98	36.379
456.34	37.994
456.69	36.585
457.04	37.053
457.39	36.971
457.74	37.669
458.09	36.889
458.44	37.021
458.79	36.658
459.14	36.116
459.49	37.373
459.84	36.196
460.19	36.215
460.54	35.499
460.89	36.461
461.24	36.369
461.59	36.735
461.94	36.348
462.29	36.270
462.64	37.437
462.99	35.765
463.34	37.265
463.69	36.419
464.04	36.097
464.39	35.432
464.74	34.174
465.09	34.707
465.44	35.582
465.79	35.656
466.14	34.605
466.49	35.486
466.84	34.783
467.19	35.852
467.54	34.775
467.89	35.681
468.24	35.900
468.59	35.833
468.94	35.085
469.29	36.714
469.64	36.013
469.99	36.889
470.34	35.863
470.68	35.793
471.03	36.224
471.38	36.358
471.73	36.185
472.08	37.704
472.43	37.182
472.78	36.876
473.13	34.731
473.48	34.963
473.83	36.219
474.17	36.413
474.52	34.893
474.87	34.338
475.22	35.580
475.57	34.313
475.92	35.411
476.27	33.624
476.61	35.442
476.96	34.274
477.31	35.476
477.66	35.480
478.01	35.121
478.36	35.376
478.70	34.045
479.05	34.623
479.40	35.615
479.75	35.353
480.10	35.092
480.45	34.360
480.79	34.516
481.14	35.473
481.49	33.943
481.84	33.817
482.19	32.838
482.53	33.509
482.88	34.095
483.23	33.333
483.58	34.156
483.92	35.649
484.27	33.818
484.62	34.380
484.97	32.957
485.31	31.950
485.66	30.469
486.01	29.594
486.36	29.408
486.70	29.525
487.05	30.457
487.40	31.410
487.75	31.743
488.09	32.131
488.44	32.569
488.79	32.523
489.13	33.333
489.48	33.640
489.83	33.028
490.17	33.485
490.52	34.582
490.87	34.397
491.22	34.087
491.56	33.992
491.91	34.229
492.26	34.076
492.60	34.351
492.95	33.802
493.30	34.122
493.64	34.726
493.99	33.318
494.34	33.617
494.68	34.440
495.03	34.486
495.37	34.039
495.72	34.639
496.07	33.558
496.41	33.449
496.76	33.136
497.11	34.147
497.45	34.020
497.80	33.642
498.14	34.073
498.49	33.612
498.84	34.766
499.18	32.724
499.53	33.808
499.87	33.827
500.22	33.809
500.56	33.473
500.91	33.581
501.26	33.762
501.60	33.789
501.95	33.020
502.29	34.000
502.64	33.083
502.98	32.681
503.33	33.140
503.67	33.068
504.02	33.229
504.36	32.986
504.71	33.444
505.06	33.412
505.40	33.926
505.75	33.302
506.09	33.831
506.44	33.506
506.78	33.554
507.13	34.319
507.47	34.837
507.82	34.258
508.16	35.326
508.51	33.816
508.85	33.571
509.19	35.047
509.54	33.447
509.88	34.858
510.23	33.873
510.57	33.349
510.92	34.915
511.26	35.141
511.61	33.580
511.95	33.748
512.30	34.100
512.64	33.022
512.98	34.854
513.33	32.941
513.67	34.283
514.02	33.818
514.36	33.853
514.70	33.867
515.05	33.458
515.39	35.252
515.74	35.867
516.08	35.022
516.42	36.995
516.77	35.147
517.11	34.933
517.46	34.537
517.80	34.353
518.14	35.099
518.49	34.950
518.83	34.725
519.17	34.886
519.52	34.517
519.86	34.550
520.20	35.178
520.55	35.726
520.89	34.655
521.23	35.572
521.58	35.169
521.92	33.878
522.26	35.071
522.61	36.542
522.95	36.156
523.29	36.316
523.64	35.318
523.98	34.977
524.32	34.256
524.66	34.145
525.01	34.438
525.35	35.298
525.69	35.581
526.04	35.574
526.38	34.903
526.72	33.831
527.06	34.477
527.41	34.825
527.75	35.058
528.09	34.557
528.43	35.570
528.78	35.480
529.12	34.919
529.46	34.191
529.80	34.755
530.15	34.885
530.49	34.296
530.83	34.918
531.17	34.625
531.51	34.335
531.86	35.447
532.20	34.858
532.54	33.773
532.88	34.416
533.22	36.076
533.57	34.655
533.91	33.916
534.25	32.891
534.59	34.561
534.93	33.504
535.27	33.295
535.62	33.022
535.96	33.806
536.30	34.491
536.64	33.478
536.98	34.235
537.32	34.375
537.66	34.503
538.01	34.303
538.35	33.874
538.69	32.585
539.03	33.582
539.37	32.888
539.71	34.012
540.05	33.538
540.39	34.843
540.73	33.165
541.07	32.371
541.42	33.520
541.76	33.909
542.10	33.231
542.44	33.978
542.78	32.788
543.12	33.067
543.46	33.208
543.80	33.333
544.14	32.755
544.48	32.482
544.82	32.722
545.16	31.573
545.50	33.251
545.84	33.712
546.18	34.850
546.52	34.754
546.86	33.462
547.20	33.140
547.54	33.122
547.88	32.117
548.22	32.726
548.56	31.232
548.90	32.740
549.24	32.912
549.58	32.410
549.92	33.595
550.26	33.063
550.60	34.265
550.94	32.904
551.28	33.931
551.62	34.621
551.96	33.581
552.30	32.564
552.64	33.010
552.98	32.152
553.32	32.202
553.66	32.313
554.00	33.269
554.34	33.555
554.68	33.266
555.02	33.673
555.36	32.979
555.69	32.919
556.03	32.420
556.37	32.696
556.71	34.224
557.05	31.520
557.39	33.267
557.73	33.693
558.07	33.870
558.41	32.831
558.75	33.721
559.08	34.668
559.42	33.286
559.76	33.927
560.10	32.966
560.44	33.112
560.78	32.289
561.12	31.786
561.45	31.852
561.79	32.584
562.13	33.039
562.47	32.317
562.81	33.442
563.15	31.545
563.48	30.807
563.82	33.001
564.16	33.333
564.50	31.163
564.84	31.125
565.17	31.194
565.51	32.266
565.85	32.326
566.19	31.488
566.52	31.047
566.86	31.582
567.20	31.517
567.54	30.786
567.88	30.934
568.21	29.905
568.55	30.350
568.89	29.288
569.23	28.818
569.56	28.794
569.90	27.704
570.24	27.257
570.57	26.282
570.91	26.552
571.25	25.919
571.59	25.155
571.92	25.377
572.26	25.256
572.60	25.604
572.93	25.733
573.27	26.020
573.61	25.311
573.95	25.448
574.28	25.206
574.62	24.639
574.96	24.729
575.29	24.632
575.63	24.523
575.97	24.659
576.30	24.905
576.64	24.666
576.98	24.402
577.31	25.062
577.65	24.073
577.98	23.725
578.32	23.672
578.66	23.950
578.99	24.082
579.33	24.380
579.67	24.348
580.00	23.894
580.34	24.430
580.67	23.826
581.01	24.578
581.35	23.395
581.68	23.056
582.02	23.158
582.35	23.741
582.69	23.420
583.02	23.630
583.36	24.446
583.70	24.487
584.03	24.981
584.37	24.634
584.70	24.185
585.04	23.721
585.37	23.828
585.71	24.090
586.04	23.740
586.38	24.324
586.72	24.582
587.05	24.910
587.39	24.223
587.72	24.884
588.06	24.187
588.39	24.437
588.73	24.653
589.06	25.474
589.40	25.696
589.73	26.057
590.07	26.150
590.40	26.481
590.73	27.323
591.07	26.755
591.40	26.587
591.74	26.502
592.07	26.040
592.41	26.139
592.74	25.558
593.08	24.967
593.41	24.446
593.75	24.890
594.08	25.008
594.41	24.959
594.75	25.788
595.08	25.617
595.42	25.642
595.75	25.436
596.09	25.860
596.42	25.892
596.75	27.123
597.09	26.496
597.42	26.408
597.75	26.613
598.09	26.016
598.42	26.112
598.76	25.790
599.09	25.855
599.42	25.260
599.76	25.102
600.09	25.186
600.42	24.896
600.76	24.677
601.09	24.853
601.42	25.484
601.76	25.492
602.09	26.196
602.42	24.991
602.76	25.617
603.09	25.641
603.42	25.505
603.76	25.054
604.09	24.828
604.42	24.557
604.76	25.879
605.09	25.592
605.42	25.843
605.75	25.819
606.09	25.631
606.42	25.216
606.75	25.534
607.09	25.424
607.42	25.512
607.75	26.234
608.08	25.589
608.42	26.594
608.75	26.444
609.08	26.045
609.41	26.000
609.75	26.557
610.08	26.124
610.41	26.702
610.74	25.931
611.07	26.876
611.41	27.340
611.74	26.960
612.07	26.830
612.40	26.706
612.73	27.059
613.07	26.964
613.40	26.767
613.73	27.309
614.06	26.800
614.39	27.828
614.72	26.921
615.06	26.805
615.39	25.792
615.72	26.137
616.05	26.369
616.38	26.484
616.71	26.696
617.05	26.634
617.38	27.753
617.71	27.840
618.04	27.201
618.37	26.959
618.70	26.674
619.03	28.022
619.36	29.837
619.69	29.090
620.03	29.811
620.36	28.773
620.69	29.757
621.02	30.027
621.35	30.158
621.68	30.088
622.01	30.185
622.34	29.497
622.67	28.933
623.00	29.612
623.33	29.487
623.66	28.343
623.99	29.452
624.32	29.065
624.65	28.571
624.99	29.682
625.32	28.858
625.65	29.034
625.98	29.358
626.31	30.712
626.64	29.916
626.97	30.069
627.30	31.289
627.63	31.476
627.96	30.203
628.29	31.601
628.62	30.368
628.95	31.915
629.28	31.025
629.61	31.107
629.94	30.424
630.26	31.976
630.59	32.624
630.92	31.839
631.25	32.185
