SpectraSuite Data File
++++++++++++++++++++++++++++++++++++
Date: Tue May 12 17:15:50 PDT 2015
User: schluterlab
Dark Spectrum Present: Yes
Reference Spectrum Present: Yes
Number of Sampled Component Spectra: 1
Spectrometers: USB2E3373
Integration Time (usec): 3000 (USB2E3373)
Spectra Averaged: 3 (USB2E3373)
Boxcar Smoothing: 0 (USB2E3373)
Correct for Electrical Dark: No (USB2E3373)
Strobe/Lamp Enabled: No (USB2E3373)
Correct for Detector Non-linearity: No (USB2E3373)
Correct for Stray Light: No (USB2E3373)
Number of Pixels in Processed Spectrum: 2048
>>>>>Begin Processed Spectral Data<<<<<
178.53	0.000
178.91	-200.000
179.29	-700.000
179.67	-3200.000
180.04	-133.333
180.42	575.000
180.80	1700.000
181.18	0.000
181.56	-400.000
181.94	0.000
182.31	1366.667
182.69	-3600.000
183.07	485.714
183.45	-3700.000
183.83	-1900.000
184.20	300.000
184.58	571.429
184.96	-200.000
185.34	-275.000
185.72	1800.000
186.09	-725.000
186.47	-3800.000
186.85	866.667
187.23	720.000
187.61	2250.000
187.98	412.500
188.36	242.857
188.74	308.333
189.12	291.667
189.49	725.000
189.87	0.000
190.25	587.500
190.63	3700.000
191.00	-216.667
191.38	-3200.000
191.76	-775.000
192.14	487.500
192.51	-2700.000
192.89	1500.000
193.27	1066.667
193.65	-1266.667
194.02	-800.000
194.40	557.143
194.78	-164.286
195.15	233.333
195.53	-2500.000
195.91	-580.000
196.29	3500.000
196.66	243.750
197.04	550.000
197.42	-1350.000
197.79	650.000
198.17	308.333
198.55	0.000
198.92	500.000
199.30	1233.333
199.68	1600.000
200.05	733.333
200.43	-450.000
200.81	200.000
201.18	4100.000
201.56	283.333
201.94	-700.000
202.31	-412.500
202.69	-500.000
203.07	2600.000
203.44	-333.333
203.82	283.333
204.19	760.000
204.57	-1350.000
204.95	-725.000
205.32	-660.000
205.70	533.333
206.08	825.000
206.45	-800.000
206.83	400.000
207.20	221.053
207.58	233.333
207.96	680.000
208.33	0.000
208.71	600.000
209.08	700.000
209.46	-2600.000
209.84	-700.000
210.21	640.000
210.59	-520.000
210.96	283.333
211.34	-750.000
211.71	427.273
212.09	850.000
212.46	1300.000
212.84	-533.333
213.22	433.333
213.59	-3400.000
213.97	400.000
214.34	850.000
214.72	1033.333
215.09	1233.333
215.47	-3600.000
215.84	-330.000
216.22	-325.000
216.59	0.000
216.97	0.000
217.34	1600.000
217.72	-1350.000
218.09	933.333
218.47	450.000
218.84	900.000
219.22	1166.667
219.59	1100.000
219.97	571.429
220.34	377.778
220.72	1350.000
221.09	3400.000
221.47	241.667
221.84	1033.333
222.22	230.000
222.59	222.222
222.97	221.429
223.34	250.000
223.72	-1850.000
224.09	1200.000
224.46	246.154
224.84	-625.000
225.21	455.556
225.59	286.667
225.96	1333.333
226.34	-580.000
226.71	-1025.000
227.08	-740.000
227.46	0.000
227.83	-516.667
228.21	-1750.000
228.58	375.000
228.95	625.000
229.33	277.778
229.70	1000.000
230.08	369.231
230.45	3500.000
230.82	-875.000
231.20	-600.000
231.57	-1066.667
231.95	580.000
232.32	275.000
232.69	616.667
233.07	291.667
233.44	-1400.000
233.81	246.667
234.19	155.556
234.56	181.250
234.93	164.706
235.31	155.000
235.68	287.500
236.05	210.714
236.43	140.741
236.80	214.286
237.17	137.931
237.55	125.000
237.92	122.500
238.29	154.545
238.67	131.250
239.04	82.927
239.41	93.750
239.79	97.500
240.16	100.000
240.53	65.574
240.91	72.464
241.28	81.356
241.65	56.061
242.02	70.423
242.40	70.000
242.77	61.538
243.14	55.696
243.51	72.727
243.89	50.467
244.26	47.664
244.63	50.495
245.00	57.798
245.38	52.542
245.75	43.182
246.12	54.815
246.49	43.972
246.87	37.705
247.24	43.333
247.61	45.625
247.98	45.578
248.36	41.818
248.73	39.796
249.10	37.500
249.47	37.500
249.84	37.811
250.22	43.784
250.59	35.500
250.96	38.819
251.33	33.488
251.70	41.964
252.08	36.134
252.45	34.263
252.82	33.460
253.19	35.968
253.56	33.846
253.94	35.507
254.31	34.884
254.68	37.979
255.05	34.828
255.42	36.131
255.79	31.922
256.16	35.254
256.54	35.065
256.91	35.294
257.28	31.104
257.65	29.154
258.02	32.743
258.39	33.811
258.76	32.754
259.14	29.429
259.51	35.277
259.88	31.611
260.25	30.220
260.62	33.425
260.99	29.477
261.36	32.591
261.73	29.521
262.10	33.508
262.47	31.750
262.85	29.333
263.22	30.334
263.59	28.900
263.96	31.830
264.33	28.148
264.70	33.907
265.07	31.951
265.44	30.734
265.81	31.132
266.18	29.291
266.55	30.969
266.92	29.754
267.29	30.702
267.66	27.354
268.03	32.063
268.40	29.810
268.77	32.379
269.14	26.247
269.51	30.735
269.88	30.408
270.25	27.862
270.62	28.112
270.99	32.657
271.36	30.894
271.73	28.092
272.10	27.071
272.47	29.563
272.84	26.547
273.21	28.512
273.58	29.757
273.95	29.774
274.32	28.599
274.69	29.528
275.06	30.601
275.43	28.544
275.80	26.604
276.17	29.044
276.54	29.907
276.91	30.784
277.28	28.467
277.65	26.753
278.02	29.963
278.39	27.338
278.76	29.655
279.13	29.537
279.50	26.182
279.87	26.816
280.23	27.624
280.60	28.832
280.97	25.345
281.34	29.043
281.71	25.913
282.08	28.718
282.45	28.041
282.82	28.261
283.19	26.232
283.56	27.438
283.92	26.384
284.29	27.953
284.66	25.378
285.03	28.856
285.40	26.116
285.77	26.235
286.14	27.864
286.51	28.374
286.87	24.842
287.24	25.526
287.61	26.596
287.98	25.373
288.35	26.815
288.72	26.404
289.08	26.126
289.45	27.896
289.82	27.500
290.19	26.061
290.56	26.638
290.93	27.626
291.29	24.724
291.66	24.718
292.03	25.386
292.40	23.306
292.77	24.513
293.13	24.679
293.50	26.046
293.87	25.881
294.24	26.993
294.60	27.187
294.97	25.315
295.34	24.834
295.71	23.784
296.08	24.000
296.44	24.396
296.81	23.449
297.18	25.222
297.55	25.739
297.91	25.246
298.28	23.551
298.65	24.049
299.02	23.643
299.38	23.981
299.75	22.927
300.12	23.624
300.48	24.590
300.85	25.626
301.22	24.419
301.59	24.528
301.95	23.687
302.32	23.981
302.69	25.905
303.05	24.916
303.42	23.655
303.79	24.919
304.15	25.083
304.52	25.159
304.89	24.414
305.25	25.250
305.62	25.800
305.99	23.587
306.35	22.526
306.72	24.974
307.09	24.431
307.45	24.287
307.82	24.383
308.19	24.330
308.55	23.700
308.92	26.300
309.29	25.148
309.65	24.381
310.02	25.659
310.38	24.826
310.75	25.458
311.12	25.000
311.48	25.965
311.85	26.527
312.22	26.170
312.58	25.364
312.95	25.631
313.31	24.906
313.68	25.328
314.05	26.465
314.41	24.860
314.78	24.811
315.14	26.825
315.51	26.395
315.87	26.460
316.24	27.077
316.61	26.052
316.97	25.229
317.34	26.325
317.70	25.988
318.07	26.957
318.43	26.011
318.80	27.583
319.16	26.923
319.53	26.106
319.89	25.896
320.26	26.909
320.62	27.289
320.99	26.692
321.35	26.623
321.72	28.178
322.08	26.685
322.45	26.703
322.81	27.630
323.18	26.998
323.54	27.700
323.91	28.286
324.27	26.790
324.64	25.606
325.00	27.328
325.37	27.487
325.73	26.054
326.10	27.506
326.46	27.415
326.83	26.400
327.19	27.390
327.56	25.958
327.92	26.803
328.29	27.905
328.65	27.825
329.01	27.802
329.38	27.242
329.74	26.985
330.11	27.368
330.47	27.792
330.84	27.006
331.20	26.734
331.56	26.684
331.93	27.802
332.29	26.105
332.66	27.126
333.02	26.375
333.38	27.225
333.75	27.356
334.11	27.097
334.48	27.436
334.84	26.858
335.20	26.775
335.57	27.456
335.93	26.829
336.29	25.456
336.66	27.187
337.02	25.406
337.38	26.999
337.75	25.845
338.11	26.582
338.47	25.741
338.84	26.503
339.20	25.541
339.56	26.409
339.93	25.669
340.29	24.958
340.65	25.733
341.02	25.583
341.38	25.534
341.74	25.581
342.11	25.042
342.47	24.856
342.83	26.497
343.20	26.192
343.56	24.543
343.92	25.516
344.28	25.439
344.65	25.835
345.01	24.841
345.37	25.240
345.73	24.683
346.10	24.940
346.46	24.721
346.82	23.997
347.19	25.734
347.55	24.902
347.91	24.849
348.27	23.393
348.63	24.921
349.00	25.286
349.36	24.125
349.72	24.465
350.08	25.854
350.45	23.991
350.81	24.924
351.17	24.576
351.53	24.865
351.89	24.165
352.26	23.885
352.62	24.811
352.98	24.387
353.34	25.501
353.70	24.235
354.07	24.154
354.43	23.886
354.79	23.462
355.15	25.115
355.51	23.716
355.87	24.548
356.24	24.942
356.60	22.679
356.96	23.654
357.32	24.416
357.68	24.009
358.04	24.620
358.40	24.888
358.77	24.493
359.13	23.498
359.49	22.758
359.85	24.200
360.21	23.700
360.57	24.307
360.93	23.232
361.29	23.304
361.66	23.788
362.02	23.011
362.38	22.872
362.74	23.638
363.10	23.773
363.46	22.997
363.82	23.633
364.18	24.467
364.54	23.605
364.90	23.561
365.26	24.427
365.62	23.757
365.98	24.226
366.35	22.690
366.71	23.387
367.07	23.345
367.43	23.237
367.79	24.136
368.15	22.795
368.51	23.777
368.87	22.826
369.23	22.453
369.59	23.466
369.95	23.986
370.31	22.724
370.67	23.040
371.03	23.319
371.39	23.407
371.75	22.191
372.11	22.434
372.47	23.562
372.83	21.958
373.19	22.687
373.55	22.955
373.91	22.099
374.27	22.156
374.63	21.763
374.99	22.574
375.35	22.782
375.71	21.240
376.07	22.679
376.42	21.931
376.78	22.993
377.14	22.870
377.50	21.348
377.86	21.012
378.22	22.547
378.58	21.913
378.94	22.330
379.30	21.953
379.66	22.095
380.02	22.815
380.38	21.780
380.74	22.780
381.09	21.963
381.45	20.694
381.81	21.277
382.17	22.527
382.53	21.716
382.89	21.999
383.25	22.025
383.61	21.902
383.97	21.536
384.32	22.303
384.68	24.183
385.04	21.454
385.40	21.886
385.76	21.299
386.12	22.078
386.48	21.702
386.83	21.944
387.19	21.496
387.55	22.497
387.91	22.171
388.27	22.665
388.62	21.362
388.98	20.933
389.34	21.118
389.70	21.167
390.06	21.220
390.42	20.605
390.77	21.437
391.13	21.485
391.49	20.932
391.85	21.354
392.20	20.977
392.56	21.864
392.92	20.382
393.28	20.908
393.64	20.413
393.99	21.755
394.35	20.954
394.71	20.145
395.07	21.655
395.42	21.077
395.78	21.592
396.14	22.048
396.50	21.179
396.85	20.549
397.21	21.119
397.57	20.980
397.92	19.757
398.28	20.794
398.64	21.001
399.00	20.257
399.35	20.397
399.71	21.137
400.07	19.977
400.42	19.940
400.78	20.528
401.14	19.554
401.49	19.758
401.85	21.379
402.21	19.859
402.57	21.065
402.92	20.727
403.28	20.167
403.63	20.247
403.99	20.507
404.35	20.809
404.70	20.260
405.06	19.427
405.42	21.005
405.77	19.956
406.13	19.794
406.49	19.443
406.84	20.587
407.20	20.034
407.55	19.631
407.91	20.357
408.27	19.951
408.62	20.816
408.98	20.461
409.34	19.170
409.69	19.726
410.05	19.618
410.40	19.552
410.76	19.118
411.11	19.787
411.47	19.630
411.83	19.449
412.18	19.928
412.54	20.180
412.89	19.292
413.25	19.783
413.60	19.451
413.96	20.048
414.31	19.953
414.67	20.174
415.03	19.349
415.38	19.748
415.74	20.088
416.09	19.988
416.45	21.202
416.80	19.756
417.16	20.051
417.51	19.618
417.87	19.086
418.22	20.474
418.58	20.764
418.93	19.631
419.29	18.731
419.64	19.806
420.00	20.227
420.35	19.454
420.71	18.961
421.06	18.952
421.42	19.344
421.77	20.322
422.12	19.350
422.48	19.466
422.83	20.145
423.19	19.060
423.54	19.254
423.90	19.309
424.25	19.813
424.61	19.269
424.96	19.650
425.31	18.664
425.67	19.641
426.02	18.957
426.38	19.078
426.73	19.722
427.09	19.870
427.44	18.571
427.79	19.783
428.15	19.564
428.50	19.371
428.85	19.988
429.21	20.043
429.56	19.641
429.92	19.344
430.27	19.787
430.62	18.257
430.98	19.012
431.33	18.649
431.68	18.568
432.04	19.089
432.39	18.441
432.74	19.438
433.10	19.601
433.45	20.218
433.80	20.794
434.16	19.548
434.51	18.834
434.86	19.543
435.22	19.125
435.57	19.621
435.92	19.579
436.28	19.585
436.63	19.611
436.98	19.482
437.34	19.863
437.69	18.085
438.04	19.355
438.39	19.556
438.75	19.710
439.10	20.237
439.45	19.220
439.81	19.722
440.16	19.923
440.51	19.369
440.86	19.601
441.22	19.372
441.57	19.895
441.92	19.595
442.27	19.278
442.63	19.207
442.98	20.312
443.33	19.014
443.68	19.215
444.03	18.897
444.39	19.444
444.74	19.358
445.09	19.431
445.44	19.129
445.79	19.103
446.15	19.842
446.50	18.829
446.85	19.273
447.20	18.358
447.55	19.467
447.91	18.807
448.26	19.169
448.61	19.403
448.96	19.935
449.31	19.142
449.66	20.598
450.02	19.287
450.37	20.100
450.72	19.669
451.07	19.837
451.42	19.443
451.77	19.473
452.12	19.796
452.47	20.170
452.83	20.113
453.18	20.120
453.53	20.130
453.88	20.114
454.23	20.453
454.58	19.755
454.93	19.681
455.28	20.257
455.63	20.213
455.98	20.023
456.34	19.757
456.69	19.756
457.04	20.406
457.39	19.429
457.74	20.833
458.09	19.203
458.44	19.825
458.79	20.106
459.14	19.203
459.49	20.781
459.84	19.457
460.19	19.661
460.54	20.057
460.89	19.350
461.24	19.645
461.59	19.728
461.94	19.267
462.29	19.966
462.64	19.661
462.99	19.514
463.34	20.350
463.69	20.811
464.04	19.862
464.39	20.550
464.74	18.347
465.09	19.907
465.44	19.695
465.79	19.652
466.14	18.601
466.49	19.262
466.84	19.509
467.19	19.098
467.54	19.159
467.89	20.188
468.24	20.151
468.59	19.405
468.94	19.626
469.29	20.709
469.64	20.450
469.99	21.144
470.34	20.557
470.68	20.759
471.03	20.213
471.38	20.861
471.73	20.248
472.08	20.287
472.43	20.422
472.78	20.166
473.13	18.961
473.48	19.927
473.83	19.494
474.17	20.304
474.52	20.438
474.87	18.988
475.22	19.760
475.57	19.045
475.92	19.520
476.27	19.423
476.61	19.196
476.96	19.331
477.31	19.846
477.66	20.021
478.01	19.546
478.36	19.979
478.70	19.355
479.05	19.561
479.40	18.998
479.75	20.457
480.10	19.022
480.45	19.188
480.79	18.894
481.14	18.830
481.49	19.122
481.84	18.690
482.19	19.258
482.53	19.236
482.88	19.400
483.23	17.997
483.58	18.851
483.92	19.378
484.27	19.307
484.62	19.143
484.97	18.231
485.31	18.103
485.66	18.002
486.01	17.057
486.36	16.887
486.70	16.998
487.05	17.137
487.40	17.023
487.75	17.765
488.09	17.699
488.44	18.196
488.79	18.639
489.13	18.701
489.48	19.097
489.83	19.349
490.17	18.456
490.52	18.820
490.87	19.397
491.22	19.105
491.56	19.148
491.91	18.772
492.26	19.287
492.60	19.909
492.95	18.985
493.30	19.472
493.64	18.553
493.99	19.231
494.34	18.915
494.68	18.592
495.03	19.623
495.37	19.361
495.72	19.767
496.07	19.272
496.41	18.897
496.76	18.911
497.11	19.666
497.45	19.509
497.80	19.694
498.14	19.001
498.49	19.081
498.84	19.393
499.18	18.784
499.53	19.522
499.87	19.003
500.22	19.714
500.56	19.266
500.91	20.594
501.26	19.476
501.60	18.670
501.95	18.817
502.29	18.844
502.64	18.968
502.98	18.853
503.33	19.154
503.67	19.249
504.02	19.212
504.36	19.457
504.71	19.962
505.06	19.474
505.40	18.624
505.75	18.849
506.09	19.925
506.44	19.549
506.78	19.140
507.13	19.292
507.47	19.505
507.82	20.000
508.16	19.647
508.51	19.372
508.85	18.708
509.19	19.971
509.54	20.117
509.88	19.841
510.23	18.775
510.57	18.678
510.92	19.680
511.26	19.076
511.61	19.498
511.95	19.761
512.30	19.800
512.64	19.522
512.98	19.323
513.33	19.211
513.67	19.057
514.02	19.584
514.36	18.744
514.70	19.893
515.05	19.499
515.39	20.011
515.74	20.558
516.08	20.044
516.42	19.563
516.77	20.427
517.11	19.573
517.46	19.289
517.80	19.607
518.14	19.944
518.49	19.294
518.83	19.176
519.17	19.634
519.52	20.044
519.86	20.490
520.20	20.274
520.55	20.350
520.89	20.057
521.23	20.386
521.58	20.482
521.92	20.058
522.26	20.024
522.61	21.272
522.95	19.700
523.29	20.760
523.64	20.462
523.98	20.188
524.32	20.185
524.66	19.594
525.01	20.000
525.35	20.389
525.69	20.831
526.04	20.880
526.38	19.776
526.72	19.093
527.06	19.811
527.41	21.221
527.75	20.450
528.09	20.108
528.43	20.866
528.78	20.871
529.12	19.567
529.46	20.631
529.80	20.327
530.15	20.153
530.49	19.314
530.83	20.232
531.17	20.295
531.51	20.233
531.86	20.169
532.20	19.778
532.54	19.774
532.88	20.487
533.22	20.658
533.57	20.622
533.91	19.347
534.25	19.792
534.59	19.474
534.93	18.942
535.27	19.124
535.62	18.436
535.96	18.735
536.30	20.171
536.64	19.068
536.98	19.320
537.32	20.750
537.66	18.814
538.01	19.938
538.35	19.900
538.69	19.114
539.03	19.527
539.37	19.235
539.71	19.691
540.05	18.954
540.39	21.006
540.73	20.316
541.07	20.013
541.42	20.460
541.76	19.852
542.10	20.284
542.44	20.075
542.78	19.824
543.12	18.650
543.46	19.612
543.80	19.799
544.14	19.938
544.48	19.891
544.82	19.572
545.16	18.944
545.50	19.668
545.84	20.455
546.18	20.741
546.52	20.000
546.86	20.181
547.20	19.444
547.54	19.253
547.88	19.586
548.22	19.308
548.56	18.916
548.90	19.810
549.24	19.394
549.58	19.137
549.92	20.563
550.26	19.743
550.60	20.027
550.94	19.674
551.28	21.448
551.62	20.690
551.96	19.459
552.30	18.853
552.64	20.194
552.98	19.845
553.32	19.142
553.66	19.739
554.00	19.434
554.34	19.973
554.68	19.556
555.02	19.688
555.36	19.880
555.69	19.306
556.03	18.726
556.37	19.312
556.71	19.492
557.05	19.135
557.39	19.867
557.73	19.744
558.07	19.987
558.41	19.465
558.75	18.947
559.08	20.300
559.42	19.256
559.76	20.171
560.10	18.720
560.44	20.305
560.78	19.118
561.12	20.025
561.45	19.274
561.79	18.727
562.13	19.015
562.47	18.559
562.81	19.779
563.15	18.811
563.48	18.882
563.82	19.963
564.16	19.465
564.50	19.108
564.84	18.906
565.17	19.311
565.51	19.397
565.85	19.062
566.19	19.167
566.52	18.412
566.86	18.973
567.20	19.607
567.54	17.849
567.88	19.197
568.21	17.723
568.55	18.726
568.89	18.157
569.23	17.515
569.56	17.971
569.90	16.924
570.24	17.172
570.57	16.937
570.91	16.505
571.25	16.667
571.59	16.018
571.92	15.662
572.26	15.849
572.60	15.884
572.93	16.561
573.27	16.686
573.61	15.999
573.95	16.285
574.28	16.408
574.62	15.603
574.96	15.642
575.29	15.350
575.63	15.665
575.97	15.652
576.30	15.464
576.64	15.811
576.98	15.603
577.31	15.969
577.65	15.827
577.98	15.451
578.32	15.393
578.66	15.144
578.99	15.628
579.33	15.449
579.67	15.440
580.00	14.997
580.34	15.199
580.67	15.503
581.01	15.778
581.35	15.504
581.68	15.063
582.02	15.105
582.35	14.957
582.69	15.410
583.02	15.366
583.36	15.566
583.70	15.887
584.03	16.008
584.37	15.876
584.70	15.924
585.04	15.346
585.37	15.464
585.71	15.730
586.04	15.600
586.38	15.442
586.72	15.856
587.05	16.083
587.39	16.157
587.72	15.931
588.06	15.247
588.39	15.609
588.73	15.500
589.06	16.107
589.40	16.056
589.73	16.355
590.07	16.472
590.40	16.551
590.73	16.856
591.07	17.495
591.40	16.447
591.74	16.640
592.07	16.348
592.41	16.547
592.74	16.111
593.08	16.016
593.41	16.008
593.75	15.432
594.08	16.292
594.41	16.292
594.75	16.575
595.08	15.947
595.42	16.129
595.75	16.321
596.09	16.893
596.42	16.533
596.75	16.546
597.09	16.715
597.42	16.571
597.75	16.673
598.09	16.537
598.42	16.279
598.76	16.037
599.09	16.182
599.42	15.952
599.76	16.045
600.09	15.695
600.42	16.195
600.76	16.111
601.09	16.086
601.42	15.980
601.76	16.255
602.09	16.483
602.42	15.970
602.76	16.129
603.09	16.629
603.42	17.174
603.76	16.052
604.09	16.214
604.42	15.970
604.76	15.962
605.09	16.490
605.42	16.741
605.75	16.265
606.09	16.565
606.42	16.159
606.75	16.207
607.09	16.068
607.42	16.553
607.75	16.242
608.08	15.597
608.42	17.240
608.75	16.389
609.08	15.750
609.41	17.091
609.75	16.712
610.08	16.951
610.41	16.337
610.74	15.844
611.07	16.553
611.41	17.609
611.74	16.444
612.07	16.618
612.40	17.251
612.73	17.124
613.07	16.624
613.40	17.143
613.73	16.226
614.06	16.250
614.39	16.717
614.72	16.273
615.06	16.963
615.39	16.832
615.72	16.602
616.05	16.926
616.38	17.047
616.71	16.441
617.05	16.749
617.38	16.854
617.71	17.098
618.04	16.769
618.37	17.287
618.70	17.263
619.03	16.850
619.36	18.028
619.69	18.536
620.03	18.721
620.36	17.662
620.69	18.072
621.02	18.478
621.35	17.622
621.68	18.805
622.01	18.376
622.34	17.407
622.67	18.610
623.00	18.039
623.33	18.084
623.66	18.230
623.99	17.877
624.32	18.699
624.65	17.841
624.99	18.729
625.32	17.702
625.65	16.828
625.98	17.503
626.31	18.398
626.64	18.375
626.97	17.445
627.30	17.780
627.63	19.309
627.96	18.466
628.29	18.812
628.62	18.991
628.95	19.060
629.28	19.632
629.61	18.629
629.94	18.496
630.26	19.671
630.59	19.592
630.92	19.283
631.25	19.764
