SpectraSuite Data File
++++++++++++++++++++++++++++++++++++
Date: Tue May 12 17:16:55 PDT 2015
User: schluterlab
Dark Spectrum Present: Yes
Reference Spectrum Present: Yes
Number of Sampled Component Spectra: 1
Spectrometers: USB2E3373
Integration Time (usec): 3000 (USB2E3373)
Spectra Averaged: 3 (USB2E3373)
Boxcar Smoothing: 0 (USB2E3373)
Correct for Electrical Dark: No (USB2E3373)
Strobe/Lamp Enabled: No (USB2E3373)
Correct for Detector Non-linearity: No (USB2E3373)
Correct for Stray Light: No (USB2E3373)
Number of Pixels in Processed Spectrum: 2048
>>>>>Begin Processed Spectral Data<<<<<
178.53	0.000
178.91	-258.333
179.29	-750.000
179.67	-3400.000
180.04	-140.000
180.42	625.000
180.80	1800.000
181.18	0.000
181.56	-275.000
181.94	0.000
182.31	1200.000
182.69	-3400.000
183.07	614.286
183.45	-3200.000
183.83	-1300.000
184.20	370.000
184.58	457.143
184.96	-261.538
185.34	-300.000
185.72	2050.000
186.09	-925.000
186.47	-3500.000
186.85	733.333
187.23	640.000
187.61	1450.000
187.98	425.000
188.36	250.000
188.74	325.000
189.12	316.667
189.49	1000.000
189.87	0.000
190.25	450.000
190.63	2800.000
191.00	-258.333
191.38	-3900.000
191.76	-575.000
192.14	525.000
192.51	-3100.000
192.89	1600.000
193.27	866.667
193.65	-933.333
194.02	-680.000
194.40	500.000
194.78	-200.000
195.15	240.000
195.53	-2800.000
195.91	-520.000
196.29	3600.000
196.66	300.000
197.04	700.000
197.42	-1000.000
197.79	575.000
198.17	333.333
198.55	0.000
198.92	428.571
199.30	1000.000
199.68	1650.000
200.05	666.667
200.43	-366.667
200.81	277.778
201.18	3000.000
201.56	241.667
201.94	-675.000
202.31	-212.500
202.69	-600.000
203.07	3500.000
203.44	-533.333
203.82	383.333
204.19	580.000
204.57	-1450.000
204.95	-900.000
205.32	-480.000
205.70	416.667
206.08	850.000
206.45	-766.667
206.83	366.667
207.20	189.474
207.58	258.333
207.96	660.000
208.33	0.000
208.71	528.571
209.08	660.000
209.46	-3100.000
209.84	-850.000
210.21	760.000
210.59	-620.000
210.96	275.000
211.34	-950.000
211.71	309.091
212.09	1000.000
212.46	2000.000
212.84	-316.667
213.22	477.778
213.59	-3100.000
213.97	350.000
214.34	700.000
214.72	1133.333
215.09	1033.333
215.47	-2900.000
215.84	-330.000
216.22	-400.000
216.59	0.000
216.97	0.000
217.34	1300.000
217.72	-1600.000
218.09	1166.667
218.47	350.000
218.84	725.000
219.22	1066.667
219.59	933.333
219.97	514.286
220.34	377.778
220.72	1650.000
221.09	4100.000
221.47	208.333
221.84	1000.000
222.22	380.000
222.59	261.111
222.97	214.286
223.34	262.500
223.72	-1150.000
224.09	1200.000
224.46	292.308
224.84	-900.000
225.21	377.778
225.59	280.000
225.96	1166.667
226.34	-740.000
226.71	-575.000
227.08	-500.000
227.46	0.000
227.83	-433.333
228.21	-1550.000
228.58	433.333
228.95	825.000
229.33	388.889
229.70	925.000
230.08	276.923
230.45	4000.000
230.82	-875.000
231.20	-633.333
231.57	-900.000
231.95	620.000
232.32	300.000
232.69	483.333
233.07	283.333
233.44	-1250.000
233.81	220.000
234.19	170.370
234.56	193.750
234.93	147.059
235.31	150.000
235.68	193.750
236.05	114.286
236.43	118.519
236.80	178.571
237.17	141.379
237.55	112.500
237.92	97.500
238.29	103.030
238.67	125.000
239.04	78.049
239.41	60.417
239.79	60.000
240.16	43.750
240.53	40.984
240.91	46.377
241.28	69.492
241.65	57.576
242.02	47.887
242.40	42.857
242.77	35.165
243.14	40.506
243.51	44.444
243.89	41.121
244.26	26.168
244.63	32.673
245.00	25.688
245.38	22.034
245.75	31.061
246.12	31.111
246.49	21.277
246.87	17.213
247.24	28.667
247.61	27.500
247.98	21.088
248.36	12.727
248.73	21.939
249.10	11.905
249.47	17.500
249.84	20.398
250.22	17.838
250.59	16.500
250.96	18.565
251.33	15.814
251.70	20.089
252.08	16.387
252.45	13.546
252.82	10.646
253.19	11.858
253.56	11.154
253.94	15.217
254.31	13.178
254.68	12.892
255.05	15.517
255.42	13.139
255.79	11.401
256.16	9.153
256.54	13.312
256.91	13.725
257.28	9.030
257.65	6.270
258.02	9.440
258.39	14.040
258.76	12.754
259.14	9.143
259.51	11.079
259.88	11.550
260.25	7.418
260.62	6.575
260.99	7.163
261.36	10.306
261.73	9.309
262.10	11.257
262.47	9.500
262.85	7.200
263.22	9.512
263.59	9.719
263.96	10.276
264.33	7.654
264.70	10.565
265.07	6.829
265.44	8.486
265.81	9.906
266.18	8.696
266.55	8.983
266.92	4.474
267.29	8.333
267.66	6.951
268.03	6.278
268.40	7.188
268.77	8.150
269.14	3.037
269.51	6.236
269.88	6.939
270.25	6.479
270.62	5.150
270.99	8.316
271.36	7.317
271.73	7.338
272.10	7.475
272.47	6.944
272.84	5.190
273.21	7.438
273.58	6.478
273.95	5.749
274.32	7.004
274.69	6.299
275.06	6.557
275.43	8.238
275.80	5.849
276.17	8.272
276.54	8.598
276.91	7.836
277.28	7.482
277.65	7.196
278.02	5.515
278.39	6.475
278.76	7.586
279.13	4.626
279.50	5.091
279.87	4.469
280.23	5.525
280.60	7.664
280.97	7.241
281.34	5.611
281.71	8.696
282.08	7.692
282.45	5.068
282.82	6.020
283.19	5.246
283.56	4.628
283.92	5.212
284.29	5.491
284.66	5.378
285.03	6.633
285.40	5.124
285.77	4.938
286.14	7.740
286.51	6.288
286.87	4.272
287.24	4.354
287.61	3.343
287.98	6.269
288.35	5.926
288.72	5.159
289.08	6.306
289.45	6.402
289.82	4.688
290.19	4.832
290.56	5.822
290.93	5.036
291.29	5.525
291.66	5.508
292.03	4.348
292.40	5.014
292.77	4.457
293.13	5.563
293.50	4.723
293.87	3.659
294.24	4.336
294.60	5.518
294.97	4.615
295.34	4.781
295.71	4.336
296.08	5.200
296.44	3.812
296.81	5.211
297.18	4.816
297.55	5.542
297.91	4.064
298.28	5.193
298.65	6.380
299.02	3.498
299.38	3.957
299.75	4.024
300.12	4.587
300.48	4.918
300.85	4.887
301.22	4.651
301.59	2.712
301.95	3.151
302.32	3.842
302.69	4.864
303.05	5.499
303.42	3.027
303.79	4.767
304.15	3.520
304.52	3.171
304.89	4.584
305.25	5.006
305.62	4.478
305.99	2.717
306.35	3.158
306.72	3.954
307.09	3.313
307.45	3.801
307.82	3.498
308.19	4.021
308.55	3.500
308.92	5.103
309.29	4.438
309.65	3.667
310.02	4.970
310.38	3.091
310.75	3.954
311.12	3.736
311.48	5.212
311.85	4.580
312.22	4.489
312.58	4.179
312.95	4.563
313.31	4.494
313.68	3.846
314.05	5.311
314.41	4.469
314.78	3.693
315.14	4.645
315.51	5.298
315.87	4.106
316.24	4.855
316.61	4.655
316.97	3.486
317.34	4.582
317.70	4.653
318.07	5.872
318.43	4.218
318.80	4.116
319.16	3.584
319.53	4.425
319.89	4.839
320.26	6.145
320.62	5.311
320.99	5.052
321.35	4.267
321.72	4.839
322.08	4.986
322.45	4.905
322.81	3.934
323.18	4.796
323.54	5.923
323.91	5.258
324.27	4.863
324.64	3.287
325.00	4.914
325.37	4.637
325.73	5.649
326.10	5.800
326.46	5.780
326.83	4.000
327.19	5.703
327.56	5.431
327.92	5.328
328.29	6.137
328.65	5.993
329.01	5.560
329.38	5.922
329.74	5.124
330.11	5.213
330.47	5.712
330.84	4.918
331.20	5.161
331.56	5.613
331.93	5.218
332.29	4.422
332.66	5.187
333.02	4.038
333.38	5.672
333.75	5.505
334.11	4.782
334.48	5.726
334.84	5.236
335.20	4.790
335.57	5.542
335.93	6.056
336.29	5.556
336.66	5.232
337.02	4.876
337.38	6.277
337.75	5.659
338.11	5.823
338.47	4.742
338.84	5.080
339.20	4.935
339.56	5.299
339.93	5.435
340.29	4.538
340.65	5.365
341.02	5.792
341.38	5.008
341.74	5.648
342.11	4.508
342.47	4.266
342.83	5.742
343.20	6.063
343.56	3.971
343.92	5.367
344.28	4.944
344.65	4.808
345.01	4.762
345.37	4.647
345.73	5.079
346.10	4.861
346.46	6.539
346.82	4.321
347.19	5.332
347.55	4.606
347.91	4.381
348.27	3.408
348.63	5.380
349.00	4.874
349.36	4.981
349.72	4.740
350.08	5.202
350.45	4.950
350.81	5.352
351.17	4.391
351.53	4.696
351.89	3.963
352.26	4.913
352.62	4.676
352.98	4.908
353.34	5.778
353.70	4.128
354.07	4.769
354.43	4.608
354.79	4.024
355.15	4.211
355.51	4.985
355.87	4.970
356.24	4.465
356.60	4.871
356.96	4.701
357.32	5.124
357.68	5.286
358.04	4.255
358.40	4.198
358.77	5.635
359.13	4.580
359.49	4.522
359.85	4.542
360.21	4.012
360.57	4.088
360.93	5.051
361.29	4.762
361.66	4.847
362.02	3.693
362.38	4.329
362.74	4.600
363.10	5.189
363.46	4.006
363.82	5.119
364.18	4.054
364.54	5.007
364.90	5.288
365.26	4.233
365.62	4.558
365.98	3.923
366.35	4.207
366.71	4.511
367.07	4.778
367.43	4.365
367.79	3.989
368.15	4.274
368.51	4.549
368.87	5.027
369.23	3.950
369.59	4.450
369.95	5.105
370.31	4.244
370.67	4.788
371.03	4.202
371.39	4.501
371.75	4.117
372.11	4.147
372.47	4.863
372.83	4.895
373.19	5.003
373.55	4.811
373.91	3.384
374.27	4.630
374.63	4.068
374.99	4.313
375.35	3.629
375.71	5.013
376.07	4.576
376.42	3.708
376.78	4.046
377.14	4.456
377.50	4.057
377.86	3.331
378.22	4.692
378.58	4.358
378.94	4.164
379.30	4.063
379.66	4.154
380.02	4.457
380.38	3.513
380.74	4.729
381.09	3.972
381.45	4.104
381.81	3.014
382.17	3.602
382.53	3.959
382.89	4.140
383.25	3.434
383.61	4.611
383.97	3.359
384.32	4.400
384.68	4.694
385.04	5.041
385.40	4.330
385.76	4.389
386.12	4.453
386.48	4.134
386.83	4.095
387.19	4.240
387.55	3.828
387.91	4.908
388.27	4.700
388.62	3.932
388.98	3.907
389.34	3.510
389.70	3.597
390.06	4.024
390.42	4.627
390.77	4.484
391.13	3.742
391.49	3.932
391.85	4.369
392.20	4.648
392.56	5.018
392.92	3.650
393.28	3.980
393.64	3.555
393.99	3.912
394.35	3.826
394.71	4.403
395.07	3.771
395.42	4.098
395.78	4.380
396.14	4.819
396.50	4.091
396.85	4.146
397.21	3.791
397.57	3.766
397.92	3.177
398.28	3.089
398.64	4.363
399.00	4.009
399.35	3.918
399.71	3.863
400.07	3.767
400.42	3.164
400.78	3.871
401.14	3.582
401.49	3.514
401.85	4.345
402.21	4.101
402.57	3.950
402.92	3.879
403.28	3.222
403.63	3.767
403.99	4.463
404.35	4.162
404.70	3.780
405.06	3.032
405.42	3.471
405.77	3.638
406.13	3.796
406.49	2.672
406.84	4.005
407.20	3.995
407.55	4.185
407.91	4.276
408.27	4.245
408.62	3.430
408.98	3.726
409.34	3.682
409.69	3.734
410.05	3.697
410.40	2.945
410.76	3.492
411.11	3.851
411.47	3.704
411.83	3.281
412.18	3.684
412.54	3.183
412.89	2.950
413.25	3.421
413.60	3.621
413.96	3.351
414.31	3.719
414.67	3.911
415.03	3.448
415.38	4.164
415.74	3.348
416.09	3.560
416.45	4.460
416.80	4.169
417.16	3.565
417.51	4.522
417.87	3.817
418.22	3.524
418.58	3.949
418.93	3.034
419.29	3.389
419.64	3.816
420.00	3.282
420.35	3.252
420.71	3.326
421.06	3.178
421.42	3.915
421.77	3.776
422.12	3.473
422.48	3.390
422.83	3.627
423.19	3.618
423.54	3.675
423.90	3.511
424.25	3.522
424.61	3.831
424.96	2.936
425.31	3.229
425.67	3.199
426.02	3.365
426.38	2.859
426.73	2.950
427.09	4.211
427.44	3.039
427.79	2.744
428.15	3.182
428.50	3.714
428.85	4.174
429.21	3.566
429.56	3.789
429.92	3.133
430.27	3.387
430.62	2.496
430.98	3.343
431.33	2.369
431.68	2.765
432.04	3.104
432.39	3.732
432.74	3.513
433.10	3.156
433.45	2.987
433.80	3.530
434.16	3.468
434.51	3.767
434.86	3.157
435.22	3.187
435.57	3.616
435.92	3.984
436.28	3.802
436.63	3.728
436.98	4.110
437.34	4.167
437.69	2.744
438.04	3.817
438.39	3.269
438.75	3.898
439.10	3.454
439.45	4.070
439.81	3.759
440.16	3.302
440.51	3.998
440.86	3.647
441.22	3.517
441.57	3.727
441.92	3.011
442.27	3.093
442.63	3.252
442.98	3.879
443.33	3.589
443.68	3.672
444.03	3.299
444.39	3.154
444.74	3.364
445.09	3.265
445.44	3.666
445.79	3.314
446.15	3.632
446.50	3.112
446.85	3.436
447.20	2.687
447.55	2.991
447.91	3.836
448.26	4.633
448.61	3.593
448.96	3.322
449.31	3.300
449.66	4.097
450.02	2.701
450.37	4.275
450.72	3.802
451.07	4.130
451.42	4.031
451.77	3.837
452.12	4.141
452.47	4.374
452.83	4.056
453.18	4.505
453.53	4.381
453.88	4.286
454.23	3.893
454.58	4.079
454.93	3.556
455.28	4.039
455.63	3.605
455.98	4.061
456.34	4.438
456.69	3.537
457.04	3.938
457.39	4.800
457.74	4.505
458.09	3.200
458.44	4.272
458.79	3.820
459.14	3.764
459.49	4.134
459.84	4.022
460.19	3.390
460.54	4.387
460.89	3.785
461.24	4.066
461.59	3.855
461.94	3.783
462.29	4.176
462.64	3.894
462.99	3.583
463.34	4.472
463.69	4.235
464.04	4.145
464.39	3.721
464.74	2.989
465.09	4.179
465.44	3.808
465.79	3.756
466.14	4.028
466.49	3.310
466.84	4.125
467.19	4.745
467.54	4.024
467.89	4.636
468.24	3.243
468.59	3.929
468.94	4.287
469.29	4.520
469.64	5.016
469.99	4.820
470.34	3.985
470.68	4.138
471.03	4.670
471.38	4.305
471.73	4.311
472.08	3.914
472.43	4.469
472.78	4.738
473.13	3.567
473.48	3.790
473.83	3.946
474.17	3.465
474.52	4.562
474.87	3.752
475.22	3.427
475.57	3.882
475.92	4.190
476.27	2.992
476.61	3.539
476.96	4.180
477.31	3.599
477.66	3.865
478.01	4.332
478.36	3.656
478.70	3.474
479.05	3.086
479.40	4.167
479.75	4.171
480.10	3.630
480.45	3.735
480.79	3.641
481.14	3.233
481.49	3.522
481.84	4.134
482.19	3.537
482.53	3.821
482.88	3.719
483.23	3.338
483.58	3.232
483.92	3.976
484.27	3.253
484.62	3.862
484.97	3.389
485.31	3.279
485.66	2.741
486.01	2.865
486.36	2.657
486.70	2.466
487.05	2.843
487.40	3.063
487.75	3.060
488.09	3.267
488.44	3.219
488.79	3.436
489.13	3.397
489.48	3.276
489.83	3.336
490.17	3.427
490.52	3.187
490.87	3.966
491.22	3.502
491.56	3.689
491.91	3.539
492.26	3.519
492.60	3.554
492.95	3.670
493.30	4.140
493.64	3.639
493.99	3.354
494.34	3.138
494.68	3.010
495.03	3.637
495.37	4.097
495.72	3.916
496.07	3.010
496.41	3.997
496.76	3.377
497.11	4.284
497.45	3.858
497.80	3.892
498.14	4.068
498.49	3.993
498.84	4.252
499.18	3.565
499.53	3.583
499.87	3.190
500.22	3.639
500.56	3.760
500.91	3.571
501.26	3.950
501.60	4.007
501.95	3.271
502.29	4.000
502.64	3.838
502.98	3.602
503.33	3.430
503.67	3.709
504.02	3.583
504.36	3.846
504.71	3.548
505.06	4.317
505.40	3.276
505.75	3.648
506.09	4.433
506.44	3.289
506.78	3.733
507.13	3.587
507.47	3.736
507.82	4.185
508.16	3.871
508.51	4.058
508.85	3.989
509.19	4.112
509.54	3.711
509.88	4.276
510.23	3.676
510.57	3.861
510.92	3.896
511.26	3.865
511.61	3.939
511.95	4.331
512.30	4.250
512.64	3.427
512.98	4.357
513.33	3.996
513.67	4.350
514.02	3.481
514.36	3.790
514.70	3.840
515.05	3.303
515.39	4.112
515.74	4.483
516.08	4.248
516.42	4.481
516.77	3.467
517.11	3.893
517.46	4.256
517.80	4.315
518.14	4.282
518.49	3.914
518.83	3.736
519.17	4.382
519.52	4.478
519.86	4.251
520.20	4.658
520.55	3.731
520.89	4.310
521.23	4.147
521.58	3.959
521.92	4.082
522.26	3.495
522.61	3.981
522.95	3.784
523.29	4.152
523.64	3.815
523.98	3.815
524.32	4.787
524.66	4.290
525.01	4.201
525.35	3.654
525.69	4.214
526.04	5.057
526.38	3.826
526.72	4.117
527.06	4.317
527.41	4.353
527.75	4.139
528.09	4.877
528.43	4.759
528.78	4.174
529.12	4.335
529.46	3.974
529.80	4.264
530.15	4.950
530.49	4.272
530.83	4.388
531.17	4.244
531.51	4.292
531.86	4.469
532.20	4.388
532.54	3.829
532.88	4.435
533.22	4.388
533.57	3.417
533.91	3.497
534.25	3.578
534.59	4.035
534.93	4.152
535.27	3.472
535.62	3.734
535.96	4.137
536.30	4.997
536.64	4.099
536.98	3.839
537.32	5.750
537.66	3.508
538.01	4.830
538.35	4.429
538.69	4.430
539.03	3.607
539.37	3.519
539.71	4.321
540.05	3.877
540.39	4.277
540.73	3.987
541.07	4.015
541.42	4.415
541.76	4.439
542.10	3.822
542.44	4.426
542.78	4.468
543.12	3.620
543.46	4.887
543.80	3.885
544.14	4.272
544.48	5.049
544.82	3.976
545.16	3.764
545.50	4.057
545.84	3.851
546.18	4.291
546.52	4.852
546.86	4.965
547.20	3.747
547.54	4.877
547.88	4.501
548.22	4.554
548.56	4.007
548.90	4.804
549.24	4.611
549.58	4.124
549.92	4.453
550.26	4.327
550.60	4.059
550.94	4.478
551.28	4.897
551.62	4.828
551.96	4.054
552.30	3.626
552.64	5.566
552.98	3.995
553.32	4.033
553.66	4.039
554.00	4.376
554.34	5.193
554.68	4.772
555.02	4.209
555.36	4.189
555.69	4.647
556.03	4.268
556.37	3.952
556.71	5.411
557.05	4.522
557.39	4.133
557.73	4.852
558.07	3.890
558.41	3.838
558.75	4.651
559.08	4.289
559.42	4.152
559.76	4.562
560.10	4.542
560.44	4.048
560.78	4.795
561.12	4.768
561.45	4.255
561.79	4.307
562.13	3.727
562.47	3.764
562.81	4.359
563.15	3.943
563.48	3.602
563.82	4.616
564.16	4.789
564.50	4.219
564.84	3.647
565.17	4.694
565.51	3.756
565.85	3.763
566.19	4.226
566.52	3.490
566.86	4.320
567.20	3.708
567.54	3.712
567.88	3.652
568.21	3.345
568.55	3.696
568.89	3.604
569.23	3.236
569.56	3.594
569.90	3.450
570.24	3.203
570.57	3.180
570.91	3.027
571.25	2.906
571.59	2.764
571.92	2.664
572.26	2.507
572.60	2.666
572.93	3.076
573.27	2.728
573.61	2.734
573.95	2.764
574.28	2.908
574.62	2.492
574.96	2.464
575.29	2.626
575.63	2.356
575.97	2.799
576.30	2.632
576.64	2.554
576.98	2.577
577.31	2.643
577.65	2.686
577.98	2.482
578.32	2.309
578.66	2.527
578.99	2.685
579.33	3.000
579.67	2.793
580.00	2.431
580.34	2.570
580.67	2.685
581.01	2.743
581.35	2.465
581.68	2.188
582.02	2.467
582.35	2.426
582.69	2.699
583.02	2.157
583.36	2.594
583.70	2.744
584.03	2.784
584.37	2.903
584.70	2.837
585.04	2.474
585.37	2.412
585.71	2.787
586.04	2.442
586.38	2.705
586.72	2.831
587.05	3.139
587.39	2.554
587.72	2.537
588.06	2.781
588.39	2.943
588.73	2.751
589.06	2.743
589.40	3.005
589.73	2.950
590.07	3.157
590.40	3.798
590.73	3.599
591.07	3.719
591.40	3.114
591.74	3.206
592.07	2.621
592.41	3.437
592.74	3.003
593.08	2.897
593.41	2.693
593.75	2.782
594.08	3.111
594.41	2.933
594.75	3.048
595.08	3.395
595.42	3.522
595.75	3.554
596.09	3.094
596.42	3.241
596.75	3.405
597.09	3.549
597.42	3.429
597.75	3.002
598.09	2.954
598.42	3.509
598.76	3.277
599.09	3.347
599.42	3.114
599.76	3.799
600.09	3.153
600.42	3.349
600.76	3.229
601.09	2.831
601.42	2.957
601.76	3.437
602.09	3.311
602.42	3.327
602.76	3.416
603.09	3.356
603.42	4.073
603.76	2.820
604.09	2.968
604.42	3.051
604.76	3.042
605.09	3.388
605.42	3.657
605.75	3.277
606.09	3.405
606.42	2.818
606.75	3.187
607.09	3.158
607.42	3.013
607.75	2.986
608.08	3.087
608.42	3.314
608.75	3.166
609.08	3.300
609.41	3.818
609.75	3.663
610.08	3.282
610.41	3.162
610.74	3.593
611.07	3.047
611.41	3.058
611.74	3.011
612.07	3.709
612.40	3.411
612.73	3.694
613.07	3.649
613.40	3.308
613.73	3.095
614.06	2.800
614.39	3.838
614.72	3.566
615.06	3.462
615.39	3.465
615.72	3.001
616.05	4.370
616.38	3.856
616.71	3.310
617.05	3.295
617.38	3.202
617.71	3.431
618.04	3.758
618.37	3.613
618.70	3.176
619.03	2.930
619.36	4.146
619.69	4.222
620.03	4.631
620.36	3.982
620.69	4.853
621.02	4.008
621.35	4.370
621.68	4.646
622.01	5.387
622.34	3.496
622.67	4.635
623.00	5.037
623.33	3.711
623.66	4.458
623.99	3.904
624.32	4.133
624.65	4.542
624.99	3.516
625.32	4.676
625.65	3.793
625.98	3.766
626.31	4.377
626.64	3.797
626.97	4.897
627.30	4.503
627.63	4.788
627.96	4.460
628.29	4.455
628.62	3.849
628.95	5.142
629.28	6.398
629.61	4.130
629.94	3.803
630.26	4.593
630.59	5.408
630.92	5.112
631.25	5.893
631.58	5.593
631.91	4.757
632.24	4.470
632.57	4.617
632.90	5.383
633.23	5.247
633.56	5.269
633.89	5.681
634.22	5.920
634.55	6.237
634.88	6.024
635.20	5.942
635.53	5.226
635.86	7.047
636.19	5.387
636.52	3.568
636.85	4.315
637.18	6.067
637.51	5.140
637.83	4.005
638.16	4.807
638.49	6.467
638.82	6.690
639.15	5.170
639.48	6.043
639.81	5.250
640.13	6.135
640.46	6.574
640.79	5.462
641.12	4.199
641.45	6.856
641.77	7.662
642.10	5.489
642.43	5.405
642.76	6.534
643.09	5.476
643.41	6.872
643.74	7.338
644.07	6.785
644.40	4.438
644.73	7.207
645.05	8.321
645.38	6.738
645.71	6.070
646.04	6.565
646.36	6.103
646.69	5.280
647.02	6.400
647.35	5.512
647.67	6.321
648.00	6.352
648.33	6.917
648.66	6.818
648.98	5.652
649.31	4.858
649.64	4.288
649.96	4.410
650.29	6.286
650.62	7.953
650.94	8.886
651.27	6.858
651.60	7.042
651.92	6.912
652.25	7.874
652.58	7.660
652.90	7.036
653.23	5.908
653.56	6.528
653.88	6.167
654.21	5.718
654.54	7.174
654.86	6.047
655.19	6.860
655.52	3.748
655.84	2.123
656.17	1.969
