SpectraSuite Data File
++++++++++++++++++++++++++++++++++++
Date: Tue May 12 16:59:43 PDT 2015
User: schluterlab
Dark Spectrum Present: Yes
Reference Spectrum Present: Yes
Number of Sampled Component Spectra: 1
Spectrometers: USB2E3373
Integration Time (usec): 3000 (USB2E3373)
Spectra Averaged: 3 (USB2E3373)
Boxcar Smoothing: 0 (USB2E3373)
Correct for Electrical Dark: No (USB2E3373)
Strobe/Lamp Enabled: No (USB2E3373)
Correct for Detector Non-linearity: No (USB2E3373)
Correct for Stray Light: No (USB2E3373)
Number of Pixels in Processed Spectrum: 2048
>>>>>Begin Processed Spectral Data<<<<<
178.53	0.000
178.91	-233.333
179.29	-625.000
179.67	-3300.000
180.04	-113.333
180.42	775.000
180.80	1550.000
181.18	0.000
181.56	-375.000
181.94	0.000
182.31	1333.333
182.69	-3200.000
183.07	542.857
183.45	-3800.000
183.83	-1550.000
184.20	310.000
184.58	485.714
184.96	-253.846
185.34	-208.333
185.72	1650.000
186.09	-825.000
186.47	-2700.000
186.85	1266.667
187.23	580.000
187.61	2000.000
187.98	425.000
188.36	278.571
188.74	225.000
189.12	300.000
189.49	1025.000
189.87	0.000
190.25	487.500
190.63	2600.000
191.00	-208.333
191.38	-3500.000
191.76	-1000.000
192.14	437.500
192.51	-3200.000
192.89	1800.000
193.27	1066.667
193.65	-1166.667
194.02	-740.000
194.40	485.714
194.78	-192.857
195.15	266.667
195.53	-2900.000
195.91	-600.000
196.29	4700.000
196.66	181.250
197.04	700.000
197.42	-1300.000
197.79	600.000
198.17	316.667
198.55	0.000
198.92	557.143
199.30	1266.667
199.68	1650.000
200.05	733.333
200.43	-383.333
200.81	272.222
201.18	3000.000
201.56	250.000
201.94	-825.000
202.31	-462.500
202.69	-440.000
203.07	3500.000
203.44	-516.667
203.82	333.333
204.19	520.000
204.57	-1250.000
204.95	-875.000
205.32	-820.000
205.70	616.667
206.08	950.000
206.45	-1033.333
206.83	400.000
207.20	184.211
207.58	383.333
207.96	760.000
208.33	0.000
208.71	557.143
209.08	760.000
209.46	-2700.000
209.84	-950.000
210.21	780.000
210.59	-620.000
210.96	308.333
211.34	-850.000
211.71	381.818
212.09	975.000
212.46	1600.000
212.84	-350.000
213.22	477.778
213.59	-3000.000
213.97	340.000
214.34	950.000
214.72	1000.000
215.09	1200.000
215.47	-2700.000
215.84	-310.000
216.22	-487.500
216.59	0.000
216.97	0.000
217.34	1600.000
217.72	-1900.000
218.09	1133.333
218.47	575.000
218.84	650.000
219.22	1100.000
219.59	1066.667
219.97	471.429
220.34	277.778
220.72	1900.000
221.09	2900.000
221.47	300.000
221.84	1066.667
222.22	340.000
222.59	266.667
222.97	200.000
223.34	262.500
223.72	-1800.000
224.09	1200.000
224.46	292.308
224.84	-675.000
225.21	388.889
225.59	240.000
225.96	1166.667
226.34	-620.000
226.71	-725.000
227.08	-440.000
227.46	0.000
227.83	-483.333
228.21	-1550.000
228.58	391.667
228.95	1075.000
229.33	433.333
229.70	1100.000
230.08	330.769
230.45	2800.000
230.82	-1000.000
231.20	-866.667
231.57	-1200.000
231.95	780.000
232.32	300.000
232.69	533.333
233.07	266.667
233.44	-1600.000
233.81	300.000
234.19	166.667
234.56	231.250
234.93	200.000
235.31	260.000
235.68	268.750
236.05	203.571
236.43	188.889
236.80	314.286
237.17	182.759
237.55	171.875
237.92	127.500
238.29	154.545
238.67	159.375
239.04	143.902
239.41	100.000
239.79	122.500
240.16	129.167
240.53	88.525
240.91	85.507
241.28	111.864
241.65	109.091
242.02	100.000
242.40	92.857
242.77	82.418
243.14	89.873
243.51	86.869
243.89	80.374
244.26	85.047
244.63	82.178
245.00	81.651
245.38	66.949
245.75	68.182
246.12	83.704
246.49	82.270
246.87	70.492
247.24	70.667
247.61	73.125
247.98	74.150
248.36	73.939
248.73	70.918
249.10	76.786
249.47	66.000
249.84	64.677
250.22	78.919
250.59	63.000
250.96	58.650
251.33	63.721
251.70	65.179
252.08	66.387
252.45	63.347
252.82	63.118
253.19	63.636
253.56	63.462
253.94	55.797
254.31	63.178
254.68	60.627
255.05	61.379
255.42	64.234
255.79	64.495
256.16	63.729
256.54	62.338
256.91	60.784
257.28	60.201
257.65	59.875
258.02	59.882
258.39	58.166
258.76	61.159
259.14	59.714
259.51	64.723
259.88	63.830
260.25	59.066
260.62	59.452
260.99	57.300
261.36	62.117
261.73	56.383
262.10	56.806
262.47	56.000
262.85	56.800
263.22	58.869
263.59	57.801
263.96	60.652
264.33	57.037
264.70	59.705
265.07	58.780
265.44	56.651
265.81	61.557
266.18	58.124
266.55	58.156
266.92	55.705
267.29	60.526
267.66	58.969
268.03	61.435
268.40	55.180
268.77	58.370
269.14	59.436
269.51	57.016
269.88	54.082
270.25	56.156
270.62	56.223
270.99	55.578
271.36	52.846
271.73	56.184
272.10	54.747
272.47	53.968
272.84	55.888
273.21	54.132
273.58	57.490
273.95	57.290
274.32	52.724
274.69	57.677
275.06	54.827
275.43	53.257
275.80	53.396
276.17	56.066
276.54	53.832
276.91	57.090
277.28	53.102
277.65	55.535
278.02	52.941
278.39	51.978
278.76	54.138
279.13	52.135
279.50	55.455
279.87	53.818
280.23	53.223
280.60	55.474
280.97	55.690
281.34	52.145
281.71	53.913
282.08	51.795
282.45	52.027
282.82	51.171
283.19	51.033
283.56	53.388
283.92	55.537
284.29	52.912
284.66	51.092
285.03	53.068
285.40	50.744
285.77	49.228
286.14	51.393
286.51	49.387
286.87	52.057
287.24	47.598
287.61	51.672
287.98	51.045
288.35	49.481
288.72	48.862
289.08	48.498
289.45	49.238
289.82	51.250
290.19	47.731
290.56	49.636
290.93	48.489
291.29	47.652
291.66	48.305
292.03	48.107
292.40	45.935
292.77	46.797
293.13	48.645
293.50	46.424
293.87	46.206
294.24	45.455
294.60	46.299
294.97	48.112
295.34	45.286
295.71	46.518
296.08	46.933
296.44	45.235
296.81	44.169
297.18	42.205
297.55	45.197
297.91	42.734
298.28	44.203
298.65	43.926
299.02	44.150
299.38	44.724
299.75	44.146
300.12	44.037
300.48	45.316
300.85	44.100
301.22	43.605
301.59	43.750
301.95	44.224
302.32	45.285
302.69	45.475
303.05	45.567
303.42	43.610
303.79	44.204
304.15	44.994
304.52	44.292
304.89	44.563
305.25	45.161
305.62	43.390
305.99	43.804
306.35	44.421
306.72	45.786
307.09	44.513
307.45	44.773
307.82	43.210
308.19	45.979
308.55	45.300
308.92	44.259
309.29	45.858
309.65	45.887
310.02	46.552
310.38	45.165
310.75	45.227
311.12	45.498
311.48	47.008
311.85	46.469
312.22	47.469
312.58	48.105
312.95	47.184
313.31	47.940
313.68	47.561
314.05	48.718
314.41	48.883
314.78	49.337
315.14	49.668
315.51	49.763
315.87	50.091
316.24	51.354
316.61	50.224
316.97	51.651
317.34	53.190
317.70	51.624
318.07	52.580
318.43	53.076
318.80	52.890
319.16	53.234
319.53	52.743
319.89	53.674
320.26	55.214
320.62	55.586
320.99	56.530
321.35	55.009
321.72	57.495
322.08	58.079
322.45	58.038
322.81	58.554
323.18	61.012
323.54	59.233
323.91	62.194
324.27	59.947
324.64	60.035
325.00	61.724
325.37	62.226
325.73	63.322
326.10	63.629
326.46	63.171
326.83	63.520
327.19	65.462
327.56	66.374
327.92	67.131
328.29	67.185
328.65	67.209
329.01	67.237
329.38	67.090
329.74	65.329
330.11	68.028
330.47	67.008
330.84	67.041
331.20	67.851
331.56	67.789
331.93	68.178
332.29	65.986
332.66	70.068
333.02	66.495
333.38	69.721
333.75	66.138
334.11	67.617
334.48	68.974
334.84	67.568
335.20	67.921
335.57	66.919
335.93	67.368
336.29	66.335
336.66	69.554
337.02	66.809
337.38	67.240
337.75	67.905
338.11	68.270
338.47	67.231
338.84	66.300
339.20	67.359
339.56	68.124
339.93	66.890
340.29	66.134
340.65	66.387
341.02	66.854
341.38	66.092
341.74	68.189
342.11	67.696
342.47	66.284
342.83	68.171
343.20	66.047
343.56	64.972
343.92	67.300
344.28	66.029
344.65	67.482
345.01	65.000
345.37	67.388
345.73	67.143
346.10	66.534
346.46	68.501
346.82	66.281
347.19	67.233
347.55	66.432
347.91	66.843
348.27	67.157
348.63	66.930
349.00	65.727
349.36	67.860
349.72	65.979
350.08	68.012
350.45	66.413
350.81	66.437
351.17	65.794
351.53	66.513
351.89	67.288
352.26	66.818
352.62	66.667
352.98	67.485
353.34	67.180
353.70	66.514
354.07	67.538
354.43	66.897
354.79	65.452
355.15	67.381
355.51	66.012
355.87	66.265
356.24	68.822
356.60	66.895
356.96	66.945
357.32	66.767
357.68	65.786
358.04	67.553
358.40	67.466
358.77	68.820
359.13	68.544
359.49	66.197
359.85	67.759
360.21	66.642
360.57	67.007
360.93	68.326
361.29	67.388
361.66	67.934
362.02	67.401
362.38	68.110
362.74	68.577
363.10	67.952
363.46	68.370
363.82	69.004
364.18	69.559
364.54	68.741
364.90	67.470
365.26	68.633
365.62	67.127
365.98	67.515
366.35	69.103
366.71	68.910
367.07	67.577
367.43	68.972
367.79	66.888
368.15	67.707
368.51	69.056
368.87	69.226
369.23	68.815
369.59	68.105
369.95	69.790
370.31	66.872
370.67	68.217
371.03	67.927
371.39	68.698
371.75	69.923
372.11	68.933
372.47	70.205
372.83	69.477
373.19	69.637
373.55	68.110
373.91	68.923
374.27	68.783
374.63	69.627
374.99	69.744
375.35	71.707
375.71	69.921
376.07	68.966
376.42	68.606
376.78	70.649
377.14	69.987
377.50	69.039
377.86	70.147
378.22	70.018
378.58	71.429
378.94	69.885
379.30	70.891
379.66	70.379
380.02	70.205
380.38	68.677
380.74	71.050
381.09	69.451
381.45	69.538
381.81	69.622
382.17	69.658
382.53	70.366
382.89	71.200
383.25	70.693
383.61	68.012
383.97	69.406
384.32	70.766
384.68	71.777
385.04	70.164
385.40	70.996
385.76	70.099
386.12	72.356
386.48	71.489
386.83	70.660
387.19	71.025
387.55	70.436
387.91	71.016
388.27	72.278
388.62	69.542
388.98	69.679
389.34	69.839
389.70	70.755
390.06	70.549
390.42	70.574
390.77	70.332
391.13	71.515
391.49	71.204
391.85	72.000
392.20	70.799
392.56	69.355
392.92	69.231
393.28	69.955
393.64	68.463
393.99	70.302
394.35	68.629
394.71	70.929
395.07	70.438
395.42	69.087
395.78	70.265
396.14	70.964
396.50	71.059
396.85	70.549
397.21	69.615
397.57	69.815
397.92	67.591
398.28	70.546
398.64	69.692
399.00	68.894
399.35	68.492
399.71	69.040
400.07	68.550
400.42	70.567
400.78	69.150
401.14	69.818
401.49	69.758
401.85	69.235
402.21	69.127
402.57	69.120
402.92	70.424
403.28	68.675
403.63	68.511
403.99	69.300
404.35	68.406
404.70	68.754
405.06	68.332
405.42	69.719
405.77	68.853
406.13	68.655
406.49	68.050
406.84	67.795
407.20	68.322
407.55	68.923
407.91	69.687
408.27	69.739
408.62	68.539
408.98	68.066
409.34	66.745
409.69	67.704
410.05	69.112
410.40	68.080
410.76	67.029
411.11	67.002
411.47	67.531
411.83	65.788
412.18	66.606
412.54	68.709
412.89	66.136
413.25	67.218
413.60	67.874
413.96	67.684
414.31	67.532
414.67	67.908
415.03	67.178
415.38	67.445
415.74	67.467
416.09	66.771
416.45	68.584
416.80	68.634
417.16	67.091
417.51	67.134
417.87	66.834
418.22	67.132
418.58	68.599
418.93	67.460
419.29	66.728
419.64	67.111
420.00	66.169
420.35	66.899
420.71	66.219
421.06	67.275
421.42	67.012
421.77	65.852
422.12	69.019
422.48	64.407
422.83	67.746
423.19	66.523
423.54	65.826
423.90	67.327
424.25	68.795
424.61	66.512
424.96	66.798
425.31	66.667
425.67	67.901
426.02	66.181
426.38	65.519
426.73	67.727
427.09	67.438
427.44	65.560
427.79	68.153
428.15	67.413
428.50	67.029
428.85	66.961
429.21	66.505
429.56	66.550
429.92	67.131
430.27	66.038
430.62	65.688
430.98	65.918
431.33	65.776
431.68	66.420
432.04	66.632
432.39	67.124
432.74	67.681
433.10	66.279
433.45	68.581
433.80	68.395
434.16	67.788
434.51	66.976
434.86	67.556
435.22	67.747
435.57	66.805
435.92	68.298
436.28	67.857
436.63	67.261
436.98	67.286
437.34	67.180
437.69	66.349
438.04	67.688
438.39	67.542
438.75	66.091
439.10	67.242
439.45	66.196
439.81	67.033
440.16	67.309
440.51	66.948
440.86	68.547
441.22	66.613
441.57	67.717
441.92	66.387
442.27	67.165
442.63	66.463
442.98	66.649
443.33	67.059
443.68	67.354
444.03	66.635
444.39	67.514
444.74	67.081
445.09	68.036
445.44	66.153
445.79	67.057
446.15	67.053
446.50	66.614
446.85	66.783
447.20	66.766
447.55	67.700
447.91	67.768
448.26	66.241
448.61	66.888
448.96	68.355
449.31	67.052
449.66	67.331
450.02	66.397
450.37	67.740
450.72	66.722
451.07	66.725
451.42	67.576
451.77	66.380
452.12	66.818
452.47	67.132
452.83	66.704
453.18	67.808
453.53	66.134
453.88	66.971
454.23	66.822
454.58	65.734
454.93	65.604
455.28	66.218
455.63	66.667
455.98	65.595
456.34	67.234
456.69	66.829
457.04	66.706
457.39	65.086
457.74	66.779
458.09	66.255
458.44	66.046
458.79	64.297
459.14	65.466
459.49	64.892
459.84	65.326
460.19	64.802
460.54	65.755
460.89	65.991
461.24	64.834
461.59	65.703
461.94	66.076
462.29	65.618
462.64	67.274
462.99	66.347
463.34	65.392
463.69	65.033
464.04	66.494
464.39	65.140
464.74	64.596
465.09	64.481
465.44	65.887
465.79	65.215
466.14	64.494
466.49	65.328
466.84	65.106
467.19	64.616
467.54	63.664
467.89	64.613
468.24	65.373
468.59	65.000
468.94	65.217
469.29	64.386
469.64	64.437
469.99	65.553
470.34	64.579
470.68	64.414
471.03	63.709
471.38	63.377
471.73	62.573
472.08	65.036
472.43	64.122
472.78	64.597
473.13	64.080
473.48	64.303
473.83	63.545
474.17	64.924
474.52	63.329
474.87	63.331
475.22	63.906
475.57	62.434
475.92	62.902
476.27	63.058
476.61	62.145
476.96	63.166
477.31	63.753
477.66	63.768
478.01	62.352
478.36	63.440
478.70	62.283
479.05	63.598
479.40	62.996
479.75	63.307
480.10	62.585
480.45	62.792
480.79	62.350
481.14	63.005
481.49	61.619
481.84	61.566
482.19	62.664
482.53	61.616
482.88	61.290
483.23	62.201
483.58	61.670
483.92	61.700
484.27	62.586
484.62	61.545
484.97	60.538
485.31	61.423
485.66	61.149
486.01	61.012
486.36	60.183
486.70	59.592
487.05	60.487
487.40	59.734
487.75	59.310
488.09	59.432
488.44	59.879
488.79	60.326
489.13	61.515
489.48	61.806
489.83	59.341
490.17	60.239
490.52	60.336
490.87	59.612
491.22	61.525
491.56	60.518
491.91	59.991
492.26	60.624
492.60	62.551
492.95	60.716
493.30	59.691
493.64	60.108
493.99	60.555
494.34	59.659
494.68	60.558
495.03	60.575
495.37	60.783
495.72	60.420
496.07	58.985
496.41	60.382
496.76	60.152
497.11	60.154
497.45	59.491
497.80	59.500
498.14	59.963
498.49	60.121
498.84	60.234
499.18	59.506
499.53	60.772
499.87	58.535
500.22	59.374
500.56	58.960
500.91	59.647
501.26	59.761
501.60	59.699
501.95	59.588
502.29	59.378
502.64	58.447
502.98	58.782
503.33	58.619
503.67	58.190
504.02	59.248
504.36	58.869
504.71	58.751
505.06	59.033
505.40	58.353
505.75	58.326
506.09	58.563
506.44	58.835
506.78	58.129
507.13	60.010
507.47	57.787
507.82	58.102
508.16	59.138
508.51	59.372
508.85	58.357
509.19	58.786
509.54	57.178
509.88	59.423
510.23	57.843
510.57	56.853
510.92	58.142
511.26	59.187
511.61	58.149
511.95	58.188
512.30	56.850
512.64	58.048
512.98	58.278
513.33	58.043
513.67	58.467
514.02	58.026
514.36	57.996
514.70	58.827
515.05	57.912
515.39	59.156
515.74	59.103
516.08	57.516
516.42	59.617
516.77	57.653
517.11	57.067
517.46	58.567
517.80	57.564
518.14	57.859
518.49	57.497
518.83	56.593
519.17	57.515
519.52	58.329
519.86	58.038
520.20	57.260
520.55	56.812
520.89	57.529
521.23	58.119
521.58	56.799
521.92	59.184
522.26	57.227
522.61	57.873
522.95	57.778
523.29	57.602
523.64	57.572
523.98	57.570
524.32	57.555
524.66	57.275
525.01	56.272
525.35	56.099
525.69	57.194
526.04	56.752
526.38	56.916
526.72	57.339
527.06	56.416
527.41	57.981
527.75	56.969
528.09	55.870
528.43	56.864
528.78	57.126
529.12	58.338
529.46	56.166
529.80	56.542
530.15	55.628
530.49	56.438
530.83	56.734
531.17	57.011
531.51	57.327
531.86	55.797
532.20	56.799
532.54	56.497
532.88	55.903
533.22	56.490
533.57	55.888
533.91	56.119
534.25	54.991
534.59	56.842
534.93	56.200
535.27	54.525
535.62	56.068
535.96	55.378
536.30	55.881
536.64	55.031
536.98	55.758
537.32	55.312
537.66	55.357
538.01	54.799
538.35	56.769
538.69	55.340
539.03	55.037
539.37	54.126
539.71	55.123
540.05	55.815
540.39	55.535
540.73	56.456
541.07	55.395
541.42	54.602
541.76	54.994
542.10	55.240
542.44	55.736
542.78	55.003
543.12	53.620
543.46	53.697
543.80	54.762
544.14	54.861
544.48	53.589
544.82	54.679
545.16	52.702
545.50	55.132
545.84	54.672
546.18	55.267
546.52	54.033
546.86	54.352
547.20	53.682
547.54	53.135
547.88	52.920
548.22	54.523
548.56	53.978
548.90	52.432
549.24	54.833
549.58	54.253
549.92	55.272
550.26	55.510
550.60	54.025
550.94	56.038
551.28	54.828
551.62	55.103
551.96	54.122
552.30	53.329
552.64	55.663
552.98	53.286
553.32	51.985
553.66	53.355
554.00	53.539
554.34	54.794
554.68	54.167
555.02	54.447
555.36	52.660
555.69	54.254
556.03	53.822
556.37	52.263
556.71	54.824
557.05	52.818
557.39	52.733
557.73	54.043
558.07	53.789
558.41	52.639
558.75	53.830
559.08	54.396
559.42	55.261
559.76	55.167
560.10	53.613
560.44	53.351
560.78	53.517
561.12	54.863
561.45	52.378
561.79	52.060
562.13	51.927
562.47	53.342
562.81	51.269
563.15	53.135
563.48	51.988
563.82	53.213
564.16	52.674
564.50	52.140
564.84	51.915
565.17	52.525
565.51	54.926
565.85	54.164
566.19	52.857
566.52	52.647
566.86	52.598
567.20	52.247
567.54	53.384
567.88	52.582
568.21	51.373
568.55	51.702
568.89	52.007
569.23	51.682
569.56	52.196
569.90	51.204
570.24	51.687
570.57	50.584
570.91	50.671
571.25	50.237
571.59	50.338
571.92	50.323
572.26	49.946
572.60	50.375
572.93	51.208
573.27	50.172
573.61	50.054
573.95	49.925
574.28	50.557
574.62	49.977
574.96	49.231
575.29	48.698
575.63	49.258
575.97	49.197
576.30	49.076
576.64	49.453
576.98	49.245
577.31	50.638
577.65	49.313
577.98	49.048
578.32	49.503
578.66	49.300
578.99	49.780
579.33	49.188
579.67	48.535
580.00	48.475
580.34	49.352
580.67	49.441
581.01	49.462
581.35	49.553
581.68	49.439
582.02	49.116
582.35	49.506
582.69	49.243
583.02	49.437
583.36	49.357
583.70	48.951
584.03	49.789
584.37	49.470
584.70	48.843
585.04	48.798
585.37	49.098
585.71	50.494
586.04	49.243
586.38	49.006
586.72	49.009
587.05	49.074
587.39	49.254
587.72	49.110
588.06	48.870
588.39	49.360
588.73	50.068
589.06	50.073
589.40	49.484
589.73	49.492
590.07	49.897
590.40	49.826
590.73	50.533
591.07	50.057
591.40	49.301
591.74	49.594
592.07	49.210
592.41	49.001
592.74	48.737
593.08	48.926
593.41	48.833
593.75	48.697
594.08	49.184
594.41	47.866
594.75	47.979
595.08	48.148
595.42	48.552
595.75	48.799
596.09	49.322
596.42	48.689
596.75	49.760
597.09	49.608
597.42	49.755
597.75	48.519
598.09	48.625
598.42	48.592
598.76	47.918
599.09	48.694
599.42	47.612
599.76	48.745
600.09	47.356
600.42	48.722
600.76	48.300
601.09	48.429
601.42	47.589
601.76	48.084
602.09	48.234
602.42	47.726
602.76	48.159
603.09	48.982
603.42	49.028
603.76	48.771
604.09	47.702
604.42	47.608
604.76	47.926
605.09	47.673
605.42	47.785
605.75	47.493
606.09	48.279
606.42	46.825
606.75	47.804
607.09	48.125
607.42	47.168
607.75	46.935
608.08	47.157
608.42	47.525
608.75	46.855
609.08	48.570
609.41	47.773
609.75	47.527
610.08	47.887
610.41	48.046
610.74	47.143
611.07	48.704
611.41	47.729
611.74	47.180
612.07	48.314
612.40	48.002
612.73	48.777
613.07	48.150
613.40	47.870
613.73	47.479
614.06	46.900
614.39	47.879
614.72	48.167
615.06	46.588
615.39	46.733
615.72	47.435
616.05	47.464
616.38	46.778
616.71	47.965
617.05	48.655
617.38	46.910
617.71	48.425
618.04	46.999
618.37	47.471
618.70	46.940
619.03	47.497
619.36	47.676
619.69	47.164
620.03	48.402
620.36	48.426
620.69	48.723
621.02	48.641
621.35	47.636
621.68	47.861
622.01	49.151
622.34	47.924
622.67	49.298
623.00	47.651
623.33	47.436
623.66	47.572
623.99	48.082
624.32	47.154
624.65	46.873
624.99	47.803
625.32	46.760
625.65	46.966
625.98	46.583
626.31	48.961
626.64	45.938
626.97	46.595
627.30	48.370
627.63	47.645
627.96	46.557
628.29	49.670
628.62	46.963
628.95	47.961
629.28	47.502
629.61	47.540
629.94	46.845
630.26	47.140
630.59	48.582
630.92	47.623
