SpectraSuite Data File
++++++++++++++++++++++++++++++++++++
Date: Tue May 12 17:13:04 PDT 2015
User: schluterlab
Dark Spectrum Present: Yes
Reference Spectrum Present: Yes
Number of Sampled Component Spectra: 1
Spectrometers: USB2E3373
Integration Time (usec): 3000 (USB2E3373)
Spectra Averaged: 3 (USB2E3373)
Boxcar Smoothing: 0 (USB2E3373)
Correct for Electrical Dark: No (USB2E3373)
Strobe/Lamp Enabled: No (USB2E3373)
Correct for Detector Non-linearity: No (USB2E3373)
Correct for Stray Light: No (USB2E3373)
Number of Pixels in Processed Spectrum: 2048
>>>>>Begin Processed Spectral Data<<<<<
178.53	0.000
178.91	-150.000
179.29	-700.000
179.67	-3500.000
180.04	-100.000
180.42	525.000
180.80	1400.000
181.18	0.000
181.56	-325.000
181.94	0.000
182.31	933.333
182.69	-3000.000
183.07	514.286
183.45	-3000.000
183.83	-1750.000
184.20	330.000
184.58	314.286
184.96	-215.385
185.34	-200.000
185.72	1550.000
186.09	-725.000
186.47	-2300.000
186.85	833.333
187.23	640.000
187.61	2000.000
187.98	512.500
188.36	242.857
188.74	350.000
189.12	341.667
189.49	975.000
189.87	0.000
190.25	512.500
190.63	2400.000
191.00	-166.667
191.38	-3700.000
191.76	-550.000
192.14	412.500
192.51	-2700.000
192.89	1650.000
193.27	1166.667
193.65	-900.000
194.02	-500.000
194.40	471.429
194.78	-178.571
195.15	300.000
195.53	-2500.000
195.91	-480.000
196.29	3200.000
196.66	193.750
197.04	675.000
197.42	-1300.000
197.79	450.000
198.17	283.333
198.55	0.000
198.92	528.571
199.30	1000.000
199.68	1850.000
200.05	633.333
200.43	-316.667
200.81	233.333
201.18	3800.000
201.56	308.333
201.94	-650.000
202.31	-212.500
202.69	-420.000
203.07	3400.000
203.44	-566.667
203.82	333.333
204.19	680.000
204.57	-1050.000
204.95	-725.000
205.32	-600.000
205.70	450.000
206.08	725.000
206.45	-800.000
206.83	355.556
207.20	178.947
207.58	258.333
207.96	560.000
208.33	0.000
208.71	457.143
209.08	820.000
209.46	-2700.000
209.84	-800.000
210.21	700.000
210.59	-520.000
210.96	350.000
211.34	-1025.000
211.71	400.000
212.09	950.000
212.46	1300.000
212.84	-300.000
213.22	466.667
213.59	-2800.000
213.97	290.000
214.34	950.000
214.72	1100.000
215.09	1000.000
215.47	-2700.000
215.84	-380.000
216.22	-387.500
216.59	0.000
216.97	0.000
217.34	1350.000
217.72	-1650.000
218.09	1133.333
218.47	325.000
218.84	750.000
219.22	1266.667
219.59	1266.667
219.97	514.286
220.34	366.667
220.72	1500.000
221.09	3100.000
221.47	283.333
221.84	933.333
222.22	290.000
222.59	250.000
222.97	214.286
223.34	243.750
223.72	-1250.000
224.09	1366.667
224.46	253.846
224.84	-575.000
225.21	322.222
225.59	186.667
225.96	1400.000
226.34	-640.000
226.71	-700.000
227.08	-460.000
227.46	0.000
227.83	-466.667
228.21	-1250.000
228.58	366.667
228.95	975.000
229.33	333.333
229.70	1000.000
230.08	346.154
230.45	3000.000
230.82	-800.000
231.20	-866.667
231.57	-1266.667
231.95	680.000
232.32	333.333
232.69	483.333
233.07	241.667
233.44	-1550.000
233.81	206.667
234.19	133.333
234.56	206.250
234.93	164.706
235.31	170.000
235.68	275.000
236.05	146.429
236.43	148.148
236.80	250.000
237.17	144.828
237.55	112.500
237.92	100.000
238.29	118.182
238.67	115.625
239.04	129.268
239.41	66.667
239.79	80.000
240.16	70.833
240.53	75.410
240.91	60.870
241.28	84.746
241.65	62.121
242.02	74.648
242.40	72.857
242.77	56.044
243.14	49.367
243.51	57.576
243.89	61.682
244.26	42.991
244.63	47.525
245.00	47.706
245.38	37.288
245.75	46.212
246.12	54.074
246.49	43.972
246.87	35.246
247.24	39.333
247.61	44.375
247.98	41.497
248.36	39.394
248.73	42.347
249.10	36.905
249.47	37.000
249.84	34.328
250.22	36.216
250.59	35.000
250.96	35.021
251.33	28.837
251.70	37.500
252.08	37.395
252.45	33.068
252.82	28.517
253.19	26.087
253.56	27.308
253.94	30.072
254.31	31.008
254.68	26.481
255.05	30.345
255.42	35.401
255.79	34.853
256.16	29.492
256.54	30.844
256.91	31.046
257.28	32.107
257.65	25.705
258.02	27.729
258.39	28.653
258.76	30.725
259.14	25.429
259.51	30.029
259.88	30.699
260.25	26.099
260.62	27.945
260.99	25.620
261.36	27.019
261.73	27.660
262.10	27.225
262.47	28.250
262.85	25.867
263.22	28.021
263.59	26.854
263.96	27.068
264.33	25.926
264.70	26.044
265.07	26.829
265.44	26.376
265.81	26.415
266.18	23.341
266.55	29.314
266.92	25.503
267.29	29.167
267.66	27.578
268.03	23.094
268.40	21.987
268.77	23.789
269.14	21.909
269.51	23.608
269.88	25.918
270.25	23.542
270.62	28.112
270.99	27.992
271.36	23.780
271.73	23.480
272.10	22.424
272.47	23.611
272.84	23.154
273.21	23.760
273.58	24.089
273.95	25.051
274.32	23.735
274.69	24.213
275.06	24.772
275.43	23.946
275.80	23.774
276.17	24.449
276.54	24.486
276.91	24.067
277.28	22.993
277.65	23.801
278.02	25.919
278.39	25.360
278.76	23.966
279.13	23.488
279.50	23.636
279.87	21.415
280.23	19.705
280.60	23.723
280.97	23.448
281.34	22.607
281.71	24.348
282.08	23.932
282.45	22.297
282.82	22.241
283.19	23.688
283.56	23.636
283.92	22.313
284.29	23.295
284.66	23.866
285.03	22.554
285.40	22.314
285.77	21.451
286.14	21.981
286.51	23.006
286.87	21.044
287.24	20.420
287.61	21.733
287.98	22.537
288.35	21.333
288.72	21.548
289.08	22.222
289.45	21.341
289.82	24.219
290.19	20.937
290.56	23.581
290.93	22.590
291.29	21.547
291.66	20.621
292.03	21.178
292.40	20.732
292.77	22.006
293.13	20.685
293.50	21.188
293.87	19.648
294.24	20.979
294.60	21.938
294.97	22.378
295.34	21.912
295.71	21.025
296.08	22.400
296.44	22.363
296.81	19.355
297.18	21.166
297.55	22.167
297.91	18.966
298.28	21.981
298.65	21.472
299.02	20.627
299.38	22.302
299.75	20.488
300.12	21.674
300.48	21.194
300.85	21.931
301.22	20.930
301.59	21.226
301.95	19.603
302.32	21.420
302.69	21.833
303.05	22.671
303.42	20.628
303.79	21.235
304.15	22.112
304.52	21.036
304.89	21.642
305.25	22.581
305.62	21.535
305.99	21.522
306.35	22.105
306.72	23.101
307.09	22.671
307.45	22.386
307.82	22.119
308.19	22.680
308.55	22.800
308.92	22.080
309.29	24.655
309.65	23.984
310.02	24.341
310.38	22.134
310.75	23.915
311.12	23.467
311.48	24.903
311.85	23.473
312.22	23.018
312.58	23.518
312.95	23.689
313.31	23.876
313.68	24.953
314.05	26.190
314.41	24.860
314.78	23.580
315.14	25.687
315.51	25.260
315.87	25.912
316.24	26.050
316.61	25.873
316.97	24.220
317.34	26.235
317.70	26.514
318.07	27.936
318.43	27.153
318.80	25.657
319.16	27.622
319.53	26.903
319.89	27.778
320.26	29.050
320.62	28.938
320.99	28.408
321.35	29.035
321.72	29.507
322.08	29.363
322.45	29.155
322.81	29.918
323.18	30.107
323.54	31.272
323.91	31.460
324.27	33.245
324.64	31.401
325.00	33.017
325.37	32.378
325.73	33.980
326.10	34.134
326.46	33.443
326.83	33.120
327.19	33.976
327.56	34.026
327.92	35.000
328.29	34.779
328.65	35.616
329.01	35.500
329.38	35.448
329.74	34.330
330.11	35.013
330.47	35.635
330.84	35.375
331.20	34.856
331.56	36.183
331.93	34.474
332.29	35.459
332.66	35.034
333.02	35.223
333.38	36.038
333.75	36.280
334.11	36.158
334.48	35.812
334.84	34.966
335.20	35.158
335.57	35.181
335.93	35.324
336.29	35.987
336.66	37.136
337.02	34.816
337.38	34.910
337.75	35.473
338.11	35.443
338.47	35.394
338.84	35.394
339.20	35.584
339.56	36.333
339.93	35.619
340.29	33.109
340.65	35.457
341.02	36.605
341.38	34.729
341.74	35.299
342.11	34.474
342.47	35.603
342.83	35.931
343.20	35.004
343.56	34.234
343.92	35.343
344.28	36.124
344.65	35.941
345.01	34.524
345.37	34.696
345.73	34.603
346.10	35.777
346.46	35.247
346.82	33.333
347.19	36.940
347.55	34.114
347.91	34.215
348.27	35.089
348.63	34.731
349.00	34.577
349.36	35.720
349.72	35.245
350.08	34.938
350.45	36.329
350.81	35.015
351.17	33.436
351.53	35.720
351.89	35.975
352.26	35.147
352.62	34.992
352.98	34.509
353.34	35.208
353.70	35.321
354.07	36.462
354.43	35.484
354.79	34.169
355.15	34.992
355.51	33.988
355.87	35.316
356.24	35.181
356.60	34.627
356.96	35.557
357.32	33.459
357.68	35.242
358.04	36.018
358.40	35.982
358.77	35.687
359.13	34.159
359.49	35.730
359.85	35.666
360.21	34.101
360.57	34.818
360.93	35.426
361.29	35.931
361.66	35.347
362.02	34.801
362.38	36.508
362.74	35.173
363.10	35.624
363.46	34.599
363.82	36.325
364.18	36.344
364.54	36.695
364.90	35.944
365.26	36.502
365.62	35.635
365.98	34.618
366.35	35.310
366.71	36.988
367.07	35.495
367.43	35.863
367.79	35.572
368.15	35.414
368.51	36.182
368.87	34.171
369.23	36.244
369.59	35.536
369.95	36.154
370.31	34.702
370.67	35.739
371.03	36.625
371.39	35.873
371.75	36.078
372.11	35.622
372.47	35.890
372.83	36.438
373.19	36.326
373.55	35.258
373.91	35.566
374.27	36.706
374.63	35.661
374.99	35.445
375.35	34.812
375.71	35.554
376.07	35.809
376.42	35.358
376.78	37.829
377.14	36.042
377.50	35.268
377.86	36.131
378.22	36.258
378.58	36.259
378.94	36.270
379.30	34.870
379.66	36.424
380.02	36.774
380.38	35.187
380.74	35.121
381.09	35.631
381.45	34.740
381.81	35.816
382.17	34.982
382.53	35.513
382.89	35.955
383.25	35.820
383.61	35.331
383.97	34.793
384.32	35.805
384.68	36.126
385.04	35.580
385.40	36.121
385.76	35.108
386.12	36.673
386.48	34.772
386.83	35.819
387.19	35.689
387.55	34.629
387.91	35.739
388.27	35.574
388.62	34.800
388.98	35.160
389.34	35.336
389.70	34.729
390.06	35.732
390.42	35.163
390.77	35.319
391.13	34.581
391.49	33.696
391.85	36.185
392.20	34.684
392.56	34.827
392.92	33.745
393.28	33.688
393.64	34.289
393.99	34.618
394.35	34.903
394.71	33.052
395.07	33.455
395.42	33.958
395.78	34.176
396.14	33.795
396.50	34.597
396.85	32.683
397.21	33.454
397.57	34.011
397.92	32.062
398.28	32.543
398.64	33.217
399.00	32.870
399.35	32.797
399.71	32.450
400.07	32.534
400.42	32.299
400.78	32.903
401.14	33.118
401.49	32.834
401.85	32.966
402.21	32.045
402.57	32.974
402.92	33.152
403.28	32.578
403.63	32.372
403.99	32.027
404.35	32.708
404.70	32.369
405.06	31.668
405.42	31.718
405.77	31.422
406.13	31.508
406.49	31.495
406.84	31.585
407.20	32.363
407.55	31.077
407.91	31.525
408.27	32.201
408.62	31.520
408.98	31.520
409.34	30.275
409.69	30.616
410.05	31.067
410.40	30.860
410.76	30.395
411.11	31.754
411.47	30.926
411.83	30.346
412.18	32.005
412.54	29.850
412.89	29.853
413.25	31.414
413.60	31.659
413.96	30.042
414.31	30.992
414.67	31.719
415.03	30.651
415.38	31.167
415.74	31.143
416.09	31.855
416.45	32.321
416.80	31.559
417.16	30.299
417.51	32.102
417.87	31.602
418.22	31.045
418.58	33.312
418.93	30.934
419.29	30.807
419.64	32.647
420.00	32.399
420.35	32.520
420.71	32.439
421.06	30.959
421.42	32.297
421.77	32.982
422.12	32.359
422.48	31.947
422.83	32.254
423.19	32.505
423.54	32.200
423.90	33.069
424.25	32.526
424.61	33.836
424.96	32.693
425.31	33.388
425.67	34.400
426.02	33.763
426.38	32.905
426.73	34.529
427.09	35.291
427.44	34.271
427.79	34.248
428.15	34.944
428.50	35.200
428.85	34.509
429.21	35.386
429.56	33.948
429.92	34.659
430.27	34.930
430.62	33.872
430.98	33.583
431.33	34.476
431.68	33.778
432.04	34.972
432.39	34.962
432.74	36.651
433.10	35.825
433.45	36.071
433.80	36.624
434.16	35.943
434.51	36.223
434.86	37.017
435.22	36.683
435.57	36.455
435.92	36.938
436.28	36.982
436.63	37.601
436.98	37.275
437.34	36.815
437.69	35.610
438.04	37.419
438.39	37.361
438.75	38.196
439.10	36.913
439.45	36.518
439.81	37.941
440.16	37.314
440.51	36.486
440.86	38.803
441.22	37.229
441.57	37.743
441.92	37.759
442.27	37.732
442.63	37.500
442.98	37.662
443.33	38.457
443.68	37.827
444.03	37.559
444.39	37.994
444.74	36.957
445.09	38.757
445.44	39.001
445.79	36.793
446.15	38.105
446.50	38.344
446.85	38.446
447.20	36.816
447.55	37.792
447.91	38.625
448.26	38.285
448.61	39.580
448.96	39.379
449.31	38.944
449.66	39.535
450.02	37.871
450.37	39.645
450.72	39.063
451.07	39.732
451.42	38.767
451.77	39.462
452.12	38.117
452.47	39.611
452.83	39.099
453.18	38.859
453.53	39.432
453.88	39.714
454.23	39.570
454.58	39.161
454.93	37.707
455.28	39.106
455.63	39.657
455.98	39.538
456.34	40.000
456.69	38.415
457.04	39.737
457.39	40.743
457.74	40.935
458.09	38.911
458.44	40.033
458.79	39.947
459.14	39.553
459.49	39.241
459.84	40.380
460.19	38.701
460.54	40.057
460.89	39.606
461.24	39.290
461.59	39.853
461.94	39.421
462.29	39.245
462.64	40.075
462.99	38.900
463.34	39.598
463.69	39.927
464.04	39.666
464.39	39.954
464.74	39.742
465.09	39.350
465.44	39.391
465.79	39.249
466.14	38.951
466.49	39.447
466.84	39.130
467.19	39.660
467.54	39.159
467.89	39.730
468.24	39.780
468.59	39.524
468.94	40.338
469.29	40.318
469.64	41.029
469.99	40.938
470.34	40.101
470.68	41.172
471.03	41.294
471.38	40.530
471.73	40.431
472.08	41.813
472.43	40.596
472.78	39.693
473.13	39.487
473.48	40.342
473.83	41.166
474.17	41.520
474.52	41.173
474.87	38.658
475.22	39.235
475.57	40.399
475.92	39.499
476.27	39.282
476.61	39.625
476.96	38.924
477.31	40.463
477.66	41.600
478.01	40.743
478.36	39.238
478.70	39.107
479.05	40.010
479.40	39.732
479.75	40.318
480.10	39.690
480.45	39.683
480.79	39.217
481.14	38.659
481.49	38.381
481.84	38.962
482.19	38.821
482.53	38.955
482.88	38.934
483.23	39.287
483.58	38.734
483.92	40.219
484.27	38.527
484.62	39.686
484.97	37.826
485.31	37.042
485.66	35.556
486.01	34.412
486.36	34.271
486.70	34.029
487.05	34.904
487.40	35.636
487.75	36.203
488.09	36.307
488.44	37.030
488.79	37.001
489.13	38.447
489.48	38.154
489.83	38.282
490.17	37.614
490.52	38.889
490.87	38.233
491.22	39.539
491.56	39.087
491.91	38.665
492.26	38.708
492.60	39.089
492.95	39.058
493.30	38.854
493.64	39.443
493.99	39.714
494.34	38.861
494.68	39.354
495.03	39.380
495.37	39.487
495.72	39.114
496.07	39.757
496.41	39.010
496.76	37.991
497.11	39.246
497.45	38.799
497.80	39.666
498.14	39.760
498.49	38.765
498.84	40.748
499.18	38.208
499.53	39.366
499.87	39.084
500.22	38.692
500.56	39.136
500.91	39.193
501.26	40.055
501.60	38.115
501.95	37.858
502.29	38.711
502.64	37.803
502.98	38.506
503.33	38.174
503.67	38.587
504.02	39.051
504.36	37.828
504.71	39.830
505.06	38.573
505.40	38.699
505.75	39.289
506.09	39.431
506.44	39.004
506.78	39.178
507.13	38.924
507.47	39.544
507.82	39.124
508.16	39.882
508.51	38.889
508.85	38.841
509.19	39.256
509.54	39.551
509.88	40.229
510.23	38.824
510.57	38.803
510.92	39.610
511.26	39.659
511.61	39.291
511.95	39.771
512.30	39.250
512.64	39.668
512.98	40.492
513.33	39.703
513.67	39.461
514.02	40.156
514.36	39.616
514.70	40.533
515.05	39.318
515.39	40.406
515.74	40.405
516.08	40.142
516.42	41.421
516.77	39.893
517.11	40.107
517.46	39.386
517.80	39.650
518.14	39.887
518.49	40.187
518.83	39.780
519.17	39.490
519.52	40.634
519.86	39.455
520.20	39.507
520.55	41.097
520.89	39.885
521.23	41.355
521.58	40.562
521.92	39.942
522.26	40.225
522.61	41.176
522.95	40.480
523.29	41.345
523.64	39.017
523.98	40.200
524.32	39.562
524.66	39.362
525.01	41.183
525.35	40.896
525.69	41.060
526.04	40.036
526.38	39.670
526.72	39.618
527.06	39.562
527.41	41.536
527.75	40.536
528.09	40.638
528.43	40.574
528.78	39.475
529.12	39.374
529.46	38.749
529.80	40.012
530.15	39.894
530.49	39.711
530.83	39.976
531.17	39.668
531.51	38.994
531.86	39.674
532.20	39.370
532.54	39.297
532.88	39.538
533.22	40.158
533.57	38.804
533.91	38.520
534.25	37.853
534.59	37.719
534.93	37.884
535.27	38.247
535.62	37.631
535.96	38.239
536.30	39.488
536.64	38.944
536.98	38.263
537.32	38.312
537.66	38.584
538.01	38.019
538.35	38.241
538.69	38.896
539.03	37.873
539.37	37.500
539.71	38.086
540.05	37.662
540.39	39.748
540.73	38.481
541.07	37.077
541.42	37.811
541.76	38.163
542.10	37.670
542.44	38.653
542.78	37.760
543.12	37.055
543.46	36.967
543.80	37.406
544.14	38.452
544.48	37.713
544.82	38.593
545.16	37.098
545.50	37.615
545.84	38.384
546.18	38.036
546.52	38.885
546.86	38.233
547.20	37.468
547.54	37.555
547.88	36.922
548.22	37.523
548.56	36.771
548.90	37.485
549.24	37.903
549.58	36.405
549.92	38.310
550.26	38.607
550.60	37.858
550.94	37.788
551.28	39.517
551.62	38.483
551.96	36.959
552.30	36.915
552.64	38.317
552.98	37.371
553.32	37.004
553.66	38.046
554.00	37.838
554.34	38.149
554.68	38.105
555.02	37.814
555.36	36.636
555.69	38.089
556.03	37.325
556.37	38.113
556.71	37.875
557.05	36.632
557.39	38.467
557.73	39.286
558.07	38.364
558.41	38.794
558.75	39.945
559.08	39.600
559.42	39.943
559.76	39.273
560.10	38.334
560.44	36.364
560.78	37.660
561.12	36.745
561.45	36.921
561.79	37.079
562.13	37.145
562.47	36.275
562.81	37.606
563.15	36.975
563.48	35.776
563.82	37.617
564.16	37.251
564.50	36.829
564.84	36.900
565.17	35.888
565.51	37.438
565.85	37.076
566.19	36.488
566.52	36.462
566.86	36.894
567.20	35.618
567.54	34.934
567.88	34.794
568.21	32.951
568.55	33.512
568.89	34.078
569.23	33.348
569.56	32.588
569.90	31.908
570.24	31.448
570.57	31.246
570.91	30.608
571.25	30.694
571.59	29.470
571.92	29.709
572.26	29.111
572.60	29.020
572.93	29.298
573.27	29.868
573.61	28.803
573.95	29.482
574.28	29.302
574.62	28.691
574.96	27.961
575.29	27.983
575.63	27.892
575.97	28.165
576.30	28.246
576.64	28.436
576.98	28.349
577.31	28.600
577.65	28.176
577.98	27.535
578.32	27.070
578.66	27.916
578.99	27.900
579.33	27.582
579.67	27.764
580.00	28.021
580.34	27.939
580.67	27.830
581.01	28.374
581.35	27.529
581.68	27.161
582.02	27.176
582.35	27.154
582.69	27.964
583.02	27.696
583.36	28.095
583.70	28.384
584.03	29.132
584.37	28.269
584.70	29.037
585.04	28.218
585.37	27.683
585.71	28.202
586.04	28.148
586.38	28.298
586.72	29.112
587.05	28.821
587.39	28.774
587.72	28.251
588.06	28.557
588.39	28.762
588.73	28.657
589.06	29.151
589.40	30.172
589.73	29.662
590.07	30.954
590.40	30.244
590.73	31.913
591.07	31.613
591.40	31.257
591.74	30.885
592.07	30.657
592.41	31.335
592.74	30.685
593.08	29.850
593.41	28.965
593.75	28.902
594.08	29.781
594.41	29.358
594.75	29.897
595.08	30.213
595.42	30.053
595.75	29.681
596.09	30.796
596.42	29.971
596.75	31.691
597.09	30.458
597.42	31.224
597.75	31.034
598.09	30.981
598.42	30.967
598.76	30.108
599.09	30.305
599.42	29.481
599.76	29.851
600.09	29.322
600.42	29.834
600.76	29.470
601.09	29.375
601.42	29.708
601.76	30.039
602.09	30.464
602.42	30.018
602.76	30.019
603.09	30.543
603.42	30.569
603.76	30.116
604.09	29.859
604.42	29.454
604.76	29.554
605.09	31.102
605.42	30.394
605.75	30.043
606.09	30.834
606.42	29.350
606.75	30.043
607.09	29.530
607.42	30.173
607.75	30.016
608.08	29.935
608.42	29.992
608.75	30.295
609.08	30.136
609.41	31.182
609.75	30.952
610.08	31.430
610.41	30.567
610.74	30.736
611.07	31.241
611.41	31.603
611.74	31.836
612.07	31.455
612.40	31.481
612.73	31.702
613.07	31.880
613.40	31.930
613.73	32.102
614.06	30.900
614.39	31.970
614.72	31.341
615.06	31.553
615.39	30.396
615.72	31.075
616.05	30.989
616.38	30.898
616.71	32.013
617.05	32.125
617.38	32.079
617.71	32.283
618.04	32.642
618.37	30.795
618.70	32.333
619.03	33.272
619.36	32.789
619.69	32.652
620.03	33.920
620.36	33.654
620.69	33.780
621.02	34.375
621.35	33.166
621.68	35.546
622.01	34.686
622.34	34.377
622.67	34.410
623.00	33.628
623.33	34.143
623.66	33.067
623.99	35.205
624.32	33.740
624.65	33.706
624.99	34.348
625.32	33.534
625.65	33.034
625.98	34.031
626.31	35.089
626.64	32.954
626.97	34.353
627.30	35.093
627.63	35.479
627.96	34.585
628.29	36.716
628.62	35.158
628.95	36.613
629.28	37.423
629.61	35.677
629.94	36.646
630.26	36.049
630.59	37.855
630.92	36.323
631.25	37.353
