SpectraSuite Data File
++++++++++++++++++++++++++++++++++++
Date: Tue May 12 17:20:01 PDT 2015
User: schluterlab
Dark Spectrum Present: Yes
Reference Spectrum Present: Yes
Number of Sampled Component Spectra: 1
Spectrometers: USB2E3373
Integration Time (usec): 3000 (USB2E3373)
Spectra Averaged: 3 (USB2E3373)
Boxcar Smoothing: 0 (USB2E3373)
Correct for Electrical Dark: No (USB2E3373)
Strobe/Lamp Enabled: No (USB2E3373)
Correct for Detector Non-linearity: No (USB2E3373)
Correct for Stray Light: No (USB2E3373)
Number of Pixels in Processed Spectrum: 2048
>>>>>Begin Processed Spectral Data<<<<<
178.53	0.000
178.91	-225.000
179.29	-850.000
179.67	-3500.000
180.04	-126.667
180.42	750.000
180.80	1400.000
181.18	0.000
181.56	-150.000
181.94	0.000
182.31	1433.333
182.69	-2500.000
183.07	600.000
183.45	-3400.000
183.83	-1450.000
184.20	410.000
184.58	428.571
184.96	-169.231
185.34	-158.333
185.72	1350.000
186.09	-775.000
186.47	-3400.000
186.85	733.333
187.23	640.000
187.61	1950.000
187.98	500.000
188.36	300.000
188.74	283.333
189.12	366.667
189.49	725.000
189.87	0.000
190.25	500.000
190.63	2500.000
191.00	-208.333
191.38	-3600.000
191.76	-650.000
192.14	612.500
192.51	-2800.000
192.89	1700.000
193.27	1300.000
193.65	-800.000
194.02	-700.000
194.40	557.143
194.78	-178.571
195.15	286.667
195.53	-2700.000
195.91	-680.000
196.29	3900.000
196.66	268.750
197.04	825.000
197.42	-1350.000
197.79	600.000
198.17	350.000
198.55	0.000
198.92	542.857
199.30	1233.333
199.68	1750.000
200.05	600.000
200.43	-366.667
200.81	244.444
201.18	2800.000
201.56	250.000
201.94	-525.000
202.31	-337.500
202.69	-360.000
203.07	3000.000
203.44	-416.667
203.82	283.333
204.19	680.000
204.57	-1100.000
204.95	-1000.000
205.32	-720.000
205.70	400.000
206.08	900.000
206.45	-833.333
206.83	422.222
207.20	236.842
207.58	316.667
207.96	620.000
208.33	0.000
208.71	600.000
209.08	560.000
209.46	-2500.000
209.84	-900.000
210.21	780.000
210.59	-520.000
210.96	291.667
211.34	-725.000
211.71	454.545
212.09	850.000
212.46	1450.000
212.84	-483.333
213.22	411.111
213.59	-2500.000
213.97	350.000
214.34	875.000
214.72	1166.667
215.09	766.667
215.47	-3300.000
215.84	-280.000
216.22	-412.500
216.59	0.000
216.97	0.000
217.34	1100.000
217.72	-1300.000
218.09	1066.667
218.47	337.500
218.84	900.000
219.22	1100.000
219.59	1100.000
219.97	414.286
220.34	422.222
220.72	1600.000
221.09	3900.000
221.47	341.667
221.84	833.333
222.22	330.000
222.59	238.889
222.97	257.143
223.34	143.750
223.72	-1700.000
224.09	1200.000
224.46	300.000
224.84	-575.000
225.21	222.222
225.59	320.000
225.96	1066.667
226.34	-600.000
226.71	-600.000
227.08	-420.000
227.46	0.000
227.83	-600.000
228.21	-1300.000
228.58	333.333
228.95	925.000
229.33	355.556
229.70	925.000
230.08	330.769
230.45	2700.000
230.82	-975.000
231.20	-933.333
231.57	-1000.000
231.95	660.000
232.32	283.333
232.69	550.000
233.07	241.667
233.44	-1450.000
233.81	226.667
234.19	137.037
234.56	212.500
234.93	200.000
235.31	185.000
235.68	243.750
236.05	150.000
236.43	111.111
236.80	192.857
237.17	158.621
237.55	100.000
237.92	87.500
238.29	93.939
238.67	118.750
239.04	80.488
239.41	66.667
239.79	62.500
240.16	75.000
240.53	52.459
240.91	66.667
241.28	55.932
241.65	42.424
242.02	53.521
242.40	42.857
242.77	28.571
243.14	31.646
243.51	38.384
243.89	33.645
244.26	21.495
244.63	36.634
245.00	32.110
245.38	22.034
245.75	23.485
246.12	31.852
246.49	24.113
246.87	18.852
247.24	28.000
247.61	28.750
247.98	26.531
248.36	16.364
248.73	22.959
249.10	19.048
249.47	16.000
249.84	17.910
250.22	15.135
250.59	15.500
250.96	16.878
251.33	12.558
251.70	17.411
252.08	18.487
252.45	11.952
252.82	14.068
253.19	13.043
253.56	11.923
253.94	14.855
254.31	15.504
254.68	16.028
255.05	13.793
255.42	12.044
255.79	15.635
256.16	13.220
256.54	16.234
256.91	9.477
257.28	9.030
257.65	9.404
258.02	9.735
258.39	13.181
258.76	10.145
259.14	8.000
259.51	11.953
259.88	10.638
260.25	8.242
260.62	11.781
260.99	7.989
261.36	10.864
261.73	11.436
262.10	9.948
262.47	8.500
262.85	7.200
263.22	12.596
263.59	10.742
263.96	9.023
264.33	8.889
264.70	9.582
265.07	10.732
265.44	10.321
265.81	8.255
266.18	8.696
266.55	7.329
266.92	8.054
267.29	10.307
267.66	10.762
268.03	9.417
268.40	10.359
268.77	11.233
269.14	7.375
269.51	6.459
269.88	10.204
270.25	6.911
270.62	6.009
270.99	11.359
271.36	7.927
271.73	6.709
272.10	7.475
272.47	5.556
272.84	6.387
273.21	5.785
273.58	8.907
273.95	5.544
274.32	9.533
274.69	9.843
275.06	8.015
275.43	8.812
275.80	7.736
276.17	8.272
276.54	8.224
276.91	6.903
277.28	6.204
277.65	8.303
278.02	7.904
278.39	7.194
278.76	8.966
279.13	6.584
279.50	6.545
279.87	5.214
280.23	6.814
280.60	6.022
280.97	5.690
281.34	7.096
281.71	5.913
282.08	7.179
282.45	6.081
282.82	7.525
283.19	8.108
283.56	6.777
283.92	5.212
284.29	5.657
284.66	4.706
285.03	7.131
285.40	6.612
285.77	4.475
286.14	6.811
286.51	6.288
286.87	4.905
287.24	4.805
287.61	6.383
287.98	6.269
288.35	6.519
288.72	4.097
289.08	6.456
289.45	7.012
289.82	6.094
290.19	6.149
290.56	6.696
290.93	6.331
291.29	6.354
291.66	5.650
292.03	5.610
292.40	7.046
292.77	5.850
293.13	6.990
293.50	5.533
293.87	3.930
294.24	5.734
294.60	5.653
294.97	5.175
295.34	6.109
295.71	5.782
296.08	6.400
296.44	6.607
296.81	3.970
297.18	4.309
297.55	5.049
297.91	3.818
298.28	6.884
298.65	4.785
299.02	4.946
299.38	5.276
299.75	5.000
300.12	5.963
300.48	5.738
300.85	5.602
301.22	4.884
301.59	5.071
301.95	4.784
302.32	5.704
302.69	5.090
303.05	6.061
303.42	5.045
303.79	6.067
304.15	5.391
304.52	5.391
304.89	5.117
305.25	6.674
305.62	5.437
305.99	4.239
306.35	4.842
306.72	5.619
307.09	4.658
307.45	5.597
307.82	3.601
308.19	5.464
308.55	4.600
308.92	5.103
309.29	5.621
309.65	4.856
310.02	4.361
310.38	4.187
310.75	4.629
311.12	4.789
311.48	4.730
311.85	5.630
312.22	5.349
312.58	3.596
312.95	4.854
313.31	5.431
313.68	3.846
314.05	6.777
314.41	4.842
314.78	4.640
315.14	5.024
315.51	5.960
315.87	6.022
316.24	5.509
316.61	4.476
316.97	4.037
317.34	5.571
317.70	5.795
318.07	6.673
318.43	5.624
318.80	4.904
319.16	4.720
319.53	4.690
319.89	4.480
320.26	6.983
320.62	5.861
320.99	5.529
321.35	6.030
321.72	6.357
322.08	4.801
322.45	5.904
322.81	5.032
323.18	6.306
323.54	6.272
323.91	6.074
324.27	5.924
324.64	4.498
325.00	6.121
325.37	6.071
325.73	5.565
326.10	6.545
326.46	5.780
326.83	5.760
327.19	5.863
327.56	5.671
327.92	5.738
328.29	7.119
328.65	6.678
329.01	5.731
329.38	5.922
329.74	4.953
330.11	6.516
330.47	6.735
330.84	6.557
331.20	6.007
331.56	6.736
331.93	7.357
332.29	5.697
332.66	6.207
333.02	6.186
333.38	5.236
333.75	6.505
334.11	6.040
334.48	6.154
334.84	6.926
335.20	6.330
335.57	6.213
335.93	5.719
336.29	6.136
336.66	6.604
337.02	4.962
337.38	5.761
337.75	6.419
338.11	6.329
338.47	5.843
338.84	6.012
339.20	5.714
339.56	6.476
339.93	5.853
340.29	5.210
340.65	7.041
341.02	6.275
341.38	6.568
341.74	6.561
342.11	5.175
342.47	5.660
342.83	6.481
343.20	6.306
343.56	4.925
343.92	5.863
344.28	6.539
344.65	5.134
345.01	5.714
345.37	4.728
345.73	5.397
346.10	5.817
346.46	6.300
346.82	4.707
347.19	7.264
347.55	4.606
347.91	6.269
348.27	5.035
348.63	5.617
349.00	6.321
349.36	5.370
349.72	5.046
350.08	5.590
350.45	5.788
350.81	6.498
351.17	5.547
351.53	4.927
351.89	4.507
352.26	5.518
352.62	6.109
352.98	5.521
353.34	6.086
353.70	5.352
354.07	5.231
354.43	5.760
354.79	5.543
355.15	5.513
355.51	5.211
355.87	6.099
356.24	5.928
356.60	5.251
356.96	4.928
357.32	5.275
357.68	5.947
358.04	6.383
358.40	5.997
358.77	6.086
359.13	4.880
359.49	5.486
359.85	5.436
360.21	4.681
360.57	5.985
360.93	5.051
361.29	4.618
361.66	5.295
362.02	4.119
362.38	4.690
362.74	5.308
363.10	6.031
363.46	4.972
363.82	5.750
364.18	5.121
364.54	5.150
364.90	5.890
365.26	5.552
365.62	4.351
365.98	4.818
366.35	4.207
366.71	5.413
367.07	5.051
367.43	4.835
367.79	5.452
368.15	4.274
368.51	4.686
368.87	4.484
369.23	4.851
369.59	5.529
369.95	5.594
370.31	4.449
370.67	5.344
371.03	5.742
371.39	4.709
371.75	4.745
372.11	5.438
372.47	5.411
372.83	4.691
373.19	5.552
373.55	5.223
373.91	4.351
374.27	5.159
374.63	5.153
374.99	5.054
375.35	4.570
375.71	4.815
376.07	5.040
376.42	4.156
376.78	4.496
377.14	4.587
377.50	4.806
377.86	4.741
378.22	4.692
378.58	4.903
378.94	4.888
379.30	4.366
379.66	4.696
380.02	4.692
380.38	4.157
380.74	5.536
381.09	4.965
381.45	5.260
381.81	4.255
382.17	4.090
382.53	4.139
382.89	4.199
383.25	4.618
383.61	4.784
383.97	4.019
384.32	4.099
384.68	5.585
385.04	4.396
385.40	4.448
385.76	4.798
386.12	5.380
386.48	4.012
386.83	4.401
387.19	5.300
387.55	4.653
387.91	5.023
388.27	4.462
388.62	5.340
388.98	4.723
389.34	4.819
389.70	4.068
390.06	4.573
390.42	3.886
390.77	5.283
391.13	3.983
391.49	4.719
391.85	4.800
392.20	4.887
392.56	4.958
392.92	4.885
393.28	4.484
393.64	3.784
393.99	4.683
394.35	4.414
394.71	4.162
395.07	5.779
395.42	5.035
395.78	4.627
396.14	5.060
396.50	4.693
396.85	4.756
397.21	4.272
397.57	4.184
397.92	4.506
398.28	4.082
398.64	5.061
399.00	4.490
399.35	4.133
399.71	4.360
400.07	4.338
400.42	4.657
400.78	4.575
401.14	4.698
401.49	4.378
401.85	5.041
402.21	4.277
402.57	4.548
402.92	4.242
403.28	3.819
403.63	4.826
403.99	4.644
404.35	4.807
404.70	4.784
405.06	3.930
405.42	4.189
405.77	4.355
406.13	5.098
406.49	3.866
406.84	4.005
407.20	4.737
407.55	4.308
407.91	5.233
408.27	4.791
408.62	4.790
408.98	4.613
409.34	4.150
409.69	4.231
410.05	4.472
410.40	3.887
410.76	3.663
411.11	3.791
411.47	4.506
411.83	4.452
412.18	4.529
412.54	4.625
412.89	3.717
413.25	4.561
413.60	4.206
413.96	4.309
414.31	4.132
414.67	4.842
415.03	3.895
415.38	4.101
415.74	4.738
416.09	4.497
416.45	4.977
416.80	4.682
417.16	5.283
417.51	4.268
417.87	4.380
418.22	4.010
418.58	4.713
418.93	4.819
419.29	4.005
419.64	5.088
420.00	5.191
420.35	4.181
420.71	3.676
421.06	3.885
421.42	4.721
421.77	3.887
422.12	4.520
422.48	4.366
422.83	4.185
423.19	4.320
423.54	4.663
423.90	3.737
424.25	3.908
424.61	4.353
424.96	2.993
425.31	3.612
425.67	4.153
426.02	3.982
426.38	3.442
426.73	4.222
427.09	4.152
427.44	3.545
427.79	3.831
428.15	4.655
428.50	5.143
428.85	4.409
429.21	4.214
429.56	4.337
429.92	4.426
430.27	4.596
430.62	3.377
430.98	3.693
431.33	3.377
431.68	3.506
432.04	3.880
432.39	4.336
432.74	4.801
433.10	3.765
433.45	4.365
433.80	5.074
434.16	3.731
434.51	3.973
434.86	4.464
435.22	3.566
435.57	3.438
435.92	4.155
436.28	4.378
436.63	4.214
436.98	4.448
437.34	4.680
437.69	3.247
438.04	4.194
438.39	4.904
438.75	4.399
439.10	4.155
439.45	4.127
439.81	4.222
440.16	3.687
440.51	3.660
440.86	4.501
441.22	3.896
441.57	4.094
441.92	4.146
442.27	3.402
442.63	3.557
442.98	3.933
443.33	3.856
443.68	3.672
444.03	3.911
444.39	3.814
444.74	4.089
445.09	3.476
445.44	3.932
445.79	3.460
446.15	4.053
446.50	3.217
446.85	4.133
447.20	3.582
447.55	3.589
447.91	4.848
448.26	4.207
448.61	4.699
448.96	4.031
449.31	4.565
449.66	4.153
450.02	3.566
450.37	4.609
450.72	4.408
451.07	4.479
451.42	4.209
451.77	4.296
452.12	4.141
452.47	3.888
452.83	4.394
453.18	4.565
453.53	4.737
453.88	5.200
454.23	4.590
454.58	4.487
454.93	4.905
455.28	4.406
455.63	3.723
455.98	3.440
456.34	4.195
456.69	3.841
457.04	3.819
457.39	4.171
457.74	5.011
458.09	3.593
458.44	4.436
458.79	3.926
459.14	3.710
459.49	4.190
459.84	4.402
460.19	3.616
460.54	4.444
460.89	3.838
461.24	4.639
461.59	4.422
461.94	4.314
462.29	4.691
462.64	4.209
462.99	4.479
463.34	4.407
463.69	4.053
464.04	4.375
464.39	4.064
464.74	3.927
465.09	4.469
465.44	4.244
465.79	3.811
466.14	3.710
466.49	4.449
466.84	3.846
467.19	5.038
467.54	4.084
467.89	3.991
468.24	3.590
468.59	3.988
468.94	4.589
469.29	4.765
469.64	4.759
469.99	4.563
470.34	4.048
470.68	4.552
471.03	4.203
471.38	4.172
471.73	4.180
472.08	4.175
472.43	4.283
472.78	5.698
473.13	3.630
473.48	3.912
473.83	4.299
474.17	4.802
474.52	4.206
474.87	3.866
475.22	3.826
475.57	4.092
475.92	3.628
476.27	3.428
476.61	3.753
476.96	3.918
477.31	4.473
477.66	4.455
478.01	3.920
478.36	3.965
478.70	4.020
479.05	3.243
479.40	3.770
479.75	4.220
480.10	3.921
480.45	3.408
480.79	3.963
481.14	3.138
481.49	3.660
481.84	4.002
482.19	3.799
482.53	3.338
482.88	3.987
483.23	3.022
483.58	3.770
483.92	4.616
484.27	3.596
484.62	3.735
484.97	4.090
485.31	3.209
485.66	3.005
486.01	2.846
486.36	2.610
486.70	2.614
487.05	2.721
487.40	2.944
487.75	3.086
488.09	3.295
488.44	3.091
488.79	3.159
489.13	3.434
489.48	3.676
489.83	3.211
490.17	3.551
490.52	3.704
490.87	3.966
491.22	4.078
491.56	4.216
491.91	3.450
492.26	4.009
492.60	4.009
492.95	3.987
493.30	4.140
493.64	3.369
493.99	3.801
494.34	3.272
494.68	3.409
495.03	4.266
495.37	4.593
495.72	3.869
496.07	4.178
496.41	4.170
496.76	3.799
497.11	3.899
497.45	3.946
497.80	3.614
498.14	4.115
498.49	4.132
498.84	4.346
499.18	3.473
499.53	3.859
499.87	3.819
500.22	3.455
500.56	2.971
500.91	4.128
501.26	4.456
501.60	3.780
501.95	3.674
502.29	3.911
502.64	3.749
502.98	3.201
503.33	3.519
503.67	3.664
504.02	3.627
504.36	3.801
504.71	4.305
505.06	3.519
505.40	3.463
505.75	3.601
506.09	4.480
506.44	4.041
506.78	3.970
507.13	3.829
507.47	4.124
507.82	3.893
508.16	4.263
508.51	3.768
508.85	3.846
509.19	3.769
509.54	4.492
509.88	4.426
510.23	4.265
510.57	4.199
510.92	4.146
511.26	4.016
511.61	3.890
511.95	4.281
512.30	4.650
512.64	3.738
512.98	4.049
513.33	4.508
513.67	4.764
514.02	3.481
514.36	3.894
514.70	3.680
515.05	3.463
515.39	4.167
515.74	4.374
516.08	5.011
516.42	4.809
516.77	4.053
517.11	4.053
517.46	4.364
517.80	4.315
518.14	4.676
518.49	3.914
518.83	3.352
519.17	4.603
519.52	4.697
519.86	3.869
520.20	4.603
520.55	4.240
520.89	3.851
521.23	4.030
521.58	4.475
521.92	4.140
522.26	4.325
522.61	4.456
522.95	5.045
523.29	4.503
523.64	4.566
523.98	4.871
524.32	4.268
524.66	4.290
525.01	3.787
525.35	4.243
525.69	4.696
526.04	4.759
526.38	4.473
526.72	3.878
527.06	4.908
527.41	4.474
527.75	4.869
528.09	4.455
528.43	4.820
528.78	4.114
529.12	4.094
529.46	4.676
529.80	4.673
530.15	4.361
530.49	4.091
530.83	4.388
531.17	4.613
531.51	4.353
531.86	4.952
532.20	4.821
532.54	3.578
532.88	5.184
533.22	4.509
533.57	4.454
533.91	4.312
534.25	4.443
534.59	4.561
534.93	4.664
535.27	4.326
535.62	4.726
535.96	4.196
536.30	5.180
536.64	4.037
536.98	4.279
537.32	5.563
537.66	4.464
538.01	4.830
538.35	4.367
538.69	4.854
539.03	3.918
539.37	4.126
539.71	4.444
540.05	4.431
540.39	5.472
540.73	4.810
541.07	3.450
541.42	4.415
541.76	4.562
542.10	4.562
542.44	4.551
542.78	4.154
543.12	4.233
543.46	5.326
543.80	4.261
544.14	4.149
544.48	4.075
544.82	4.771
545.16	4.007
545.50	5.040
545.84	5.240
546.18	5.072
546.52	4.393
546.86	4.836
547.20	4.199
547.54	4.813
547.88	4.501
548.22	4.614
548.56	4.832
548.90	3.855
549.24	3.853
549.58	4.768
549.92	4.257
550.26	3.651
550.60	4.458
550.94	5.020
551.28	4.828
551.62	5.586
551.96	4.730
552.30	3.889
552.64	5.307
552.98	3.737
553.32	3.777
553.66	3.974
554.00	5.212
554.34	4.660
554.68	5.175
555.02	4.005
555.36	4.521
555.69	4.843
556.03	4.713
556.37	4.908
556.71	5.085
557.05	4.260
557.39	4.667
557.73	4.582
558.07	5.030
558.41	4.798
558.75	5.130
559.08	5.147
559.42	4.653
559.76	4.918
560.10	4.886
560.44	5.109
560.78	4.859
561.12	4.768
561.45	3.817
561.79	4.182
562.13	3.601
562.47	3.699
562.81	4.815
563.15	3.943
563.48	3.975
563.82	4.741
564.16	4.415
564.50	4.159
564.84	4.195
565.17	4.456
565.51	4.433
565.85	4.874
566.19	4.345
566.52	4.212
566.86	4.612
567.20	4.438
567.54	3.821
567.88	4.591
568.21	3.545
568.55	3.745
568.89	4.106
569.23	3.883
569.56	3.514
569.90	3.701
570.24	3.816
570.57	3.666
570.91	3.495
571.25	3.648
571.59	3.130
571.92	3.391
572.26	2.588
572.60	2.971
572.93	3.364
573.27	3.274
573.61	2.978
573.95	3.113
574.28	2.933
574.62	3.004
574.96	2.893
575.29	3.034
575.63	3.039
575.97	3.043
576.30	2.860
576.64	3.260
576.98	2.949
577.31	3.158
577.65	2.895
577.98	2.675
578.32	2.778
578.66	2.955
578.99	3.000
579.33	3.203
579.67	3.208
580.00	3.119
580.34	3.017
580.67	2.841
581.01	3.357
581.35	2.823
581.68	2.749
582.02	2.834
582.35	2.643
582.69	2.821
583.02	2.730
583.36	2.763
583.70	3.274
584.03	3.231
584.37	3.079
584.70	3.110
585.04	2.689
585.37	2.840
585.71	3.191
586.04	2.962
586.38	2.873
586.72	2.934
587.05	3.371
587.39	3.085
587.72	3.147
588.06	2.682
588.39	3.019
588.73	3.242
589.06	2.976
589.40	3.318
589.73	3.212
590.07	3.432
590.40	3.345
590.73	4.150
591.07	3.909
591.40	3.353
591.74	3.287
592.07	3.286
592.41	3.677
592.74	3.149
593.08	3.516
593.41	3.052
593.75	3.163
594.08	3.634
594.41	2.965
594.75	3.493
595.08	3.326
595.42	3.357
595.75	3.587
596.09	3.372
596.42	3.314
596.75	3.766
597.09	3.756
597.42	2.816
597.75	3.327
598.09	3.406
598.42	3.509
598.76	3.431
599.09	3.898
599.42	3.426
599.76	3.256
600.09	3.017
600.42	3.349
600.76	3.433
601.09	3.452
601.42	3.414
601.76	3.366
602.09	3.422
602.42	3.512
602.76	3.719
603.09	3.658
603.42	3.706
603.76	3.398
604.09	2.787
604.42	3.427
604.76	3.832
605.09	3.837
605.42	3.535
605.75	3.119
606.09	3.405
606.42	3.382
606.75	3.692
607.09	3.632
607.42	3.536
607.75	3.702
608.08	3.777
608.42	3.062
608.75	3.252
609.08	3.388
609.41	3.773
609.75	3.617
610.08	3.777
610.41	3.338
610.74	3.550
611.07	3.729
611.41	4.078
611.74	4.159
612.07	3.709
612.40	4.142
612.73	3.345
613.07	3.953
613.40	4.511
613.73	3.894
614.06	3.700
614.39	4.343
614.72	3.666
615.06	3.709
615.39	4.356
615.72	3.775
616.05	3.968
616.38	3.704
616.71	3.690
617.05	4.064
617.38	4.382
617.71	4.331
618.04	3.589
618.37	3.891
618.70	3.637
619.03	4.579
619.36	4.460
619.69	4.156
620.03	5.479
620.36	4.496
620.69	5.109
621.02	4.348
621.35	4.155
621.68	4.867
622.01	4.354
622.34	4.224
622.67	5.126
623.00	4.969
623.33	4.723
623.66	4.524
623.99	4.795
624.32	4.404
624.65	4.082
624.99	4.192
625.32	5.010
625.65	3.862
625.98	4.533
626.31	4.748
626.64	4.480
626.97	3.902
627.30	4.581
627.63	4.788
627.96	3.834
628.29	3.713
628.62	5.133
628.95	4.433
629.28	5.083
629.61	4.306
629.94	5.099
630.26	5.373
630.59	6.206
630.92	5.381
631.25	5.349
631.58	5.400
631.91	5.233
632.24	3.984
632.57	4.813
632.90	6.729
633.23	5.876
633.56	5.269
633.89	4.823
634.22	5.059
634.55	6.237
634.88	7.338
635.20	5.830
635.53	5.691
635.86	7.047
636.19	5.499
636.52	4.865
636.85	4.423
637.18	6.826
637.51	5.698
637.83	5.378
638.16	7.268
638.49	5.389
638.82	6.690
639.15	5.993
639.48	7.109
639.81	5.739
640.13	5.890
640.46	4.930
640.79	4.941
641.12	4.331
641.45	6.727
641.77	7.133
642.10	6.961
642.43	5.548
642.76	6.676
643.09	7.781
643.41	7.293
643.74	7.050
644.07	6.490
644.40	5.917
644.73	7.658
645.05	8.321
645.38	6.279
645.71	6.525
646.04	7.328
646.36	6.729
646.69	5.440
647.02	7.520
647.35	5.984
647.67	8.104
648.00	8.795
648.33	7.970
648.66	5.152
648.98	5.072
649.31	6.748
649.64	5.809
649.96	5.548
650.29	6.429
650.62	7.658
650.94	7.982
651.27	9.250
651.60	6.729
651.92	6.759
652.25	7.087
652.58	7.092
652.90	6.287
653.23	5.761
653.56	8.160
653.88	7.783
654.21	6.745
654.54	7.613
654.86	6.490
655.19	6.464
655.52	4.855
655.84	2.457
