SpectraSuite Data File
++++++++++++++++++++++++++++++++++++
Date: Tue May 12 17:15:32 PDT 2015
User: schluterlab
Dark Spectrum Present: Yes
Reference Spectrum Present: Yes
Number of Sampled Component Spectra: 1
Spectrometers: USB2E3373
Integration Time (usec): 3000 (USB2E3373)
Spectra Averaged: 3 (USB2E3373)
Boxcar Smoothing: 0 (USB2E3373)
Correct for Electrical Dark: No (USB2E3373)
Strobe/Lamp Enabled: No (USB2E3373)
Correct for Detector Non-linearity: No (USB2E3373)
Correct for Stray Light: No (USB2E3373)
Number of Pixels in Processed Spectrum: 2048
>>>>>Begin Processed Spectral Data<<<<<
178.53	0.000
178.91	-200.000
179.29	-650.000
179.67	-3800.000
180.04	-166.667
180.42	925.000
180.80	1150.000
181.18	0.000
181.56	-250.000
181.94	0.000
182.31	1233.333
182.69	-3300.000
183.07	528.571
183.45	-4200.000
183.83	-1350.000
184.20	350.000
184.58	457.143
184.96	-269.231
185.34	-250.000
185.72	1800.000
186.09	-625.000
186.47	-2600.000
186.85	1433.333
187.23	460.000
187.61	1700.000
187.98	512.500
188.36	321.429
188.74	383.333
189.12	366.667
189.49	725.000
189.87	0.000
190.25	612.500
190.63	3000.000
191.00	-158.333
191.38	-3300.000
191.76	-800.000
192.14	450.000
192.51	-2100.000
192.89	1400.000
193.27	1000.000
193.65	-966.667
194.02	-860.000
194.40	514.286
194.78	-171.429
195.15	240.000
195.53	-3100.000
195.91	-520.000
196.29	3800.000
196.66	256.250
197.04	1025.000
197.42	-1350.000
197.79	675.000
198.17	333.333
198.55	0.000
198.92	471.429
199.30	1333.333
199.68	2300.000
200.05	683.333
200.43	-433.333
200.81	194.444
201.18	2600.000
201.56	325.000
201.94	-725.000
202.31	-337.500
202.69	-560.000
203.07	2400.000
203.44	-383.333
203.82	316.667
204.19	560.000
204.57	-1400.000
204.95	-800.000
205.32	-620.000
205.70	400.000
206.08	675.000
206.45	-833.333
206.83	355.556
207.20	189.474
207.58	266.667
207.96	640.000
208.33	0.000
208.71	557.143
209.08	680.000
209.46	-3200.000
209.84	-650.000
210.21	760.000
210.59	-480.000
210.96	283.333
211.34	-950.000
211.71	309.091
212.09	950.000
212.46	1550.000
212.84	-466.667
213.22	455.556
213.59	-1500.000
213.97	340.000
214.34	825.000
214.72	1100.000
215.09	1066.667
215.47	-2600.000
215.84	-340.000
216.22	-362.500
216.59	0.000
216.97	0.000
217.34	1800.000
217.72	-1550.000
218.09	1266.667
218.47	425.000
218.84	725.000
219.22	1133.333
219.59	1166.667
219.97	642.857
220.34	466.667
220.72	1100.000
221.09	3300.000
221.47	358.333
221.84	1000.000
222.22	310.000
222.59	233.333
222.97	192.857
223.34	187.500
223.72	-1700.000
224.09	1100.000
224.46	307.692
224.84	-850.000
225.21	444.444
225.59	260.000
225.96	1166.667
226.34	-660.000
226.71	-700.000
227.08	-580.000
227.46	0.000
227.83	-516.667
228.21	-1800.000
228.58	400.000
228.95	825.000
229.33	400.000
229.70	900.000
230.08	284.615
230.45	3000.000
230.82	-875.000
231.20	-900.000
231.57	-1133.333
231.95	700.000
232.32	300.000
232.69	550.000
233.07	225.000
233.44	-1350.000
233.81	226.667
234.19	129.630
234.56	225.000
234.93	170.588
235.31	155.000
235.68	300.000
236.05	128.571
236.43	107.407
236.80	250.000
237.17	127.586
237.55	96.875
237.92	107.500
238.29	96.970
238.67	118.750
239.04	87.805
239.41	58.333
239.79	77.500
240.16	52.083
240.53	45.902
240.91	43.478
241.28	62.712
241.65	45.455
242.02	50.704
242.40	48.571
242.77	36.264
243.14	27.848
243.51	46.465
243.89	34.579
244.26	31.776
244.63	30.693
245.00	37.615
245.38	23.729
245.75	28.788
246.12	25.185
246.49	22.695
246.87	18.852
247.24	26.000
247.61	22.500
247.98	21.088
248.36	21.212
248.73	23.980
249.10	18.452
249.47	16.500
249.84	18.905
250.22	17.297
250.59	14.500
250.96	16.034
251.33	15.349
251.70	15.179
252.08	18.908
252.45	16.733
252.82	14.068
253.19	11.858
253.56	11.923
253.94	15.217
254.31	12.016
254.68	12.892
255.05	14.138
255.42	13.139
255.79	10.423
256.16	12.542
256.54	12.662
256.91	13.399
257.28	12.040
257.65	8.464
258.02	11.209
258.39	9.742
258.76	13.913
259.14	10.857
259.51	10.496
259.88	10.942
260.25	9.341
260.62	8.767
260.99	8.264
261.36	13.092
261.73	8.777
262.10	9.424
262.47	8.000
262.85	6.133
263.22	10.283
263.59	7.928
263.96	10.526
264.33	8.148
264.70	10.565
265.07	10.732
265.44	8.028
265.81	9.198
266.18	10.069
266.55	8.274
266.92	8.501
267.29	8.991
267.66	7.399
268.03	7.175
268.40	8.457
268.77	9.031
269.14	5.640
269.51	6.682
269.88	7.755
270.25	6.048
270.62	6.867
270.99	8.925
271.36	10.163
271.73	6.709
272.10	7.677
272.47	7.143
272.84	5.788
273.21	6.612
273.58	8.502
273.95	6.982
274.32	7.004
274.69	9.646
275.06	9.472
275.43	6.705
275.80	7.358
276.17	8.272
276.54	8.224
276.91	6.530
277.28	7.117
277.65	6.273
278.02	7.721
278.39	7.914
278.76	8.448
279.13	6.584
279.50	8.182
279.87	7.635
280.23	6.446
280.60	6.387
280.97	7.069
281.34	6.601
281.71	8.000
282.08	8.718
282.45	5.405
282.82	4.849
283.19	6.995
283.56	6.777
283.92	5.212
284.29	5.824
284.66	5.378
285.03	6.302
285.40	5.289
285.77	5.247
286.14	6.037
286.51	7.209
286.87	5.538
287.24	5.255
287.61	8.663
287.98	7.164
288.35	6.815
288.72	6.070
289.08	5.856
289.45	7.012
289.82	6.562
290.19	5.710
290.56	6.550
290.93	5.899
291.29	8.011
291.66	5.508
292.03	6.171
292.40	7.588
292.77	4.875
293.13	6.705
293.50	5.668
293.87	4.607
294.24	6.154
294.60	5.922
294.97	6.993
295.34	5.578
295.71	6.439
296.08	6.133
296.44	7.624
296.81	4.342
297.18	5.577
297.55	5.788
297.91	6.773
298.28	6.401
298.65	7.362
299.02	5.790
299.38	7.194
299.75	6.707
300.12	6.766
300.48	6.557
300.85	5.602
301.22	5.814
301.59	5.542
301.95	3.967
302.32	7.101
302.69	5.882
303.05	6.958
303.42	6.166
303.79	5.959
304.15	5.611
304.52	6.025
304.89	6.397
305.25	6.340
305.62	7.676
305.99	6.739
306.35	6.316
306.72	5.619
307.09	6.004
307.45	6.653
307.82	6.173
308.19	7.423
308.55	6.400
308.92	8.734
309.29	8.185
309.65	7.532
310.02	7.201
310.38	6.481
310.75	7.522
311.12	7.375
311.48	8.591
311.85	8.779
312.22	9.456
312.58	7.872
312.95	8.544
313.31	9.270
313.68	9.006
314.05	9.799
314.41	9.404
314.78	10.322
315.14	9.953
315.51	9.650
315.87	10.401
316.24	10.364
316.61	10.027
316.97	11.835
317.34	11.141
317.70	10.887
318.07	11.744
318.43	11.336
318.80	12.697
319.16	12.063
319.53	13.363
319.89	12.366
320.26	13.966
320.62	13.462
320.99	14.013
321.35	14.750
321.72	15.844
322.08	14.774
322.45	15.895
322.81	15.279
323.18	17.229
323.54	16.638
323.91	16.591
324.27	16.976
324.64	16.003
325.00	18.276
325.37	18.634
325.73	17.791
326.10	18.890
326.46	18.993
326.83	19.440
327.19	20.562
327.56	20.447
327.92	20.820
328.29	21.604
328.65	21.318
329.01	21.471
329.38	22.420
329.74	20.495
330.11	21.546
330.47	22.677
330.84	21.743
331.20	22.166
331.56	23.230
331.93	23.268
332.29	20.748
332.66	23.554
333.02	21.907
333.38	23.473
333.75	23.353
334.11	22.819
334.48	22.735
334.84	23.057
335.20	23.268
335.57	22.922
335.93	23.717
336.29	22.471
336.66	23.928
337.02	22.583
337.38	23.044
337.75	22.044
338.11	24.388
338.47	23.116
338.84	22.862
339.20	22.684
339.56	22.708
339.93	23.328
340.29	22.941
340.65	23.135
341.02	23.250
341.38	23.892
341.74	23.422
342.11	23.539
342.47	23.134
342.83	24.610
343.20	24.171
343.56	22.558
343.92	24.195
344.28	24.163
344.65	23.961
345.01	23.651
345.37	23.317
345.73	23.651
346.10	23.984
346.46	24.402
346.82	23.302
347.19	25.348
347.55	23.029
347.91	23.867
348.27	24.167
348.63	23.259
349.00	25.057
349.36	24.202
349.72	24.159
350.08	23.525
350.45	23.991
350.81	24.618
351.17	22.573
351.53	24.249
351.89	24.398
352.26	23.810
352.62	24.284
352.98	26.074
353.34	24.037
353.70	23.547
354.07	24.077
354.43	24.962
354.79	23.766
355.15	24.502
355.51	23.943
355.87	25.226
356.24	24.249
356.60	23.592
356.96	24.716
357.32	24.717
357.68	24.670
358.04	24.240
358.40	24.213
358.77	25.995
359.13	25.676
359.49	25.574
359.85	25.912
360.21	25.409
360.57	24.672
360.93	24.675
361.29	24.747
361.66	25.429
362.02	24.716
362.38	24.315
362.74	24.699
363.10	25.736
363.46	25.069
363.82	25.456
364.18	25.107
364.54	24.464
364.90	25.703
365.26	25.399
365.62	25.622
365.98	24.983
366.35	24.759
366.71	25.538
367.07	25.392
367.43	25.991
367.79	25.000
368.15	24.423
368.51	25.293
368.87	25.747
369.23	24.809
369.59	24.949
369.95	26.503
370.31	24.778
370.67	26.024
371.03	26.331
371.39	26.177
371.75	24.634
372.11	25.901
372.47	26.781
372.83	26.037
373.19	26.182
373.55	25.498
373.91	24.724
374.27	26.058
374.63	26.508
374.99	26.011
375.35	25.941
375.71	26.847
376.07	25.663
376.42	24.680
376.78	27.103
377.14	26.409
377.50	25.718
377.86	26.201
378.22	25.472
378.58	27.421
378.94	26.192
379.30	26.440
379.66	25.647
380.02	26.921
380.38	25.351
380.74	25.894
381.09	25.993
381.45	25.723
381.81	26.478
382.17	26.435
382.53	26.635
382.89	26.730
383.25	25.518
383.61	25.245
383.97	25.375
384.32	26.522
384.68	25.966
385.04	25.967
385.40	25.860
385.76	25.629
386.12	26.654
386.48	26.687
386.83	26.406
387.19	26.443
387.55	26.207
387.91	25.808
388.27	26.353
388.62	26.526
388.98	26.122
389.34	26.056
389.70	24.764
390.06	26.159
390.42	26.774
390.77	25.614
391.13	26.011
391.49	25.892
391.85	27.446
392.20	26.281
392.56	25.986
392.92	27.120
393.28	25.617
393.64	25.631
393.99	26.141
394.35	25.309
394.71	25.573
395.07	25.669
395.42	25.644
395.78	26.712
396.14	25.783
396.50	25.752
396.85	25.122
397.21	26.053
397.57	25.822
397.92	24.957
398.28	25.207
398.64	26.236
399.00	24.853
399.35	25.067
399.71	25.773
400.07	25.742
400.42	25.373
400.78	25.279
401.14	25.073
401.49	24.885
401.85	25.087
402.21	24.722
402.57	25.853
402.92	25.818
403.28	24.702
403.63	24.779
403.99	25.694
404.35	25.557
404.70	24.926
405.06	24.649
405.42	25.434
405.77	25.248
406.13	24.729
406.49	24.559
406.84	24.647
407.20	25.514
407.55	24.492
407.91	24.569
408.27	25.349
408.62	24.837
408.98	24.187
409.34	24.489
409.69	24.456
410.05	23.971
410.40	24.441
410.76	24.041
411.11	24.230
411.47	25.062
411.83	23.433
412.18	24.155
412.54	24.925
412.89	24.897
413.25	24.572
413.60	25.000
413.96	24.835
414.31	25.148
414.67	25.574
415.03	23.819
415.38	24.732
415.74	24.068
416.09	24.172
416.45	26.180
416.80	25.978
417.16	24.507
417.51	24.841
417.87	25.720
418.22	25.577
418.58	24.841
418.93	25.818
419.29	24.091
419.64	24.409
420.00	24.403
420.35	24.913
420.71	25.088
421.06	24.603
421.42	25.446
421.77	25.375
422.12	26.075
422.48	25.270
422.83	25.446
423.19	25.432
423.54	26.001
423.90	26.444
424.25	26.142
424.61	26.465
424.96	25.974
425.31	25.835
425.67	27.104
426.02	24.565
426.38	24.796
426.73	26.200
427.09	27.165
427.44	25.267
427.79	26.015
428.15	26.930
428.50	27.543
428.85	27.219
429.21	26.580
429.56	27.418
429.92	27.151
430.27	27.286
430.62	26.089
430.98	27.046
431.33	26.462
431.68	26.469
432.04	26.280
432.39	26.948
432.74	27.693
433.10	27.464
433.45	28.834
433.80	28.351
434.16	27.325
434.51	28.019
434.86	28.470
435.22	28.147
435.57	28.690
435.92	28.458
436.28	28.917
436.63	28.417
436.98	29.617
437.34	28.824
437.69	27.884
438.04	29.140
438.39	29.656
438.75	28.508
439.10	28.117
439.45	28.208
439.81	29.902
440.16	29.224
440.51	28.885
440.86	29.744
441.22	28.247
441.57	29.554
441.92	28.677
442.27	29.639
442.63	29.472
442.98	28.610
443.33	29.138
443.68	29.376
444.03	29.029
444.39	29.331
444.74	29.193
445.09	29.489
445.44	30.446
445.79	29.386
446.15	30.842
446.50	28.956
446.85	29.781
447.20	28.905
447.55	30.125
447.91	30.101
448.26	29.606
448.61	31.288
448.96	30.392
449.31	31.023
449.66	30.676
450.02	30.146
450.37	31.760
450.72	30.083
451.07	30.250
451.42	30.883
451.77	30.298
452.12	30.743
452.47	30.984
452.83	31.549
453.18	30.991
453.53	30.965
453.88	31.200
454.23	31.435
454.58	31.294
454.93	31.392
455.28	31.028
455.63	32.151
455.98	31.472
456.34	31.489
456.69	31.585
457.04	31.384
457.39	31.543
457.74	31.194
458.09	30.432
458.44	31.325
458.79	31.034
459.14	30.987
459.49	31.767
459.84	31.413
460.19	31.299
460.54	31.567
460.89	31.397
461.24	30.813
461.59	32.483
461.94	31.206
462.29	31.693
462.64	32.601
462.99	31.926
463.34	32.534
463.69	33.394
464.04	31.721
464.39	32.112
464.74	31.594
465.09	31.341
465.44	31.556
465.79	30.702
466.14	32.114
466.49	31.633
466.84	32.219
467.19	32.513
467.54	31.652
467.89	32.218
468.24	31.731
468.59	32.083
468.94	31.763
469.29	33.109
469.64	33.312
469.99	33.162
470.34	32.321
470.68	33.793
471.03	33.289
471.38	32.517
471.73	32.854
472.08	33.138
472.43	33.147
472.78	33.675
473.13	32.979
473.48	31.907
473.83	33.157
474.17	33.678
474.52	33.294
474.87	31.950
475.22	31.982
475.57	32.162
475.92	31.886
476.27	31.012
476.61	31.743
476.96	32.863
477.31	33.625
477.66	32.636
478.01	32.285
478.36	32.956
478.70	32.506
479.05	31.276
479.40	32.292
479.75	33.217
480.10	32.623
480.45	32.353
480.79	32.166
481.14	32.240
481.49	31.290
481.84	31.794
482.19	32.838
482.53	32.104
482.88	32.437
483.23	32.161
483.58	31.912
483.92	32.998
484.27	31.935
484.62	33.574
484.97	31.632
485.31	31.392
485.66	30.706
486.01	29.818
486.36	29.781
486.70	29.361
487.05	30.234
487.40	30.104
487.75	30.731
488.09	31.222
488.44	31.453
488.79	31.378
489.13	31.654
489.48	31.962
489.83	32.193
490.17	31.709
490.52	33.161
490.87	32.543
491.22	32.491
491.56	32.982
491.91	32.348
492.26	33.318
492.60	33.121
492.95	32.170
493.30	32.803
493.64	32.300
493.99	32.603
494.34	32.721
494.68	32.315
495.03	33.139
495.37	33.183
495.72	33.147
496.07	32.435
496.41	32.233
496.76	31.954
497.11	33.290
497.45	32.486
497.80	32.345
498.14	32.594
498.49	32.126
498.84	33.551
499.18	31.856
499.53	32.706
499.87	32.884
500.22	32.704
500.56	32.544
500.91	33.720
501.26	33.532
501.60	33.288
501.95	32.348
502.29	32.756
502.64	31.892
502.98	31.836
503.33	32.873
503.67	32.274
504.02	31.975
504.36	32.353
504.71	33.254
505.06	33.130
505.40	32.475
505.75	32.694
506.09	32.618
506.44	33.412
506.78	33.790
507.13	33.737
507.47	32.606
507.82	33.771
508.16	34.199
508.51	33.043
508.85	32.574
509.19	33.382
509.54	32.910
509.88	33.913
510.23	32.598
510.57	33.012
510.92	33.716
511.26	34.237
511.61	32.890
511.95	33.748
512.30	32.900
512.64	32.710
512.98	33.624
513.33	34.324
513.67	32.988
514.02	34.026
514.36	33.229
514.70	33.440
515.05	33.831
515.39	34.046
515.74	33.789
516.08	34.096
516.42	35.301
516.77	33.120
517.11	33.120
517.46	33.890
517.80	33.697
518.14	34.085
518.49	34.289
518.83	33.132
519.17	33.833
519.52	33.807
519.86	33.787
520.20	34.740
520.55	33.691
520.89	34.540
521.23	35.280
521.58	34.194
521.92	32.770
522.26	33.886
522.61	33.987
522.95	35.075
523.29	33.918
523.64	33.815
523.98	33.862
524.32	33.218
524.66	34.667
525.01	33.669
525.35	34.708
525.69	35.099
526.04	35.217
526.38	33.961
526.72	33.353
527.06	34.122
527.41	34.825
527.75	33.719
528.09	33.534
528.43	34.838
528.78	34.466
529.12	34.798
529.46	34.424
529.80	34.287
530.15	33.648
530.49	33.875
530.83	33.943
531.17	34.133
531.51	34.273
531.86	34.300
532.20	35.043
532.54	33.333
532.88	33.604
533.22	33.760
533.57	33.862
533.91	32.867
534.25	33.179
534.59	34.211
534.93	33.675
535.27	32.555
535.62	33.489
535.96	33.747
536.30	33.516
536.64	33.665
536.98	32.914
537.32	34.375
537.66	32.653
538.01	33.932
538.35	34.311
538.69	32.646
539.03	33.147
539.37	33.313
539.71	33.580
540.05	32.738
540.39	33.585
540.73	33.544
541.07	32.873
541.42	33.644
541.76	33.354
542.10	32.984
542.44	33.541
542.78	32.536
543.12	33.374
543.46	32.832
543.80	33.835
544.14	33.808
544.48	33.029
544.82	33.456
545.16	32.787
545.50	32.637
545.84	32.702
546.18	34.200
546.52	33.902
546.86	33.914
547.20	34.044
547.54	33.122
547.88	33.090
548.22	33.273
548.56	32.940
548.90	32.503
549.24	33.607
549.58	33.054
549.92	33.726
550.26	34.686
550.60	33.533
550.94	33.718
551.28	34.345
551.62	34.345
551.96	34.189
552.30	32.630
552.64	34.304
552.98	33.698
553.32	32.330
553.66	33.029
554.00	33.269
554.34	33.622
554.68	34.207
555.02	34.148
555.36	33.045
555.69	33.639
556.03	34.204
556.37	33.270
556.71	34.094
557.05	31.782
557.39	32.800
557.73	33.288
558.07	34.004
558.41	34.476
558.75	34.747
559.08	34.882
559.42	34.145
559.76	34.284
560.10	32.829
560.44	33.112
560.78	34.015
561.12	33.566
561.45	32.791
561.79	33.208
562.13	32.596
562.47	33.550
562.81	32.661
563.15	33.678
563.48	31.304
563.82	33.687
564.16	32.276
564.50	31.284
564.84	33.009
565.17	31.967
565.51	33.190
565.85	33.436
566.19	32.202
566.52	32.130
566.86	33.742
567.20	32.416
567.54	32.533
567.88	32.760
568.21	31.802
568.55	30.982
568.89	31.159
569.23	31.104
569.56	31.230
569.90	29.429
570.24	30.630
570.57	30.045
570.91	29.704
571.25	29.122
571.59	28.511
571.92	28.552
572.26	29.003
572.60	28.714
572.93	29.212
573.27	28.805
573.61	28.939
573.95	29.133
574.28	28.648
574.62	28.132
574.96	28.187
575.29	27.598
575.63	27.939
575.97	27.897
576.30	28.094
576.64	28.558
576.98	28.140
577.31	28.533
577.65	27.863
577.98	27.381
578.32	27.483
578.66	27.080
578.99	28.320
579.33	28.349
579.67	27.533
580.00	28.113
580.34	27.447
580.67	27.875
581.01	28.374
581.35	27.887
581.68	27.577
582.02	27.743
582.35	27.673
582.69	28.139
583.02	27.887
583.36	28.032
583.70	27.969
584.03	29.306
584.37	28.142
584.70	28.664
585.04	27.790
585.37	28.291
585.71	28.629
586.04	28.533
586.38	28.082
586.72	28.623
587.05	28.718
587.39	28.369
587.72	28.739
588.06	28.706
588.39	28.199
588.73	28.984
589.06	29.530
589.40	29.609
589.73	29.367
590.07	30.542
590.40	29.756
590.73	30.775
591.07	30.133
591.40	28.982
591.74	29.302
592.07	29.243
592.41	29.776
592.74	29.220
593.08	29.232
593.41	29.025
593.75	28.873
594.08	28.765
594.41	28.739
594.75	29.315
595.08	28.978
595.42	29.526
595.75	29.483
596.09	30.379
596.42	28.660
596.75	29.527
597.09	30.004
597.42	30.163
597.75	29.168
598.09	29.627
598.42	30.192
598.76	29.491
599.09	29.754
599.42	29.585
599.76	29.342
600.09	29.051
600.42	28.902
600.76	28.824
601.09	29.306
601.42	29.074
601.76	29.646
602.09	29.617
602.42	29.094
602.76	29.639
603.09	29.525
603.42	30.165
603.76	28.995
604.09	29.135
604.42	29.642
604.76	29.277
605.09	29.102
605.42	29.338
605.75	29.451
606.09	29.265
606.42	28.861
606.75	29.926
607.09	28.504
607.42	29.610
607.75	28.861
608.08	29.448
608.42	29.950
608.75	28.455
609.08	29.168
609.41	30.000
609.75	30.495
610.08	30.126
610.41	29.513
610.74	29.740
611.07	29.695
611.41	30.491
611.74	30.449
612.07	29.576
612.40	30.507
612.73	29.556
613.07	30.360
613.40	29.925
613.73	30.255
614.06	29.600
614.39	30.556
614.72	29.533
615.06	29.377
615.39	28.911
615.72	28.848
616.05	30.035
616.38	30.137
616.71	30.765
617.05	29.874
617.38	30.112
617.71	30.540
618.04	29.052
618.37	30.017
618.70	30.831
619.03	30.281
619.36	31.281
619.69	30.739
620.03	30.985
620.36	30.957
620.69	31.865
621.02	32.065
621.35	31.160
621.68	32.743
622.01	31.882
622.34	31.318
622.67	31.039
623.00	30.905
623.33	31.377
623.66	30.938
623.99	30.548
624.32	31.640
624.65	30.744
624.99	30.899
625.32	30.194
625.65	31.448
625.98	30.614
626.31	31.083
626.64	31.359
626.97	31.217
627.30	29.969
627.63	32.496
627.96	31.221
628.29	32.673
628.62	31.908
628.95	32.624
629.28	33.216
629.61	32.337
629.94	32.152
630.26	33.276
630.59	33.422
630.92	32.377
631.25	32.185
631.58	34.137
631.91	33.302
632.24	31.778
632.57	32.613
632.90	34.472
633.23	32.844
633.56	34.247
633.89	32.154
634.22	33.907
634.55	32.796
