SpectraSuite Data File
++++++++++++++++++++++++++++++++++++
Date: Tue May 12 17:24:31 PDT 2015
User: schluterlab
Dark Spectrum Present: Yes
Reference Spectrum Present: Yes
Number of Sampled Component Spectra: 1
Spectrometers: USB2E3373
Integration Time (usec): 3000 (USB2E3373)
Spectra Averaged: 3 (USB2E3373)
Boxcar Smoothing: 0 (USB2E3373)
Correct for Electrical Dark: No (USB2E3373)
Strobe/Lamp Enabled: No (USB2E3373)
Correct for Detector Non-linearity: No (USB2E3373)
Correct for Stray Light: No (USB2E3373)
Number of Pixels in Processed Spectrum: 2048
>>>>>Begin Processed Spectral Data<<<<<
178.53	0.000
178.91	-225.000
179.29	-675.000
179.67	-3600.000
180.04	-106.667
180.42	500.000
180.80	1150.000
181.18	0.000
181.56	-287.500
181.94	0.000
182.31	1200.000
182.69	-2400.000
183.07	600.000
183.45	-2700.000
183.83	-1000.000
184.20	270.000
184.58	428.571
184.96	-230.769
185.34	-250.000
185.72	1450.000
186.09	-625.000
186.47	-2500.000
186.85	966.667
187.23	620.000
187.61	1500.000
187.98	600.000
188.36	192.857
188.74	350.000
189.12	383.333
189.49	925.000
189.87	0.000
190.25	462.500
190.63	2900.000
191.00	-175.000
191.38	-3800.000
191.76	-825.000
192.14	512.500
192.51	-2700.000
192.89	1500.000
193.27	966.667
193.65	-900.000
194.02	-580.000
194.40	528.571
194.78	-207.143
195.15	226.667
195.53	-2300.000
195.91	-620.000
196.29	4000.000
196.66	243.750
197.04	675.000
197.42	-1550.000
197.79	675.000
198.17	275.000
198.55	0.000
198.92	514.286
199.30	1233.333
199.68	2100.000
200.05	600.000
200.43	-466.667
200.81	211.111
201.18	2500.000
201.56	308.333
201.94	-850.000
202.31	-337.500
202.69	-500.000
203.07	3400.000
203.44	-300.000
203.82	416.667
204.19	740.000
204.57	-1050.000
204.95	-700.000
205.32	-660.000
205.70	450.000
206.08	775.000
206.45	-866.667
206.83	355.556
207.20	205.263
207.58	325.000
207.96	780.000
208.33	0.000
208.71	571.429
209.08	660.000
209.46	-2400.000
209.84	-775.000
210.21	720.000
210.59	-620.000
210.96	316.667
211.34	-900.000
211.71	363.636
212.09	925.000
212.46	1750.000
212.84	-300.000
213.22	411.111
213.59	-3700.000
213.97	280.000
214.34	1000.000
214.72	833.333
215.09	700.000
215.47	-3400.000
215.84	-350.000
216.22	-375.000
216.59	0.000
216.97	0.000
217.34	1500.000
217.72	-1350.000
218.09	1066.667
218.47	387.500
218.84	775.000
219.22	1066.667
219.59	866.667
219.97	542.857
220.34	511.111
220.72	1200.000
221.09	3800.000
221.47	283.333
221.84	1100.000
222.22	390.000
222.59	277.778
222.97	185.714
223.34	212.500
223.72	-1550.000
224.09	1333.333
224.46	292.308
224.84	-475.000
225.21	366.667
225.59	213.333
225.96	1400.000
226.34	-780.000
226.71	-600.000
227.08	-500.000
227.46	0.000
227.83	-683.333
228.21	-1800.000
228.58	400.000
228.95	1150.000
229.33	388.889
229.70	1075.000
230.08	338.462
230.45	3600.000
230.82	-900.000
231.20	-600.000
231.57	-966.667
231.95	520.000
232.32	316.667
232.69	566.667
233.07	283.333
233.44	-1750.000
233.81	240.000
234.19	166.667
234.56	218.750
234.93	235.294
235.31	210.000
235.68	275.000
236.05	196.429
236.43	137.037
236.80	214.286
237.17	137.931
237.55	134.375
237.92	107.500
238.29	112.121
238.67	146.875
239.04	90.244
239.41	77.083
239.79	95.000
240.16	102.083
240.53	63.934
240.91	71.014
241.28	93.220
241.65	66.667
242.02	64.789
242.40	71.429
242.77	64.835
243.14	49.367
243.51	53.535
243.89	55.140
244.26	53.271
244.63	48.515
245.00	57.798
245.38	48.305
245.75	51.515
246.12	56.296
246.49	53.191
246.87	50.820
247.24	51.333
247.61	48.750
247.98	44.218
248.36	41.818
248.73	48.980
249.10	45.238
249.47	38.000
249.84	38.806
250.22	43.243
250.59	44.500
250.96	38.819
251.33	41.860
251.70	37.946
252.08	43.277
252.45	39.044
252.82	36.882
253.19	35.968
253.56	38.462
253.94	39.130
254.31	38.372
254.68	39.024
255.05	37.931
255.42	37.591
255.79	40.717
256.16	32.881
256.54	37.338
256.91	39.216
257.28	34.114
257.65	30.721
258.02	36.283
258.39	36.676
258.76	36.522
259.14	35.714
259.51	33.819
259.88	32.827
260.25	34.615
260.62	32.877
260.99	35.262
261.36	32.869
261.73	34.043
262.10	35.340
262.47	33.000
262.85	33.600
263.22	35.219
263.59	33.504
263.96	33.333
264.33	34.321
264.70	34.398
265.07	32.439
265.44	35.321
265.81	31.840
266.18	32.265
266.55	33.097
266.92	33.781
267.29	31.798
267.66	33.857
268.03	30.942
268.40	31.290
268.77	37.665
269.14	30.152
269.51	32.517
269.88	30.408
270.25	29.158
270.62	32.403
270.99	33.469
271.36	32.724
271.73	29.350
272.10	29.091
272.47	29.960
272.84	30.739
273.21	31.405
273.58	30.364
273.95	30.801
274.32	31.518
274.69	31.496
275.06	32.423
275.43	30.843
275.80	32.264
276.17	28.860
276.54	30.654
276.91	32.090
277.28	30.292
277.65	30.812
278.02	31.066
278.39	30.396
278.76	30.862
279.13	29.181
279.50	30.909
279.87	30.354
280.23	31.492
280.60	32.847
280.97	25.862
281.34	29.703
281.71	29.043
282.08	30.085
282.45	30.743
282.82	29.766
283.19	31.161
283.56	30.248
283.92	30.619
284.29	29.451
284.66	28.571
285.03	30.846
285.40	30.413
285.77	28.549
286.14	29.876
286.51	29.141
286.87	26.266
287.24	27.027
287.61	27.964
287.98	28.358
288.35	26.519
288.72	27.466
289.08	27.628
289.45	29.421
289.82	28.438
290.19	26.208
290.56	27.802
290.93	25.612
291.29	27.348
291.66	25.424
292.03	25.806
292.40	25.610
292.77	25.070
293.13	25.678
293.50	25.911
293.87	24.526
294.24	26.713
294.60	25.841
294.97	24.895
295.34	23.506
295.71	24.047
296.08	26.133
296.44	24.651
296.81	23.449
297.18	22.940
297.55	25.123
297.91	22.783
298.28	25.000
298.65	23.190
299.02	23.281
299.38	23.741
299.75	21.829
300.12	22.936
300.48	23.653
300.85	22.646
301.22	23.837
301.59	23.821
301.95	22.054
302.32	22.817
302.69	23.756
303.05	23.345
303.42	23.767
303.79	22.644
304.15	22.222
304.52	22.622
304.89	21.962
305.25	23.804
305.62	23.134
305.99	22.174
306.35	22.526
306.72	23.621
307.09	22.981
307.45	23.759
307.82	23.765
308.19	23.505
308.55	23.000
308.92	23.454
309.29	23.767
309.65	24.182
310.02	23.834
310.38	24.028
310.75	23.626
311.12	23.372
311.48	25.386
311.85	25.191
312.22	26.074
312.58	25.948
312.95	26.505
313.31	27.060
313.68	26.266
314.05	27.656
314.41	26.443
314.78	26.515
315.14	29.384
315.51	28.761
315.87	29.197
316.24	28.198
316.61	28.648
316.97	30.092
317.34	30.189
317.70	31.080
318.07	32.295
318.43	32.074
318.80	33.275
319.16	31.993
319.53	33.540
319.89	33.333
320.26	34.823
320.62	34.707
320.99	35.844
321.35	36.827
321.72	37.666
322.08	36.565
322.45	37.875
322.81	37.054
323.18	37.655
323.54	40.157
323.91	41.704
324.27	40.230
324.64	40.571
325.00	41.379
325.37	41.315
325.73	41.653
326.10	43.828
326.46	43.600
326.83	42.960
327.19	43.213
327.56	42.891
327.92	44.836
328.29	44.681
328.65	45.205
329.01	46.792
329.38	45.601
329.74	45.004
330.11	45.786
330.47	46.036
330.84	45.384
331.20	46.277
331.56	46.891
331.93	47.134
332.29	46.003
332.66	46.514
333.02	46.306
333.38	47.469
333.75	46.789
334.11	46.477
334.48	47.094
334.84	47.128
335.20	47.904
335.57	46.096
335.93	47.351
336.29	46.932
336.66	49.400
337.02	45.595
337.38	45.056
337.75	46.537
338.11	48.101
338.47	48.349
338.84	45.978
339.20	46.320
339.56	47.771
339.93	47.074
340.29	44.874
340.65	47.276
341.02	46.420
341.38	45.813
341.74	47.342
342.11	47.245
342.47	47.990
342.83	48.482
343.20	46.888
343.56	46.148
343.92	47.234
344.28	47.289
344.65	48.329
345.01	46.746
345.37	47.596
345.73	47.619
346.10	46.853
346.46	46.970
346.82	46.373
347.19	46.600
347.55	46.292
347.91	46.979
348.27	47.173
348.63	48.259
349.00	47.296
349.36	48.949
349.72	46.254
350.08	47.671
350.45	49.048
350.81	48.547
351.17	47.920
351.53	47.883
351.89	47.941
352.26	48.677
352.62	47.738
352.98	47.699
353.34	47.381
353.70	47.783
354.07	47.692
354.43	47.542
354.79	47.608
355.15	49.311
355.51	47.734
355.87	47.666
356.24	48.961
356.60	46.880
356.96	47.688
357.32	47.852
357.68	48.091
358.04	47.948
358.40	48.426
358.77	49.361
359.13	49.174
359.49	48.554
359.85	49.218
360.21	47.623
360.57	48.978
360.93	49.134
361.29	49.062
361.66	49.292
362.02	46.946
362.38	50.000
362.74	49.611
363.10	49.930
363.46	48.273
363.82	49.229
364.18	49.644
364.54	51.073
364.90	49.130
365.26	49.410
365.62	50.000
365.98	48.658
366.35	49.586
366.71	50.243
367.07	50.171
367.43	50.034
367.79	50.066
368.15	48.779
368.51	50.448
368.87	49.728
369.23	50.173
369.59	50.438
369.95	50.699
370.31	50.582
370.67	50.451
371.03	50.770
371.39	51.039
371.75	50.803
372.11	50.986
372.47	51.918
372.83	51.937
373.19	52.433
373.55	52.646
373.91	51.450
374.27	51.786
374.63	52.000
374.99	51.819
375.35	53.427
375.71	53.760
376.07	53.050
376.42	52.558
376.78	53.950
377.14	53.211
377.50	54.307
377.86	53.107
378.22	54.174
378.58	53.814
378.94	53.953
379.30	54.397
379.66	54.545
380.02	54.370
380.38	53.981
380.74	54.729
381.09	55.257
381.45	53.642
381.81	53.546
382.17	54.701
382.53	54.949
382.89	55.293
383.25	55.062
383.61	55.389
383.97	55.609
384.32	55.033
384.68	56.684
385.04	55.510
385.40	56.346
385.76	56.524
386.12	56.586
386.48	56.596
386.83	57.396
387.19	56.419
387.55	56.655
387.91	55.716
388.27	58.299
388.62	57.570
388.98	57.318
389.34	57.168
389.70	57.311
390.06	57.317
390.42	57.989
390.77	57.310
391.13	57.212
391.49	56.866
391.85	58.031
392.20	57.509
392.56	56.870
392.92	57.720
393.28	57.399
393.64	57.569
393.99	57.973
394.35	58.682
394.71	57.419
395.07	58.029
395.42	58.138
395.78	59.223
396.14	58.735
396.50	58.063
396.85	59.573
397.21	57.822
397.57	58.159
397.92	57.943
398.28	58.301
398.64	58.988
399.00	57.777
399.35	57.810
399.71	57.395
400.07	58.619
400.42	58.806
400.78	58.592
401.14	58.837
401.49	58.007
401.85	57.532
402.21	59.578
402.57	58.887
402.92	58.485
403.28	58.473
403.63	57.916
403.99	58.082
404.35	58.558
404.70	59.835
405.06	56.766
405.42	59.665
405.77	58.490
406.13	58.568
406.49	57.305
406.84	57.473
407.20	58.333
407.55	58.092
407.91	60.498
408.27	57.550
408.62	59.491
408.98	57.836
409.34	57.335
409.69	58.619
410.05	58.557
410.40	58.834
410.76	56.554
411.11	57.820
411.47	58.148
411.83	57.879
412.18	57.971
412.54	57.658
412.89	57.050
413.25	57.982
413.60	58.119
413.96	58.229
414.31	59.681
414.67	59.590
415.03	57.152
415.38	58.170
415.74	58.117
416.09	57.964
416.45	59.664
416.80	59.269
417.16	57.670
417.51	57.962
417.87	58.824
418.22	57.837
418.58	58.344
418.93	57.049
419.29	57.609
419.64	58.207
420.00	57.876
420.35	57.666
420.71	57.526
421.06	57.916
421.42	57.801
421.77	56.580
422.12	57.387
422.48	57.216
422.83	57.868
423.19	56.210
423.54	56.445
423.90	57.814
424.25	57.677
424.61	58.270
424.96	57.708
425.31	57.417
425.67	59.091
426.02	58.160
426.38	57.001
426.73	56.391
427.09	57.592
427.44	56.556
427.79	58.433
428.15	58.633
428.50	57.886
428.85	57.496
429.21	56.780
429.56	57.178
429.92	57.335
430.27	56.507
430.62	55.360
430.98	56.038
431.33	56.099
431.68	55.901
432.04	55.923
432.39	57.245
432.74	57.143
433.10	57.087
433.45	57.266
433.80	57.860
434.16	55.807
434.51	58.153
434.86	57.812
435.22	57.861
435.57	56.965
435.92	57.541
436.28	57.258
436.63	56.348
436.98	58.615
437.34	57.306
437.69	57.615
438.04	56.774
438.39	57.385
438.75	56.236
439.10	56.503
439.45	55.399
439.81	56.969
440.16	56.247
440.51	56.757
440.86	56.524
441.22	56.277
441.57	56.325
441.92	56.071
442.27	56.753
442.63	55.691
442.98	55.226
443.33	55.972
443.68	54.930
444.03	56.550
444.39	55.556
444.74	56.108
445.09	55.766
445.44	55.632
445.79	55.409
446.15	56.474
446.50	56.382
446.85	55.627
447.20	55.075
447.55	56.226
447.91	56.793
448.26	54.633
448.61	55.943
448.96	56.972
449.31	56.931
449.66	55.316
450.02	55.213
450.37	55.358
450.72	56.198
451.07	55.963
451.42	56.372
451.77	56.186
452.12	56.495
452.47	56.258
452.83	55.718
453.18	55.976
453.53	56.306
453.88	55.600
454.23	56.014
454.58	54.254
454.93	55.549
455.28	56.610
455.63	56.028
455.98	54.428
456.34	56.535
456.69	56.159
457.04	56.265
457.39	55.600
457.74	56.644
458.09	54.127
458.44	54.491
458.79	55.703
459.14	55.210
459.49	55.153
459.84	55.054
460.19	55.706
460.54	54.815
460.89	55.117
461.24	54.124
461.59	55.669
461.94	55.260
462.29	54.005
462.64	54.837
462.99	53.871
463.34	55.347
463.69	54.991
464.04	54.750
464.39	54.780
464.74	54.045
465.09	53.221
465.44	54.244
465.79	53.457
466.14	54.160
466.49	53.554
466.84	53.289
467.19	54.540
467.54	53.634
467.89	53.580
468.24	52.750
468.59	53.214
468.94	55.495
469.29	54.490
469.64	54.084
469.99	54.563
470.34	53.763
470.68	52.966
471.03	54.236
471.38	54.834
471.73	54.735
472.08	55.121
472.43	55.183
472.78	53.521
473.13	52.941
473.48	53.056
473.83	53.357
474.17	53.678
474.52	54.028
474.87	52.871
475.22	52.770
475.57	52.099
475.92	52.018
476.27	52.448
476.61	52.869
476.96	52.299
477.31	53.162
477.66	52.764
478.01	52.347
478.36	53.656
478.70	52.060
479.05	52.563
479.40	52.133
479.75	53.972
480.10	52.323
480.45	51.914
480.79	52.212
481.14	53.162
481.49	50.183
481.84	50.704
482.19	51.528
482.53	51.866
482.88	52.195
483.23	51.872
483.58	51.661
483.92	52.194
484.27	51.455
484.62	51.528
484.97	50.214
485.31	49.320
485.66	48.998
486.01	47.675
486.36	47.600
486.70	47.098
487.05	47.330
487.40	48.623
487.75	48.651
488.09	48.949
488.44	48.821
488.79	49.358
489.13	49.869
489.48	50.020
489.83	50.709
490.17	49.339
490.52	50.388
490.87	50.129
491.22	50.975
491.56	50.549
491.91	50.134
492.26	50.869
492.60	51.207
492.95	50.385
493.30	49.955
493.64	50.809
493.99	50.313
494.34	50.112
494.68	50.199
495.03	49.888
495.37	49.707
495.72	50.536
496.07	49.461
496.41	49.696
496.76	49.894
497.11	50.043
497.45	49.496
497.80	50.324
498.14	49.838
498.49	49.536
498.84	50.701
499.18	49.406
499.53	49.518
499.87	48.518
500.22	50.069
500.56	48.700
500.91	49.443
501.26	50.207
501.60	49.499
501.95	48.342
502.29	49.422
502.64	47.684
502.98	47.888
503.33	49.532
503.67	49.051
504.02	49.172
504.36	48.462
504.71	49.905
505.06	49.366
505.40	50.023
505.75	49.252
506.09	48.483
506.44	49.718
506.78	49.905
507.13	48.958
507.47	49.151
507.82	50.073
508.16	49.878
508.51	50.000
508.85	48.386
509.19	49.682
509.54	49.805
509.88	49.080
510.23	48.824
510.57	48.069
510.92	49.401
511.26	48.896
511.61	48.301
511.95	48.780
512.30	48.400
512.64	48.806
512.98	49.616
513.33	49.180
513.67	49.249
514.02	48.779
514.36	49.688
514.70	50.720
515.05	48.428
515.39	50.110
515.74	50.902
516.08	49.564
516.42	51.421
516.77	49.440
517.11	49.760
517.46	49.407
517.80	50.300
518.14	50.423
518.49	49.890
518.83	48.242
519.17	49.750
519.52	49.809
519.86	49.210
520.20	49.644
520.55	49.350
520.89	49.943
521.23	49.942
521.58	49.857
521.92	49.504
522.26	49.467
522.61	50.208
522.95	51.291
523.29	49.766
523.64	48.786
523.98	49.648
524.32	49.423
524.66	49.333
525.01	49.822
525.35	50.383
525.69	50.271
526.04	48.543
526.38	48.676
526.72	48.986
527.06	47.901
527.41	49.698
527.75	49.361
528.09	49.548
528.43	49.115
528.78	47.883
529.12	49.910
529.46	48.685
529.80	48.364
530.15	48.085
530.49	48.135
530.83	48.751
531.17	49.016
531.51	48.437
531.86	47.705
532.20	48.888
532.54	49.153
532.88	48.720
533.22	47.105
533.57	48.505
533.91	47.902
534.25	46.797
534.59	48.304
534.93	46.189
535.27	46.841
535.62	46.908
535.96	47.400
536.30	48.751
536.64	48.012
536.98	46.759
537.32	47.688
537.66	47.832
538.01	48.235
538.35	48.097
538.69	45.934
539.03	47.761
539.37	45.813
539.71	47.037
540.05	46.646
540.39	47.862
540.73	46.519
541.07	46.299
541.42	47.575
541.76	46.054
542.10	46.609
542.44	47.132
542.78	46.633
543.12	46.074
543.46	45.927
543.80	46.241
544.14	46.378
544.48	45.012
544.82	45.810
545.16	44.869
545.50	46.159
545.84	46.086
546.18	46.554
546.52	46.557
546.86	46.293
547.20	46.059
547.54	45.155
547.88	43.491
548.22	45.355
548.56	45.492
548.90	43.891
549.24	45.736
549.58	45.941
549.92	45.842
550.26	45.436
550.60	44.777
550.94	46.336
551.28	45.310
551.62	47.103
551.96	45.811
552.30	44.562
552.64	46.019
552.98	45.103
553.32	43.918
553.66	44.039
554.00	44.015
554.34	45.739
554.68	45.027
555.02	44.807
555.36	44.348
555.69	45.550
556.03	43.567
556.37	44.869
556.71	45.698
557.05	42.529
557.39	43.733
557.73	45.889
558.07	43.796
558.41	44.483
558.75	43.981
559.08	44.675
559.42	45.669
559.76	45.474
560.10	44.597
560.44	44.791
560.78	44.182
561.12	44.882
561.45	42.678
561.79	42.447
562.13	43.146
562.47	43.154
562.81	44.437
563.15	43.697
563.48	42.422
563.82	43.980
564.16	42.724
564.50	43.038
564.84	42.736
565.17	42.484
565.51	43.658
565.85	43.492
566.19	42.857
566.52	42.599
566.86	43.958
567.20	42.247
567.54	41.648
567.88	42.045
568.21	40.539
568.55	41.002
568.89	40.511
569.23	40.164
569.56	39.537
569.90	38.771
570.24	39.693
570.57	38.741
570.91	38.315
571.25	37.515
571.59	37.479
571.92	37.271
572.26	36.442
572.60	37.406
572.93	37.752
573.27	37.450
573.61	36.925
573.95	36.977
574.28	36.888
574.62	36.400
574.96	35.669
575.29	35.997
575.63	35.618
575.97	36.222
576.30	36.371
576.64	36.414
576.98	36.127
577.31	36.327
577.65	35.569
577.98	35.751
578.32	35.179
578.66	35.556
578.99	35.536
579.33	35.498
579.67	35.541
580.00	35.084
580.34	35.293
580.67	35.101
581.01	35.572
581.35	34.923
581.68	34.647
582.02	34.378
582.35	34.599
582.69	34.912
583.02	34.568
583.36	35.604
583.70	35.531
584.03	35.894
584.37	35.941
584.70	35.258
585.04	34.761
585.37	34.693
585.71	35.011
586.04	34.592
586.38	35.025
586.72	35.341
587.05	35.461
587.39	35.272
587.72	35.106
588.06	34.889
588.39	35.363
588.73	35.276
589.06	35.512
589.40	35.775
589.73	35.595
590.07	36.410
590.40	36.760
590.73	36.026
591.07	36.774
591.40	36.687
591.74	36.242
592.07	36.314
592.41	36.211
592.74	35.591
593.08	34.701
593.41	34.620
593.75	34.905
594.08	34.771
594.41	34.669
594.75	35.651
595.08	35.631
595.42	35.023
595.75	35.308
596.09	35.732
596.42	35.324
596.75	35.817
597.09	35.988
597.42	35.837
597.75	35.375
598.09	35.330
598.42	34.721
598.76	34.734
599.09	35.234
599.42	34.464
599.76	34.735
600.09	33.729
600.42	34.047
600.76	33.990
601.09	34.864
601.42	34.600
601.76	34.372
602.09	34.768
602.42	34.492
602.76	34.497
603.09	35.181
603.42	34.606
603.76	34.707
604.09	33.804
604.42	34.087
604.76	34.334
605.09	34.122
605.42	34.051
605.75	34.386
606.09	34.698
606.42	34.423
606.75	34.745
607.09	34.189
607.42	34.231
607.75	34.076
608.08	33.997
608.42	35.025
608.75	33.932
609.08	33.832
609.41	34.909
609.75	35.394
610.08	34.802
610.41	34.563
610.74	34.502
611.07	34.425
611.41	34.523
611.74	34.608
612.07	34.249
612.40	35.185
612.73	35.197
613.07	35.276
613.40	34.887
613.73	35.147
614.06	34.850
614.39	34.949
614.72	34.706
615.06	34.570
615.39	34.653
615.72	33.882
616.05	34.857
616.38	34.297
616.71	35.214
617.05	34.157
617.38	35.112
617.71	35.321
618.04	34.605
618.37	34.464
618.70	33.949
619.03	34.982
619.36	36.621
619.69	36.478
620.03	37.704
620.36	35.967
620.69	36.782
621.02	35.394
621.35	36.175
621.68	36.357
622.01	37.048
622.34	37.291
622.67	35.604
623.00	35.534
623.33	36.505
623.66	35.063
623.99	36.370
624.32	36.382
624.65	35.550
624.99	36.308
625.32	34.603
625.65	35.103
625.98	35.286
626.31	37.092
626.64	36.371
626.97	37.490
627.30	35.714
627.63	37.284
627.96	36.228
628.29	38.449
628.62	37.040
628.95	39.982
629.28	36.897
629.61	36.467
629.94	36.819
630.26	36.915
630.59	39.716
630.92	36.592
631.25	37.534
