SpectraSuite Data File
++++++++++++++++++++++++++++++++++++
Date: Tue May 12 17:18:32 PDT 2015
User: schluterlab
Dark Spectrum Present: Yes
Reference Spectrum Present: Yes
Number of Sampled Component Spectra: 1
Spectrometers: USB2E3373
Integration Time (usec): 3000 (USB2E3373)
Spectra Averaged: 3 (USB2E3373)
Boxcar Smoothing: 0 (USB2E3373)
Correct for Electrical Dark: No (USB2E3373)
Strobe/Lamp Enabled: No (USB2E3373)
Correct for Detector Non-linearity: No (USB2E3373)
Correct for Stray Light: No (USB2E3373)
Number of Pixels in Processed Spectrum: 2048
>>>>>Begin Processed Spectral Data<<<<<
178.53	0.000
178.91	-250.000
179.29	-700.000
179.67	-2900.000
180.04	-160.000
180.42	725.000
180.80	1700.000
181.18	0.000
181.56	-362.500
181.94	0.000
182.31	1466.667
182.69	-2900.000
183.07	571.429
183.45	-3700.000
183.83	-1600.000
184.20	290.000
184.58	342.857
184.96	-253.846
185.34	-216.667
185.72	1700.000
186.09	-875.000
186.47	-3800.000
186.85	1033.333
187.23	640.000
187.61	2000.000
187.98	550.000
188.36	185.714
188.74	300.000
189.12	316.667
189.49	950.000
189.87	0.000
190.25	387.500
190.63	2800.000
191.00	-308.333
191.38	-3000.000
191.76	-875.000
192.14	600.000
192.51	-3600.000
192.89	1700.000
193.27	866.667
193.65	-1066.667
194.02	-620.000
194.40	385.714
194.78	-214.286
195.15	206.667
195.53	-3300.000
195.91	-660.000
196.29	3400.000
196.66	237.500
197.04	750.000
197.42	-1550.000
197.79	600.000
198.17	350.000
198.55	0.000
198.92	500.000
199.30	1166.667
199.68	1850.000
200.05	600.000
200.43	-516.667
200.81	266.667
201.18	3100.000
201.56	283.333
201.94	-775.000
202.31	-412.500
202.69	-500.000
203.07	3200.000
203.44	-533.333
203.82	325.000
204.19	700.000
204.57	-1050.000
204.95	-700.000
205.32	-540.000
205.70	450.000
206.08	725.000
206.45	-900.000
206.83	333.333
207.20	184.211
207.58	258.333
207.96	660.000
208.33	0.000
208.71	542.857
209.08	700.000
209.46	-2100.000
209.84	-575.000
210.21	880.000
210.59	-620.000
210.96	283.333
211.34	-750.000
211.71	372.727
212.09	850.000
212.46	1450.000
212.84	-483.333
213.22	366.667
213.59	-2500.000
213.97	340.000
214.34	1025.000
214.72	900.000
215.09	766.667
215.47	-3100.000
215.84	-190.000
216.22	-450.000
216.59	0.000
216.97	0.000
217.34	1400.000
217.72	-1550.000
218.09	1333.333
218.47	412.500
218.84	825.000
219.22	766.667
219.59	1066.667
219.97	457.143
220.34	422.222
220.72	1500.000
221.09	3200.000
221.47	258.333
221.84	966.667
222.22	270.000
222.59	183.333
222.97	235.714
223.34	250.000
223.72	-1200.000
224.09	833.333
224.46	315.385
224.84	-725.000
225.21	377.778
225.59	253.333
225.96	833.333
226.34	-560.000
226.71	-850.000
227.08	-420.000
227.46	0.000
227.83	-466.667
228.21	-1900.000
228.58	308.333
228.95	850.000
229.33	411.111
229.70	925.000
230.08	338.462
230.45	3300.000
230.82	-750.000
231.20	-600.000
231.57	-900.000
231.95	540.000
232.32	266.667
232.69	516.667
233.07	191.667
233.44	-1550.000
233.81	266.667
234.19	151.852
234.56	200.000
234.93	147.059
235.31	145.000
235.68	193.750
236.05	121.429
236.43	140.741
236.80	228.571
237.17	127.586
237.55	100.000
237.92	97.500
238.29	118.182
238.67	128.125
239.04	75.610
239.41	50.000
239.79	75.000
240.16	72.917
240.53	60.656
240.91	57.971
241.28	71.186
241.65	46.970
242.02	54.930
242.40	44.286
242.77	31.868
243.14	34.177
243.51	40.404
243.89	40.187
244.26	30.841
244.63	19.802
245.00	32.110
245.38	24.576
245.75	21.970
246.12	30.370
246.49	25.532
246.87	16.393
247.24	24.000
247.61	25.625
247.98	26.531
248.36	19.394
248.73	25.510
249.10	14.881
249.47	19.500
249.84	18.905
250.22	20.000
250.59	20.000
250.96	17.722
251.33	17.674
251.70	15.179
252.08	16.807
252.45	13.546
252.82	14.068
253.19	9.881
253.56	12.692
253.94	10.507
254.31	13.953
254.68	12.195
255.05	11.379
255.42	10.949
255.79	12.704
256.16	11.186
256.54	15.260
256.91	14.052
257.28	14.716
257.65	9.091
258.02	10.619
258.39	10.602
258.76	15.942
259.14	8.286
259.51	11.662
259.88	11.550
260.25	7.692
260.62	11.233
260.99	8.815
261.36	10.585
261.73	9.574
262.10	10.209
262.47	9.750
262.85	8.267
263.22	10.540
263.59	8.184
263.96	11.028
264.33	3.951
264.70	8.354
265.07	8.293
265.44	10.780
265.81	9.670
266.18	10.069
266.55	7.565
266.92	5.817
267.29	10.746
267.66	7.848
268.03	7.175
268.40	9.725
268.77	9.031
269.14	5.423
269.51	7.350
269.88	7.755
270.25	3.888
270.62	7.511
270.99	9.736
271.36	10.163
271.73	7.966
272.10	5.253
272.47	5.952
272.84	5.788
273.21	7.025
273.58	8.097
273.95	6.571
274.32	8.171
274.69	7.087
275.06	8.379
275.43	4.981
275.80	8.491
276.17	7.721
276.54	7.850
276.91	8.955
277.28	6.569
277.65	7.565
278.02	7.904
278.39	6.295
278.76	8.966
279.13	7.829
279.50	5.636
279.87	5.773
280.23	5.709
280.60	5.474
280.97	6.379
281.34	8.086
281.71	7.652
282.08	7.521
282.45	6.081
282.82	6.856
283.19	6.677
283.56	5.950
283.92	5.863
284.29	6.988
284.66	6.050
285.03	7.131
285.40	5.785
285.77	5.556
286.14	7.430
286.51	5.061
286.87	4.905
287.24	5.856
287.61	5.775
287.98	6.567
288.35	5.778
288.72	5.159
289.08	5.105
289.45	5.335
289.82	5.625
290.19	5.271
290.56	8.151
290.93	5.612
291.29	5.663
291.66	5.085
292.03	6.311
292.40	5.962
292.77	5.153
293.13	4.565
293.50	4.858
293.87	5.285
294.24	4.755
294.60	4.441
294.97	5.734
295.34	5.046
295.71	5.388
296.08	5.333
296.44	5.083
296.81	4.467
297.18	4.816
297.55	6.527
297.91	3.325
298.28	5.193
298.65	5.276
299.02	4.463
299.38	5.036
299.75	4.512
300.12	6.995
300.48	6.089
300.85	4.887
301.22	4.535
301.59	3.892
301.95	3.151
302.32	5.239
302.69	5.882
303.05	5.612
303.42	3.924
303.79	5.525
304.15	3.190
304.52	4.334
304.89	5.330
305.25	4.227
305.62	4.478
305.99	3.804
306.35	3.474
306.72	4.370
307.09	3.623
307.45	3.907
307.82	2.572
308.19	4.536
308.55	3.700
308.92	4.809
309.29	5.621
309.65	4.460
310.02	4.158
310.38	3.988
310.75	4.147
311.12	4.502
311.48	5.695
311.85	4.866
312.22	4.871
312.58	3.790
312.95	4.660
313.31	4.588
313.68	3.752
314.05	5.220
314.41	3.911
314.78	3.693
315.14	4.360
315.51	4.636
315.87	4.106
316.24	4.575
316.61	4.387
316.97	4.037
317.34	4.672
317.70	5.180
318.07	4.004
318.43	5.097
318.80	5.604
319.16	4.720
319.53	3.982
319.89	4.211
320.26	6.145
320.62	6.319
320.99	4.385
321.35	5.937
321.72	5.693
322.08	6.187
322.45	4.541
322.81	5.215
323.18	4.352
323.54	6.359
323.91	5.077
324.27	5.305
324.64	4.066
325.00	5.431
325.37	5.902
325.73	4.975
326.10	6.048
326.46	5.615
326.83	4.640
327.19	5.703
327.56	5.431
327.92	5.902
328.29	6.465
328.65	5.651
329.01	5.817
329.38	5.922
329.74	4.953
330.11	6.255
330.47	6.564
330.84	5.263
331.20	5.499
331.56	6.390
331.93	7.015
332.29	4.932
332.66	5.782
333.02	4.725
333.38	4.625
333.75	6.505
334.11	5.956
334.48	5.983
334.84	6.250
335.20	6.330
335.57	5.626
335.93	5.803
336.29	5.804
336.66	5.146
337.02	5.218
337.38	5.933
337.75	4.899
338.11	5.654
338.47	5.927
338.84	6.266
339.20	4.242
339.56	6.812
339.93	5.351
340.29	4.958
340.65	6.203
341.02	7.080
341.38	5.583
341.74	4.983
342.11	5.008
342.47	5.414
342.83	6.317
343.20	5.578
343.56	5.163
343.92	5.202
344.28	4.944
344.65	5.216
345.01	5.238
345.37	5.128
345.73	5.556
346.10	5.498
346.46	5.901
346.82	5.170
347.19	6.569
347.55	5.230
347.91	4.607
348.27	4.648
348.63	5.775
349.00	5.179
349.36	5.058
349.72	6.346
350.08	4.814
350.45	5.255
350.81	5.657
351.17	4.777
351.53	4.311
351.89	5.517
352.26	5.291
352.62	4.977
352.98	5.368
353.34	5.470
353.70	4.511
354.07	4.692
354.43	4.608
354.79	4.632
355.15	5.054
355.51	4.834
355.87	5.346
356.24	5.466
356.60	4.947
356.96	4.473
357.32	5.727
357.68	5.286
358.04	4.863
358.40	5.397
358.77	5.334
359.13	4.580
359.49	5.041
359.85	4.914
360.21	4.903
360.57	4.891
360.93	4.978
361.29	5.195
361.66	4.996
362.02	3.693
362.38	4.257
362.74	5.732
363.10	5.119
363.46	4.903
363.82	5.049
364.18	4.908
364.54	4.435
364.90	5.756
365.26	4.858
365.62	4.213
365.98	3.854
366.35	3.103
366.71	4.997
367.07	4.983
367.43	4.567
367.79	4.854
368.15	4.342
368.51	4.686
368.87	4.416
369.23	4.089
369.59	4.788
369.95	4.406
370.31	3.765
370.67	5.135
371.03	5.392
371.39	4.294
371.75	4.327
372.11	4.895
372.47	4.932
372.83	4.419
373.19	5.552
373.55	4.330
373.91	4.213
374.27	4.828
374.63	5.153
374.99	4.447
375.35	4.032
375.71	4.749
376.07	4.377
376.42	3.517
376.78	5.010
377.14	4.456
377.50	4.182
377.86	4.933
378.22	4.327
378.58	4.722
378.94	4.466
379.30	4.488
379.66	4.214
380.02	4.927
380.38	3.630
380.74	4.729
381.09	4.614
381.45	4.162
381.81	3.664
382.17	3.785
382.53	3.719
382.89	3.312
383.25	3.612
383.61	3.862
383.97	3.599
384.32	4.521
384.68	4.456
385.04	4.045
385.40	4.508
385.76	4.447
386.12	4.205
386.48	3.769
386.83	4.340
387.19	3.828
387.55	4.476
387.91	4.965
388.27	4.283
388.62	4.049
388.98	3.790
389.34	4.462
389.70	3.479
390.06	3.902
390.42	4.380
390.77	3.808
391.13	3.802
391.49	4.658
391.85	4.677
392.20	4.708
392.56	5.556
392.92	4.155
393.28	4.316
393.64	3.612
393.99	4.090
394.35	3.708
394.71	3.679
395.07	4.075
395.42	4.567
395.78	4.010
396.14	5.181
396.50	4.031
396.85	3.780
397.21	3.971
397.57	4.304
397.92	3.004
398.28	3.309
398.64	4.130
399.00	3.421
399.35	3.650
399.71	4.029
400.07	3.824
400.42	3.642
400.78	3.636
401.14	3.817
401.49	3.456
401.85	4.403
402.21	3.281
402.57	3.950
402.92	3.697
403.28	3.103
403.63	4.120
403.99	3.920
404.35	5.041
404.70	4.076
405.06	4.043
405.42	3.950
405.77	3.583
406.13	3.905
406.49	2.899
406.84	4.230
407.20	3.596
407.55	4.246
407.91	3.765
408.27	4.002
408.62	3.844
408.98	3.785
409.34	3.565
409.69	3.111
410.05	3.637
410.40	2.886
410.76	3.377
411.11	3.791
411.47	3.889
411.83	3.632
412.18	3.140
412.54	3.003
412.89	3.068
413.25	3.535
413.60	3.621
413.96	3.411
414.31	3.070
414.67	3.973
415.03	3.448
415.38	3.785
415.74	3.601
416.09	4.497
416.45	3.814
416.80	3.977
417.16	3.628
417.51	3.949
417.87	3.817
418.22	4.131
418.58	3.567
418.93	3.331
419.29	3.450
419.64	4.361
420.00	4.296
420.35	3.368
420.71	3.034
421.06	3.237
421.42	3.224
421.77	3.276
422.12	3.473
422.48	3.955
422.83	3.460
423.19	3.132
423.54	3.566
423.90	4.417
424.25	3.577
424.61	3.772
424.96	2.880
425.31	3.777
425.67	3.479
426.02	3.982
426.38	2.742
426.73	3.702
427.09	3.203
427.44	3.433
427.79	2.859
428.15	4.420
428.50	3.714
428.85	3.821
429.21	3.674
429.56	4.038
429.92	3.033
430.27	3.532
430.62	3.231
430.98	3.443
431.33	2.974
431.68	2.370
432.04	3.311
432.39	3.568
432.74	3.689
433.10	3.488
433.45	3.791
433.80	3.530
434.16	3.573
434.51	3.457
434.86	4.464
435.22	2.701
435.57	3.497
435.92	4.155
436.28	4.032
436.63	3.566
436.98	3.491
437.34	3.938
437.69	3.583
438.04	4.140
438.39	4.262
438.75	4.343
439.10	4.047
439.45	4.014
439.81	3.875
440.16	3.467
440.51	3.435
440.86	4.729
441.22	3.788
441.57	3.622
441.92	3.208
442.27	3.041
442.63	3.100
442.98	3.879
443.33	3.749
443.68	3.974
444.03	3.487
444.39	4.143
444.74	3.675
445.09	3.739
445.44	4.198
445.79	3.460
446.15	4.053
446.50	3.586
446.85	3.984
447.20	3.035
447.55	2.610
447.91	3.942
448.26	4.153
448.61	3.648
448.96	4.248
449.31	3.245
449.66	4.208
450.02	3.241
450.37	3.720
450.72	3.967
451.07	4.363
451.42	3.734
451.77	4.009
452.12	4.141
452.47	3.645
452.83	3.775
453.18	4.084
453.53	4.559
453.88	4.457
454.23	4.590
454.58	4.312
454.93	4.108
455.28	4.345
455.63	3.664
455.98	3.440
456.34	4.802
456.69	3.598
457.04	3.998
457.39	3.429
457.74	4.561
458.09	3.200
458.44	4.107
458.79	4.350
459.14	4.201
459.49	3.851
459.84	3.859
460.19	3.729
460.54	4.387
460.89	4.158
461.24	3.895
461.59	4.082
461.94	4.078
462.29	4.519
462.64	4.334
462.99	4.095
463.34	5.185
463.69	4.840
464.04	4.375
464.39	4.751
464.74	4.103
465.09	4.643
465.44	4.353
465.79	4.627
466.14	4.081
466.49	3.364
466.84	4.292
467.19	4.569
467.54	4.204
467.89	4.284
468.24	4.864
468.59	4.167
468.94	4.469
469.29	5.131
469.64	4.887
469.99	4.692
470.34	4.364
470.68	4.138
471.03	4.403
471.38	4.834
471.73	4.376
472.08	4.697
472.43	4.221
472.78	4.994
473.13	4.693
473.48	4.768
473.83	4.535
474.17	4.559
474.52	4.680
474.87	3.980
475.22	4.512
475.57	4.040
475.92	3.628
476.27	3.645
476.61	4.075
476.96	4.650
477.31	3.907
477.66	4.240
478.01	4.332
478.36	4.583
478.70	3.821
479.05	3.504
479.40	3.968
479.75	4.767
480.10	4.211
480.45	3.735
480.79	4.424
481.14	3.994
481.49	3.522
481.84	4.002
482.19	3.624
482.53	3.996
482.88	4.077
483.23	3.699
483.58	4.129
483.92	4.707
484.27	3.896
484.62	3.650
484.97	3.935
485.31	3.523
485.66	3.084
486.01	3.125
486.36	2.734
486.70	2.811
487.05	2.863
487.40	3.134
487.75	3.553
488.09	3.523
488.44	3.378
488.79	3.297
489.13	3.621
489.48	3.875
489.83	4.003
490.17	3.757
490.52	3.704
490.87	3.966
491.22	4.034
491.56	3.645
491.91	3.495
492.26	4.143
492.60	3.781
492.95	3.987
493.30	3.867
493.64	4.043
493.99	3.846
494.34	3.362
494.68	4.073
495.03	3.862
495.37	4.007
495.72	4.615
496.07	3.819
496.41	3.649
496.76	4.517
497.11	4.113
497.45	4.603
497.80	4.078
498.14	4.115
498.49	4.410
498.84	4.206
499.18	4.479
499.53	3.629
499.87	4.133
500.22	3.501
500.56	3.946
500.91	4.731
501.26	4.364
501.60	4.007
501.95	3.853
502.29	4.178
502.64	4.146
502.98	4.135
503.33	3.653
503.67	4.106
504.02	4.030
504.36	4.525
504.71	4.068
505.06	3.097
505.40	4.165
505.75	3.835
506.09	4.526
506.44	4.511
506.78	4.726
507.13	4.266
507.47	3.833
507.82	4.769
508.16	4.949
508.51	4.203
508.85	4.416
509.19	3.720
509.54	4.102
509.88	4.724
510.23	5.049
510.57	4.199
510.92	3.996
511.26	4.267
511.61	4.382
511.95	4.480
512.30	4.500
512.64	3.583
512.98	3.947
513.33	4.816
513.67	5.230
514.02	4.468
514.36	4.413
514.70	4.640
515.05	3.570
515.39	4.441
515.74	4.483
516.08	4.575
516.42	4.317
516.77	4.853
517.11	4.107
517.46	4.687
517.80	4.205
518.14	4.451
518.49	4.355
518.83	3.901
519.17	4.104
519.52	5.243
519.86	4.632
520.20	5.096
520.55	4.692
520.89	4.655
521.23	4.381
521.58	4.532
521.92	4.140
522.26	4.562
522.61	4.753
522.95	4.084
523.29	4.854
523.64	4.335
523.98	4.812
524.32	4.383
524.66	4.928
525.01	3.846
525.35	4.773
525.69	4.335
526.04	5.057
526.38	4.238
526.72	4.714
527.06	4.317
527.41	4.716
527.75	3.956
528.09	3.733
528.43	4.881
528.78	5.188
529.12	4.816
529.46	4.617
529.80	5.199
530.15	4.950
530.49	4.392
530.83	5.180
531.17	4.428
531.51	4.169
531.86	4.408
532.20	4.326
532.54	3.766
532.88	4.934
533.22	4.266
533.57	4.454
533.91	3.613
534.25	4.559
534.59	4.678
534.93	5.063
535.27	3.870
535.62	4.551
535.96	4.728
536.30	4.509
536.64	3.789
536.98	4.468
537.32	5.437
537.66	4.273
538.01	4.768
538.35	4.242
538.69	3.883
539.03	3.731
539.37	3.823
539.71	4.630
540.05	4.000
540.39	4.906
540.73	4.241
541.07	4.266
541.42	4.104
541.76	4.624
542.10	5.302
542.44	4.302
542.78	4.216
543.12	4.601
543.46	4.637
543.80	4.887
544.14	4.396
544.48	3.528
544.82	4.404
545.16	4.189
545.50	5.040
545.84	4.356
546.18	4.811
546.52	4.197
546.86	4.578
547.20	3.811
547.54	4.877
547.88	4.440
548.22	4.493
548.56	4.773
548.90	4.626
549.24	4.422
549.58	4.381
549.92	4.584
550.26	4.801
550.60	4.657
550.94	4.478
551.28	5.655
551.62	5.517
551.96	4.730
552.30	4.680
552.64	4.725
552.98	4.446
553.32	4.417
553.66	4.691
554.00	4.698
554.34	5.393
554.68	4.704
555.02	4.616
555.36	4.388
555.69	5.105
556.03	4.904
556.37	4.780
556.71	4.694
557.05	3.473
557.39	4.933
557.73	4.717
558.07	4.561
558.41	4.387
558.75	5.267
559.08	4.861
559.42	5.297
559.76	5.203
560.10	4.749
560.44	5.043
560.78	4.923
561.12	4.832
561.45	3.504
561.79	4.432
562.13	4.548
562.47	4.413
562.81	4.164
563.15	4.654
563.48	4.161
563.82	4.803
564.16	4.851
564.50	4.461
564.84	4.316
565.17	4.159
565.51	4.372
565.85	4.318
566.19	3.988
566.52	3.791
566.86	5.254
567.20	4.551
567.54	4.094
567.88	4.278
568.21	3.145
568.55	3.745
568.89	4.060
569.23	3.840
569.56	3.355
569.90	3.593
570.24	3.748
570.57	3.537
570.91	3.058
571.25	3.440
571.59	3.243
571.92	3.041
572.26	2.642
572.60	3.055
572.93	3.163
573.27	3.102
573.61	2.491
573.95	3.038
574.28	3.054
574.62	2.911
574.96	2.667
575.29	2.943
575.63	2.874
575.97	2.702
576.30	3.037
576.64	2.943
576.98	2.833
577.31	2.912
577.65	2.936
577.98	2.655
578.32	2.797
578.66	2.760
578.99	2.895
579.33	3.248
579.67	3.023
580.00	2.843
580.34	2.816
580.67	3.177
581.01	3.182
581.35	2.882
581.68	2.441
582.02	2.701
582.35	2.761
582.69	2.594
583.02	2.730
583.36	2.911
583.70	2.836
584.03	2.958
584.37	2.903
584.70	2.812
585.04	2.570
585.37	2.750
585.71	2.944
586.04	3.030
586.38	2.657
586.72	3.140
587.05	3.397
587.39	3.338
587.72	2.781
588.06	2.930
588.39	2.994
588.73	2.779
589.06	3.006
589.40	3.161
589.73	3.441
590.07	2.848
590.40	3.693
590.73	4.113
591.07	4.250
591.40	3.792
591.74	3.734
592.07	3.245
592.41	3.597
592.74	3.515
593.08	3.223
593.41	2.992
593.75	2.899
594.08	3.511
594.41	3.128
594.75	2.979
595.08	3.567
595.42	3.292
595.75	3.389
596.09	3.580
596.42	3.496
596.75	3.766
597.09	3.921
597.42	3.510
597.75	3.448
598.09	3.529
598.42	3.550
598.76	3.701
599.09	4.082
599.42	2.941
599.76	3.494
600.09	3.559
600.42	3.349
600.76	3.535
601.09	3.141
601.42	3.520
601.76	3.151
602.09	3.606
602.42	3.771
602.76	3.340
603.09	3.846
603.42	3.963
603.76	3.181
604.09	3.149
604.42	3.390
604.76	3.556
605.09	3.143
605.42	3.982
605.75	3.514
606.09	3.481
606.42	3.420
606.75	3.576
607.09	3.632
607.42	2.893
607.75	3.463
608.08	3.371
608.42	3.817
608.75	3.252
609.08	3.564
609.41	3.773
609.75	3.755
610.08	3.642
610.41	3.601
610.74	3.723
611.07	3.956
611.41	3.707
611.74	3.537
612.07	4.046
612.40	3.850
612.73	3.844
613.07	4.359
613.40	3.559
613.73	4.094
614.06	3.000
614.39	4.091
614.72	3.616
615.06	3.808
615.39	4.158
615.72	3.630
616.05	3.918
616.38	3.907
616.71	3.310
617.05	3.899
617.38	3.483
617.71	3.768
618.04	3.477
618.37	4.336
618.70	3.580
619.03	3.846
619.36	4.460
619.69	3.430
620.03	4.631
620.36	4.110
620.69	4.853
621.02	4.620
621.35	4.298
621.68	4.351
622.01	4.649
622.34	4.079
622.67	4.635
623.00	4.901
623.33	4.858
623.66	3.659
623.99	4.178
624.32	3.997
624.65	3.884
624.99	3.719
625.32	4.142
625.65	3.655
625.98	4.463
626.31	4.006
626.64	4.556
626.97	4.667
627.30	4.736
627.63	4.867
627.96	3.130
628.29	4.373
628.62	4.277
628.95	5.053
629.28	4.908
629.61	5.536
629.94	4.581
630.26	6.499
630.59	5.053
630.92	4.933
631.25	5.349
631.58	5.400
631.91	5.138
632.24	5.637
632.57	4.912
632.90	5.590
633.23	6.925
633.56	5.163
633.89	5.466
634.22	6.781
634.55	6.129
634.88	6.243
635.20	6.614
635.53	5.226
635.86	6.488
636.19	4.602
636.52	5.730
636.85	4.315
637.18	6.284
637.51	5.587
637.83	5.835
638.16	6.448
638.49	6.108
638.82	6.573
639.15	5.993
639.48	6.280
639.81	5.006
640.13	5.767
640.46	7.332
640.79	6.242
641.12	5.249
641.45	7.762
641.77	6.077
642.10	5.489
642.43	6.401
642.76	5.398
643.09	4.899
643.41	7.714
643.74	7.050
644.07	6.490
644.40	5.473
644.73	7.207
645.05	8.618
645.38	5.972
645.71	7.132
646.04	8.702
646.36	7.199
646.69	5.440
647.02	7.360
647.35	5.984
647.67	6.807
648.00	6.352
648.33	7.368
648.66	6.970
648.98	4.058
649.31	5.263
649.64	4.288
649.96	7.112
650.29	8.143
650.62	8.542
650.94	7.982
651.27	6.539
651.60	5.634
651.92	7.527
652.25	6.614
652.58	7.092
652.90	7.036
653.23	5.170
653.56	6.528
653.88	6.461
654.21	6.891
654.54	6.442
654.86	6.342
655.19	6.069
655.52	4.429
655.84	2.228
656.17	2.147
