SpectraSuite Data File
++++++++++++++++++++++++++++++++++++
Date: Tue May 12 17:12:57 PDT 2015
User: schluterlab
Dark Spectrum Present: Yes
Reference Spectrum Present: Yes
Number of Sampled Component Spectra: 1
Spectrometers: USB2E3373
Integration Time (usec): 3000 (USB2E3373)
Spectra Averaged: 3 (USB2E3373)
Boxcar Smoothing: 0 (USB2E3373)
Correct for Electrical Dark: No (USB2E3373)
Strobe/Lamp Enabled: No (USB2E3373)
Correct for Detector Non-linearity: No (USB2E3373)
Correct for Stray Light: No (USB2E3373)
Number of Pixels in Processed Spectrum: 2048
>>>>>Begin Processed Spectral Data<<<<<
178.53	0.000
178.91	-275.000
179.29	-600.000
179.67	-3400.000
180.04	-133.333
180.42	650.000
180.80	1600.000
181.18	0.000
181.56	-312.500
181.94	0.000
182.31	1233.333
182.69	-3100.000
183.07	557.143
183.45	-3300.000
183.83	-1850.000
184.20	360.000
184.58	542.857
184.96	-261.538
185.34	-225.000
185.72	1500.000
186.09	-600.000
186.47	-3800.000
186.85	866.667
187.23	620.000
187.61	1850.000
187.98	425.000
188.36	242.857
188.74	300.000
189.12	275.000
189.49	800.000
189.87	0.000
190.25	525.000
190.63	1500.000
191.00	-233.333
191.38	-2400.000
191.76	-800.000
192.14	525.000
192.51	-2400.000
192.89	1600.000
193.27	1000.000
193.65	-1166.667
194.02	-660.000
194.40	500.000
194.78	-200.000
195.15	240.000
195.53	-2700.000
195.91	-620.000
196.29	3600.000
196.66	212.500
197.04	750.000
197.42	-1100.000
197.79	550.000
198.17	308.333
198.55	0.000
198.92	285.714
199.30	1133.333
199.68	1700.000
200.05	683.333
200.43	-400.000
200.81	183.333
201.18	3700.000
201.56	158.333
201.94	-825.000
202.31	-275.000
202.69	-540.000
203.07	2800.000
203.44	-433.333
203.82	291.667
204.19	600.000
204.57	-1250.000
204.95	-625.000
205.32	-840.000
205.70	300.000
206.08	800.000
206.45	-766.667
206.83	411.111
207.20	194.737
207.58	175.000
207.96	560.000
208.33	0.000
208.71	442.857
209.08	640.000
209.46	-2600.000
209.84	-725.000
210.21	820.000
210.59	-560.000
210.96	308.333
211.34	-725.000
211.71	436.364
212.09	950.000
212.46	1550.000
212.84	-433.333
213.22	444.444
213.59	-2200.000
213.97	280.000
214.34	1025.000
214.72	966.667
215.09	933.333
215.47	-3400.000
215.84	-300.000
216.22	-337.500
216.59	0.000
216.97	0.000
217.34	1300.000
217.72	-1450.000
218.09	1233.333
218.47	412.500
218.84	875.000
219.22	933.333
219.59	1100.000
219.97	514.286
220.34	300.000
220.72	1250.000
221.09	2900.000
221.47	258.333
221.84	1166.667
222.22	350.000
222.59	238.889
222.97	192.857
223.34	231.250
223.72	-950.000
224.09	1066.667
224.46	346.154
224.84	-700.000
225.21	433.333
225.59	233.333
225.96	933.333
226.34	-720.000
226.71	-875.000
227.08	-560.000
227.46	0.000
227.83	-400.000
228.21	-1450.000
228.58	391.667
228.95	1200.000
229.33	266.667
229.70	700.000
230.08	346.154
230.45	3200.000
230.82	-950.000
231.20	-933.333
231.57	-966.667
231.95	440.000
232.32	275.000
232.69	516.667
233.07	166.667
233.44	-1850.000
233.81	200.000
234.19	129.630
234.56	168.750
234.93	164.706
235.31	185.000
235.68	231.250
236.05	125.000
236.43	100.000
236.80	278.571
237.17	141.379
237.55	134.375
237.92	82.500
238.29	139.394
238.67	103.125
239.04	102.439
239.41	58.333
239.79	72.500
240.16	81.250
240.53	63.934
240.91	66.667
241.28	57.627
241.65	63.636
242.02	61.972
242.40	68.571
242.77	45.055
243.14	35.443
243.51	53.535
243.89	42.991
244.26	39.252
244.63	39.604
245.00	44.954
245.38	27.966
245.75	33.333
246.12	40.000
246.49	33.333
246.87	33.607
247.24	34.667
247.61	33.750
247.98	42.177
248.36	24.242
248.73	32.143
249.10	24.405
249.47	26.500
249.84	25.373
250.22	30.270
250.59	29.500
250.96	29.114
251.33	25.581
251.70	27.232
252.08	24.370
252.45	23.108
252.82	21.293
253.19	23.320
253.56	18.077
253.94	21.739
254.31	23.643
254.68	23.693
255.05	21.034
255.42	19.708
255.79	21.824
256.16	17.288
256.54	20.130
256.91	22.549
257.28	20.736
257.65	18.182
258.02	18.584
258.39	25.788
258.76	22.609
259.14	14.857
259.51	21.283
259.88	18.237
260.25	18.407
260.62	16.986
260.99	15.152
261.36	22.006
261.73	19.415
262.10	18.325
262.47	17.250
262.85	17.867
263.22	19.537
263.59	18.926
263.96	18.797
264.33	15.556
264.70	19.165
265.07	17.561
265.44	18.578
265.81	18.396
266.18	15.789
266.55	16.548
266.92	17.673
267.29	16.886
267.66	16.816
268.03	18.161
268.40	17.548
268.77	16.740
269.14	16.052
269.51	18.040
269.88	18.776
270.25	14.039
270.62	15.665
270.99	17.444
271.36	17.073
271.73	16.562
272.10	15.152
272.47	14.683
272.84	18.363
273.21	15.289
273.58	17.814
273.95	15.606
274.32	17.510
274.69	17.520
275.06	16.029
275.43	16.092
275.80	17.547
276.17	15.441
276.54	18.131
276.91	15.672
277.28	16.241
277.65	14.576
278.02	17.279
278.39	16.187
278.76	17.241
279.13	15.658
279.50	14.909
279.87	13.408
280.23	15.101
280.60	15.511
280.97	15.172
281.34	16.667
281.71	17.217
282.08	14.872
282.45	14.020
282.82	15.552
283.19	14.467
283.56	13.884
283.92	15.635
284.29	16.639
284.66	14.790
285.03	14.760
285.40	17.851
285.77	14.660
286.14	15.944
286.51	14.264
286.87	15.506
287.24	13.814
287.61	12.766
287.98	14.030
288.35	13.333
288.72	13.809
289.08	16.066
289.45	15.549
289.82	15.000
290.19	15.520
290.56	16.885
290.93	14.532
291.29	13.398
291.66	12.994
292.03	15.147
292.40	13.279
292.77	13.231
293.13	15.407
293.50	13.630
293.87	11.924
294.24	14.965
294.60	15.343
294.97	15.524
295.34	15.671
295.71	14.060
296.08	15.600
296.44	15.248
296.81	13.275
297.18	14.195
297.55	15.887
297.91	14.163
298.28	15.700
298.65	14.479
299.02	13.390
299.38	15.588
299.75	14.024
300.12	14.450
300.48	16.628
300.85	16.210
301.22	15.698
301.59	15.330
301.95	14.586
302.32	16.997
302.69	15.158
303.05	16.835
303.42	14.910
303.79	15.601
304.15	14.521
304.52	15.962
304.89	15.885
305.25	15.128
305.62	16.205
305.99	14.891
306.35	15.895
306.72	16.129
307.09	16.046
307.45	16.473
307.82	15.844
308.19	17.216
308.55	16.300
308.92	16.192
309.29	16.963
309.65	15.659
310.02	16.633
310.38	16.949
310.75	16.972
311.12	16.667
311.48	18.147
311.85	18.034
312.22	19.007
312.58	17.493
312.95	17.670
313.31	18.633
313.68	18.762
314.05	19.048
314.41	19.367
314.78	19.129
315.14	18.957
315.51	20.057
315.87	20.073
316.24	20.448
316.61	20.143
316.97	19.633
317.34	20.665
317.70	20.983
318.07	21.886
318.43	21.793
318.80	21.541
319.16	22.465
319.53	22.301
319.89	22.401
320.26	23.277
320.62	23.535
320.99	22.021
321.35	23.469
321.72	25.427
322.08	24.192
322.45	24.977
322.81	26.075
323.18	25.222
323.54	26.045
323.91	26.745
324.27	26.172
324.64	25.000
325.00	28.017
325.37	28.331
325.73	26.813
326.10	28.500
326.46	27.993
326.83	28.640
327.19	28.996
327.56	29.553
327.92	30.000
328.29	30.278
328.65	29.966
329.01	30.026
329.38	30.034
329.74	29.633
330.11	30.408
330.47	31.287
330.84	30.802
331.20	30.626
331.56	32.211
331.93	31.138
332.29	28.741
332.66	32.483
333.02	30.069
333.38	31.675
333.75	32.360
334.11	31.711
334.48	32.821
334.84	31.250
335.20	32.079
335.57	30.730
335.93	30.698
336.29	31.095
336.66	31.990
337.02	31.052
337.38	30.696
337.75	32.348
338.11	31.899
338.47	30.906
338.84	31.583
339.20	31.255
339.56	31.455
339.93	32.107
340.29	31.765
340.65	32.355
341.02	33.467
341.38	31.938
341.74	32.558
342.11	32.387
342.47	31.583
342.83	32.814
343.20	31.447
343.56	30.580
343.92	31.627
344.28	32.695
344.65	32.111
345.01	31.905
345.37	31.250
345.73	31.984
346.10	31.873
346.46	32.695
346.82	30.710
347.19	33.153
347.55	31.460
347.91	32.100
348.27	31.448
348.63	32.120
349.00	32.064
349.36	32.374
349.72	32.569
350.08	33.307
350.45	32.140
350.81	34.557
351.17	31.510
351.53	32.948
351.89	31.857
352.26	31.670
352.62	32.881
352.98	33.972
353.34	32.126
353.70	32.034
354.07	33.154
354.43	33.717
354.79	32.194
355.15	31.776
355.51	32.779
355.87	33.057
356.24	34.026
356.60	32.344
356.96	32.221
357.32	33.007
357.68	32.819
358.04	33.967
358.40	33.133
358.77	33.734
359.13	33.634
359.49	32.839
359.85	33.582
360.21	33.804
360.57	33.577
360.93	33.838
361.29	34.271
361.66	34.601
362.02	33.381
362.38	34.271
362.74	33.616
363.10	34.011
363.46	33.011
363.82	33.100
364.18	33.997
364.54	34.478
364.90	34.003
365.26	34.629
365.62	34.392
365.98	33.586
366.35	33.034
366.71	33.657
367.07	34.881
367.43	34.990
367.79	34.375
368.15	33.311
368.51	35.079
368.87	33.832
369.23	33.195
369.59	34.120
369.95	34.965
370.31	35.113
370.67	34.490
371.03	34.734
371.39	34.488
371.75	33.985
372.11	33.923
372.47	35.479
372.83	34.466
373.19	34.681
373.55	35.120
373.91	34.669
374.27	34.590
374.63	35.119
374.99	35.377
375.35	35.685
375.71	35.158
376.07	34.682
376.42	34.335
376.78	35.645
377.14	36.304
377.50	35.331
377.86	35.746
378.22	34.979
378.58	36.743
378.94	35.667
379.30	36.204
379.66	34.437
380.02	35.484
380.38	35.773
380.74	35.582
381.09	36.332
381.45	35.665
381.81	35.343
382.17	35.897
382.53	35.573
382.89	35.837
383.25	35.406
383.61	35.447
383.97	35.693
384.32	35.081
384.68	36.482
385.04	35.287
385.40	36.180
385.76	36.044
386.12	35.745
386.48	36.413
386.83	35.513
387.19	35.748
387.55	36.690
387.91	36.605
388.27	35.455
388.62	35.798
388.98	36.327
389.34	36.050
389.70	35.967
390.06	36.402
390.42	35.965
390.77	36.794
391.13	36.270
391.49	36.177
391.85	37.477
392.20	35.757
392.56	36.081
392.92	35.261
393.28	37.556
393.64	35.378
393.99	35.270
394.35	35.727
394.71	35.766
395.07	35.097
395.42	36.300
395.78	36.706
396.14	36.325
396.50	36.161
396.85	35.427
397.21	35.138
397.57	34.728
397.92	35.066
398.28	34.970
398.64	36.417
399.00	34.367
399.35	35.051
399.71	34.547
400.07	34.874
400.42	35.224
400.78	35.367
401.14	36.054
401.49	35.023
401.85	35.458
402.21	34.915
402.57	35.308
402.92	34.667
403.28	33.771
403.63	35.374
403.99	34.922
404.35	35.229
404.70	35.558
405.06	34.138
405.42	35.009
405.77	34.179
406.13	34.924
406.49	34.110
406.84	34.236
407.20	34.646
407.55	34.831
407.91	36.120
408.27	34.566
408.62	34.418
408.98	35.245
409.34	33.781
409.69	34.536
410.05	35.122
410.40	34.040
410.76	34.173
411.11	34.123
411.47	35.062
411.83	34.915
412.18	33.937
412.54	35.495
412.89	33.805
413.25	34.265
413.60	35.514
413.96	34.770
414.31	35.419
414.67	34.575
415.03	34.227
415.38	35.268
415.74	35.060
416.09	36.040
416.45	36.458
416.80	35.664
417.16	35.010
417.51	34.586
417.87	34.731
418.22	34.690
418.58	36.051
418.93	34.979
419.29	33.949
419.64	35.857
420.00	35.800
420.35	35.192
420.71	34.306
421.06	35.315
421.42	35.463
421.77	35.480
422.12	36.218
422.48	34.669
422.83	36.217
423.19	37.311
423.54	35.491
423.90	36.920
424.25	36.379
424.61	35.694
424.96	36.081
425.31	36.180
425.67	36.532
426.02	35.558
426.38	35.648
426.73	36.264
427.09	37.960
427.44	36.860
427.79	37.050
428.15	37.242
428.50	36.571
428.85	37.037
429.21	36.899
429.56	37.188
429.92	36.997
430.27	36.333
430.62	35.438
430.98	36.727
431.33	36.593
431.68	36.148
432.04	36.265
432.39	37.596
432.74	37.646
433.10	38.317
433.45	37.852
433.80	38.058
434.16	37.310
434.51	37.874
434.86	37.398
435.22	37.925
435.57	38.115
435.92	39.727
436.28	38.479
436.63	38.088
436.98	39.527
437.34	38.642
437.69	36.954
438.04	38.333
438.39	37.420
438.75	38.363
439.10	38.100
439.45	37.535
439.81	39.271
440.16	38.690
440.51	38.401
440.86	39.088
441.22	38.258
441.57	37.638
441.92	37.660
442.27	37.680
442.63	38.415
442.98	37.392
443.33	38.404
443.68	38.078
444.03	38.784
444.39	37.288
444.74	37.526
445.09	38.020
445.44	38.682
445.79	37.817
446.15	38.421
446.50	39.662
446.85	38.695
447.20	37.811
447.55	38.119
447.91	38.199
448.26	37.487
448.61	38.917
448.96	39.488
449.31	38.614
449.66	38.095
450.02	38.142
450.37	38.756
450.72	38.347
451.07	38.860
451.42	38.471
451.77	38.660
452.12	39.705
452.47	38.518
452.83	39.493
453.18	39.640
453.53	39.372
453.88	39.086
454.23	38.873
454.58	38.578
454.93	39.362
455.28	38.617
455.63	38.652
455.98	38.579
456.34	39.514
456.69	38.720
457.04	38.663
457.39	39.086
457.74	39.077
458.09	38.855
458.44	37.897
458.79	37.772
459.14	38.025
459.49	39.298
459.84	38.261
460.19	38.418
460.54	37.949
460.89	38.699
461.24	38.030
461.59	39.059
461.94	38.475
462.29	38.673
462.64	39.259
462.99	38.196
463.34	39.533
463.69	38.294
464.04	39.148
464.39	37.951
464.74	37.632
465.09	38.421
465.44	37.758
465.79	37.561
466.14	36.884
466.49	37.873
466.84	37.179
467.19	38.079
467.54	37.898
467.89	37.265
468.24	37.811
468.59	37.262
468.94	37.379
469.29	37.874
469.64	38.264
469.99	38.753
470.34	37.634
470.68	39.172
471.03	39.293
471.38	38.278
471.73	38.014
472.08	38.291
472.43	38.610
472.78	39.373
473.13	37.109
473.48	38.447
473.83	38.457
474.17	38.298
474.52	37.085
474.87	37.862
475.22	38.150
475.57	37.093
475.92	36.178
476.27	36.017
476.61	37.802
476.96	36.625
477.31	37.892
477.66	38.111
478.01	37.648
478.36	37.024
478.70	37.270
479.05	37.186
479.40	37.004
479.75	37.090
480.10	37.367
480.45	36.881
480.79	35.530
481.14	35.806
481.49	35.499
481.84	35.884
482.19	36.288
482.53	35.485
482.88	36.022
483.23	35.859
483.58	36.266
483.92	36.472
484.27	35.360
484.62	36.121
484.97	34.827
485.31	34.147
485.66	33.448
486.01	32.292
486.36	32.236
486.70	31.826
487.05	32.589
487.40	32.502
487.75	33.532
488.09	33.636
488.44	34.034
488.79	34.675
489.13	35.312
489.48	35.158
489.83	35.405
490.17	35.508
490.52	35.314
490.87	34.828
491.22	35.683
491.56	35.222
491.91	35.349
492.26	34.744
492.60	34.989
492.95	35.705
493.30	35.168
493.64	35.040
493.99	35.420
494.34	34.603
494.68	35.591
495.03	35.923
495.37	34.939
495.72	36.364
496.07	34.951
496.41	35.230
496.76	35.078
497.11	34.747
497.45	34.809
497.80	35.496
498.14	35.691
498.49	34.819
498.84	35.514
499.18	34.049
499.53	34.727
499.87	34.007
500.22	34.961
500.56	34.633
500.91	35.065
501.26	35.462
501.60	34.290
501.95	33.781
502.29	33.733
502.64	33.745
502.98	33.971
503.33	34.076
503.67	33.598
504.02	34.259
504.36	34.434
504.71	35.525
505.06	34.115
505.40	34.488
505.75	33.349
506.09	34.484
506.44	34.445
506.78	34.641
507.13	34.561
507.47	34.110
507.82	34.599
508.16	34.444
508.51	34.976
508.85	34.425
509.19	34.557
509.54	34.961
509.88	35.057
510.23	32.745
510.57	33.880
510.92	35.215
511.26	35.090
511.61	33.580
511.95	33.599
512.30	34.300
512.64	33.749
512.98	33.470
513.33	34.016
513.67	33.972
514.02	33.195
514.36	33.645
514.70	34.027
515.05	34.896
515.39	34.704
515.74	36.085
516.08	33.115
516.42	36.448
516.77	34.240
517.11	34.187
517.46	33.944
517.80	33.971
518.14	35.268
518.49	34.785
518.83	33.736
519.17	34.221
519.52	34.681
519.86	34.060
520.20	35.014
520.55	34.878
520.89	34.080
521.23	34.521
521.58	33.505
521.92	34.461
522.26	34.656
522.61	34.284
522.95	34.354
523.29	33.918
523.64	33.873
523.98	35.563
524.32	34.198
524.66	33.797
525.01	33.432
525.35	33.235
525.69	34.377
526.04	34.979
526.38	33.961
526.72	33.294
527.06	33.294
527.41	33.615
527.75	34.327
528.09	33.353
528.43	33.374
528.78	34.049
529.12	34.377
529.46	33.898
529.80	33.586
530.15	33.353
530.49	33.815
530.83	33.760
531.17	33.333
531.51	32.863
531.86	33.454
532.20	32.015
532.54	33.019
532.88	33.479
533.22	33.577
533.57	32.642
533.91	32.576
534.25	32.141
534.59	32.398
534.93	31.286
535.27	31.986
535.62	31.622
535.96	32.447
536.30	32.419
536.64	33.106
536.98	32.410
537.32	32.125
537.66	31.378
538.01	33.127
538.35	32.502
538.69	32.100
539.03	32.214
539.37	32.100
539.71	32.469
540.05	31.815
540.39	32.516
540.73	32.089
541.07	32.873
541.42	31.965
541.76	31.443
542.10	31.874
542.44	31.920
542.78	32.473
543.12	30.982
543.46	31.266
543.80	31.955
544.14	32.074
544.48	31.265
544.82	31.315
545.16	30.783
545.50	31.039
545.84	32.197
546.18	31.925
546.52	32.918
546.86	31.721
547.20	31.460
547.54	31.539
547.88	30.231
548.22	30.176
548.56	30.701
548.90	30.071
549.24	31.080
549.58	30.541
549.92	31.958
550.26	31.643
550.60	30.007
550.94	32.429
551.28	33.103
551.62	32.828
551.96	32.027
552.30	31.312
552.64	30.680
552.98	30.348
553.32	29.641
553.66	31.140
554.00	31.210
554.34	31.625
554.68	31.519
555.02	31.500
555.36	30.519
555.69	31.414
556.03	30.446
556.37	30.210
556.71	32.269
557.05	30.472
557.39	30.667
557.73	31.199
558.07	30.785
558.41	31.597
558.75	31.874
559.08	33.095
559.42	30.852
559.76	31.932
560.10	30.145
560.44	30.591
560.78	31.330
561.12	30.515
561.45	29.599
561.79	30.400
562.13	30.449
562.47	31.149
562.81	30.579
563.15	30.640
563.48	28.447
563.82	30.131
564.16	29.540
564.50	28.692
564.84	30.213
565.17	29.531
565.51	31.527
565.85	31.092
566.19	29.464
566.52	29.362
566.86	29.364
567.20	29.101
567.54	28.712
567.88	29.212
568.21	27.359
568.55	29.426
568.89	27.600
569.23	26.402
569.56	26.957
569.90	25.943
570.24	25.724
570.57	25.762
570.91	25.335
571.25	24.644
571.59	25.099
571.92	25.108
572.26	24.016
572.60	24.854
572.93	25.244
573.27	24.354
573.61	24.959
573.95	23.929
574.28	24.479
574.62	23.707
574.96	23.576
575.29	23.659
575.63	23.816
575.97	23.661
576.30	23.640
576.64	24.228
576.98	23.729
577.31	24.054
577.65	23.678
577.98	23.013
578.32	22.996
578.66	23.892
578.99	23.600
579.33	23.793
579.67	23.586
580.00	23.068
580.34	23.581
580.67	23.289
581.01	23.897
581.35	23.415
581.68	22.622
582.02	22.674
582.35	22.269
582.69	22.985
583.02	22.924
583.36	23.518
583.70	24.026
584.03	24.683
584.37	23.776
584.70	23.663
585.04	23.531
585.37	22.994
585.71	23.506
586.04	23.174
586.38	23.701
586.72	23.578
587.05	24.344
587.39	23.666
587.72	23.591
588.06	23.690
588.39	23.439
588.73	23.808
589.06	24.074
589.40	24.632
589.73	24.680
590.07	24.777
590.40	24.599
590.73	24.972
591.07	25.427
591.40	25.429
591.74	25.365
592.07	25.624
592.41	24.940
592.74	24.167
593.08	24.154
593.41	23.908
593.75	23.865
594.08	24.330
594.41	24.438
594.75	24.349
595.08	25.137
595.42	24.885
595.75	24.218
596.09	24.922
596.42	24.071
596.75	26.162
597.09	25.382
597.42	24.857
597.75	25.152
598.09	25.605
598.42	25.133
598.76	24.788
599.09	24.384
599.42	24.256
599.76	23.813
600.09	24.068
600.42	23.895
600.76	23.827
601.09	24.059
601.42	23.618
601.76	24.132
602.09	23.841
602.42	23.771
602.76	24.820
603.09	24.698
603.42	23.743
603.76	24.440
604.09	24.502
604.42	24.105
604.76	24.417
605.09	24.082
605.42	24.137
605.75	24.161
606.09	24.331
606.42	24.051
606.75	24.640
607.09	24.595
607.42	24.387
607.75	24.562
608.08	24.330
608.42	24.832
608.75	24.604
609.08	25.121
609.41	24.773
609.75	25.046
610.08	24.460
610.41	24.374
610.74	24.632
611.07	25.421
611.41	25.162
611.74	25.096
612.07	25.482
612.40	25.292
612.73	24.863
613.07	26.204
613.40	25.113
613.73	25.512
614.06	25.050
614.39	25.152
614.72	25.013
615.06	25.272
615.39	25.050
615.72	24.734
616.05	26.268
616.38	25.622
616.71	26.044
617.05	25.371
617.38	25.449
617.71	26.434
618.04	25.575
618.37	25.514
618.70	26.212
619.03	25.824
619.36	26.822
619.69	26.517
620.03	27.267
620.36	27.746
620.69	27.011
621.02	28.057
621.35	26.146
621.68	27.507
622.01	28.192
622.34	27.895
622.67	26.826
623.00	26.413
623.33	26.991
623.66	26.813
623.99	26.918
624.32	27.168
624.65	26.596
624.99	26.775
625.32	26.119
625.65	26.759
625.98	26.430
626.31	28.635
626.64	27.563
626.97	27.697
627.30	27.795
627.63	28.414
627.96	28.560
628.29	27.970
628.62	27.802
628.95	29.787
629.28	29.448
629.61	28.383
629.94	28.781
630.26	28.683
630.59	28.989
630.92	29.507
631.25	29.374
