SpectraSuite Data File
++++++++++++++++++++++++++++++++++++
Date: Tue May 12 17:18:39 PDT 2015
User: schluterlab
Dark Spectrum Present: Yes
Reference Spectrum Present: Yes
Number of Sampled Component Spectra: 1
Spectrometers: USB2E3373
Integration Time (usec): 3000 (USB2E3373)
Spectra Averaged: 3 (USB2E3373)
Boxcar Smoothing: 0 (USB2E3373)
Correct for Electrical Dark: No (USB2E3373)
Strobe/Lamp Enabled: No (USB2E3373)
Correct for Detector Non-linearity: No (USB2E3373)
Correct for Stray Light: No (USB2E3373)
Number of Pixels in Processed Spectrum: 2048
>>>>>Begin Processed Spectral Data<<<<<
178.53	0.000
178.91	-191.667
179.29	-775.000
179.67	-3900.000
180.04	-106.667
180.42	550.000
180.80	1450.000
181.18	0.000
181.56	-225.000
181.94	0.000
182.31	933.333
182.69	-3300.000
183.07	642.857
183.45	-3300.000
183.83	-1800.000
184.20	310.000
184.58	528.571
184.96	-184.615
185.34	-241.667
185.72	1850.000
186.09	-975.000
186.47	-3200.000
186.85	1100.000
187.23	440.000
187.61	1750.000
187.98	437.500
188.36	185.714
188.74	325.000
189.12	316.667
189.49	675.000
189.87	0.000
190.25	475.000
190.63	3500.000
191.00	-216.667
191.38	-2900.000
191.76	-800.000
192.14	525.000
192.51	-2700.000
192.89	1850.000
193.27	1266.667
193.65	-966.667
194.02	-680.000
194.40	514.286
194.78	-214.286
195.15	300.000
195.53	-3200.000
195.91	-560.000
196.29	4200.000
196.66	250.000
197.04	925.000
197.42	-1300.000
197.79	775.000
198.17	358.333
198.55	0.000
198.92	457.143
199.30	1166.667
199.68	2100.000
200.05	616.667
200.43	-350.000
200.81	205.556
201.18	3200.000
201.56	250.000
201.94	-750.000
202.31	-437.500
202.69	-560.000
203.07	3000.000
203.44	-400.000
203.82	275.000
204.19	660.000
204.57	-1500.000
204.95	-700.000
205.32	-640.000
205.70	500.000
206.08	775.000
206.45	-866.667
206.83	422.222
207.20	210.526
207.58	250.000
207.96	760.000
208.33	0.000
208.71	700.000
209.08	620.000
209.46	-3100.000
209.84	-825.000
210.21	920.000
210.59	-420.000
210.96	250.000
211.34	-950.000
211.71	336.364
212.09	900.000
212.46	1850.000
212.84	-366.667
213.22	388.889
213.59	-3200.000
213.97	280.000
214.34	825.000
214.72	1033.333
215.09	1000.000
215.47	-3200.000
215.84	-330.000
216.22	-362.500
216.59	0.000
216.97	0.000
217.34	1500.000
217.72	-1700.000
218.09	1433.333
218.47	400.000
218.84	900.000
219.22	1066.667
219.59	800.000
219.97	642.857
220.34	422.222
220.72	1150.000
221.09	3200.000
221.47	291.667
221.84	1100.000
222.22	330.000
222.59	222.222
222.97	257.143
223.34	262.500
223.72	-1650.000
224.09	1066.667
224.46	300.000
224.84	-625.000
225.21	388.889
225.59	340.000
225.96	1100.000
226.34	-660.000
226.71	-775.000
227.08	-780.000
227.46	0.000
227.83	-616.667
228.21	-1850.000
228.58	291.667
228.95	900.000
229.33	266.667
229.70	1075.000
230.08	338.462
230.45	4300.000
230.82	-725.000
231.20	-733.333
231.57	-1266.667
231.95	340.000
232.32	308.333
232.69	650.000
233.07	375.000
233.44	-1750.000
233.81	240.000
234.19	148.148
234.56	243.750
234.93	200.000
235.31	225.000
235.68	262.500
236.05	167.857
236.43	129.630
236.80	221.429
237.17	155.172
237.55	121.875
237.92	107.500
238.29	106.061
238.67	100.000
239.04	117.073
239.41	66.667
239.79	82.500
240.16	68.750
240.53	65.574
240.91	60.870
241.28	62.712
241.65	71.212
242.02	76.056
242.40	62.857
242.77	56.044
243.14	45.570
243.51	51.515
243.89	47.664
244.26	41.121
244.63	42.574
245.00	41.284
245.38	31.356
245.75	38.636
246.12	40.000
246.49	34.043
246.87	34.426
247.24	36.000
247.61	36.250
247.98	29.252
248.36	26.667
248.73	35.204
249.10	28.571
249.47	25.500
249.84	31.841
250.22	30.270
250.59	28.500
250.96	29.114
251.33	27.907
251.70	25.000
252.08	28.151
252.45	24.303
252.82	23.954
253.19	24.901
253.56	28.462
253.94	26.812
254.31	24.806
254.68	25.784
255.05	25.517
255.42	25.912
255.79	27.036
256.16	21.695
256.54	26.623
256.91	21.895
257.28	23.746
257.65	20.063
258.02	21.829
258.39	23.496
258.76	22.029
259.14	19.429
259.51	27.988
259.88	20.669
260.25	21.154
260.62	22.466
260.99	21.212
261.36	19.777
261.73	22.074
262.10	21.204
262.47	25.500
262.85	17.067
263.22	22.108
263.59	21.228
263.96	22.556
264.33	22.222
264.70	20.885
265.07	22.195
265.44	19.954
265.81	19.104
266.18	21.053
266.55	19.385
266.92	22.148
267.29	23.684
267.66	17.713
268.03	19.058
268.40	20.719
268.77	21.366
269.14	21.041
269.51	17.817
269.88	22.857
270.25	16.415
270.62	19.313
270.99	19.270
271.36	21.341
271.73	20.335
272.10	17.374
272.47	18.849
272.84	18.762
273.21	18.182
273.58	20.850
273.95	17.043
274.32	20.817
274.69	21.654
275.06	21.311
275.43	18.391
275.80	16.981
276.17	20.221
276.54	20.187
276.91	19.403
277.28	17.336
277.65	19.557
278.02	17.831
278.39	19.964
278.76	18.103
279.13	18.861
279.50	18.909
279.87	17.132
280.23	18.416
280.60	18.248
280.97	18.966
281.34	17.492
281.71	18.783
282.08	19.487
282.45	16.216
282.82	17.726
283.19	18.760
283.56	18.347
283.92	18.241
284.29	17.970
284.66	16.471
285.03	17.910
285.40	17.686
285.77	16.667
286.14	20.279
286.51	18.098
286.87	17.247
287.24	15.916
287.61	17.781
287.98	18.507
288.35	16.148
288.72	16.995
289.08	17.568
289.45	15.396
289.82	17.188
290.19	17.570
290.56	17.613
290.93	16.259
291.29	16.160
291.66	14.548
292.03	17.111
292.40	16.667
292.77	16.156
293.13	15.121
293.50	15.655
293.87	14.905
294.24	17.483
294.60	15.882
294.97	15.245
295.34	15.405
295.71	16.163
296.08	16.400
296.44	15.502
296.81	15.757
297.18	14.068
297.55	15.887
297.91	14.532
298.28	14.855
298.65	15.706
299.02	14.475
299.38	14.748
299.75	16.463
300.12	15.596
300.48	15.925
300.85	15.614
301.22	16.977
301.59	14.623
301.95	13.302
302.32	15.017
302.69	15.724
303.05	16.274
303.42	13.789
303.79	15.168
304.15	15.182
304.52	15.011
304.89	14.819
305.25	15.573
305.62	17.164
305.99	13.804
306.35	15.053
306.72	15.088
307.09	14.803
307.45	16.051
307.82	15.638
308.19	16.804
308.55	15.400
308.92	16.683
309.29	15.779
309.65	17.245
310.02	18.154
310.38	15.354
310.75	16.008
311.12	15.900
311.48	18.147
311.85	17.271
312.22	18.625
312.58	17.104
312.95	18.835
313.31	19.195
313.68	18.949
314.05	18.773
314.41	18.901
314.78	19.223
315.14	20.569
315.51	20.151
315.87	20.803
316.24	20.542
316.61	20.859
316.97	19.450
317.34	20.845
317.70	21.598
318.07	24.021
318.43	23.111
318.80	23.380
319.16	22.640
319.53	23.628
319.89	23.477
320.26	24.395
320.62	25.458
320.99	26.025
321.35	25.417
321.72	27.230
322.08	26.131
322.45	26.703
322.81	27.539
323.18	29.218
323.54	28.223
323.91	30.009
324.27	29.178
324.64	29.585
325.00	30.345
325.37	30.101
325.73	31.113
326.10	32.394
326.46	31.214
326.83	32.240
327.19	34.137
327.56	34.185
327.92	35.164
328.29	35.597
328.65	36.901
329.01	36.099
329.38	36.294
329.74	36.721
330.11	36.751
330.47	37.340
330.84	36.756
331.20	36.971
331.56	39.551
331.93	36.955
332.29	36.139
332.66	37.925
333.02	37.629
333.38	39.354
333.75	39.283
334.11	38.087
334.48	39.402
334.84	38.598
335.20	38.323
335.57	38.035
335.93	38.772
336.29	38.889
336.66	41.681
337.02	40.205
337.38	39.639
337.75	40.203
338.11	39.916
338.47	39.881
338.84	39.204
339.20	38.009
339.56	38.772
339.93	39.883
340.29	38.655
340.65	41.241
341.02	40.386
341.38	39.327
341.74	40.947
342.11	41.736
342.47	40.115
342.83	41.756
343.20	40.905
343.56	40.111
343.92	40.875
344.28	41.228
344.65	41.891
345.01	40.476
345.37	41.346
345.73	40.794
346.10	42.151
346.46	40.989
346.82	41.435
347.19	41.345
347.55	40.906
347.91	40.559
348.27	41.363
348.63	42.009
349.00	41.965
349.36	41.634
349.72	41.667
350.08	43.401
350.45	41.813
350.81	42.431
351.17	40.216
351.53	42.417
351.89	42.813
352.26	42.555
352.62	43.363
352.98	43.021
353.34	43.683
353.70	41.667
354.07	42.846
354.43	42.704
354.79	42.369
355.15	44.946
355.51	43.731
355.87	44.127
356.24	43.572
356.60	43.683
356.96	43.973
357.32	43.632
357.68	43.392
358.04	44.985
358.40	44.978
358.77	44.478
359.13	45.345
359.49	43.514
359.85	44.974
360.21	44.874
360.57	44.599
360.93	44.156
361.29	45.166
361.66	46.607
362.02	45.241
362.38	46.392
362.74	46.355
363.10	46.704
363.46	44.820
363.82	45.722
364.18	46.159
364.54	46.996
364.90	46.921
365.26	47.328
365.62	45.580
365.98	44.253
366.35	46.414
366.71	47.189
367.07	47.372
367.43	46.474
367.79	47.207
368.15	46.744
368.51	48.174
368.87	47.554
369.23	47.540
369.59	48.213
369.95	47.902
370.31	48.186
370.67	47.536
371.03	46.849
371.39	47.368
371.75	48.639
372.11	46.567
372.47	48.288
372.83	49.014
373.19	49.143
373.55	49.003
373.91	47.030
374.27	48.545
374.63	49.288
374.99	49.663
375.35	50.134
375.71	49.011
376.07	49.337
376.42	48.529
376.78	49.069
377.14	49.607
377.50	47.940
377.86	49.391
378.22	48.751
378.58	48.850
378.94	48.884
379.30	48.696
379.66	48.826
380.02	48.798
380.38	48.419
380.74	49.827
381.09	50.350
381.45	47.803
381.81	48.345
382.17	49.328
382.53	48.650
382.89	48.965
383.25	48.964
383.61	48.415
383.97	47.930
384.32	49.247
384.68	50.446
385.04	50.234
385.40	49.051
385.76	48.449
386.12	49.536
386.48	49.726
386.83	48.839
387.19	48.822
387.55	48.587
387.91	49.480
388.27	48.305
388.62	49.061
388.98	46.822
389.34	47.650
389.70	48.231
390.06	48.293
390.42	48.427
390.77	47.420
391.13	48.823
391.49	48.941
391.85	48.862
392.20	48.451
392.56	46.953
392.92	47.782
393.28	47.365
393.64	47.764
393.99	47.718
394.35	46.027
394.71	46.261
395.07	46.898
395.42	46.838
395.78	48.242
396.14	47.831
396.50	47.593
396.85	47.073
397.21	48.195
397.57	47.460
397.92	47.256
398.28	47.380
398.64	46.655
399.00	45.751
399.35	45.089
399.71	47.517
400.07	46.747
400.42	46.030
400.78	47.331
401.14	46.213
401.49	46.083
401.85	46.640
402.21	46.397
402.57	47.516
402.92	46.242
403.28	46.599
403.63	45.438
403.99	45.778
404.35	46.014
404.70	45.836
405.06	45.143
405.42	45.362
405.77	44.763
406.13	44.957
406.49	45.537
406.84	43.937
407.20	45.263
407.55	45.231
407.91	44.990
408.27	45.664
408.62	45.180
408.98	44.530
409.34	44.652
409.69	44.617
410.05	43.649
410.40	45.406
410.76	44.018
411.11	44.017
411.47	43.395
411.83	42.941
412.18	42.693
412.54	44.384
412.89	43.186
413.25	44.128
413.60	43.692
413.96	43.627
414.31	44.569
414.67	44.196
415.03	43.103
415.38	44.290
415.74	44.346
416.09	43.785
416.45	43.697
416.80	44.452
417.16	43.348
417.51	44.331
417.87	44.493
418.22	42.831
418.58	45.096
418.93	43.486
419.29	44.116
419.64	42.641
420.00	44.570
420.35	44.019
420.71	43.232
421.06	43.555
421.42	43.926
421.77	44.364
422.12	42.723
422.48	43.503
422.83	43.527
423.19	43.737
423.54	43.061
423.90	45.130
424.25	44.029
424.61	42.948
424.96	44.382
425.31	43.514
425.67	44.052
426.02	43.130
426.38	43.816
426.73	43.436
427.09	44.603
427.44	44.513
427.79	44.768
428.15	44.372
428.50	44.114
428.85	44.444
429.21	43.814
429.56	44.516
429.92	44.107
430.27	43.880
430.62	42.780
430.98	43.513
431.33	44.304
431.68	43.704
432.04	44.180
432.39	44.786
432.74	44.438
433.10	45.238
433.45	45.032
433.80	44.843
434.16	45.455
434.51	44.788
434.86	45.455
435.22	45.597
435.57	45.821
435.92	46.272
436.28	45.853
436.63	45.273
436.98	46.284
437.34	45.491
437.69	44.737
438.04	44.839
438.39	46.760
438.75	45.490
439.10	45.440
439.45	45.167
439.81	46.096
440.16	45.405
440.51	45.608
440.86	47.009
441.22	45.455
441.57	45.774
441.92	46.150
442.27	44.691
442.63	45.224
442.98	45.474
443.33	45.635
443.68	45.573
444.03	44.958
444.39	45.339
444.74	44.617
445.09	46.077
445.44	45.165
445.79	46.345
446.15	45.263
446.50	45.622
446.85	45.667
447.20	45.274
447.55	45.405
447.91	45.978
448.26	44.622
448.61	46.158
448.96	46.024
449.31	45.875
449.66	45.681
450.02	45.651
450.37	46.030
450.72	47.107
451.07	45.899
451.42	46.058
451.77	46.105
452.12	45.944
452.47	47.266
452.83	47.099
453.18	45.706
453.53	46.892
453.88	46.171
454.23	46.252
454.58	46.853
454.93	46.413
455.28	46.328
455.63	47.872
455.98	45.403
456.34	47.052
456.69	46.280
457.04	45.823
457.39	46.457
457.74	46.565
458.09	45.929
458.44	44.797
458.79	46.897
459.14	45.881
459.49	45.413
459.84	45.978
460.19	45.650
460.54	46.268
460.89	45.736
461.24	43.356
461.59	46.599
461.94	46.217
462.29	45.824
462.64	46.294
462.99	45.745
463.34	46.014
463.69	46.219
464.04	46.517
464.39	44.820
464.74	45.018
465.09	45.444
465.44	45.049
465.79	45.563
466.14	44.409
466.49	44.655
466.84	44.760
467.19	45.460
467.54	44.745
467.89	46.538
468.24	45.049
468.59	46.429
468.94	44.867
469.29	46.182
469.64	45.531
469.99	45.244
470.34	46.490
470.68	45.379
471.03	46.631
471.38	46.225
471.73	46.440
472.08	47.750
472.43	46.245
472.78	46.351
473.13	44.806
473.48	45.905
473.83	46.113
474.17	46.140
474.52	46.386
474.87	45.026
475.22	46.145
475.57	45.855
475.92	45.120
476.27	44.559
476.61	45.362
476.96	44.619
477.31	46.170
477.66	46.645
478.01	45.384
478.36	45.675
478.70	45.409
479.05	45.293
479.40	46.032
479.75	45.631
480.10	44.821
480.45	44.351
480.79	43.594
481.14	44.936
481.49	43.870
481.84	44.327
482.19	44.629
482.53	45.235
482.88	45.161
483.23	44.339
483.58	45.197
483.92	45.018
484.27	44.307
484.62	44.694
484.97	43.864
485.31	43.355
485.66	41.803
486.01	40.811
486.36	39.910
486.70	39.684
487.05	40.832
487.40	41.216
487.75	41.675
488.09	42.074
488.44	42.416
488.79	43.492
489.13	43.449
489.48	44.067
489.83	43.286
490.17	43.559
490.52	43.755
490.87	43.922
491.22	44.681
491.56	44.313
491.91	44.489
492.26	43.608
492.60	44.419
492.95	44.948
493.30	44.177
493.64	44.070
493.99	44.231
494.34	44.823
494.68	45.551
495.03	44.185
495.37	43.404
495.72	45.268
496.07	44.519
496.41	44.570
496.76	44.365
497.11	44.944
497.45	43.928
497.80	45.042
498.14	43.458
498.49	44.197
498.84	45.514
499.18	44.561
499.53	44.695
499.87	44.160
500.22	44.496
500.56	43.779
500.91	45.176
501.26	45.016
501.60	44.035
501.95	44.131
502.29	43.911
502.64	43.449
502.98	43.797
503.33	44.855
503.67	43.753
504.02	44.380
504.36	44.525
504.71	45.128
505.06	44.862
505.40	45.063
505.75	44.761
506.09	44.517
506.44	44.831
506.78	44.849
507.13	45.904
507.47	44.444
507.82	45.645
508.16	44.978
508.51	46.425
508.85	44.919
509.19	45.864
509.54	45.605
509.88	46.146
510.23	45.441
510.57	44.353
510.92	46.753
511.26	45.934
511.61	45.495
511.95	44.500
512.30	46.250
512.64	45.431
512.98	45.976
513.33	46.311
513.67	46.142
514.02	47.117
514.36	45.535
514.70	47.253
515.05	47.203
515.39	48.465
515.74	48.606
516.08	48.366
516.42	48.798
516.77	47.360
517.11	49.173
517.46	47.791
517.80	47.187
518.14	48.620
518.49	47.464
518.83	47.747
519.17	49.029
519.52	48.334
519.86	48.610
520.20	48.274
520.55	49.406
520.89	48.908
521.23	50.175
521.58	50.201
521.92	49.621
522.26	49.467
522.61	49.970
522.95	50.931
523.29	49.474
523.64	49.017
523.98	50.528
524.32	49.827
524.66	50.029
525.01	50.178
525.35	50.560
525.69	51.294
526.04	51.933
526.38	50.853
526.72	51.730
527.06	50.444
527.41	52.237
527.75	51.795
528.09	50.813
528.43	51.434
528.78	51.580
529.12	52.077
529.46	51.140
529.80	50.701
530.15	52.151
530.49	53.069
530.83	52.529
531.17	52.337
531.51	51.993
531.86	50.302
532.20	52.040
532.54	52.605
532.88	52.530
533.22	52.285
533.57	52.776
533.91	50.932
534.25	50.894
534.59	51.462
534.93	50.796
535.27	50.711
535.62	51.809
535.96	51.418
536.30	53.077
536.64	52.236
536.98	51.668
537.32	51.562
537.66	52.423
538.01	52.755
538.35	52.215
538.69	51.760
539.03	51.803
539.37	52.245
539.71	52.037
540.05	50.831
540.39	53.522
540.73	52.468
541.07	51.819
541.42	51.679
541.76	52.281
542.10	51.850
542.44	51.559
542.78	53.052
543.12	52.699
543.46	51.003
543.80	53.008
544.14	52.260
544.48	52.311
544.82	52.661
545.16	50.820
545.50	51.752
545.84	53.977
546.18	54.551
546.52	54.557
546.86	52.418
547.20	52.455
547.54	52.248
547.88	51.642
548.22	52.763
548.56	51.856
548.90	50.534
549.24	52.811
549.58	54.059
549.92	54.617
550.26	53.617
550.60	52.495
550.94	55.631
551.28	54.966
551.62	55.586
551.96	54.324
552.30	53.461
552.64	54.628
552.98	51.675
553.32	51.152
553.66	53.616
554.00	53.411
554.34	53.795
554.68	54.503
555.02	53.904
555.36	53.324
555.69	52.814
556.03	53.694
556.37	53.219
556.71	54.172
557.05	52.883
557.39	53.800
557.73	53.841
558.07	54.930
558.41	55.038
558.75	53.488
559.08	55.683
559.42	56.478
559.76	54.098
560.10	54.370
560.44	55.275
560.78	53.836
561.12	54.228
561.45	52.941
561.79	52.559
562.13	53.443
562.47	53.991
562.81	54.001
563.15	53.782
563.48	53.230
563.82	54.211
564.16	53.234
564.50	53.647
564.84	52.705
565.17	51.812
565.51	53.448
565.85	53.671
566.19	52.679
566.52	53.309
566.86	52.948
567.20	52.247
567.54	51.255
567.88	51.956
568.21	50.025
568.55	49.319
568.89	49.133
569.23	48.318
569.56	48.642
569.90	47.359
570.24	47.155
570.57	46.528
570.91	46.365
571.25	45.403
571.59	45.149
571.92	44.133
572.26	43.666
572.60	44.099
572.93	45.400
573.27	46.008
573.61	44.505
573.95	44.397
574.28	44.426
574.62	43.782
574.96	43.535
575.29	43.129
575.63	43.675
575.97	42.941
576.30	43.710
576.64	44.004
576.98	43.394
577.31	44.054
577.65	42.732
577.98	42.120
578.32	42.463
578.66	42.477
578.99	43.235
579.33	43.527
579.67	42.626
580.00	43.270
580.34	42.378
580.67	42.796
581.01	43.559
581.35	42.497
581.68	41.646
582.02	42.181
582.35	41.978
582.69	42.487
583.02	42.833
583.36	43.577
583.70	43.532
584.03	45.016
584.37	44.422
584.70	43.717
585.04	42.946
585.37	43.553
585.71	44.067
586.04	43.703
586.38	43.859
586.72	44.299
587.05	44.416
587.39	44.298
587.72	44.572
588.06	44.053
588.39	44.371
588.73	44.620
589.06	46.134
589.40	45.571
589.73	45.231
590.07	46.740
590.40	46.690
590.73	47.411
591.07	47.742
591.40	47.226
591.74	47.078
592.07	47.920
592.41	47.042
592.74	46.137
593.08	44.792
593.41	44.883
593.75	44.949
594.08	45.119
594.41	45.813
594.75	45.890
595.08	46.399
595.42	46.313
595.75	44.719
596.09	46.646
596.42	46.723
596.75	48.478
597.09	48.329
597.42	47.265
597.75	46.734
598.09	47.476
598.42	47.654
598.76	46.299
599.09	47.003
599.42	45.848
599.76	46.472
600.09	45.492
600.42	46.098
600.76	45.683
601.09	45.702
601.42	45.266
601.76	45.721
602.09	46.247
602.42	45.176
602.76	46.755
603.09	47.398
603.42	46.899
603.76	46.602
604.09	46.869
604.42	46.139
604.76	47.886
605.09	46.939
605.42	47.257
605.75	46.861
606.09	46.978
606.42	46.148
606.75	46.677
607.09	46.546
607.42	46.525
607.75	46.616
608.08	46.426
608.42	48.196
608.75	47.497
609.08	47.426
609.41	48.227
609.75	48.535
610.08	48.516
610.41	47.211
610.74	47.879
611.07	48.431
611.41	49.166
611.74	49.522
612.07	48.651
612.40	49.659
612.73	50.424
613.07	49.671
613.40	50.627
613.73	50.325
614.06	48.150
614.39	49.596
614.72	49.221
615.06	47.379
615.39	48.515
615.72	48.645
616.05	50.025
616.38	48.503
616.71	48.888
617.05	51.565
617.38	49.438
617.71	50.675
618.04	49.972
618.37	50.083
618.70	50.693
619.03	51.343
619.36	53.015
619.69	52.111
620.03	52.185
620.36	50.996
620.69	52.427
621.02	53.736
621.35	52.937
621.68	54.499
622.01	53.506
622.34	51.930
622.67	54.635
623.00	53.097
623.33	52.227
623.66	51.630
623.99	53.973
624.32	53.049
624.65	51.810
624.99	54.496
625.32	53.307
625.65	51.862
625.98	53.068
626.31	55.341
626.64	54.366
626.97	54.476
627.30	54.503
627.63	54.631
627.96	54.930
628.29	55.776
628.62	55.004
628.95	57.181
629.28	57.932
629.61	57.381
629.94	56.093
630.26	55.893
630.59	58.067
630.92	57.578
631.25	57.026
