SpectraSuite Data File
++++++++++++++++++++++++++++++++++++
Date: Tue May 12 17:18:54 PDT 2015
User: schluterlab
Dark Spectrum Present: Yes
Reference Spectrum Present: Yes
Number of Sampled Component Spectra: 1
Spectrometers: USB2E3373
Integration Time (usec): 3000 (USB2E3373)
Spectra Averaged: 3 (USB2E3373)
Boxcar Smoothing: 0 (USB2E3373)
Correct for Electrical Dark: No (USB2E3373)
Strobe/Lamp Enabled: No (USB2E3373)
Correct for Detector Non-linearity: No (USB2E3373)
Correct for Stray Light: No (USB2E3373)
Number of Pixels in Processed Spectrum: 2048
>>>>>Begin Processed Spectral Data<<<<<
178.53	0.000
178.91	-191.667
179.29	-875.000
179.67	-3600.000
180.04	-106.667
180.42	625.000
180.80	1650.000
181.18	0.000
181.56	-275.000
181.94	0.000
182.31	1200.000
182.69	-3100.000
183.07	600.000
183.45	-3100.000
183.83	-1500.000
184.20	350.000
184.58	542.857
184.96	-223.077
185.34	-275.000
185.72	1800.000
186.09	-950.000
186.47	-3000.000
186.85	1000.000
187.23	700.000
187.61	1650.000
187.98	525.000
188.36	235.714
188.74	316.667
189.12	391.667
189.49	925.000
189.87	0.000
190.25	487.500
190.63	2400.000
191.00	-275.000
191.38	-4000.000
191.76	-700.000
192.14	512.500
192.51	-3700.000
192.89	1500.000
193.27	1200.000
193.65	-1066.667
194.02	-660.000
194.40	528.571
194.78	-250.000
195.15	220.000
195.53	-3600.000
195.91	-720.000
196.29	4400.000
196.66	306.250
197.04	900.000
197.42	-1600.000
197.79	550.000
198.17	266.667
198.55	0.000
198.92	457.143
199.30	1200.000
199.68	2200.000
200.05	716.667
200.43	-550.000
200.81	227.778
201.18	4000.000
201.56	333.333
201.94	-925.000
202.31	-412.500
202.69	-500.000
203.07	3800.000
203.44	-500.000
203.82	325.000
204.19	580.000
204.57	-1450.000
204.95	-825.000
205.32	-820.000
205.70	516.667
206.08	725.000
206.45	-966.667
206.83	333.333
207.20	147.368
207.58	216.667
207.96	740.000
208.33	0.000
208.71	542.857
209.08	680.000
209.46	-3200.000
209.84	-750.000
210.21	980.000
210.59	-520.000
210.96	316.667
211.34	-1000.000
211.71	400.000
212.09	700.000
212.46	1750.000
212.84	-400.000
213.22	522.222
213.59	-2900.000
213.97	250.000
214.34	1050.000
214.72	1100.000
215.09	1133.333
215.47	-3600.000
215.84	-300.000
216.22	-387.500
216.59	0.000
216.97	0.000
217.34	1650.000
217.72	-1200.000
218.09	966.667
218.47	537.500
218.84	850.000
219.22	1233.333
219.59	733.333
219.97	571.429
220.34	411.111
220.72	1350.000
221.09	2800.000
221.47	291.667
221.84	666.667
222.22	360.000
222.59	250.000
222.97	264.286
223.34	293.750
223.72	-1750.000
224.09	1433.333
224.46	292.308
224.84	-950.000
225.21	444.444
225.59	246.667
225.96	1266.667
226.34	-560.000
226.71	-725.000
227.08	-580.000
227.46	0.000
227.83	-533.333
228.21	-1450.000
228.58	350.000
228.95	1050.000
229.33	366.667
229.70	1000.000
230.08	430.769
230.45	3200.000
230.82	-900.000
231.20	-800.000
231.57	-933.333
231.95	400.000
232.32	258.333
232.69	466.667
233.07	141.667
233.44	-1450.000
233.81	280.000
234.19	159.259
234.56	206.250
234.93	129.412
235.31	195.000
235.68	212.500
236.05	135.714
236.43	103.704
236.80	214.286
237.17	103.448
237.55	121.875
237.92	95.000
238.29	112.121
238.67	165.625
239.04	104.878
239.41	58.333
239.79	72.500
240.16	62.500
240.53	63.934
240.91	53.623
241.28	62.712
241.65	51.515
242.02	60.563
242.40	50.000
242.77	43.956
243.14	41.772
243.51	45.455
243.89	44.860
244.26	40.187
244.63	36.634
245.00	32.110
245.38	27.966
245.75	34.091
246.12	37.778
246.49	39.007
246.87	26.230
247.24	31.333
247.61	27.500
247.98	20.408
248.36	26.061
248.73	30.612
249.10	20.833
249.47	23.500
249.84	23.383
250.22	22.703
250.59	23.500
250.96	23.207
251.33	24.651
251.70	24.554
252.08	23.109
252.45	15.139
252.82	20.913
253.19	17.787
253.56	16.154
253.94	19.203
254.31	15.891
254.68	16.028
255.05	17.931
255.42	18.613
255.79	21.498
256.16	19.661
256.54	19.805
256.91	16.667
257.28	21.405
257.65	13.793
258.02	17.109
258.39	19.771
258.76	16.232
259.14	14.286
259.51	14.869
259.88	17.021
260.25	14.560
260.62	14.795
260.99	12.672
261.36	15.877
261.73	15.160
262.10	18.586
262.47	14.000
262.85	12.267
263.22	11.825
263.59	17.647
263.96	15.288
264.33	12.593
264.70	14.496
265.07	12.927
265.44	14.679
265.81	12.264
266.18	16.705
266.55	15.366
266.92	11.857
267.29	14.035
267.66	11.883
268.03	12.556
268.40	15.222
268.77	16.079
269.14	11.497
269.51	13.140
269.88	15.918
270.25	10.151
270.62	13.519
270.99	15.213
271.36	14.024
271.73	12.159
272.10	9.495
272.47	11.706
272.84	11.577
273.21	11.157
273.58	13.158
273.95	12.115
274.32	11.673
274.69	14.173
275.06	13.661
275.43	12.261
275.80	11.698
276.17	13.051
276.54	13.271
276.91	13.433
277.28	14.599
277.65	11.993
278.02	12.684
278.39	11.511
278.76	14.138
279.13	11.210
279.50	11.091
279.87	13.035
280.23	10.497
280.60	12.226
280.97	12.759
281.34	11.056
281.71	12.348
282.08	13.333
282.45	13.176
282.82	11.371
283.19	12.083
283.56	12.066
283.92	11.401
284.29	11.647
284.66	10.420
285.03	13.101
285.40	12.231
285.77	10.802
286.14	14.087
286.51	9.816
286.87	10.601
287.24	11.562
287.61	9.726
287.98	11.791
288.35	11.259
288.72	10.167
289.08	11.562
289.45	11.280
289.82	12.656
290.19	10.542
290.56	12.518
290.93	11.223
291.29	10.912
291.66	11.582
292.03	10.799
292.40	11.247
292.77	11.281
293.13	9.700
293.50	11.471
293.87	10.027
294.24	10.909
294.60	10.902
294.97	13.007
295.34	11.952
295.71	13.009
296.08	12.933
296.44	12.706
296.81	10.794
297.18	11.660
297.55	10.468
297.91	12.931
298.28	12.077
298.65	11.902
299.02	11.339
299.38	13.070
299.75	12.073
300.12	12.385
300.48	12.998
300.85	11.442
301.22	12.093
301.59	11.085
301.95	11.085
302.32	13.388
302.69	13.688
303.05	12.570
303.42	11.435
303.79	12.893
304.15	11.881
304.52	13.636
304.89	13.006
305.25	13.348
305.62	13.646
305.99	13.152
306.35	11.789
306.72	13.007
307.09	13.458
307.45	13.411
307.82	12.140
308.19	14.227
308.55	12.400
308.92	13.641
309.29	16.174
309.65	15.164
310.02	15.010
310.38	13.858
310.75	13.404
311.12	15.230
311.48	15.251
311.85	15.172
312.22	14.804
312.58	16.424
312.95	15.243
313.31	16.105
313.68	17.167
314.05	18.407
314.41	17.132
314.78	17.992
315.14	18.294
315.51	18.354
315.87	18.431
316.24	18.768
316.61	19.158
316.97	18.716
317.34	19.856
317.70	19.491
318.07	21.441
318.43	21.002
318.80	19.965
319.16	20.892
319.53	22.035
319.89	20.341
320.26	23.091
320.62	22.253
320.99	24.881
321.35	23.655
321.72	24.763
322.08	24.100
322.45	24.705
322.81	25.801
323.18	25.666
323.54	27.700
323.91	26.836
324.27	27.675
324.64	26.644
325.00	27.241
325.37	29.595
325.73	27.993
326.10	29.329
326.46	30.388
326.83	30.240
327.19	30.924
327.56	30.511
327.92	30.328
328.29	31.588
328.65	33.219
329.01	32.421
329.38	33.672
329.74	33.305
330.11	32.754
330.47	32.481
330.84	31.665
331.20	32.995
331.56	33.938
331.93	33.961
332.29	33.078
332.66	34.269
333.02	33.935
333.38	34.031
333.75	35.530
334.11	33.977
334.48	35.214
334.84	33.699
335.20	34.902
335.57	34.005
335.93	34.819
336.29	33.416
336.66	37.393
337.02	34.388
337.38	35.254
337.75	36.064
338.11	36.034
338.47	36.410
338.84	35.224
339.20	34.719
339.56	33.810
339.93	35.870
340.29	34.370
340.65	36.211
341.02	36.122
341.38	35.632
341.74	36.379
342.11	34.975
342.47	36.095
342.83	36.669
343.20	35.893
343.56	34.790
343.92	34.930
344.28	35.407
344.65	37.245
345.01	36.429
345.37	36.058
345.73	34.365
346.10	34.900
346.46	36.124
346.82	36.034
347.19	36.708
347.55	35.675
347.91	36.405
348.27	35.012
348.63	37.342
349.00	36.938
349.36	37.198
349.72	36.239
350.08	37.034
350.45	36.938
350.81	37.462
351.17	34.900
351.53	36.413
351.89	35.820
352.26	36.054
352.62	36.350
352.98	36.963
353.34	37.442
353.70	35.550
354.07	37.615
354.43	36.636
354.79	36.219
355.15	36.753
355.51	37.085
355.87	37.199
356.24	36.875
356.60	36.606
356.96	36.619
357.32	36.247
357.68	37.445
358.04	37.006
358.40	36.432
358.77	38.693
359.13	36.036
359.49	36.546
359.85	37.230
360.21	37.221
360.57	37.956
360.93	36.941
361.29	37.302
361.66	37.733
362.02	36.293
362.38	37.807
362.74	36.660
363.10	38.008
363.46	36.809
363.82	36.325
364.18	37.482
364.54	37.911
364.90	37.550
365.26	37.613
365.62	36.119
365.98	35.650
366.35	36.138
366.71	37.960
367.07	36.382
367.43	36.333
367.79	37.234
368.15	36.364
368.51	37.422
368.87	37.092
369.23	37.214
369.59	37.492
369.95	37.413
370.31	37.166
370.67	37.682
371.03	36.555
371.39	38.019
371.75	36.497
372.11	37.458
372.47	38.219
372.83	36.846
373.19	37.560
373.55	36.632
373.91	35.290
374.27	36.243
374.63	36.746
374.99	36.927
375.35	36.895
375.71	36.148
376.07	36.804
376.42	34.655
376.78	36.609
377.14	36.632
377.50	36.954
377.86	36.643
378.22	36.624
378.58	37.349
378.94	36.814
379.30	35.415
379.66	36.665
380.02	36.950
380.38	36.358
380.74	36.563
381.09	36.157
381.45	35.260
381.81	35.875
382.17	35.653
382.53	34.793
382.89	35.600
383.25	35.702
383.61	34.640
383.97	34.793
384.32	35.925
384.68	35.888
385.04	36.049
385.40	36.299
385.76	34.465
386.12	36.116
386.48	35.137
386.83	35.391
387.19	35.512
387.55	34.335
387.91	35.508
388.27	35.217
388.62	35.681
388.98	33.644
389.34	34.325
389.70	33.491
390.06	36.037
390.42	34.732
390.77	35.811
391.13	35.063
391.49	34.785
391.85	35.815
392.20	34.565
392.56	34.110
392.92	32.734
393.28	33.352
393.64	33.658
393.99	34.084
394.35	34.491
394.71	33.715
395.07	33.698
395.42	33.782
395.78	33.868
396.14	33.855
396.50	33.514
396.85	33.537
397.21	32.852
397.57	33.293
397.92	32.582
398.28	32.432
398.64	33.333
399.00	32.710
399.35	32.045
399.71	31.843
400.07	32.991
400.42	32.955
400.78	32.727
401.14	32.942
401.49	32.604
401.85	32.966
402.21	31.927
402.57	32.735
402.92	31.576
403.28	31.921
403.63	31.842
403.99	31.604
404.35	32.415
404.70	32.723
405.06	30.769
405.42	31.598
405.77	31.863
406.13	30.911
406.49	30.927
406.84	30.344
407.20	31.564
407.55	31.508
407.91	32.674
408.27	30.988
408.62	30.988
408.98	30.988
409.34	30.041
409.69	32.047
410.05	30.590
410.40	30.035
410.76	30.223
411.11	31.398
411.47	30.556
411.83	29.467
412.18	29.710
412.54	30.571
412.89	28.968
413.25	30.445
413.60	29.790
413.96	30.102
414.31	29.398
414.67	30.850
415.03	29.183
415.38	30.662
415.74	30.259
416.09	29.856
416.45	30.058
416.80	29.250
417.16	29.599
417.51	30.446
417.87	29.599
418.22	29.405
418.58	29.236
418.93	29.268
419.29	29.513
419.64	28.952
420.00	29.773
420.35	29.152
420.71	29.522
421.06	28.605
421.42	29.419
421.77	28.817
422.12	29.272
422.48	28.300
422.83	29.018
423.19	28.456
423.54	28.799
423.90	28.652
424.25	29.114
424.61	29.774
424.96	28.233
425.31	28.462
425.67	29.012
426.02	29.277
426.38	28.005
426.73	29.323
427.09	29.478
427.44	29.263
427.79	28.588
428.15	28.992
428.50	28.857
428.85	29.512
429.21	28.255
429.56	29.212
429.92	27.897
430.27	28.350
430.62	27.802
430.98	28.244
431.33	28.125
431.68	27.358
432.04	27.884
432.39	28.156
432.74	29.625
433.10	28.128
433.45	28.834
433.80	28.902
434.16	28.166
434.51	28.638
434.86	28.743
435.22	28.903
435.57	29.520
435.92	28.913
436.28	29.724
436.63	28.795
436.98	29.223
437.34	28.253
437.69	27.940
438.04	28.978
438.39	28.722
438.75	29.343
439.10	28.980
439.45	28.999
439.81	28.514
440.16	28.674
440.51	28.322
440.86	29.231
441.22	27.976
441.57	28.819
441.92	27.789
442.27	28.196
442.63	28.150
442.98	28.394
443.33	28.227
443.68	27.515
444.03	27.992
444.39	28.814
444.74	27.847
445.09	27.541
445.44	27.365
445.79	27.680
446.15	27.789
446.50	27.901
446.85	27.141
447.20	27.214
447.55	27.569
447.91	27.704
448.26	28.168
448.61	27.695
448.96	28.431
449.31	28.548
449.66	28.350
450.02	27.661
450.37	28.262
450.72	27.824
451.07	27.923
451.42	27.801
451.77	28.351
452.12	28.361
452.47	28.068
452.83	27.437
453.18	28.468
453.53	27.649
453.88	28.743
454.23	27.600
454.58	28.497
454.93	28.081
455.28	28.580
455.63	27.719
455.98	26.509
456.34	28.267
456.69	27.622
457.04	26.850
457.39	26.286
457.74	28.322
458.09	26.614
458.44	26.889
458.79	27.268
459.14	27.441
459.49	27.123
459.84	28.207
460.19	26.780
460.54	27.236
460.89	26.866
461.24	25.888
461.59	26.927
461.94	27.423
462.29	27.174
462.64	27.701
462.99	27.127
463.34	27.544
463.69	28.554
464.04	27.807
464.39	26.331
464.74	25.850
465.09	26.872
465.44	26.115
465.79	25.749
466.14	25.543
466.49	26.587
466.84	25.808
467.19	26.421
467.54	26.847
467.89	25.939
468.24	25.536
468.59	26.786
468.94	27.717
469.29	27.978
469.64	26.302
469.99	25.835
470.34	27.198
470.68	25.862
471.03	26.684
471.38	26.689
471.73	26.715
472.08	26.941
472.43	26.878
472.78	27.017
473.13	25.782
473.48	25.428
473.83	26.914
474.17	25.775
474.52	27.014
474.87	25.185
475.22	25.128
475.57	24.974
475.92	25.396
476.27	24.701
476.61	25.040
476.96	24.817
477.31	25.861
477.66	26.033
478.01	25.529
478.36	25.541
478.70	24.566
479.05	24.686
479.40	25.347
479.75	25.422
480.10	24.927
480.45	24.323
480.79	24.470
481.14	24.774
481.49	23.925
481.84	24.055
482.19	24.410
482.53	24.374
482.88	24.821
483.23	24.222
483.58	24.506
483.92	25.503
484.27	24.229
484.62	24.915
484.97	23.919
485.31	23.265
485.66	22.298
486.01	21.540
486.36	21.423
486.70	21.289
487.05	21.868
487.40	21.985
487.75	22.303
488.09	22.699
488.44	22.785
488.79	22.770
489.13	23.031
489.48	23.212
489.83	23.269
490.17	23.121
490.52	23.773
490.87	23.966
491.22	23.582
491.56	24.023
491.91	23.880
492.26	24.633
492.60	23.872
492.95	24.060
493.30	24.067
493.64	23.405
493.99	24.061
494.34	23.487
494.68	23.417
495.03	23.529
495.37	24.899
495.72	23.730
496.07	23.944
496.41	23.632
496.76	23.639
497.11	23.608
497.45	23.192
497.80	23.355
498.14	23.717
498.49	23.955
498.84	24.626
499.18	22.989
499.53	23.702
499.87	23.495
500.22	22.847
500.56	22.981
500.91	23.887
501.26	24.024
501.60	23.179
501.95	22.357
502.29	23.556
502.64	22.497
502.98	22.944
503.33	22.851
503.67	22.958
504.02	22.033
504.36	22.262
504.71	22.942
505.06	23.041
505.40	22.789
505.75	22.825
506.09	22.399
506.44	22.979
506.78	22.968
507.13	22.734
507.47	22.804
507.82	22.676
508.16	23.175
508.51	23.285
508.85	23.172
509.19	23.348
509.54	23.047
509.88	22.277
510.23	23.235
510.57	22.153
510.92	23.526
511.26	22.942
511.61	22.501
511.95	22.797
512.30	22.400
512.64	22.741
512.98	22.604
513.33	22.439
513.67	22.372
514.02	22.805
514.36	22.586
514.70	22.720
515.05	22.536
515.39	22.917
515.74	23.510
516.08	22.495
516.42	24.153
516.77	23.520
517.11	22.933
517.46	23.438
517.80	22.174
518.14	23.493
518.49	23.925
518.83	21.703
519.17	23.295
519.52	22.884
519.86	23.324
520.20	23.288
520.55	23.516
520.89	23.391
521.23	23.598
521.58	22.719
521.92	22.682
522.26	22.571
522.61	23.767
522.95	22.823
523.29	23.392
523.64	22.601
523.98	22.711
524.32	22.434
524.66	23.072
525.01	22.249
525.35	22.569
525.69	23.299
526.04	22.903
526.38	22.543
526.72	23.568
527.06	21.821
527.41	23.156
527.75	22.276
528.09	22.336
528.43	22.758
528.78	22.540
529.12	22.878
529.46	22.092
529.80	22.839
530.15	22.628
530.49	21.420
530.83	22.669
531.17	23.001
531.51	23.115
531.86	22.343
532.20	21.879
532.54	22.097
532.88	22.174
533.22	22.182
533.57	22.575
533.91	22.145
534.25	21.004
534.59	21.871
534.93	21.445
535.27	21.116
535.62	20.828
535.96	21.336
536.30	21.938
536.64	21.056
536.98	22.026
537.32	22.250
537.66	21.429
538.01	22.291
538.35	21.585
538.69	21.299
539.03	21.393
539.37	21.723
539.71	21.728
540.05	21.785
540.39	22.201
540.73	22.468
541.07	21.644
541.42	21.580
541.76	21.270
542.10	21.085
542.44	22.195
542.78	21.271
543.12	21.288
543.46	20.927
543.80	21.303
544.14	21.981
544.48	21.290
544.82	21.040
545.16	21.433
545.50	21.266
545.84	20.896
546.18	22.042
546.52	21.508
546.86	21.792
547.20	21.447
547.54	21.279
547.88	20.742
548.22	20.036
548.56	20.507
548.90	20.937
549.24	20.846
549.58	20.747
549.92	22.135
550.26	21.366
550.60	22.023
550.94	21.506
551.28	21.931
551.62	22.345
551.96	21.892
552.30	20.501
552.64	21.165
552.98	21.198
553.32	20.230
553.66	20.456
554.00	21.042
554.34	21.704
554.68	20.968
555.02	21.521
555.36	20.878
555.69	20.550
556.03	21.465
556.37	21.033
556.71	20.600
557.05	19.790
557.39	22.000
557.73	21.092
558.07	20.255
558.41	20.493
558.75	19.973
559.08	21.730
559.42	20.902
559.76	20.884
560.10	21.955
560.44	20.770
560.78	21.419
561.12	21.233
561.45	19.587
561.79	19.725
562.13	20.025
562.47	19.273
562.81	20.169
563.15	20.556
563.48	19.565
563.82	20.961
564.16	21.144
564.50	20.133
564.84	20.547
565.17	19.905
565.51	20.874
565.85	20.543
566.19	19.405
566.52	20.758
566.86	19.965
567.20	19.607
567.54	19.651
567.88	19.614
568.21	18.872
568.55	18.969
568.89	18.750
569.23	18.507
569.56	18.171
569.90	17.535
570.24	17.751
570.57	17.002
570.91	16.474
571.25	16.637
571.59	16.328
571.92	15.985
572.26	16.119
572.60	16.051
572.93	16.331
573.27	16.255
573.61	16.243
573.95	15.936
574.28	16.481
574.62	15.533
574.96	15.665
575.29	15.237
575.63	15.548
575.97	15.628
576.30	15.464
576.64	15.860
576.98	15.626
577.31	15.655
577.65	15.577
577.98	15.163
578.32	15.299
578.66	15.319
578.99	15.020
579.33	15.539
579.67	15.370
580.00	15.295
580.34	15.422
580.67	15.213
581.01	15.844
581.35	15.385
581.68	14.521
582.02	15.138
582.35	14.807
582.69	15.079
583.02	15.079
583.36	15.123
583.70	16.002
584.03	15.933
584.37	15.926
584.70	15.103
585.04	15.227
585.37	15.059
585.71	15.326
586.04	15.374
586.38	15.609
586.72	15.418
587.05	15.697
587.39	15.525
587.72	15.931
588.06	16.091
588.39	15.737
588.73	15.827
589.06	15.670
589.40	16.056
589.73	16.093
590.07	16.507
590.40	16.934
590.73	16.930
591.07	16.964
591.40	16.447
591.74	17.045
592.07	16.389
592.41	16.387
592.74	16.111
593.08	16.048
593.41	15.919
593.75	15.520
594.08	15.984
594.41	15.934
594.75	16.233
595.08	16.187
595.42	16.261
595.75	16.157
596.09	15.989
596.42	16.278
596.75	16.747
597.09	16.343
597.42	16.531
597.75	16.024
598.09	16.126
598.42	16.524
598.76	16.114
599.09	15.999
599.42	15.640
599.76	15.807
600.09	16.102
600.42	15.815
600.76	15.840
601.09	16.293
601.42	15.734
601.76	15.539
602.09	16.115
602.42	15.453
602.76	16.129
603.09	15.988
603.42	16.183
603.76	16.016
604.09	15.273
604.42	15.669
604.76	15.804
605.09	16.204
605.42	16.172
605.75	16.226
606.09	16.259
606.42	15.558
606.75	16.595
607.09	15.871
607.42	15.910
607.75	16.202
608.08	16.003
608.42	16.191
608.75	15.704
609.08	15.794
609.41	16.091
609.75	16.621
610.08	16.457
610.41	16.337
610.74	16.364
611.07	16.508
611.41	16.450
611.74	16.969
612.07	16.570
612.40	16.326
612.73	16.575
613.07	16.624
613.40	16.842
613.73	16.525
614.06	16.650
614.39	16.616
614.72	16.323
615.06	16.469
615.39	16.782
615.72	15.779
616.05	17.027
616.38	16.743
616.71	16.820
617.05	16.969
617.38	17.135
617.71	17.379
618.04	16.657
618.37	16.398
618.70	17.321
619.03	16.911
619.36	17.588
619.69	17.282
620.03	19.113
620.36	17.277
620.69	18.710
621.02	18.342
621.35	18.266
621.68	17.994
622.01	18.598
622.34	17.626
622.67	18.750
623.00	17.359
623.33	17.139
623.66	17.631
623.99	18.219
624.32	18.157
624.65	17.841
624.99	18.188
625.32	18.838
625.65	17.793
625.98	17.364
626.31	19.139
626.64	17.768
626.97	17.521
627.30	18.323
627.63	18.917
627.96	18.075
628.29	18.234
628.62	18.648
628.95	20.213
629.28	18.580
629.61	19.069
629.94	19.101
630.26	20.191
630.59	20.390
630.92	19.641
631.25	19.492
