SpectraSuite Data File
++++++++++++++++++++++++++++++++++++
Date: Tue May 12 17:16:59 PDT 2015
User: schluterlab
Dark Spectrum Present: Yes
Reference Spectrum Present: Yes
Number of Sampled Component Spectra: 1
Spectrometers: USB2E3373
Integration Time (usec): 3000 (USB2E3373)
Spectra Averaged: 3 (USB2E3373)
Boxcar Smoothing: 0 (USB2E3373)
Correct for Electrical Dark: No (USB2E3373)
Strobe/Lamp Enabled: No (USB2E3373)
Correct for Detector Non-linearity: No (USB2E3373)
Correct for Stray Light: No (USB2E3373)
Number of Pixels in Processed Spectrum: 2048
>>>>>Begin Processed Spectral Data<<<<<
178.53	0.000
178.91	-241.667
179.29	-700.000
179.67	-4000.000
180.04	-126.667
180.42	700.000
180.80	1950.000
181.18	0.000
181.56	-312.500
181.94	0.000
182.31	766.667
182.69	-2500.000
183.07	600.000
183.45	-3700.000
183.83	-1550.000
184.20	370.000
184.58	485.714
184.96	-161.538
185.34	-208.333
185.72	1600.000
186.09	-600.000
186.47	-3600.000
186.85	1400.000
187.23	680.000
187.61	1800.000
187.98	475.000
188.36	228.571
188.74	408.333
189.12	316.667
189.49	900.000
189.87	0.000
190.25	462.500
190.63	3100.000
191.00	-241.667
191.38	-3400.000
191.76	-575.000
192.14	425.000
192.51	-2900.000
192.89	2050.000
193.27	1066.667
193.65	-966.667
194.02	-680.000
194.40	528.571
194.78	-185.714
195.15	300.000
195.53	-3700.000
195.91	-560.000
196.29	4600.000
196.66	250.000
197.04	725.000
197.42	-1550.000
197.79	675.000
198.17	300.000
198.55	0.000
198.92	542.857
199.30	1366.667
199.68	1650.000
200.05	616.667
200.43	-450.000
200.81	233.333
201.18	3200.000
201.56	291.667
201.94	-700.000
202.31	-325.000
202.69	-480.000
203.07	3900.000
203.44	-466.667
203.82	358.333
204.19	700.000
204.57	-1350.000
204.95	-825.000
205.32	-760.000
205.70	433.333
206.08	800.000
206.45	-800.000
206.83	433.333
207.20	200.000
207.58	283.333
207.96	700.000
208.33	0.000
208.71	485.714
209.08	620.000
209.46	-2700.000
209.84	-850.000
210.21	860.000
210.59	-540.000
210.96	375.000
211.34	-1050.000
211.71	418.182
212.09	775.000
212.46	1700.000
212.84	-566.667
213.22	422.222
213.59	-3800.000
213.97	350.000
214.34	950.000
214.72	1133.333
215.09	933.333
215.47	-2800.000
215.84	-320.000
216.22	-400.000
216.59	0.000
216.97	0.000
217.34	1650.000
217.72	-1500.000
218.09	933.333
218.47	487.500
218.84	850.000
219.22	1100.000
219.59	1066.667
219.97	585.714
220.34	433.333
220.72	1050.000
221.09	3600.000
221.47	233.333
221.84	933.333
222.22	300.000
222.59	216.667
222.97	307.143
223.34	281.250
223.72	-1900.000
224.09	1033.333
224.46	261.538
224.84	-850.000
225.21	355.556
225.59	240.000
225.96	1066.667
226.34	-560.000
226.71	-675.000
227.08	-540.000
227.46	0.000
227.83	-516.667
228.21	-1750.000
228.58	308.333
228.95	925.000
229.33	300.000
229.70	800.000
230.08	323.077
230.45	3600.000
230.82	-775.000
231.20	-833.333
231.57	-833.333
231.95	280.000
232.32	316.667
232.69	433.333
233.07	325.000
233.44	-1450.000
233.81	260.000
234.19	166.667
234.56	162.500
234.93	211.765
235.31	210.000
235.68	250.000
236.05	146.429
236.43	125.926
236.80	285.714
237.17	144.828
237.55	121.875
237.92	95.000
238.29	109.091
238.67	128.125
239.04	85.366
239.41	52.083
239.79	67.500
240.16	60.417
240.53	67.213
240.91	55.072
241.28	50.847
241.65	50.000
242.02	60.563
242.40	44.286
242.77	46.154
243.14	22.785
243.51	42.424
243.89	22.430
244.26	28.972
244.63	19.802
245.00	24.771
245.38	16.102
245.75	24.242
246.12	31.111
246.49	23.404
246.87	18.033
247.24	22.000
247.61	24.375
247.98	23.810
248.36	12.121
248.73	24.490
249.10	13.690
249.47	21.500
249.84	16.418
250.22	16.216
250.59	16.500
250.96	14.346
251.33	12.093
251.70	15.179
252.08	11.765
252.45	11.155
252.82	14.068
253.19	12.648
253.56	12.308
253.94	11.232
254.31	9.302
254.68	16.028
255.05	13.103
255.42	16.058
255.79	12.052
256.16	11.186
256.54	12.662
256.91	10.784
257.28	11.706
257.65	8.464
258.02	11.799
258.39	14.327
258.76	10.725
259.14	7.714
259.51	11.079
259.88	8.815
260.25	7.692
260.62	9.589
260.99	6.336
261.36	8.635
261.73	7.979
262.10	7.853
262.47	11.000
262.85	8.000
263.22	8.226
263.59	8.951
263.96	8.772
264.33	9.136
264.70	10.319
265.07	7.805
265.44	6.881
265.81	8.255
266.18	8.467
266.55	7.329
266.92	7.606
267.29	8.772
267.66	7.175
268.03	6.951
268.40	10.148
268.77	7.048
269.14	5.423
269.51	7.350
269.88	6.531
270.25	3.888
270.62	4.936
270.99	8.519
271.36	8.333
271.73	6.499
272.10	4.444
272.47	5.357
272.84	5.589
273.21	6.818
273.58	9.312
273.95	4.107
274.32	8.366
274.69	7.677
275.06	9.107
275.43	6.897
275.80	4.906
276.17	6.434
276.54	8.785
276.91	8.022
277.28	7.117
277.65	4.982
278.02	5.147
278.39	6.655
278.76	6.897
279.13	6.228
279.50	7.273
279.87	3.166
280.23	4.788
280.60	5.109
280.97	6.379
281.34	6.931
281.71	7.130
282.08	6.838
282.45	5.405
282.82	5.686
283.19	6.677
283.56	6.116
283.92	4.723
284.29	6.489
284.66	5.714
285.03	7.131
285.40	5.124
285.77	4.938
286.14	6.037
286.51	5.828
286.87	4.589
287.24	5.105
287.61	4.407
287.98	5.672
288.35	5.333
288.72	3.642
289.08	4.955
289.45	5.488
289.82	6.406
290.19	5.271
290.56	5.968
290.93	5.036
291.29	5.663
291.66	5.367
292.03	5.891
292.40	5.420
292.77	4.875
293.13	5.421
293.50	4.318
293.87	4.201
294.24	4.336
294.60	6.057
294.97	5.455
295.34	5.046
295.71	4.862
296.08	4.267
296.44	5.464
296.81	5.211
297.18	3.802
297.55	3.941
297.91	3.079
298.28	5.072
298.65	5.521
299.02	5.308
299.38	4.436
299.75	3.902
300.12	4.358
300.48	4.215
300.85	5.125
301.22	4.186
301.59	3.420
301.95	4.201
302.32	3.842
302.69	4.186
303.05	5.387
303.42	4.372
303.79	4.659
304.15	4.290
304.52	3.700
304.89	4.478
305.25	4.004
305.62	4.797
305.99	2.391
306.35	4.105
306.72	4.475
307.09	4.658
307.45	2.746
307.82	4.012
308.19	3.608
308.55	3.400
308.92	5.299
309.29	4.241
309.65	3.469
310.02	4.260
310.38	3.390
310.75	3.857
311.12	4.502
311.48	5.405
311.85	4.771
312.22	5.635
312.58	2.818
312.95	5.049
313.31	4.026
313.68	4.315
314.05	5.128
314.41	4.097
314.78	4.261
315.14	4.834
315.51	4.163
315.87	4.380
316.24	3.735
316.61	4.297
316.97	2.385
317.34	3.953
317.70	4.741
318.07	4.626
318.43	4.394
318.80	5.517
319.16	4.545
319.53	3.628
319.89	4.391
320.26	4.283
320.62	5.037
320.99	3.622
321.35	4.082
321.72	6.072
322.08	3.970
322.45	4.269
322.81	4.117
323.18	4.973
323.54	4.878
323.91	4.170
324.27	4.598
324.64	3.720
325.00	5.259
325.37	5.143
325.73	3.963
326.10	5.468
326.46	5.202
326.83	3.520
327.19	5.783
327.56	4.553
327.92	4.672
328.29	5.319
328.65	5.223
329.01	4.619
329.38	5.245
329.74	4.099
330.11	4.518
330.47	5.286
330.84	3.883
331.20	5.076
331.56	5.440
331.93	3.849
332.29	4.422
332.66	4.422
333.02	4.553
333.38	5.236
333.75	6.422
334.11	5.117
334.48	3.932
334.84	3.970
335.20	4.705
335.57	5.122
335.93	3.869
336.29	4.643
336.66	5.918
337.02	4.619
337.38	5.073
337.75	4.561
338.11	5.232
338.47	4.403
338.84	4.488
339.20	4.156
339.56	4.289
339.93	4.766
340.29	3.361
340.65	4.862
341.02	4.747
341.38	4.351
341.74	4.485
342.11	4.508
342.47	3.610
342.83	5.332
343.20	4.850
343.56	3.733
343.92	3.881
344.28	5.423
344.65	3.993
345.01	4.524
345.37	4.728
345.73	3.810
346.10	4.542
346.46	4.147
346.82	3.781
347.19	4.869
347.55	3.669
347.91	4.381
348.27	2.789
348.63	3.877
349.00	4.341
349.36	4.747
349.72	4.969
350.08	3.882
350.45	4.113
350.81	4.511
351.17	3.544
351.53	4.080
351.89	4.351
352.26	3.855
352.62	4.902
352.98	4.218
353.34	5.085
353.70	3.364
354.07	4.000
354.43	4.224
354.79	3.797
355.15	4.288
355.51	3.852
355.87	4.367
356.24	4.157
356.60	4.186
356.96	4.018
357.32	4.295
357.68	4.258
358.04	4.635
358.40	5.247
358.77	4.583
359.13	4.054
359.49	4.522
359.85	4.542
360.21	3.715
360.57	4.015
360.93	3.968
361.29	3.535
361.66	4.400
362.02	2.983
362.38	4.401
362.74	4.317
363.10	3.787
363.46	2.901
363.82	4.979
364.18	4.125
364.54	3.863
364.90	4.819
365.26	4.164
365.62	3.798
365.98	3.441
366.35	3.379
366.71	3.886
367.07	4.232
367.43	4.567
367.79	4.322
368.15	3.189
368.51	3.653
368.87	3.329
369.23	3.534
369.59	4.518
369.95	4.126
370.31	2.943
370.67	3.609
371.03	5.042
371.39	3.878
371.75	3.699
372.11	4.215
372.47	4.247
372.83	3.739
373.19	4.318
373.55	4.055
373.91	2.762
374.27	4.365
374.63	3.797
374.99	4.313
375.35	3.629
375.71	3.628
376.07	3.581
376.42	3.133
376.78	3.725
377.14	3.473
377.50	3.808
377.86	3.780
378.22	3.534
378.58	3.935
378.94	3.742
379.30	2.729
379.66	3.432
380.02	3.754
380.38	3.162
380.74	4.095
381.09	3.855
381.45	3.295
381.81	2.896
382.17	3.602
382.53	3.059
382.89	4.199
383.25	3.493
383.61	3.977
383.97	3.359
384.32	3.496
384.68	4.635
385.04	3.400
385.40	3.618
385.76	3.569
386.12	3.834
386.48	3.830
386.83	3.240
387.19	3.239
387.55	3.710
387.91	3.811
388.27	3.331
388.62	3.580
388.98	3.382
389.34	3.391
389.70	3.066
390.06	4.512
390.42	3.331
390.77	3.194
391.13	3.561
391.49	3.811
391.85	3.754
392.20	3.874
392.56	4.600
392.92	3.593
393.28	3.195
393.64	2.752
393.99	3.794
394.35	3.296
394.71	3.197
395.07	3.345
395.42	3.044
395.78	4.257
396.14	3.675
396.50	3.670
396.85	4.024
397.21	3.670
397.57	3.407
397.92	3.120
398.28	2.703
398.64	3.723
399.00	2.993
399.35	3.113
399.71	3.698
400.07	3.368
400.42	3.403
400.78	3.343
401.14	3.171
401.49	3.053
401.85	3.360
402.21	2.929
402.57	3.471
402.92	3.758
403.28	3.103
403.63	3.767
403.99	2.835
404.35	4.045
404.70	3.721
405.06	3.481
405.42	2.932
405.77	3.473
406.13	3.471
406.49	2.501
406.84	3.779
407.20	3.082
407.55	3.446
407.91	3.574
408.27	3.578
408.62	2.720
408.98	2.898
409.34	3.156
409.69	3.236
410.05	3.339
410.40	2.709
410.76	2.919
411.11	2.784
411.47	3.333
411.83	2.695
412.18	2.415
412.54	3.003
412.89	3.422
413.25	3.022
413.60	3.329
413.96	3.232
414.31	3.011
414.67	3.290
415.03	3.065
415.38	3.975
415.74	2.969
416.09	4.247
416.45	3.878
416.80	4.105
417.16	3.437
417.51	3.885
417.87	3.692
418.22	3.098
418.58	3.439
418.93	3.569
419.29	2.896
419.64	3.755
420.00	3.938
420.35	2.671
420.71	3.559
421.06	2.884
421.42	2.706
421.77	2.943
422.12	2.756
422.48	3.133
422.83	3.962
423.19	2.862
423.54	3.401
423.90	3.341
424.25	2.752
424.61	2.902
424.96	2.372
425.31	3.010
425.67	3.030
426.02	3.141
426.38	2.684
426.73	3.008
427.09	3.381
427.44	3.095
427.79	2.573
428.15	3.889
428.50	4.229
428.85	3.469
429.21	3.404
429.56	2.991
429.92	3.282
430.27	2.854
430.62	2.594
430.98	3.293
431.33	2.621
431.68	2.321
432.04	3.052
432.39	3.183
432.74	3.396
433.10	2.658
433.45	3.676
433.80	3.420
434.16	3.416
434.51	2.993
434.86	3.811
435.22	2.701
435.57	3.320
435.92	3.586
436.28	3.802
436.63	3.782
436.98	3.829
437.34	3.767
437.69	2.744
438.04	3.065
438.39	3.561
438.75	4.065
439.10	3.346
439.45	3.787
439.81	3.181
440.16	3.577
440.51	3.153
440.86	3.647
441.22	3.030
441.57	3.517
441.92	2.764
442.27	3.196
442.63	2.693
442.98	3.287
443.33	3.642
443.68	3.471
444.03	2.639
444.39	3.202
444.74	3.623
445.09	3.318
445.44	3.560
445.79	3.216
446.15	3.316
446.50	3.639
446.85	3.436
447.20	2.985
447.55	3.208
447.91	3.836
448.26	4.420
448.61	3.538
448.96	3.649
449.31	3.520
449.66	4.540
450.02	3.404
450.37	3.609
450.72	3.857
451.07	4.421
451.42	4.327
451.77	3.780
452.12	3.914
452.47	3.949
452.83	3.493
453.18	4.685
453.53	3.671
453.88	3.829
454.23	3.544
454.58	4.254
454.93	3.985
455.28	3.978
455.63	3.901
455.98	4.230
456.34	3.951
456.69	3.902
457.04	3.580
457.39	3.600
457.74	4.730
458.09	3.537
458.44	4.107
458.79	4.032
459.14	3.437
459.49	4.134
459.84	4.348
460.19	4.237
460.54	4.672
460.89	3.838
461.24	3.436
461.59	4.082
461.94	4.255
462.29	4.233
462.64	4.523
462.99	4.223
463.34	4.537
463.69	5.021
464.04	4.548
464.39	3.663
464.74	3.400
465.09	4.353
465.44	4.189
465.79	3.538
466.14	4.028
466.49	3.418
466.84	4.236
467.19	4.862
467.54	4.204
467.89	4.519
468.24	3.532
468.59	3.512
468.94	4.106
469.29	4.582
469.64	5.080
469.99	5.270
470.34	4.111
470.68	4.069
471.03	4.270
471.38	3.907
471.73	4.246
472.08	4.371
472.43	4.097
472.78	4.545
473.13	4.130
473.48	4.645
473.83	5.183
474.17	4.620
474.52	4.502
474.87	3.468
475.22	4.340
475.57	3.778
475.92	3.577
476.27	3.373
476.61	4.129
476.96	4.232
477.31	3.856
477.66	3.972
478.01	3.868
478.36	3.965
478.70	3.672
479.05	3.504
479.40	3.819
479.75	3.823
480.10	3.872
480.45	3.361
480.79	4.147
481.14	3.709
481.49	3.980
481.84	3.694
482.19	3.712
482.53	3.821
482.88	4.167
483.23	3.473
483.58	3.276
483.92	4.205
484.27	3.767
484.62	4.202
484.97	3.701
485.31	3.209
485.66	2.899
486.01	2.995
486.36	2.967
486.70	2.663
487.05	2.924
487.40	3.324
487.75	3.397
488.09	3.551
488.44	3.410
488.79	3.089
489.13	3.135
489.48	3.516
489.83	3.378
490.17	3.303
490.52	3.575
490.87	3.621
491.22	4.211
491.56	3.953
491.91	3.719
492.26	4.053
492.60	3.462
492.95	4.304
493.30	4.368
493.64	3.774
493.99	4.204
494.34	3.631
494.68	3.630
495.03	3.996
495.37	4.412
495.72	4.196
496.07	3.504
496.41	3.823
496.76	3.504
497.11	4.413
497.45	4.253
497.80	3.614
498.14	3.976
498.49	4.503
498.84	4.626
499.18	4.205
499.53	4.134
499.87	3.774
500.22	3.915
500.56	4.085
500.91	4.824
501.26	4.180
501.60	3.689
501.95	3.763
502.29	4.489
502.64	4.102
502.98	3.646
503.33	3.653
503.67	3.929
504.02	3.672
504.36	4.480
504.71	4.115
505.06	4.223
505.40	3.931
505.75	3.789
506.09	4.573
506.44	4.182
506.78	4.301
507.13	4.120
507.47	4.076
507.82	4.574
508.16	4.704
508.51	4.251
508.85	3.799
509.19	4.112
509.54	4.395
509.88	5.022
510.23	4.265
510.57	3.909
510.92	3.696
511.26	4.618
511.61	4.284
511.95	4.380
512.30	4.050
512.64	4.154
512.98	3.844
513.33	3.996
513.67	4.195
514.02	4.312
514.36	4.050
514.70	4.107
515.05	4.688
515.39	4.112
515.74	5.303
516.08	4.303
516.42	5.137
516.77	4.320
517.11	4.000
517.46	4.634
517.80	3.823
518.14	4.169
518.49	4.796
518.83	4.451
519.17	4.548
519.52	4.806
519.86	4.796
520.20	5.041
520.55	4.862
520.89	5.287
521.23	4.147
521.58	4.532
521.92	4.840
522.26	4.443
522.61	5.110
522.95	4.805
523.29	4.971
523.64	4.046
523.98	4.284
524.32	4.902
524.66	4.928
525.01	4.438
525.35	4.596
525.69	5.238
526.04	5.413
526.38	5.062
526.72	4.773
527.06	4.258
527.41	5.139
527.75	5.052
528.09	4.696
528.43	5.430
528.78	4.532
529.12	4.816
529.46	4.676
529.80	4.147
530.15	4.537
530.49	3.610
530.83	4.692
531.17	4.982
531.51	4.537
531.86	4.952
532.20	4.388
532.54	4.080
532.88	5.059
533.22	4.875
533.57	3.661
533.91	4.196
534.25	4.270
534.59	5.029
534.93	4.608
535.27	4.098
535.62	4.434
535.96	4.255
536.30	5.728
536.64	3.602
536.98	4.279
537.32	5.188
537.66	4.209
538.01	5.015
538.35	4.741
538.69	4.672
539.03	3.918
539.37	3.641
539.71	4.815
540.05	4.000
540.39	5.472
540.73	4.367
541.07	3.513
541.42	4.602
541.76	4.562
542.10	3.822
542.44	4.302
542.78	4.468
543.12	3.988
543.46	4.135
543.80	4.762
544.14	4.334
544.48	3.893
544.82	4.159
545.16	3.825
545.50	4.610
545.84	4.924
546.18	4.681
546.52	4.590
546.86	4.900
547.20	4.522
547.54	5.256
547.88	5.231
548.22	4.311
548.56	4.302
548.90	5.338
549.24	4.485
549.58	4.317
549.92	4.584
550.26	4.936
550.60	4.790
550.94	4.613
551.28	4.897
551.62	5.310
551.96	4.392
552.30	3.757
552.64	5.566
552.98	4.124
553.32	5.122
553.66	4.169
554.00	4.826
554.34	4.860
554.68	5.108
555.02	4.549
555.36	4.388
555.69	4.516
556.03	4.522
556.37	4.716
556.71	5.541
557.05	4.194
557.39	5.133
557.73	5.121
558.07	4.695
558.41	5.209
558.75	5.746
559.08	5.075
559.42	5.011
559.76	5.916
560.10	4.886
560.44	4.446
560.78	4.731
561.12	4.450
561.45	4.255
561.79	4.744
562.13	4.169
562.47	4.283
562.81	4.619
563.15	4.654
563.48	3.789
563.82	4.991
564.16	4.726
564.50	4.702
564.84	4.559
565.17	4.456
565.51	4.002
565.85	4.380
566.19	3.810
566.52	3.670
566.86	4.437
567.20	4.719
567.54	4.258
567.88	4.695
568.21	3.944
568.55	4.329
568.89	4.471
569.23	3.581
569.56	3.794
569.90	3.162
570.24	3.714
570.57	3.342
570.91	3.027
571.25	3.559
571.59	3.046
571.92	2.960
572.26	2.803
572.60	3.194
572.93	3.508
573.27	2.958
573.61	2.870
573.95	3.013
574.28	3.030
574.62	2.678
574.96	2.871
575.29	2.853
575.63	2.827
575.97	2.678
576.30	2.556
576.64	2.773
576.98	2.972
577.31	3.001
577.65	2.999
577.98	2.752
578.32	2.666
578.66	2.760
578.99	2.937
579.33	2.887
579.67	2.977
580.00	2.843
580.34	2.794
580.67	3.177
581.01	3.226
581.35	2.683
581.68	2.423
582.02	2.801
582.35	2.761
582.69	3.012
583.02	2.806
583.36	2.763
583.70	2.997
584.03	3.356
584.37	3.281
584.70	2.737
585.04	3.045
585.37	2.998
585.71	3.281
586.04	3.007
586.38	2.945
586.72	3.012
587.05	3.268
587.39	2.908
587.72	3.074
588.06	2.905
588.39	2.943
588.73	3.105
589.06	3.327
589.40	3.505
589.73	3.343
590.07	3.157
590.40	3.589
590.73	3.966
591.07	3.947
591.40	3.713
591.74	3.815
592.07	3.411
592.41	3.717
592.74	3.881
593.08	3.158
593.41	3.112
593.75	3.192
594.08	3.511
594.41	3.584
594.75	3.596
595.08	3.395
595.42	3.489
595.75	3.422
596.09	3.928
596.42	3.678
596.75	3.526
597.09	4.375
597.42	3.429
597.75	3.448
598.09	4.021
598.42	3.876
598.76	3.547
599.09	3.678
599.42	3.495
599.76	3.901
600.09	3.153
600.42	3.246
600.76	3.535
601.09	3.314
601.42	3.485
601.76	3.652
602.09	3.679
602.42	3.586
602.76	3.681
603.09	3.846
603.42	4.037
603.76	3.507
604.09	3.257
604.42	3.164
604.76	3.753
605.09	3.429
605.42	3.779
605.75	3.553
606.09	3.558
606.42	3.533
606.75	3.498
607.09	3.711
607.42	3.495
607.75	3.623
608.08	3.615
608.42	3.607
608.75	3.081
609.08	3.784
609.41	4.091
609.75	3.938
610.08	3.777
610.41	3.821
610.74	3.896
611.07	4.047
611.41	3.661
611.74	3.728
612.07	3.854
612.40	4.240
612.73	3.994
613.07	4.004
613.40	4.010
613.73	3.844
614.06	3.600
614.39	3.586
614.72	3.867
615.06	3.561
615.39	4.208
615.72	4.066
616.05	4.269
616.38	4.160
616.71	3.418
617.05	4.009
617.38	3.258
617.71	4.274
618.04	3.702
618.37	4.336
618.70	4.157
619.03	3.907
619.36	5.151
619.69	4.222
620.03	5.610
620.36	3.789
620.69	5.236
621.02	4.212
621.35	4.226
621.68	4.646
622.01	5.092
622.34	3.933
622.67	4.986
623.00	4.765
623.33	4.858
623.66	3.925
623.99	3.767
624.32	3.794
624.65	4.477
624.99	4.530
625.32	4.609
625.65	3.310
625.98	3.766
626.31	5.267
626.64	3.948
626.97	4.973
627.30	4.348
627.63	4.239
627.96	3.521
628.29	5.033
628.62	3.593
628.95	4.344
629.28	6.047
629.61	5.097
629.94	4.408
630.26	5.633
630.59	5.142
630.92	5.471
631.25	6.165
631.58	5.400
631.91	4.853
632.24	4.470
632.57	3.733
632.90	4.969
633.23	6.506
633.56	5.058
633.89	5.788
634.22	5.490
634.55	5.699
634.88	6.791
635.20	5.269
635.53	5.226
635.86	7.159
636.19	5.948
636.52	5.514
636.85	4.854
637.18	5.742
637.51	4.804
637.83	5.950
638.16	5.627
638.49	6.108
638.82	5.869
639.15	4.348
639.48	6.635
639.81	5.739
640.13	6.503
640.46	5.436
640.79	4.421
641.12	5.512
641.45	6.210
641.77	5.812
642.10	6.292
642.43	6.543
642.76	5.540
643.09	5.043
643.41	7.433
643.74	6.763
644.07	6.637
644.40	5.178
644.73	8.258
645.05	7.578
645.38	7.657
645.71	5.008
646.04	7.328
646.36	6.260
646.69	5.600
647.02	7.360
647.35	7.402
647.67	7.131
648.00	7.818
648.33	7.820
648.66	6.061
648.98	5.797
649.31	7.018
649.64	4.979
649.96	5.405
650.29	6.857
650.62	7.658
650.94	9.337
651.27	7.337
651.60	6.729
651.92	7.066
652.25	6.929
652.58	5.816
652.90	5.240
653.23	6.352
653.56	6.083
653.88	5.580
654.21	6.745
654.54	7.174
654.86	6.342
655.19	7.520
655.52	4.344
655.84	1.983
656.17	1.994
