SpectraSuite Data File
++++++++++++++++++++++++++++++++++++
Date: Tue May 12 17:22:29 PDT 2015
User: schluterlab
Dark Spectrum Present: Yes
Reference Spectrum Present: Yes
Number of Sampled Component Spectra: 1
Spectrometers: USB2E3373
Integration Time (usec): 3000 (USB2E3373)
Spectra Averaged: 3 (USB2E3373)
Boxcar Smoothing: 0 (USB2E3373)
Correct for Electrical Dark: No (USB2E3373)
Strobe/Lamp Enabled: No (USB2E3373)
Correct for Detector Non-linearity: No (USB2E3373)
Correct for Stray Light: No (USB2E3373)
Number of Pixels in Processed Spectrum: 2048
>>>>>Begin Processed Spectral Data<<<<<
178.53	0.000
178.91	-316.667
179.29	-500.000
179.67	-4600.000
180.04	-180.000
180.42	800.000
180.80	1250.000
181.18	0.000
181.56	-325.000
181.94	0.000
182.31	1166.667
182.69	-3000.000
183.07	642.857
183.45	-3800.000
183.83	-1850.000
184.20	410.000
184.58	428.571
184.96	-223.077
185.34	-175.000
185.72	1450.000
186.09	-900.000
186.47	-2800.000
186.85	766.667
187.23	660.000
187.61	1900.000
187.98	425.000
188.36	235.714
188.74	375.000
189.12	366.667
189.49	800.000
189.87	0.000
190.25	500.000
190.63	2700.000
191.00	-216.667
191.38	-4100.000
191.76	-500.000
192.14	587.500
192.51	-2100.000
192.89	2100.000
193.27	1066.667
193.65	-1266.667
194.02	-680.000
194.40	442.857
194.78	-235.714
195.15	260.000
195.53	-2900.000
195.91	-640.000
196.29	3100.000
196.66	275.000
197.04	975.000
197.42	-1400.000
197.79	625.000
198.17	233.333
198.55	0.000
198.92	485.714
199.30	1433.333
199.68	2350.000
200.05	650.000
200.43	-466.667
200.81	244.444
201.18	3800.000
201.56	275.000
201.94	-900.000
202.31	-387.500
202.69	-520.000
203.07	4000.000
203.44	-483.333
203.82	375.000
204.19	780.000
204.57	-1550.000
204.95	-850.000
205.32	-500.000
205.70	483.333
206.08	700.000
206.45	-966.667
206.83	366.667
207.20	173.684
207.58	258.333
207.96	720.000
208.33	0.000
208.71	457.143
209.08	460.000
209.46	-3400.000
209.84	-900.000
210.21	900.000
210.59	-360.000
210.96	275.000
211.34	-900.000
211.71	354.545
212.09	975.000
212.46	1550.000
212.84	-433.333
213.22	400.000
213.59	-2600.000
213.97	320.000
214.34	850.000
214.72	1233.333
215.09	1033.333
215.47	-3500.000
215.84	-340.000
216.22	-362.500
216.59	0.000
216.97	0.000
217.34	1750.000
217.72	-1400.000
218.09	1100.000
218.47	350.000
218.84	750.000
219.22	1166.667
219.59	833.333
219.97	357.143
220.34	411.111
220.72	1600.000
221.09	3800.000
221.47	233.333
221.84	1200.000
222.22	310.000
222.59	222.222
222.97	221.429
223.34	206.250
223.72	-1300.000
224.09	1300.000
224.46	276.923
224.84	-725.000
225.21	344.444
225.59	226.667
225.96	1233.333
226.34	-760.000
226.71	-775.000
227.08	-680.000
227.46	0.000
227.83	-683.333
228.21	-2000.000
228.58	333.333
228.95	1075.000
229.33	411.111
229.70	925.000
230.08	384.615
230.45	3000.000
230.82	-750.000
231.20	-700.000
231.57	-1000.000
231.95	580.000
232.32	275.000
232.69	666.667
233.07	358.333
233.44	-1500.000
233.81	220.000
234.19	170.370
234.56	231.250
234.93	223.529
235.31	165.000
235.68	218.750
236.05	153.571
236.43	129.630
236.80	250.000
237.17	137.931
237.55	118.750
237.92	140.000
238.29	163.636
238.67	121.875
239.04	153.659
239.41	95.833
239.79	67.500
240.16	93.750
240.53	72.131
240.91	68.116
241.28	91.525
241.65	74.242
242.02	81.690
242.40	82.857
242.77	60.440
243.14	68.354
243.51	64.646
243.89	59.813
244.26	57.944
244.63	65.347
245.00	66.972
245.38	50.847
245.75	50.000
246.12	54.815
246.49	53.191
246.87	50.820
247.24	48.000
247.61	45.000
247.98	51.701
248.36	46.667
248.73	45.918
249.10	41.667
249.47	38.500
249.84	44.279
250.22	44.324
250.59	41.000
250.96	40.084
251.33	42.791
251.70	45.536
252.08	42.437
252.45	37.052
252.82	42.205
253.19	39.921
253.56	43.077
253.94	42.029
254.31	42.636
254.68	41.115
255.05	41.034
255.42	40.876
255.79	38.111
256.16	37.966
256.54	40.584
256.91	37.255
257.28	37.793
257.65	40.125
258.02	38.643
258.39	38.682
258.76	40.290
259.14	34.571
259.51	38.776
259.88	39.514
260.25	34.890
260.62	36.712
260.99	30.028
261.36	35.097
261.73	35.372
262.10	39.005
262.47	36.250
262.85	34.933
263.22	35.219
263.59	34.015
263.96	36.090
264.33	34.074
264.70	34.398
265.07	34.878
265.44	33.716
265.81	35.142
266.18	33.181
266.55	34.988
266.92	34.452
267.29	34.430
267.66	33.408
268.03	35.650
268.40	33.615
268.77	34.581
269.14	32.538
269.51	31.180
269.88	35.102
270.25	32.181
270.62	33.262
270.99	33.874
271.36	30.691
271.73	32.495
272.10	32.929
272.47	30.754
272.84	29.940
273.21	32.851
273.58	31.984
273.95	33.470
274.32	32.490
274.69	31.299
275.06	32.058
275.43	32.375
275.80	30.000
276.17	29.963
276.54	34.579
276.91	34.328
277.28	31.387
277.65	32.841
278.02	32.537
278.39	32.554
278.76	32.241
279.13	31.317
279.50	32.182
279.87	30.912
280.23	29.098
280.60	32.117
280.97	29.655
281.34	31.023
281.71	30.261
282.08	30.940
282.45	31.081
282.82	28.930
283.19	30.207
283.56	29.421
283.92	30.619
284.29	29.118
284.66	29.244
285.03	30.846
285.40	28.430
285.77	25.772
286.14	29.721
286.51	30.828
286.87	25.949
287.24	29.580
287.61	29.483
287.98	28.657
288.35	27.556
288.72	28.225
289.08	27.928
289.45	28.811
289.82	30.000
290.19	28.843
290.56	28.384
290.93	26.475
291.29	24.586
291.66	26.836
292.03	28.331
292.40	26.829
292.77	25.070
293.13	27.247
293.50	26.856
293.87	25.474
294.24	26.573
294.60	25.976
294.97	27.133
295.34	25.365
295.71	26.018
296.08	25.467
296.44	25.667
296.81	23.821
297.18	23.701
297.55	23.892
297.91	23.399
298.28	25.000
298.65	24.294
299.02	24.367
299.38	23.141
299.75	22.195
300.12	24.197
300.48	23.888
300.85	22.765
301.22	23.372
301.59	22.170
301.95	22.054
302.32	23.632
302.69	24.548
303.05	23.906
303.42	25.000
303.79	23.185
304.15	23.542
304.52	22.727
304.89	22.068
305.25	22.581
305.62	22.281
305.99	21.848
306.35	23.368
306.72	23.517
307.09	23.499
307.45	22.175
307.82	23.560
308.19	23.299
308.55	23.000
308.92	23.847
309.29	24.753
309.65	23.092
310.02	23.732
310.38	23.131
310.75	24.590
311.12	24.521
311.48	24.614
311.85	24.905
312.22	25.024
312.58	25.364
312.95	24.951
313.31	25.843
313.68	25.328
314.05	26.648
314.41	26.443
314.78	27.273
315.14	27.488
315.51	28.571
315.87	27.190
316.24	28.198
316.61	29.454
316.97	29.083
317.34	30.099
317.70	30.202
318.07	31.673
318.43	31.371
318.80	31.874
319.16	32.168
319.53	33.628
319.89	32.168
320.26	37.244
320.62	34.249
320.99	35.939
321.35	34.694
321.72	37.476
322.08	36.934
322.45	37.875
322.81	38.335
323.18	38.988
323.54	40.854
323.91	43.064
324.27	40.760
324.64	42.042
325.00	44.224
325.37	44.098
325.73	45.194
326.10	47.059
326.46	46.656
326.83	46.800
327.19	48.916
327.56	47.604
327.92	50.164
328.29	50.000
328.65	52.226
329.01	50.727
329.38	50.508
329.74	52.092
330.11	54.040
330.47	54.561
330.84	52.028
331.20	53.130
331.56	54.750
331.93	55.860
332.29	54.507
332.66	55.952
333.02	56.100
333.38	56.719
333.75	57.548
334.11	55.369
334.48	57.863
334.84	57.010
335.20	58.169
335.57	58.102
335.93	57.275
336.29	56.219
336.66	59.777
337.02	56.972
337.38	58.212
337.75	57.601
338.11	58.987
338.47	59.865
338.84	58.764
339.20	58.874
339.56	58.368
339.93	58.779
340.29	58.571
340.65	60.352
341.02	58.648
341.38	59.113
341.74	60.216
342.11	60.351
342.47	59.229
342.83	62.428
343.20	60.550
343.56	58.856
343.92	60.033
344.28	60.367
344.65	62.347
345.01	59.286
345.37	60.256
345.73	62.063
346.10	60.239
346.46	61.085
346.82	60.262
347.19	60.278
347.55	59.485
347.91	59.819
348.27	59.954
348.63	60.997
349.00	60.701
349.36	62.412
349.72	62.232
350.08	62.500
350.45	61.158
350.81	61.621
351.17	60.401
351.53	61.509
351.89	62.315
352.26	61.754
352.62	62.670
352.98	61.656
353.34	62.250
353.70	60.856
354.07	62.077
354.43	62.826
354.79	61.731
355.15	61.792
355.51	62.613
355.87	62.425
356.24	62.510
356.60	63.014
356.96	62.547
357.32	63.150
357.68	60.352
358.04	63.222
358.40	61.619
358.77	63.186
359.13	62.688
359.49	62.861
359.85	63.366
360.21	61.144
360.57	64.015
360.93	62.266
361.29	62.121
361.66	63.311
362.02	62.287
362.38	62.843
362.74	63.977
363.10	62.973
363.46	63.191
363.82	63.114
364.18	63.514
364.54	64.020
364.90	62.450
365.26	64.539
365.62	63.191
365.98	63.661
366.35	63.241
366.71	62.942
367.07	63.276
367.43	63.197
367.79	62.766
368.15	63.026
368.51	64.163
368.87	63.383
369.23	63.479
369.59	62.778
369.95	65.245
370.31	61.396
370.67	63.845
371.03	63.515
371.39	64.335
371.75	63.712
372.11	64.310
372.47	63.973
372.83	65.398
373.19	63.674
373.55	63.574
373.91	62.431
374.27	63.492
374.63	63.186
374.99	63.949
375.35	64.987
375.71	63.786
376.07	62.401
376.42	62.532
376.78	63.070
377.14	63.893
377.50	62.734
377.86	63.997
378.22	64.168
378.58	66.102
378.94	63.428
379.30	64.585
379.66	65.202
380.02	64.692
380.38	63.993
380.74	64.879
381.09	63.493
381.45	61.965
381.81	63.948
382.17	64.225
382.53	62.867
382.89	63.572
383.25	63.529
383.61	63.343
383.97	64.007
384.32	64.678
384.68	63.696
385.04	63.892
385.40	63.701
385.76	62.727
386.12	64.440
386.48	65.350
386.83	64.364
387.19	63.899
387.55	63.192
387.91	64.550
388.27	65.080
388.62	63.791
388.98	62.332
389.34	62.820
389.70	64.328
390.06	63.537
390.42	62.307
390.77	62.408
391.13	64.635
391.49	63.158
391.85	63.262
392.20	63.588
392.56	63.740
392.92	62.156
393.28	61.771
393.64	61.927
393.99	63.367
394.35	62.448
394.71	62.063
395.07	62.835
395.42	62.471
395.78	63.664
396.14	63.373
396.50	62.515
396.85	62.622
397.21	61.312
397.57	62.522
397.92	60.832
398.28	61.390
398.64	62.245
399.00	60.983
399.35	61.514
399.71	60.265
400.07	61.244
400.42	60.657
400.78	60.704
401.14	60.658
401.49	60.945
401.85	61.935
402.21	60.633
402.57	60.981
402.92	61.455
403.28	59.726
403.63	58.976
403.99	59.469
404.35	61.782
404.70	61.252
405.06	59.517
405.42	59.725
405.77	58.655
406.13	58.189
406.49	59.409
406.84	58.037
407.20	59.361
407.55	60.369
407.91	59.732
408.27	58.520
408.62	58.368
408.98	58.013
409.34	57.510
409.69	58.121
410.05	57.484
410.40	56.832
410.76	57.241
411.11	57.109
411.47	57.407
411.83	55.946
412.18	56.643
412.54	58.018
412.89	56.460
413.25	57.241
413.60	57.593
413.96	56.972
414.31	58.087
414.67	57.294
415.03	56.066
415.38	57.476
415.74	58.117
416.09	57.402
416.45	57.854
416.80	57.665
417.16	54.742
417.51	57.516
417.87	55.444
418.22	56.744
418.58	55.860
418.93	54.848
419.29	54.775
419.64	55.058
420.00	56.384
420.35	56.214
420.71	55.834
421.06	54.856
421.42	55.037
421.77	54.525
422.12	55.402
422.48	54.032
422.83	55.301
423.19	54.428
423.54	54.142
423.90	55.493
424.25	53.495
424.61	54.614
424.96	52.964
425.31	53.311
425.67	54.882
426.02	54.795
426.38	53.326
426.73	54.598
427.09	54.270
427.44	53.405
427.79	53.116
428.15	54.508
428.50	52.571
428.85	54.027
429.21	53.701
429.56	53.141
429.92	52.959
430.27	52.879
430.62	51.689
430.98	52.944
431.33	52.117
431.68	52.049
432.04	51.267
432.39	53.183
432.74	52.869
433.10	53.267
433.45	53.475
433.80	52.896
434.16	50.709
434.51	52.270
434.86	52.314
435.22	51.702
435.57	51.926
435.92	52.931
436.28	51.843
436.63	51.216
436.98	52.928
437.34	51.427
437.69	49.944
438.04	51.022
438.39	50.029
438.75	51.281
439.10	51.862
439.45	50.594
439.81	52.053
440.16	51.513
440.51	51.464
440.86	51.567
441.22	50.108
441.57	50.184
441.92	50.543
442.27	50.773
442.63	49.898
442.98	49.407
443.33	49.545
443.68	50.352
444.03	48.728
444.39	49.341
444.74	49.431
445.09	49.236
445.44	49.575
445.79	49.318
446.15	49.895
446.50	50.105
446.85	48.606
447.20	48.955
447.55	49.647
447.91	49.281
448.26	49.734
448.61	48.756
448.96	50.327
449.31	48.900
449.66	49.723
450.02	48.568
450.37	48.584
450.72	48.871
451.07	48.691
451.42	49.615
451.77	49.084
452.12	48.554
452.47	48.663
452.83	48.056
453.18	47.688
453.53	48.017
453.88	48.914
454.23	48.228
454.58	47.727
454.93	49.540
455.28	48.409
455.63	47.518
455.98	47.490
456.34	49.179
456.69	47.927
457.04	48.210
457.39	47.143
457.74	47.973
458.09	45.480
458.44	45.947
458.79	46.631
459.14	47.136
459.49	46.716
459.84	47.174
460.19	46.723
460.54	46.154
460.89	46.802
461.24	46.048
461.59	45.918
461.94	47.222
462.29	46.625
462.64	46.734
462.99	46.321
463.34	45.625
463.69	46.763
464.04	46.862
464.39	45.392
464.74	44.725
465.09	44.631
465.44	45.321
465.79	45.182
466.14	43.879
466.49	45.307
466.84	45.206
467.19	44.757
467.54	43.664
467.89	45.246
468.24	45.281
468.59	45.893
468.94	45.229
469.29	44.349
469.64	44.502
469.99	44.280
470.34	45.604
470.68	44.759
471.03	45.297
471.38	44.570
471.73	44.742
472.08	45.988
472.43	45.251
472.78	44.238
473.13	43.179
473.48	43.399
473.83	44.405
474.17	43.891
474.52	43.957
474.87	43.206
475.22	44.603
475.57	41.658
475.92	42.412
476.27	41.893
476.61	42.895
476.96	42.999
477.31	43.753
477.66	42.941
478.01	42.651
478.36	42.842
478.70	41.141
479.05	42.887
479.40	41.567
479.75	42.999
480.10	42.401
480.45	41.597
480.79	42.488
481.14	41.893
481.49	41.766
481.84	41.425
482.19	41.572
482.53	41.019
482.88	42.204
483.23	41.903
483.58	42.056
483.92	43.190
484.27	41.267
484.62	41.087
484.97	40.125
485.31	40.007
485.66	39.167
486.01	38.114
486.36	37.890
486.70	38.566
487.05	38.660
487.40	38.675
487.75	38.900
488.09	39.403
488.44	38.974
488.79	39.153
489.13	40.426
489.48	40.471
489.83	40.033
490.17	39.389
490.52	40.310
490.87	39.698
491.22	40.248
491.56	39.965
491.91	39.964
492.26	40.223
492.60	40.137
492.95	39.964
493.30	40.127
493.64	39.712
493.99	40.116
494.34	39.668
494.68	40.637
495.03	39.919
495.37	39.802
495.72	39.814
496.07	39.623
496.41	40.009
496.76	38.328
497.11	39.289
497.45	39.763
497.80	39.620
498.14	38.650
498.49	39.044
498.84	39.813
499.18	38.483
499.53	38.861
499.87	38.140
500.22	39.751
500.56	38.394
500.91	39.610
501.26	39.366
501.60	38.707
501.95	38.306
502.29	38.222
502.64	37.936
502.98	38.239
503.33	38.530
503.67	38.543
504.02	38.379
504.36	38.462
504.71	39.073
505.06	38.010
505.40	38.465
505.75	38.354
506.09	38.917
506.44	38.487
506.78	38.658
507.13	39.215
507.47	38.379
507.82	38.832
508.16	38.902
508.51	38.309
508.85	38.699
509.19	38.130
509.54	37.744
509.88	38.439
510.23	37.745
510.57	36.921
510.92	39.261
511.26	38.102
511.61	37.814
511.95	38.576
512.30	37.700
512.64	38.110
512.98	39.313
513.33	39.908
513.67	38.995
514.02	38.857
514.36	37.591
514.70	38.240
515.05	37.773
515.39	39.090
515.74	38.764
516.08	38.998
516.42	39.399
516.77	38.613
517.11	38.507
517.46	37.338
517.80	38.667
518.14	39.493
518.49	37.927
518.83	37.143
519.17	38.270
519.52	39.596
519.86	38.256
520.20	38.137
520.55	38.327
520.89	37.931
521.23	38.201
521.58	37.923
521.92	37.901
522.26	38.211
522.61	37.790
522.95	38.438
523.29	38.070
523.64	37.919
523.98	37.383
524.32	37.716
524.66	37.333
525.01	37.219
525.35	37.478
525.69	38.110
526.04	37.240
526.38	37.316
526.72	37.411
527.06	37.433
527.41	38.271
527.75	38.466
528.09	37.146
528.43	37.767
528.78	38.163
529.12	37.869
529.46	36.645
529.80	38.026
530.15	38.598
530.49	37.605
530.83	37.599
531.17	37.146
531.51	38.013
531.86	36.353
532.20	37.392
532.54	37.539
532.88	37.914
533.22	38.026
533.57	36.913
533.91	35.839
534.25	36.180
534.59	36.842
534.93	35.381
535.27	35.913
535.62	36.698
535.96	35.697
536.30	37.355
536.64	36.522
536.98	36.501
537.32	36.438
537.66	35.906
538.01	36.533
538.35	36.369
538.69	36.408
539.03	36.505
539.37	35.437
539.71	36.420
540.05	36.185
540.39	37.170
540.73	37.215
541.07	36.073
541.42	35.634
541.76	35.943
542.10	35.820
542.44	35.786
542.78	35.746
543.12	35.276
543.46	36.028
543.80	36.028
544.14	35.789
544.48	34.307
544.82	35.902
545.16	34.851
545.50	35.894
545.84	36.048
546.18	37.841
546.52	36.262
546.86	35.397
547.20	35.401
547.54	35.845
547.88	34.793
548.22	34.851
548.56	35.062
548.90	33.393
549.24	35.629
549.58	34.407
549.92	35.887
550.26	35.632
550.60	34.531
550.94	36.024
551.28	36.483
551.62	36.621
551.96	35.473
552.30	34.015
552.64	35.728
552.98	33.763
553.32	34.955
553.66	34.853
554.00	33.912
554.34	35.752
554.68	34.610
555.02	34.759
555.36	35.306
555.69	33.770
556.03	34.586
556.37	34.736
556.71	34.615
557.05	33.421
557.39	34.200
557.73	34.299
558.07	34.138
558.41	35.984
558.75	35.021
559.08	35.811
559.42	35.361
559.76	35.068
560.10	34.825
560.44	34.771
560.78	34.783
561.12	33.312
561.45	33.855
561.79	33.708
562.13	33.607
562.47	33.030
562.81	34.808
563.15	34.324
563.48	32.360
563.82	34.248
564.16	34.017
564.50	33.153
564.84	33.556
565.17	32.680
565.51	33.682
565.85	33.991
566.19	33.036
566.52	32.792
566.86	34.326
567.20	33.427
567.54	32.478
567.88	33.333
568.21	33.000
568.55	32.977
568.89	32.892
569.23	31.708
569.56	32.109
569.90	31.261
570.24	31.687
570.57	30.954
570.91	30.203
571.25	30.961
571.59	30.090
571.92	29.736
572.26	29.380
572.60	29.381
572.93	30.506
573.27	30.270
573.61	29.778
573.95	30.354
574.28	29.544
574.62	28.947
574.96	29.137
575.29	29.183
575.63	29.187
575.97	28.700
576.30	29.410
576.64	29.020
576.98	29.208
577.31	29.518
577.65	28.780
577.98	28.997
578.32	28.102
578.66	28.752
578.99	29.327
579.33	29.116
579.67	29.102
580.00	28.663
580.34	28.789
580.67	28.926
581.01	29.010
581.35	28.722
581.68	28.427
582.02	28.476
582.35	28.827
582.69	28.609
583.02	28.899
583.36	28.665
583.70	29.329
584.03	29.356
584.37	29.379
584.70	29.087
585.04	28.551
585.37	28.179
585.71	28.629
586.04	28.894
586.38	28.585
586.72	28.752
587.05	28.641
587.39	28.748
587.72	28.470
588.06	29.029
588.39	29.324
588.73	28.984
589.06	29.297
589.40	29.421
589.73	28.941
590.07	29.581
590.40	30.348
590.73	30.040
591.07	30.740
591.40	29.222
591.74	30.032
592.07	29.534
592.41	30.096
592.74	29.513
593.08	29.036
593.41	29.144
593.75	28.375
594.08	29.073
594.41	28.609
594.75	28.973
595.08	29.664
595.42	29.098
595.75	28.858
596.09	29.857
596.42	29.352
596.75	29.728
597.09	29.963
597.42	29.061
597.75	28.560
598.09	29.134
598.42	29.498
598.76	28.489
599.09	29.165
599.42	28.408
599.76	28.426
600.09	27.932
600.42	28.488
600.76	28.008
601.09	28.478
601.42	28.405
601.76	28.106
602.09	28.661
602.42	28.281
602.76	28.653
603.09	29.223
603.42	29.468
603.76	28.706
604.09	28.303
604.42	28.286
604.76	29.237
605.09	28.653
605.42	29.134
605.75	28.464
606.09	28.730
606.42	28.598
606.75	28.527
607.09	28.662
607.42	28.566
607.75	28.503
608.08	28.920
608.42	28.775
608.75	27.899
609.08	28.949
609.41	29.136
609.75	28.984
610.08	29.721
610.41	29.293
610.74	28.874
611.07	29.013
611.41	29.008
611.74	28.633
612.07	28.757
612.40	29.483
612.73	29.656
613.07	29.448
613.40	30.075
613.73	28.607
614.06	28.100
614.39	28.990
614.72	28.629
615.06	28.190
615.39	29.752
615.72	27.783
616.05	29.181
616.38	29.680
616.71	28.595
617.05	29.599
617.38	29.888
617.71	29.471
618.04	28.828
618.37	29.461
618.70	29.503
619.03	29.548
619.36	30.967
619.69	29.354
620.03	29.941
620.36	29.416
620.69	30.204
621.02	30.503
621.35	30.086
621.68	30.752
622.01	31.144
622.34	30.153
622.67	30.056
623.00	29.544
623.33	29.825
623.66	30.073
623.99	29.452
624.32	29.404
624.65	29.361
624.99	30.156
625.32	29.125
625.65	29.517
625.98	28.870
626.31	30.490
626.64	30.676
626.97	29.304
627.30	29.814
627.63	30.534
627.96	29.421
628.29	30.198
628.62	30.368
628.95	32.270
629.28	32.954
629.61	30.141
629.94	30.164
630.26	30.416
630.59	31.826
630.92	31.300
631.25	32.729
