SpectraSuite Data File
++++++++++++++++++++++++++++++++++++
Date: Tue May 12 17:15:53 PDT 2015
User: schluterlab
Dark Spectrum Present: Yes
Reference Spectrum Present: Yes
Number of Sampled Component Spectra: 1
Spectrometers: USB2E3373
Integration Time (usec): 3000 (USB2E3373)
Spectra Averaged: 3 (USB2E3373)
Boxcar Smoothing: 0 (USB2E3373)
Correct for Electrical Dark: No (USB2E3373)
Strobe/Lamp Enabled: No (USB2E3373)
Correct for Detector Non-linearity: No (USB2E3373)
Correct for Stray Light: No (USB2E3373)
Number of Pixels in Processed Spectrum: 2048
>>>>>Begin Processed Spectral Data<<<<<
178.53	0.000
178.91	-233.333
179.29	-650.000
179.67	-2200.000
180.04	-113.333
180.42	750.000
180.80	1800.000
181.18	0.000
181.56	-312.500
181.94	0.000
182.31	1333.333
182.69	-2900.000
183.07	585.714
183.45	-3200.000
183.83	-1700.000
184.20	310.000
184.58	400.000
184.96	-215.385
185.34	-216.667
185.72	1500.000
186.09	-625.000
186.47	-2700.000
186.85	933.333
187.23	640.000
187.61	1600.000
187.98	550.000
188.36	271.429
188.74	300.000
189.12	350.000
189.49	825.000
189.87	0.000
190.25	437.500
190.63	2200.000
191.00	-241.667
191.38	-2700.000
191.76	-600.000
192.14	500.000
192.51	-2700.000
192.89	1650.000
193.27	1000.000
193.65	-1066.667
194.02	-780.000
194.40	400.000
194.78	-107.143
195.15	213.333
195.53	-2800.000
195.91	-460.000
196.29	3300.000
196.66	212.500
197.04	625.000
197.42	-1300.000
197.79	550.000
198.17	308.333
198.55	0.000
198.92	614.286
199.30	1366.667
199.68	1600.000
200.05	716.667
200.43	-383.333
200.81	200.000
201.18	2600.000
201.56	208.333
201.94	-975.000
202.31	-387.500
202.69	-460.000
203.07	2900.000
203.44	-483.333
203.82	325.000
204.19	600.000
204.57	-1350.000
204.95	-675.000
205.32	-680.000
205.70	400.000
206.08	725.000
206.45	-633.333
206.83	322.222
207.20	173.684
207.58	216.667
207.96	640.000
208.33	0.000
208.71	457.143
209.08	840.000
209.46	-3300.000
209.84	-900.000
210.21	760.000
210.59	-600.000
210.96	225.000
211.34	-750.000
211.71	345.455
212.09	850.000
212.46	1650.000
212.84	-450.000
213.22	422.222
213.59	-2200.000
213.97	320.000
214.34	700.000
214.72	1000.000
215.09	1233.333
215.47	-3300.000
215.84	-350.000
216.22	-275.000
216.59	0.000
216.97	0.000
217.34	900.000
217.72	-900.000
218.09	1100.000
218.47	437.500
218.84	900.000
219.22	1166.667
219.59	866.667
219.97	442.857
220.34	433.333
220.72	1000.000
221.09	2600.000
221.47	225.000
221.84	1200.000
222.22	300.000
222.59	255.556
222.97	128.571
223.34	231.250
223.72	-1000.000
224.09	1066.667
224.46	253.846
224.84	-525.000
225.21	333.333
225.59	220.000
225.96	1100.000
226.34	-580.000
226.71	-675.000
227.08	-580.000
227.46	0.000
227.83	-466.667
228.21	-1300.000
228.58	383.333
228.95	1025.000
229.33	322.222
229.70	850.000
230.08	353.846
230.45	3000.000
230.82	-625.000
231.20	-866.667
231.57	-700.000
231.95	600.000
232.32	216.667
232.69	383.333
233.07	175.000
233.44	-1450.000
233.81	273.333
234.19	148.148
234.56	175.000
234.93	205.882
235.31	165.000
235.68	256.250
236.05	150.000
236.43	118.519
236.80	214.286
237.17	165.517
237.55	87.500
237.92	102.500
238.29	121.212
238.67	103.125
239.04	70.732
239.41	68.750
239.79	85.000
240.16	75.000
240.53	52.459
240.91	53.623
241.28	57.627
241.65	56.061
242.02	57.746
242.40	62.857
242.77	49.451
243.14	39.241
243.51	48.485
243.89	42.991
244.26	32.710
244.63	45.545
245.00	45.872
245.38	36.441
245.75	30.303
246.12	38.519
246.49	33.333
246.87	29.508
247.24	30.667
247.61	30.000
247.98	36.735
248.36	20.000
248.73	32.143
249.10	21.429
249.47	23.500
249.84	27.861
250.22	22.703
250.59	27.000
250.96	27.004
251.33	24.651
251.70	24.107
252.08	22.689
252.45	25.498
252.82	20.152
253.19	20.949
253.56	23.077
253.94	23.188
254.31	20.930
254.68	19.512
255.05	19.310
255.42	18.248
255.79	21.498
256.16	20.678
256.54	21.753
256.91	22.549
257.28	18.395
257.65	14.734
258.02	18.584
258.39	19.484
258.76	18.551
259.14	17.143
259.51	19.534
259.88	20.061
260.25	16.758
260.62	15.342
260.99	17.355
261.36	17.270
261.73	16.223
262.10	19.110
262.47	15.750
262.85	16.533
263.22	16.452
263.59	17.391
263.96	15.288
264.33	15.556
264.70	15.479
265.07	14.390
265.44	15.367
265.81	16.038
266.18	16.476
266.55	14.657
266.92	14.318
267.29	15.351
267.66	14.574
268.03	14.798
268.40	15.856
268.77	16.740
269.14	12.798
269.51	14.031
269.88	15.510
270.25	11.663
270.62	15.021
270.99	15.010
271.36	14.024
271.73	14.885
272.10	15.152
272.47	15.476
272.84	13.373
273.21	13.636
273.58	14.170
273.95	14.374
274.32	16.537
274.69	14.567
275.06	15.118
275.43	13.985
275.80	13.396
276.17	14.154
276.54	14.953
276.91	16.418
277.28	15.511
277.65	13.838
278.02	13.051
278.39	11.511
278.76	14.310
279.13	13.167
279.50	14.727
279.87	13.594
280.23	14.180
280.60	15.693
280.97	13.793
281.34	13.861
281.71	13.913
282.08	14.017
282.45	13.851
282.82	11.873
283.19	14.626
283.56	13.223
283.92	13.029
284.29	12.146
284.66	13.109
285.03	14.096
285.40	12.893
285.77	12.346
286.14	12.539
286.51	13.957
286.87	11.234
287.24	10.661
287.61	14.134
287.98	14.925
288.35	12.296
288.72	12.747
289.08	14.414
289.45	13.567
289.82	14.219
290.19	12.152
290.56	14.119
290.93	14.101
291.29	12.707
291.66	12.712
292.03	13.324
292.40	13.550
292.77	12.256
293.13	12.981
293.50	12.416
293.87	12.737
294.24	14.965
294.60	12.651
294.97	13.427
295.34	13.015
295.71	12.615
296.08	12.133
296.44	13.342
296.81	11.911
297.18	13.054
297.55	14.163
297.91	12.192
298.28	13.647
298.65	13.129
299.02	12.183
299.38	14.508
299.75	12.317
300.12	13.647
300.48	14.169
300.85	12.277
301.22	13.140
301.59	13.915
301.95	12.369
302.32	13.970
302.69	13.462
303.05	14.703
303.42	12.668
303.79	14.085
304.15	13.421
304.52	12.896
304.89	14.499
305.25	15.350
305.62	15.458
305.99	13.043
306.35	14.000
306.72	15.088
307.09	14.079
307.45	14.572
307.82	12.963
308.19	13.711
308.55	13.200
308.92	14.230
309.29	15.779
309.65	13.578
310.02	13.489
310.38	14.955
310.75	14.658
311.12	15.038
311.48	15.830
311.85	15.744
312.22	15.568
312.58	14.674
312.95	14.854
313.31	15.730
313.68	14.916
314.05	15.476
314.41	14.339
314.78	15.246
315.14	16.967
315.51	15.232
315.87	16.423
316.24	15.313
316.61	15.756
316.97	14.771
317.34	15.813
317.70	16.418
318.07	16.904
318.43	15.993
318.80	15.499
319.16	15.822
319.53	16.106
319.89	14.875
320.26	17.598
320.62	17.033
320.99	15.539
321.35	15.863
321.72	16.698
322.08	16.436
322.45	15.804
322.81	17.292
323.18	16.607
323.54	17.770
323.91	16.682
324.27	15.738
324.64	16.090
325.00	16.724
325.37	16.526
325.73	16.695
326.10	17.316
326.46	16.763
326.83	16.160
327.19	17.430
327.56	17.173
327.92	16.803
328.29	16.858
328.65	16.438
329.01	16.852
329.38	17.259
329.74	16.396
330.11	16.855
330.47	16.709
330.84	15.531
331.20	16.413
331.56	17.789
331.93	15.825
332.29	15.306
332.66	16.667
333.02	15.636
333.38	15.969
333.75	16.597
334.11	17.450
334.48	16.068
334.84	15.963
335.20	16.424
335.57	16.121
335.93	15.896
336.29	15.589
336.66	16.552
337.02	16.168
337.38	15.133
337.75	16.554
338.11	16.287
338.47	16.257
338.84	16.427
339.20	15.238
339.56	17.073
339.93	16.304
340.29	14.286
340.65	15.423
341.02	16.171
341.38	14.614
341.74	16.777
342.11	13.356
342.47	15.915
342.83	15.587
343.20	16.087
343.56	14.853
343.92	15.111
344.28	14.593
344.65	15.322
345.01	15.079
345.37	14.663
345.73	15.397
346.10	15.936
346.46	14.753
346.82	14.429
347.19	15.842
347.55	14.598
347.91	15.257
348.27	13.710
348.63	14.953
349.00	14.318
349.36	14.086
349.72	14.908
350.08	15.450
350.45	15.232
350.81	15.138
351.17	14.330
351.53	13.780
351.89	14.918
352.26	13.228
352.62	14.555
352.98	14.264
353.34	15.562
353.70	13.685
354.07	15.308
354.43	14.363
354.79	13.364
355.15	14.855
355.51	14.048
355.87	15.060
356.24	14.781
356.60	13.927
356.96	13.874
357.32	15.072
357.68	14.391
358.04	15.122
358.40	14.318
358.77	15.026
359.13	13.288
359.49	14.826
359.85	13.031
360.21	13.670
360.57	13.796
360.93	14.214
361.29	14.286
361.66	14.019
362.02	12.855
362.38	14.430
362.74	14.225
363.10	14.586
363.46	14.088
363.82	14.165
364.18	14.083
364.54	12.589
364.90	14.458
365.26	13.949
365.62	13.674
365.98	13.283
366.35	13.586
366.71	13.602
367.07	13.242
367.43	13.768
367.79	13.564
368.15	12.347
368.51	13.784
368.87	12.772
369.23	13.514
369.59	12.947
369.95	13.217
370.31	12.936
370.67	13.255
371.03	14.076
371.39	13.504
371.75	13.259
372.11	14.140
372.47	13.973
372.83	12.644
373.19	12.886
373.55	13.471
373.91	13.398
374.27	13.228
374.63	12.881
374.99	12.466
375.35	12.970
375.71	12.797
376.07	12.599
376.42	11.893
376.78	13.552
377.14	12.975
377.50	13.109
377.86	12.876
378.22	13.406
378.58	13.499
378.94	12.674
379.30	12.432
379.66	12.884
380.02	12.903
380.38	12.178
380.74	12.745
381.09	12.266
381.45	12.659
381.81	12.589
382.17	12.088
382.53	12.118
382.89	12.005
383.25	12.493
383.61	13.141
383.97	12.478
384.32	12.779
384.68	13.607
385.04	11.899
385.40	12.278
385.76	12.990
386.12	12.678
386.48	12.827
386.83	11.491
387.19	12.191
387.55	11.955
387.91	12.644
388.27	12.433
388.62	12.735
388.98	11.895
389.34	11.719
389.70	11.203
390.06	11.524
390.42	12.153
390.77	12.285
391.13	12.492
391.49	12.160
391.85	12.185
392.20	11.859
392.56	12.963
392.92	11.230
393.28	11.939
393.64	10.952
393.99	12.152
394.35	11.360
394.71	11.520
395.07	11.922
395.42	11.827
395.78	12.400
396.14	12.229
396.50	11.853
396.85	11.646
397.21	11.492
397.57	11.775
397.92	10.803
398.28	11.252
398.64	11.402
399.00	11.598
399.35	11.272
399.71	11.424
400.07	11.187
400.42	11.164
400.78	11.730
401.14	11.450
401.49	11.290
401.85	11.530
402.21	11.072
402.57	11.730
402.92	11.818
403.28	10.382
403.63	11.477
403.99	11.460
404.35	11.606
404.70	10.927
405.06	10.668
405.42	11.610
405.77	10.419
406.13	11.009
406.49	10.460
406.84	11.224
407.20	11.301
407.55	11.262
407.91	11.295
408.27	11.825
408.62	11.591
408.98	11.591
409.34	10.579
409.69	11.201
410.05	11.926
410.40	10.660
410.76	10.303
411.11	10.308
411.47	10.494
411.83	10.779
412.18	10.628
412.54	11.411
412.89	10.619
413.25	11.231
413.60	10.981
413.96	11.311
414.31	10.744
414.67	11.049
415.03	10.792
415.38	10.789
415.74	11.371
416.09	11.930
416.45	11.829
416.80	11.546
417.16	10.630
417.51	11.146
417.87	10.263
418.22	11.361
418.58	11.338
418.93	10.529
419.29	10.906
419.64	10.297
420.00	11.933
420.35	10.279
420.71	10.327
421.06	10.065
421.42	10.708
421.77	10.661
422.12	10.695
422.48	10.940
422.83	11.551
423.19	10.637
423.54	10.532
423.90	10.306
424.25	11.007
424.61	10.969
424.96	10.277
425.31	10.071
425.67	10.774
426.02	11.497
426.38	9.277
426.73	10.353
427.09	10.380
427.44	9.848
427.79	10.063
428.15	10.784
428.50	11.257
428.85	10.817
429.21	10.319
429.56	10.169
429.92	11.338
430.27	10.402
430.62	9.741
430.98	10.579
431.33	9.778
431.68	9.679
432.04	10.347
432.39	11.032
432.74	10.422
433.10	10.963
433.45	11.660
433.80	11.197
434.16	10.352
434.51	10.320
434.86	11.649
435.22	10.103
435.57	10.136
435.92	10.985
436.28	11.060
436.63	10.697
436.98	10.586
437.34	11.872
437.69	10.302
438.04	12.043
438.39	10.975
438.75	11.526
439.10	10.955
439.45	10.797
439.81	10.758
440.16	10.787
440.51	10.191
440.86	11.453
441.22	10.498
441.57	10.551
441.92	10.711
442.27	10.361
442.63	11.280
442.98	10.830
443.33	10.659
443.68	10.262
444.03	10.462
444.39	10.782
444.74	10.507
445.09	10.585
445.44	10.361
445.79	10.673
446.15	10.368
446.50	10.338
446.85	10.508
447.20	10.149
447.55	10.440
447.91	10.868
448.26	10.383
448.61	11.001
448.96	11.166
449.31	10.506
449.66	11.185
450.02	10.589
450.37	10.827
450.72	10.964
451.07	11.751
451.42	11.737
451.77	11.111
452.12	11.004
452.47	10.936
452.83	11.380
453.18	11.772
453.53	11.368
453.88	11.600
454.23	11.447
454.58	10.956
454.93	10.668
455.28	10.894
455.63	11.525
455.98	11.393
456.34	11.550
456.69	10.976
457.04	10.919
457.39	11.086
457.74	11.824
458.09	11.061
458.44	10.898
458.79	10.663
459.14	10.584
459.49	11.042
459.84	11.685
460.19	10.791
460.54	11.510
460.89	11.141
461.24	9.679
461.59	11.168
461.94	11.643
462.29	11.270
462.64	11.369
462.99	11.900
463.34	11.147
463.69	11.978
464.04	11.572
464.39	11.048
464.74	10.492
465.09	11.317
465.44	10.718
465.79	10.452
466.14	10.122
466.49	11.123
466.84	10.424
467.19	12.302
467.54	11.051
467.89	10.505
468.24	11.060
468.59	10.952
468.94	10.930
469.29	11.057
469.64	11.704
469.99	11.504
470.34	11.195
470.68	12.207
471.03	10.474
471.38	11.656
471.73	11.822
472.08	11.350
472.43	11.235
472.78	11.396
473.13	10.576
473.48	11.308
473.83	11.425
474.17	11.368
474.52	11.730
474.87	10.574
475.22	11.708
475.57	10.860
475.92	11.599
476.27	10.174
476.61	9.651
476.96	10.867
477.31	11.003
477.66	11.218
478.01	11.243
478.36	10.402
478.70	10.323
479.05	10.879
479.40	11.210
479.75	11.619
480.10	10.939
480.45	10.131
480.79	10.876
481.14	10.556
481.49	10.293
481.84	10.378
482.19	10.699
482.53	10.540
482.88	10.887
483.23	10.690
483.58	10.144
483.92	10.969
484.27	10.317
484.62	10.739
484.97	10.674
485.31	9.906
485.66	9.541
486.01	9.152
486.36	8.731
486.70	8.811
487.05	9.218
487.40	9.188
487.75	9.621
488.09	9.886
488.44	10.516
488.79	10.170
489.13	9.780
489.48	10.348
489.83	10.634
490.17	10.157
490.52	10.896
490.87	10.776
491.22	10.904
491.56	10.804
491.91	10.932
492.26	10.735
492.60	11.162
492.95	10.739
493.30	10.737
493.64	10.602
493.99	11.091
494.34	10.085
494.68	10.403
495.03	10.867
495.37	11.301
495.72	11.981
496.07	10.737
496.41	11.121
496.76	10.975
497.11	10.883
497.45	11.092
497.80	10.380
498.14	10.772
498.49	11.142
498.84	11.308
499.18	10.786
499.53	10.841
499.87	10.961
500.22	10.917
500.56	10.956
500.91	10.807
501.26	11.300
501.60	10.383
501.95	10.305
502.29	11.244
502.64	10.631
502.98	10.894
503.33	11.136
503.67	10.773
504.02	10.524
504.36	10.995
504.71	10.927
505.06	10.605
505.40	10.576
505.75	10.945
506.09	11.479
506.44	10.855
506.78	10.870
507.13	10.664
507.47	10.869
507.82	10.998
508.16	11.661
508.51	11.304
508.85	11.159
509.19	11.894
509.54	11.035
509.88	11.537
510.23	10.833
510.57	10.618
510.92	11.189
511.26	11.446
511.61	11.029
511.95	12.145
512.30	11.550
512.64	11.267
512.98	11.328
513.33	11.578
513.67	11.600
514.02	11.065
514.36	10.852
514.70	11.200
515.05	10.336
515.39	12.061
515.74	11.700
516.08	11.057
516.42	11.803
516.77	10.880
517.11	11.680
517.46	11.853
517.80	11.415
518.14	11.324
518.49	11.136
518.83	10.989
519.17	11.536
519.52	11.251
519.86	11.826
520.20	11.068
520.55	11.645
520.89	11.724
521.23	11.799
521.58	11.532
521.92	12.362
522.26	11.611
522.61	10.636
522.95	12.312
523.29	11.813
523.64	11.561
523.98	11.385
524.32	11.822
524.66	11.246
525.01	11.893
525.35	11.786
525.69	11.860
526.04	12.136
526.38	12.419
526.72	11.933
527.06	11.650
527.41	12.576
527.75	12.416
528.09	11.499
528.43	11.592
528.78	11.389
529.12	11.620
529.46	11.397
529.80	11.273
530.15	12.257
530.49	11.131
530.83	12.249
531.17	11.685
531.51	12.385
531.86	10.809
532.20	11.187
532.54	11.551
532.88	11.618
533.22	12.005
533.57	11.348
533.91	10.781
534.25	11.483
534.59	11.813
534.93	11.433
535.27	10.871
535.62	11.435
535.96	11.584
536.30	12.614
536.64	10.870
536.98	11.139
537.32	12.063
537.66	11.352
538.01	11.765
538.35	13.225
538.69	11.044
539.03	11.256
539.37	11.650
539.71	11.605
540.05	10.954
540.39	11.447
540.73	11.709
541.07	10.916
541.42	11.567
541.76	12.084
542.10	11.221
542.44	11.783
542.78	11.013
543.12	11.411
543.46	11.466
543.80	11.717
544.14	12.136
544.48	11.071
544.82	12.110
545.16	11.050
545.50	11.371
545.84	11.742
546.18	12.029
546.52	12.656
546.86	11.928
547.20	10.917
547.54	11.463
547.88	11.983
548.22	11.233
548.56	12.139
548.90	11.684
549.24	11.939
549.58	11.727
549.92	11.853
550.26	11.629
550.60	12.109
550.94	12.076
551.28	12.690
551.62	12.414
551.96	11.622
552.30	11.074
552.64	11.456
552.98	11.276
553.32	11.204
553.66	11.792
554.00	12.033
554.34	12.317
554.68	11.559
555.02	10.998
555.36	11.237
555.69	11.780
556.03	11.656
556.37	11.472
556.71	11.473
557.05	11.533
557.39	11.733
557.73	11.792
558.07	11.804
558.41	11.446
558.75	12.038
559.08	12.009
559.42	11.883
559.76	11.974
560.10	11.493
560.44	10.617
560.78	12.020
561.12	11.380
561.45	10.763
561.79	11.236
562.13	11.118
562.47	11.097
562.81	12.557
563.15	11.312
563.48	11.180
563.82	11.603
564.16	12.500
564.50	11.091
564.84	11.550
565.17	11.527
565.51	12.131
565.85	12.523
566.19	11.310
566.52	11.853
566.86	11.559
567.20	10.730
567.54	11.026
567.88	11.163
568.21	10.384
568.55	10.798
568.89	10.538
569.23	9.836
569.56	9.625
569.90	9.558
570.24	9.438
570.57	9.766
570.91	8.986
571.25	9.312
571.59	8.827
571.92	8.854
572.26	8.652
572.60	8.692
572.93	8.683
573.27	8.960
573.61	8.744
573.95	8.541
574.28	8.677
574.62	7.965
574.96	8.612
575.29	8.377
575.63	8.339
575.97	8.471
576.30	8.049
576.64	8.514
576.98	8.544
577.31	8.533
577.65	8.559
577.98	8.312
578.32	8.203
578.66	8.243
578.99	8.349
579.33	8.548
579.67	8.308
580.00	8.416
580.34	8.069
580.67	8.345
581.01	8.492
581.35	8.348
581.68	7.667
582.02	8.286
582.35	7.746
582.69	8.062
583.02	8.150
583.36	8.226
583.70	8.531
584.03	8.725
584.37	8.859
584.70	8.485
585.04	8.637
585.37	8.115
585.71	8.157
586.04	8.252
586.38	8.355
586.72	8.726
587.05	8.518
587.39	8.420
587.72	8.539
588.06	8.418
588.39	8.291
588.73	8.608
589.06	8.666
589.40	9.014
589.73	8.653
590.07	8.751
590.40	9.338
590.73	9.585
591.07	9.943
591.40	9.182
591.74	9.537
592.07	8.486
592.41	9.153
592.74	9.374
593.08	8.757
593.41	8.797
593.75	8.873
594.08	8.931
594.41	8.407
594.75	8.836
595.08	8.676
595.42	9.743
595.75	9.312
596.09	9.072
596.42	9.104
596.75	9.335
597.09	9.327
597.42	8.939
597.75	9.209
598.09	9.561
598.42	9.098
598.76	9.522
599.09	9.562
599.42	9.170
599.76	9.464
600.09	8.610
600.42	9.289
600.76	8.804
601.09	8.664
601.42	9.011
601.76	8.629
602.09	9.492
602.42	9.353
602.76	8.880
603.09	8.937
603.42	9.431
603.76	8.966
604.09	9.374
604.42	8.663
604.76	9.166
605.09	9.306
605.42	9.630
605.75	9.396
606.09	9.793
606.42	9.094
606.75	8.822
607.09	9.238
607.42	9.000
607.75	9.156
608.08	9.220
608.42	9.606
608.75	8.858
609.08	8.843
609.41	9.545
609.75	9.478
610.08	9.712
610.41	9.706
610.74	10.130
611.07	9.641
611.41	9.824
611.74	9.799
612.07	9.634
612.40	10.136
612.73	9.935
613.07	10.289
613.40	10.175
613.73	8.737
614.06	9.050
614.39	10.202
614.72	10.397
615.06	9.298
615.39	10.000
615.72	10.019
616.05	10.196
616.38	9.893
616.71	9.984
617.05	10.434
617.38	9.101
617.71	10.574
618.04	10.039
618.37	9.783
618.70	10.681
619.03	10.134
619.36	11.746
619.69	10.818
620.03	11.807
620.36	11.111
620.69	11.558
621.02	11.277
621.35	10.530
621.68	10.841
622.01	12.103
622.34	11.216
622.67	11.587
623.00	11.709
623.33	11.471
623.66	10.778
623.99	11.096
624.32	11.382
624.65	11.126
624.99	10.751
625.32	10.755
625.65	10.483
625.98	10.879
626.31	11.128
626.64	11.541
626.97	11.324
627.30	11.025
627.63	12.716
627.96	11.268
628.29	11.551
628.62	11.891
628.95	11.436
629.28	13.322
629.61	12.127
629.94	12.878
630.26	12.565
630.59	12.943
630.92	13.004
631.25	13.418
631.58	13.790
631.91	11.608
632.24	12.148
632.57	11.591
632.90	14.596
633.23	13.746
633.56	13.909
633.89	12.969
634.22	13.563
634.55	11.828
