SpectraSuite Data File
++++++++++++++++++++++++++++++++++++
Date: Tue May 12 17:10:54 PDT 2015
User: schluterlab
Dark Spectrum Present: Yes
Reference Spectrum Present: Yes
Number of Sampled Component Spectra: 1
Spectrometers: USB2E3373
Integration Time (usec): 3000 (USB2E3373)
Spectra Averaged: 3 (USB2E3373)
Boxcar Smoothing: 0 (USB2E3373)
Correct for Electrical Dark: No (USB2E3373)
Strobe/Lamp Enabled: No (USB2E3373)
Correct for Detector Non-linearity: No (USB2E3373)
Correct for Stray Light: No (USB2E3373)
Number of Pixels in Processed Spectrum: 2048
>>>>>Begin Processed Spectral Data<<<<<
178.53	0.000
178.91	-233.333
179.29	-800.000
179.67	-3900.000
180.04	-180.000
180.42	525.000
180.80	2000.000
181.18	0.000
181.56	-200.000
181.94	0.000
182.31	1133.333
182.69	-2600.000
183.07	657.143
183.45	-3200.000
183.83	-1600.000
184.20	360.000
184.58	500.000
184.96	-230.769
185.34	-191.667
185.72	1500.000
186.09	-875.000
186.47	-2200.000
186.85	1200.000
187.23	600.000
187.61	1950.000
187.98	462.500
188.36	292.857
188.74	358.333
189.12	350.000
189.49	575.000
189.87	0.000
190.25	562.500
190.63	2600.000
191.00	-225.000
191.38	-2700.000
191.76	-800.000
192.14	450.000
192.51	-1700.000
192.89	1800.000
193.27	733.333
193.65	-633.333
194.02	-680.000
194.40	457.143
194.78	-214.286
195.15	220.000
195.53	-2800.000
195.91	-460.000
196.29	4100.000
196.66	193.750
197.04	925.000
197.42	-1000.000
197.79	525.000
198.17	258.333
198.55	0.000
198.92	414.286
199.30	1100.000
199.68	1300.000
200.05	600.000
200.43	-483.333
200.81	183.333
201.18	3300.000
201.56	325.000
201.94	-825.000
202.31	-312.500
202.69	-440.000
203.07	2100.000
203.44	-466.667
203.82	300.000
204.19	700.000
204.57	-1050.000
204.95	-725.000
205.32	-660.000
205.70	650.000
206.08	700.000
206.45	-1066.667
206.83	422.222
207.20	105.263
207.58	250.000
207.96	660.000
208.33	0.000
208.71	557.143
209.08	540.000
209.46	-2900.000
209.84	-700.000
210.21	700.000
210.59	-600.000
210.96	275.000
211.34	-750.000
211.71	372.727
212.09	875.000
212.46	1250.000
212.84	-466.667
213.22	455.556
213.59	-2800.000
213.97	310.000
214.34	825.000
214.72	900.000
215.09	1300.000
215.47	-1900.000
215.84	-290.000
216.22	-387.500
216.59	0.000
216.97	0.000
217.34	1250.000
217.72	-1300.000
218.09	1200.000
218.47	375.000
218.84	900.000
219.22	833.333
219.59	800.000
219.97	514.286
220.34	400.000
220.72	1300.000
221.09	4200.000
221.47	216.667
221.84	633.333
222.22	410.000
222.59	205.556
222.97	185.714
223.34	175.000
223.72	-1350.000
224.09	1266.667
224.46	307.692
224.84	-475.000
225.21	300.000
225.59	286.667
225.96	1266.667
226.34	-600.000
226.71	-750.000
227.08	-580.000
227.46	0.000
227.83	-566.667
228.21	-1500.000
228.58	375.000
228.95	525.000
229.33	366.667
229.70	1000.000
230.08	384.615
230.45	3700.000
230.82	-900.000
231.20	-733.333
231.57	-1033.333
231.95	660.000
232.32	266.667
232.69	500.000
233.07	241.667
233.44	-1700.000
233.81	280.000
234.19	151.852
234.56	206.250
234.93	123.529
235.31	165.000
235.68	243.750
236.05	160.714
236.43	133.333
236.80	221.429
237.17	131.034
237.55	115.625
237.92	102.500
238.29	136.364
238.67	106.250
239.04	85.366
239.41	47.917
239.79	82.500
240.16	81.250
240.53	60.656
240.91	56.522
241.28	79.661
241.65	54.545
242.02	74.648
242.40	54.286
242.77	50.549
243.14	54.430
243.51	59.596
243.89	44.860
244.26	42.056
244.63	48.515
245.00	39.450
245.38	36.441
245.75	34.848
246.12	42.222
246.49	39.007
246.87	27.049
247.24	32.000
247.61	35.000
247.98	36.054
248.36	24.242
248.73	35.714
249.10	25.595
249.47	30.500
249.84	32.836
250.22	33.514
250.59	28.500
250.96	27.004
251.33	27.442
251.70	28.571
252.08	23.950
252.45	25.896
252.82	27.376
253.19	23.715
253.56	21.923
253.94	25.000
254.31	27.519
254.68	26.481
255.05	28.621
255.42	25.547
255.79	28.664
256.16	27.797
256.54	28.247
256.91	26.471
257.28	18.729
257.65	18.809
258.02	19.764
258.39	23.496
258.76	22.609
259.14	23.714
259.51	25.948
259.88	25.836
260.25	21.154
260.62	23.288
260.99	22.314
261.36	20.891
261.73	23.936
262.10	22.251
262.47	21.250
262.85	20.000
263.22	25.450
263.59	23.785
263.96	22.556
264.33	25.679
264.70	23.096
265.07	21.951
265.44	21.789
265.81	22.406
266.18	22.426
266.55	18.913
266.92	20.134
267.29	23.026
267.66	19.731
268.03	22.422
268.40	21.987
268.77	23.348
269.14	20.824
269.51	22.272
269.88	23.265
270.25	16.847
270.62	21.674
270.99	23.327
271.36	23.577
271.73	21.593
272.10	20.202
272.47	16.667
272.84	18.962
273.21	20.455
273.58	22.470
273.95	20.534
274.32	20.623
274.69	20.669
275.06	23.315
275.43	19.540
275.80	20.189
276.17	18.199
276.54	20.935
276.91	21.455
277.28	20.438
277.65	20.295
278.02	21.140
278.39	21.223
278.76	22.586
279.13	20.463
279.50	20.909
279.87	18.063
280.23	19.521
280.60	20.985
280.97	20.000
281.34	18.647
281.71	19.304
282.08	19.316
282.45	18.581
282.82	19.231
283.19	19.555
283.56	16.860
283.92	19.544
284.29	19.468
284.66	19.328
285.03	19.237
285.40	19.008
285.77	16.667
286.14	19.505
286.51	19.172
286.87	16.614
287.24	18.168
287.61	16.717
287.98	18.657
288.35	17.333
288.72	16.085
289.08	18.769
289.45	16.463
289.82	18.281
290.19	16.252
290.56	18.195
290.93	17.410
291.29	16.160
291.66	15.819
292.03	17.391
292.40	17.480
292.77	16.713
293.13	15.977
293.50	15.655
293.87	15.041
294.24	16.643
294.60	16.958
294.97	16.224
295.34	15.671
295.71	17.477
296.08	14.800
296.44	16.518
296.81	14.640
297.18	15.082
297.55	15.394
297.91	13.916
298.28	16.063
298.65	15.337
299.02	14.596
299.38	15.228
299.75	14.024
300.12	15.940
300.48	16.511
300.85	15.375
301.22	15.465
301.59	14.269
301.95	14.352
302.32	14.668
302.69	15.611
303.05	14.927
303.42	13.565
303.79	13.976
304.15	14.411
304.52	14.588
304.89	14.712
305.25	15.462
305.62	14.286
305.99	13.587
306.35	13.789
306.72	13.632
307.09	14.079
307.45	13.200
307.82	13.683
308.19	14.227
308.55	12.700
308.92	13.445
309.29	14.004
309.65	14.866
310.02	14.097
310.38	13.460
310.75	13.886
311.12	13.218
311.48	14.865
311.85	12.882
312.22	14.613
312.58	13.605
312.95	14.563
313.31	14.326
313.68	13.977
314.05	15.934
314.41	13.687
314.78	13.542
315.14	14.692
315.51	14.664
315.87	13.139
316.24	12.885
316.61	13.876
316.97	12.477
317.34	13.118
317.70	14.135
318.07	14.146
318.43	13.533
318.80	13.748
319.16	13.374
319.53	14.690
319.89	12.634
320.26	14.525
320.62	13.553
320.99	14.299
321.35	12.894
321.72	15.275
322.08	12.835
322.45	14.441
322.81	13.083
323.18	13.677
323.54	13.415
323.91	13.690
324.27	13.882
324.64	13.149
325.00	13.448
325.37	13.912
325.73	13.238
326.10	13.587
326.46	13.955
326.83	13.440
327.19	12.530
327.56	13.099
327.92	13.279
328.29	13.993
328.65	15.154
329.01	13.174
329.38	13.113
329.74	13.578
330.11	13.727
330.47	14.493
330.84	13.028
331.20	13.790
331.56	14.508
331.93	13.858
332.29	12.840
332.66	14.201
333.02	13.402
333.38	13.525
333.75	13.595
334.11	13.674
334.48	13.504
334.84	13.345
335.20	13.601
335.57	13.770
335.93	12.616
336.29	13.847
336.66	13.551
337.02	11.377
337.38	14.359
337.75	13.176
338.11	13.755
338.47	12.278
338.84	12.532
339.20	11.602
339.56	12.784
339.93	12.709
340.29	12.353
340.65	13.244
341.02	14.159
341.38	12.808
341.74	13.538
342.11	12.688
342.47	13.454
342.83	13.454
343.20	13.985
343.56	11.914
343.92	11.148
344.28	12.281
344.65	13.121
345.01	12.778
345.37	12.740
345.73	12.619
346.10	12.191
346.46	13.477
346.82	12.269
347.19	13.138
347.55	13.037
347.91	12.462
348.27	11.077
348.63	13.291
349.00	12.186
349.36	12.374
349.72	12.920
350.08	12.966
350.45	13.024
350.81	12.844
351.17	12.404
351.53	12.009
351.89	12.277
352.26	12.245
352.62	12.670
352.98	12.577
353.34	13.020
353.70	11.850
354.07	12.692
354.43	11.751
354.79	12.528
355.15	12.098
355.51	12.085
355.87	12.726
356.24	11.932
356.60	12.253
356.96	11.221
357.32	11.831
357.68	12.628
358.04	12.690
358.40	13.043
358.77	12.472
359.13	10.811
359.49	12.157
359.85	11.467
360.21	10.996
360.57	12.190
360.93	11.905
361.29	12.771
361.66	12.230
362.02	11.151
362.38	12.049
362.74	12.951
363.10	12.553
363.46	11.395
363.82	12.342
364.18	11.878
364.54	12.661
364.90	12.383
365.26	11.242
365.62	11.326
365.98	12.113
366.35	11.724
366.71	11.103
367.07	12.355
367.43	11.551
367.79	11.370
368.15	11.398
368.51	11.234
368.87	11.413
369.23	11.712
369.59	11.598
369.95	12.168
370.31	10.951
370.67	11.520
371.03	12.535
371.39	10.803
371.75	11.096
372.11	12.101
372.47	11.507
372.83	11.421
373.19	12.543
373.55	11.340
373.91	10.773
374.27	11.508
374.63	11.322
374.99	11.590
375.35	11.626
375.71	11.741
376.07	11.074
376.42	10.614
376.78	11.625
377.14	11.402
377.50	11.860
377.86	10.698
378.22	11.578
378.58	11.441
378.94	10.863
379.30	11.280
379.66	11.318
380.02	11.965
380.38	10.714
380.74	11.995
381.09	11.565
381.45	10.751
381.81	11.170
382.17	10.989
382.53	10.858
382.89	10.881
383.25	10.480
383.61	11.354
383.97	10.198
384.32	11.091
384.68	12.062
385.04	11.958
385.40	11.447
385.76	10.942
386.12	11.070
386.48	11.064
386.83	11.247
387.19	11.249
387.55	11.307
387.91	11.374
388.27	10.648
388.62	11.678
388.98	11.137
389.34	11.005
389.70	10.554
390.06	11.098
390.42	11.043
390.77	10.504
391.13	11.346
391.49	11.010
391.85	11.200
392.20	11.740
392.56	11.947
392.92	11.005
393.28	10.706
393.64	10.264
393.99	10.848
394.35	10.948
394.71	9.710
395.07	11.010
395.42	10.948
395.78	11.104
396.14	11.627
396.50	11.853
396.85	11.098
397.21	10.590
397.57	10.879
397.92	10.861
398.28	10.259
398.64	10.704
399.00	10.583
399.35	10.091
399.71	10.541
400.07	10.445
400.42	10.567
400.78	10.381
401.14	10.335
401.49	10.426
401.85	11.008
402.21	9.959
402.57	10.473
402.92	10.606
403.28	10.621
403.63	11.242
403.99	10.253
404.35	10.492
404.70	10.927
405.06	10.163
405.42	10.473
405.77	10.033
406.13	9.978
406.49	10.460
406.84	10.942
407.20	10.959
407.55	10.769
407.91	10.402
408.27	10.127
408.62	11.118
408.98	10.526
409.34	10.169
409.69	9.832
410.05	9.779
410.40	10.895
410.76	9.845
411.11	10.071
411.47	9.938
411.83	10.779
412.18	9.601
412.54	9.970
412.89	9.971
413.25	10.946
413.60	10.105
413.96	10.533
414.31	10.508
414.67	11.297
415.03	10.920
415.38	10.347
415.74	10.802
416.09	10.868
416.45	10.537
416.80	11.546
417.16	10.057
417.51	10.510
417.87	10.576
418.22	10.510
418.58	10.191
418.93	10.708
419.29	10.166
419.64	10.478
420.00	10.919
420.35	10.163
420.71	10.327
421.06	11.183
421.42	9.787
421.77	10.661
422.12	10.033
422.48	9.913
422.83	10.603
423.19	10.043
423.54	10.752
423.90	11.665
424.25	10.567
424.61	10.447
424.96	10.051
425.31	10.454
425.67	10.325
426.02	10.376
426.38	9.685
426.73	10.989
427.09	10.498
427.44	9.848
427.79	10.635
428.15	10.489
428.50	11.543
428.85	10.994
429.21	10.913
429.56	10.618
429.92	9.796
430.27	10.982
430.62	10.426
430.98	10.130
431.33	10.181
431.68	9.778
432.04	10.398
432.39	10.977
432.74	10.187
433.10	10.354
433.45	11.143
433.80	10.756
434.16	10.930
434.51	10.475
434.86	11.051
435.22	10.157
435.57	10.788
435.92	11.383
436.28	11.002
436.63	11.075
436.98	11.036
437.34	10.788
437.69	10.022
438.04	11.398
438.39	10.625
438.75	11.470
439.10	10.739
439.45	11.080
439.81	11.163
440.16	11.007
440.51	10.642
440.86	11.396
441.22	11.418
441.57	11.286
441.92	10.809
442.27	11.134
442.63	10.772
442.98	11.530
443.33	11.302
443.68	11.066
444.03	11.263
444.39	11.064
444.74	10.663
445.09	10.637
445.44	10.840
445.79	11.014
446.15	11.316
446.50	10.812
446.85	10.757
447.20	10.249
447.55	10.332
447.91	11.721
448.26	11.289
448.61	11.277
448.96	11.492
449.31	10.616
449.66	11.406
450.02	10.913
450.37	11.160
450.72	11.901
451.07	11.751
451.42	11.915
451.77	11.455
452.12	11.741
452.47	12.272
452.83	11.324
453.18	11.471
453.53	11.131
453.88	12.057
454.23	12.551
454.58	12.063
454.93	12.140
455.28	11.567
455.63	11.466
455.98	11.788
456.34	11.854
456.69	12.256
457.04	11.456
457.39	11.943
457.74	12.387
458.09	11.342
458.44	12.158
458.79	11.565
459.14	11.184
459.49	12.231
459.84	11.957
460.19	11.751
460.54	12.365
460.89	12.687
461.24	11.397
461.59	11.961
461.94	12.411
462.29	11.842
462.64	13.065
462.99	12.476
463.34	12.508
463.69	12.644
464.04	12.723
464.39	12.135
464.74	11.723
465.09	12.362
465.44	12.405
465.79	11.432
466.14	11.076
466.49	11.666
466.84	12.319
467.19	12.595
467.54	12.372
467.89	11.913
468.24	12.565
468.59	12.202
468.94	12.077
469.29	12.706
469.64	13.312
469.99	12.211
470.34	12.903
470.68	12.690
471.03	13.209
471.38	12.318
471.73	12.149
472.08	13.046
472.43	12.725
472.78	11.908
473.13	12.766
473.48	12.347
473.83	12.309
474.17	11.915
474.52	12.322
474.87	11.256
475.22	11.879
475.57	12.487
475.92	12.264
476.27	11.425
476.61	12.064
476.96	12.278
477.31	11.979
477.66	12.560
478.01	12.223
478.36	12.513
478.70	11.464
479.05	11.663
479.40	12.252
479.75	12.066
480.10	12.439
480.45	11.998
480.79	11.843
481.14	11.460
481.49	11.940
481.84	12.005
482.19	12.183
482.53	12.209
482.88	11.918
483.23	11.592
483.58	11.894
483.92	13.026
484.27	11.772
484.62	12.012
484.97	11.998
485.31	11.475
485.66	10.701
486.01	10.379
486.36	10.176
486.70	10.159
487.05	10.294
487.40	11.016
487.75	11.126
488.09	11.136
488.44	11.313
488.79	11.558
489.13	11.571
489.48	11.546
489.83	12.510
490.17	11.974
490.52	11.929
490.87	12.328
491.22	12.012
491.56	11.946
491.91	11.828
492.26	12.160
492.60	12.574
492.95	12.551
493.30	11.965
493.64	12.399
493.99	12.254
494.34	11.833
494.68	12.439
495.03	12.753
495.37	13.057
495.72	12.960
496.07	12.174
496.41	11.903
496.76	12.284
497.11	12.468
497.45	12.275
497.80	12.975
498.14	12.853
498.49	12.767
498.84	12.804
499.18	12.340
499.53	13.045
499.87	12.354
500.22	13.174
500.56	12.396
500.91	13.497
501.26	13.000
501.60	12.386
501.95	12.410
502.29	12.711
502.64	12.528
502.98	12.183
503.33	11.849
503.67	12.848
504.02	12.450
504.36	12.262
504.71	12.725
505.06	12.435
505.40	12.401
505.75	13.096
506.09	13.299
506.44	12.735
506.78	12.335
507.13	12.264
507.47	12.664
507.82	13.090
508.16	13.425
508.51	13.092
508.85	13.058
509.19	13.265
509.54	13.281
509.88	13.376
510.23	12.990
510.57	13.079
510.92	12.937
511.26	13.303
511.61	13.639
511.95	12.892
512.30	13.400
512.64	12.565
512.98	13.070
513.33	13.627
513.67	12.947
514.02	13.195
514.36	13.863
514.70	12.747
515.05	13.532
515.39	13.377
515.74	13.942
516.08	13.399
516.42	14.317
516.77	13.440
517.11	13.707
517.46	14.116
517.80	13.490
518.14	14.761
518.49	13.727
518.83	12.857
519.17	13.755
519.52	14.582
519.86	14.823
520.20	14.356
520.55	13.963
520.89	13.736
521.23	14.252
521.58	13.655
521.92	13.003
522.26	13.922
522.61	14.379
522.95	14.354
523.29	13.450
523.64	13.584
523.98	14.143
524.32	14.014
524.66	13.855
525.01	13.195
525.35	14.437
525.69	14.449
526.04	14.337
526.38	14.244
526.72	13.663
527.06	14.015
527.41	14.510
527.75	15.094
528.09	13.847
528.43	14.521
528.78	14.490
529.12	14.028
529.46	13.910
529.80	13.668
530.15	13.966
530.49	13.177
530.83	13.833
531.17	13.284
531.51	14.286
531.86	13.829
532.20	13.844
532.54	13.371
532.88	14.241
533.22	14.321
533.57	14.094
533.91	13.345
534.25	13.099
534.59	13.567
534.93	13.652
535.27	13.603
535.62	13.186
535.96	13.889
536.30	14.199
536.64	14.348
536.98	14.223
537.32	14.688
537.66	12.691
538.01	14.737
538.35	14.473
538.69	13.228
539.03	12.998
539.37	13.107
539.71	14.259
540.05	13.108
540.39	13.711
540.73	14.873
541.07	14.241
541.42	13.744
541.76	14.365
542.10	13.872
542.44	14.090
542.78	14.097
543.12	13.374
543.46	13.847
543.80	14.098
544.14	13.870
544.48	13.625
544.82	14.128
545.16	12.933
545.50	14.382
545.84	14.141
546.18	15.020
546.52	14.361
546.86	14.571
547.20	14.406
547.54	14.250
547.88	14.416
548.22	13.479
548.56	13.907
548.90	13.227
549.24	13.519
549.58	13.595
549.92	14.538
550.26	14.334
550.60	14.904
550.94	14.790
551.28	15.241
551.62	15.931
551.96	13.784
552.30	13.448
552.64	14.434
552.98	13.209
553.32	13.956
553.66	14.332
554.00	14.607
554.34	14.181
554.68	15.390
555.02	14.460
555.36	15.226
555.69	15.183
556.03	14.713
556.37	14.085
556.71	15.841
557.05	13.303
557.39	14.733
557.73	14.151
558.07	14.956
558.41	14.736
558.75	14.295
559.08	14.296
559.42	15.175
559.76	15.752
560.10	15.141
560.44	15.129
560.78	15.665
561.12	14.177
561.45	13.955
561.79	14.357
562.13	13.708
562.47	14.341
562.81	14.444
563.15	13.769
563.48	14.348
563.82	14.223
564.16	14.055
564.50	13.261
564.84	13.374
565.17	14.141
565.51	13.978
565.85	14.436
566.19	13.929
566.52	13.177
566.86	14.011
567.20	14.270
567.54	13.865
567.88	13.093
568.21	13.180
568.55	12.938
568.89	13.367
569.23	13.115
569.56	12.740
569.90	11.642
570.24	11.925
570.57	12.005
570.91	11.669
571.25	11.447
571.59	11.139
571.92	11.383
572.26	11.213
572.60	10.941
572.93	11.587
573.27	11.315
573.61	11.099
573.95	11.081
574.28	11.246
574.62	10.876
574.96	10.805
575.29	11.071
575.63	10.907
575.97	10.589
576.30	10.934
576.64	10.679
576.98	10.518
577.31	10.997
577.65	10.579
577.98	10.391
578.32	10.437
578.66	10.362
578.99	10.720
579.33	10.938
579.67	10.916
580.00	10.571
580.34	10.863
580.67	10.582
581.01	10.819
581.35	10.833
581.68	10.362
582.02	10.320
582.35	10.356
582.69	10.656
583.02	10.689
583.36	10.989
583.70	11.045
584.03	11.484
584.37	11.232
584.70	11.321
585.04	10.849
585.37	10.866
585.71	11.236
586.04	11.011
586.38	11.085
586.72	11.532
587.05	11.554
587.39	11.353
587.72	11.442
588.06	11.348
588.39	10.798
588.73	11.387
589.06	11.730
589.40	11.800
589.73	11.898
590.07	12.183
590.40	12.578
590.73	13.147
591.07	12.562
591.40	12.615
591.74	12.784
592.07	12.354
592.41	11.950
592.74	12.267
593.08	11.816
593.41	11.520
593.75	11.537
594.08	11.888
594.41	11.404
594.75	12.192
595.08	11.900
595.42	11.916
595.75	11.780
596.09	12.200
596.42	12.127
596.75	12.700
597.09	12.835
597.42	12.735
597.75	12.292
598.09	12.597
598.42	12.525
598.76	12.606
599.09	12.578
599.42	12.076
599.76	12.212
600.09	12.102
600.42	12.120
600.76	11.727
601.09	11.805
601.42	11.827
601.76	12.209
602.09	12.399
602.42	12.532
602.76	12.334
603.09	13.084
603.42	12.294
603.76	12.401
604.09	11.944
604.42	12.354
604.76	12.446
605.09	12.612
605.42	12.231
605.75	12.199
606.09	12.548
606.42	12.326
606.75	13.020
607.09	11.923
607.42	12.816
607.75	12.699
608.08	12.145
608.42	12.374
608.75	12.110
609.08	12.582
609.41	13.045
609.75	12.729
610.08	12.995
610.41	12.473
610.74	12.684
611.07	13.461
611.41	12.697
611.74	13.241
612.07	13.198
612.40	13.402
612.73	13.080
613.07	13.178
613.40	13.383
613.73	13.330
614.06	12.450
614.39	13.182
614.72	13.511
615.06	13.205
615.39	12.228
615.72	12.924
616.05	13.913
616.38	13.648
616.71	12.425
617.05	13.180
617.38	13.034
617.71	12.936
618.04	13.012
618.37	13.341
618.70	13.164
619.03	13.736
619.36	14.384
619.69	13.720
620.03	15.329
620.36	12.974
620.69	15.517
621.02	15.149
621.35	14.183
621.68	15.560
622.01	14.908
622.34	14.421
622.67	14.607
623.00	14.568
623.33	14.305
623.66	14.039
623.99	14.247
624.32	14.228
624.65	14.549
624.99	14.064
625.32	14.362
625.65	14.207
625.98	14.714
626.31	15.059
626.64	13.516
626.97	13.849
627.30	14.596
627.63	15.699
627.96	13.537
628.29	15.759
628.62	14.885
628.95	16.844
629.28	16.564
629.61	15.114
629.94	16.508
630.26	16.118
630.59	17.110
630.92	17.130
631.25	16.047
631.58	16.779
