SpectraSuite Data File
++++++++++++++++++++++++++++++++++++
Date: Tue May 12 17:05:46 PDT 2015
User: schluterlab
Dark Spectrum Present: Yes
Reference Spectrum Present: Yes
Number of Sampled Component Spectra: 1
Spectrometers: USB2E3373
Integration Time (usec): 3000 (USB2E3373)
Spectra Averaged: 3 (USB2E3373)
Boxcar Smoothing: 0 (USB2E3373)
Correct for Electrical Dark: No (USB2E3373)
Strobe/Lamp Enabled: No (USB2E3373)
Correct for Detector Non-linearity: No (USB2E3373)
Correct for Stray Light: No (USB2E3373)
Number of Pixels in Processed Spectrum: 2048
>>>>>Begin Processed Spectral Data<<<<<
178.53	0.000
178.91	-216.667
179.29	-575.000
179.67	-4200.000
180.04	-166.667
180.42	950.000
180.80	1700.000
181.18	0.000
181.56	-337.500
181.94	0.000
182.31	1166.667
182.69	-3500.000
183.07	657.143
183.45	-4200.000
183.83	-1600.000
184.20	360.000
184.58	485.714
184.96	-215.385
185.34	-233.333
185.72	1650.000
186.09	-775.000
186.47	-2300.000
186.85	1300.000
187.23	720.000
187.61	1500.000
187.98	487.500
188.36	257.143
188.74	341.667
189.12	391.667
189.49	850.000
189.87	0.000
190.25	525.000
190.63	4500.000
191.00	-208.333
191.38	-2200.000
191.76	-675.000
192.14	637.500
192.51	-3700.000
192.89	1800.000
193.27	1133.333
193.65	-1366.667
194.02	-720.000
194.40	542.857
194.78	-192.857
195.15	286.667
195.53	-3400.000
195.91	-560.000
196.29	4000.000
196.66	293.750
197.04	950.000
197.42	-1450.000
197.79	725.000
198.17	241.667
198.55	0.000
198.92	400.000
199.30	1266.667
199.68	1850.000
200.05	700.000
200.43	-566.667
200.81	238.889
201.18	3300.000
201.56	233.333
201.94	-825.000
202.31	-375.000
202.69	-440.000
203.07	2800.000
203.44	-616.667
203.82	333.333
204.19	780.000
204.57	-1550.000
204.95	-900.000
205.32	-740.000
205.70	566.667
206.08	825.000
206.45	-766.667
206.83	322.222
207.20	205.263
207.58	283.333
207.96	760.000
208.33	0.000
208.71	528.571
209.08	820.000
209.46	-2900.000
209.84	-1000.000
210.21	880.000
210.59	-620.000
210.96	358.333
211.34	-1025.000
211.71	372.727
212.09	975.000
212.46	1800.000
212.84	-383.333
213.22	611.111
213.59	-3400.000
213.97	370.000
214.34	1325.000
214.72	1133.333
215.09	1433.333
215.47	-2900.000
215.84	-380.000
216.22	-437.500
216.59	0.000
216.97	0.000
217.34	2000.000
217.72	-1550.000
218.09	900.000
218.47	512.500
218.84	925.000
219.22	1066.667
219.59	1066.667
219.97	557.143
220.34	444.444
220.72	1550.000
221.09	3400.000
221.47	266.667
221.84	1133.333
222.22	310.000
222.59	238.889
222.97	278.571
223.34	250.000
223.72	-1650.000
224.09	1166.667
224.46	276.923
224.84	-900.000
225.21	400.000
225.59	353.333
225.96	1200.000
226.34	-560.000
226.71	-650.000
227.08	-460.000
227.46	0.000
227.83	-566.667
228.21	-1700.000
228.58	441.667
228.95	1175.000
229.33	333.333
229.70	925.000
230.08	376.923
230.45	3400.000
230.82	-1125.000
231.20	-1033.333
231.57	-1133.333
231.95	540.000
232.32	300.000
232.69	566.667
233.07	291.667
233.44	-1950.000
233.81	280.000
234.19	125.926
234.56	250.000
234.93	205.882
235.31	185.000
235.68	281.250
236.05	146.429
236.43	144.444
236.80	257.143
237.17	189.655
237.55	143.750
237.92	130.000
238.29	124.242
238.67	118.750
239.04	100.000
239.41	97.917
239.79	102.500
240.16	100.000
240.53	77.049
240.91	75.362
241.28	77.966
241.65	65.152
242.02	88.732
242.40	72.857
242.77	63.736
243.14	50.633
243.51	66.667
243.89	50.467
244.26	46.729
244.63	64.356
245.00	49.541
245.38	47.458
245.75	46.212
246.12	61.481
246.49	42.553
246.87	37.705
247.24	46.667
247.61	48.125
247.98	37.415
248.36	35.152
248.73	42.347
249.10	30.357
249.47	41.000
249.84	32.338
250.22	38.919
250.59	38.500
250.96	38.819
251.33	35.349
251.70	33.482
252.08	39.916
252.45	35.458
252.82	33.460
253.19	32.806
253.56	32.308
253.94	35.145
254.31	34.884
254.68	33.449
255.05	35.172
255.42	27.737
255.79	30.945
256.16	37.966
256.54	36.364
256.91	32.353
257.28	29.431
257.65	30.094
258.02	30.088
258.39	31.805
258.76	32.754
259.14	29.143
259.51	31.195
259.88	34.954
260.25	28.297
260.62	29.041
260.99	29.752
261.36	25.348
261.73	29.521
262.10	31.937
262.47	27.750
262.85	27.733
263.22	30.591
263.59	26.343
263.96	31.078
264.33	28.642
264.70	30.467
265.07	27.561
265.44	29.128
265.81	29.717
266.18	29.291
266.55	29.787
266.92	28.412
267.29	28.509
267.66	25.336
268.03	28.251
268.40	28.330
268.77	30.176
269.14	26.898
269.51	28.285
269.88	28.980
270.25	25.054
270.62	26.180
270.99	29.412
271.36	29.268
271.73	26.834
272.10	27.273
272.47	26.389
272.84	28.743
273.21	29.339
273.58	26.113
273.95	24.846
274.32	26.265
274.69	29.134
275.06	26.230
275.43	24.521
275.80	26.226
276.17	24.632
276.54	27.477
276.91	29.291
277.28	24.270
277.65	26.199
278.02	25.000
278.39	24.640
278.76	27.586
279.13	24.733
279.50	24.000
279.87	26.816
280.23	27.072
280.60	27.920
280.97	25.172
281.34	24.752
281.71	26.261
282.08	26.496
282.45	25.169
282.82	23.746
283.19	25.755
283.56	24.793
283.92	27.687
284.29	25.957
284.66	25.546
285.03	24.544
285.40	23.636
285.77	24.846
286.14	25.232
286.51	24.540
286.87	23.101
287.24	21.321
287.61	23.556
287.98	23.881
288.35	23.111
288.72	22.610
289.08	24.324
289.45	23.323
289.82	22.500
290.19	22.548
290.56	23.435
290.93	22.446
291.29	21.409
291.66	20.763
292.03	20.898
292.40	21.680
292.77	19.777
293.13	21.113
293.50	19.838
293.87	21.138
294.24	20.699
294.60	23.284
294.97	22.378
295.34	21.647
295.71	20.762
296.08	21.867
296.44	21.601
296.81	19.975
297.18	20.532
297.55	21.429
297.91	19.828
298.28	19.928
298.65	20.613
299.02	20.265
299.38	21.223
299.75	17.927
300.12	19.266
300.48	20.960
300.85	19.547
301.22	20.349
301.59	17.689
301.95	19.137
302.32	18.161
302.69	19.683
303.05	18.855
303.42	18.498
303.79	19.285
304.15	18.922
304.52	19.027
304.89	18.657
305.25	18.687
305.62	18.763
305.99	19.674
306.35	17.895
306.72	19.563
307.09	17.909
307.45	17.001
307.82	19.547
308.19	19.278
308.55	18.200
308.92	19.235
309.29	18.935
309.65	18.632
310.02	18.256
310.38	18.644
310.75	17.936
311.12	18.966
311.48	19.884
311.85	18.607
312.22	18.434
312.58	19.534
312.95	19.126
313.31	19.101
313.68	18.668
314.05	21.337
314.41	19.274
314.78	20.928
315.14	20.000
315.51	20.151
315.87	19.982
316.24	21.382
316.61	20.859
316.97	20.092
317.34	21.653
317.70	22.300
318.07	22.865
318.43	23.814
318.80	22.067
319.16	22.902
319.53	23.009
319.89	23.387
320.26	25.047
320.62	25.824
320.99	24.690
321.35	25.881
321.72	26.281
322.08	26.408
322.45	26.885
322.81	26.715
323.18	28.064
323.54	27.265
323.91	29.918
324.27	29.443
324.64	28.633
325.00	28.966
325.37	31.029
325.73	31.113
326.10	31.980
326.46	31.214
326.83	31.840
327.19	32.610
327.56	32.588
327.92	33.197
328.29	35.761
328.65	35.017
329.01	35.244
329.38	35.787
329.74	33.476
330.11	35.795
330.47	35.550
330.84	35.548
331.20	36.379
331.56	38.687
331.93	36.270
332.29	35.204
332.66	35.799
333.02	35.997
333.38	36.911
333.75	36.947
334.11	36.577
334.48	37.179
334.84	36.233
335.20	37.896
335.57	36.860
335.93	37.174
336.29	36.401
336.66	37.307
337.02	38.580
337.38	37.661
337.75	36.486
338.11	38.397
338.47	38.273
338.84	37.849
339.20	37.403
339.56	37.174
339.93	38.545
340.29	36.639
340.65	37.888
341.02	38.455
341.38	37.356
341.74	36.711
342.11	38.564
342.47	37.654
342.83	38.474
343.20	38.480
343.56	34.472
343.92	38.233
344.28	38.357
344.65	37.897
345.01	36.984
345.37	37.260
345.73	37.302
346.10	37.450
346.46	37.480
346.82	36.034
347.19	38.794
347.55	37.627
347.91	36.631
348.27	35.864
348.63	37.263
349.00	37.014
349.36	37.510
349.72	37.691
350.08	37.500
350.45	38.157
350.81	38.379
351.17	36.980
351.53	36.336
351.89	37.995
352.26	37.491
352.62	36.878
352.98	37.653
353.34	38.675
353.70	36.315
354.07	38.308
354.43	36.636
354.79	37.965
355.15	37.749
355.51	37.991
355.87	37.952
356.24	38.491
356.60	36.454
356.96	37.453
357.32	38.960
357.68	38.473
358.04	38.070
358.40	37.406
358.77	38.693
359.13	38.363
359.49	38.028
359.85	38.124
360.21	38.484
360.57	37.299
360.93	38.889
361.29	38.745
361.66	39.224
362.02	37.642
362.38	38.167
362.74	39.278
363.10	38.640
363.46	37.293
363.82	38.780
364.18	38.051
364.54	39.485
364.90	39.357
365.26	39.001
365.62	39.365
365.98	38.266
366.35	38.138
366.71	38.446
367.07	38.703
367.43	39.221
367.79	39.894
368.15	38.874
368.51	39.008
368.87	38.247
369.23	38.739
369.59	39.042
369.95	38.951
370.31	38.125
370.67	39.417
371.03	40.056
371.39	38.712
371.75	39.218
372.11	39.769
372.47	39.247
372.83	39.837
373.19	40.027
373.55	39.450
373.91	39.503
374.27	39.087
374.63	40.203
374.99	40.633
375.35	40.860
375.71	40.172
376.07	40.385
376.42	39.066
376.78	39.756
377.14	40.170
377.50	39.014
377.86	39.910
378.22	40.463
378.58	41.828
378.94	40.435
379.30	40.024
379.66	40.819
380.02	40.000
380.38	40.222
380.74	41.522
381.09	40.946
381.45	40.000
381.81	40.544
382.17	40.781
382.53	40.012
382.89	40.982
383.25	40.379
383.61	40.865
383.97	40.372
384.32	41.290
384.68	42.127
385.04	40.563
385.40	40.095
385.76	40.609
386.12	40.940
386.48	40.912
386.83	41.198
387.19	41.873
387.55	40.636
387.91	41.455
388.27	41.642
388.62	41.725
388.98	41.283
389.34	40.452
389.70	40.330
390.06	40.305
390.42	41.209
390.77	39.988
391.13	42.667
391.49	40.290
391.85	41.785
392.20	41.597
392.56	42.772
392.92	40.539
393.28	40.751
393.64	40.711
393.99	41.020
394.35	41.613
394.71	41.194
395.07	41.241
395.42	40.808
395.78	42.134
396.14	42.410
396.50	41.637
396.85	41.341
397.21	41.637
397.57	41.363
397.92	40.208
398.28	40.871
398.64	41.536
399.00	40.192
399.35	39.452
399.71	42.439
400.07	40.126
400.42	40.358
400.78	40.938
401.14	42.513
401.49	41.187
401.85	41.715
402.21	41.066
402.57	40.993
402.92	41.030
403.28	40.334
403.63	40.789
403.99	41.255
404.35	40.739
404.70	40.638
405.06	39.921
405.42	41.113
405.77	39.746
406.13	39.642
406.49	39.568
406.84	40.835
407.20	41.096
407.55	40.554
407.91	40.970
408.27	41.358
408.62	40.095
408.98	40.568
409.34	40.444
409.69	41.755
410.05	40.966
410.40	40.636
410.76	39.439
411.11	40.521
411.47	40.494
411.83	39.250
412.18	40.519
412.54	39.760
412.89	40.177
413.25	41.163
413.60	40.946
413.96	41.173
414.31	41.145
414.67	41.775
415.03	41.699
415.38	41.325
415.74	41.883
416.09	41.849
416.45	40.853
416.80	43.040
417.16	41.184
417.51	40.955
417.87	40.676
418.22	41.495
418.58	41.529
418.93	41.999
419.29	41.158
419.64	42.520
420.00	42.601
420.35	42.683
420.71	41.540
421.06	42.201
421.42	42.890
421.77	41.977
422.12	42.999
422.48	41.551
422.83	43.304
423.19	42.171
423.54	43.116
423.90	43.941
424.25	43.203
424.61	43.587
424.96	42.744
425.31	43.678
425.67	43.042
426.02	44.532
426.38	43.407
426.73	46.038
427.09	44.484
427.44	43.782
427.79	44.540
428.15	44.903
428.50	45.714
428.85	44.033
429.21	44.246
429.56	44.766
429.92	44.455
430.27	44.074
430.62	43.710
430.98	44.960
431.33	44.304
431.68	44.346
432.04	45.215
432.39	45.884
432.74	46.136
433.10	46.290
433.45	45.836
433.80	48.263
434.16	45.770
434.51	45.769
434.86	46.815
435.22	46.407
435.57	48.311
435.92	46.614
436.28	47.177
436.63	47.434
436.98	46.622
437.34	46.975
437.69	46.865
438.04	48.280
438.39	47.461
438.75	46.993
439.10	47.545
439.45	47.371
439.81	47.311
440.16	47.936
440.51	47.804
440.86	49.345
441.22	47.998
441.57	47.822
441.92	47.581
442.27	47.371
442.63	48.069
442.98	47.629
443.33	48.259
443.68	47.586
444.03	47.974
444.39	48.964
444.74	48.292
445.09	47.183
445.44	47.503
445.79	49.903
446.15	48.842
446.50	49.209
446.85	48.954
447.20	48.756
447.55	49.864
447.91	48.908
448.26	49.414
448.61	49.198
448.96	50.980
449.31	48.680
449.66	49.723
450.02	49.271
450.37	50.583
450.72	50.909
451.07	49.680
451.42	49.970
451.77	50.974
452.12	50.993
452.47	51.154
452.83	51.437
453.18	50.450
453.53	51.332
453.88	50.857
454.23	51.075
454.58	51.457
454.93	50.031
455.28	51.897
455.63	51.418
455.98	50.197
456.34	52.462
456.69	52.927
457.04	50.716
457.39	51.314
457.74	52.477
458.09	51.207
458.44	51.150
458.79	50.716
459.14	50.791
459.49	51.699
459.84	52.337
460.19	50.000
460.54	51.738
460.89	51.119
461.24	52.062
461.59	52.041
461.94	50.887
462.29	52.517
462.64	53.580
462.99	52.271
463.34	52.754
463.69	52.934
464.04	52.735
464.39	52.204
464.74	51.231
465.09	52.525
465.44	50.925
465.79	51.551
466.14	51.298
466.49	51.492
466.84	51.394
467.19	51.670
467.54	51.892
467.89	52.758
468.24	52.635
468.59	52.738
468.94	52.657
469.29	52.352
469.64	53.698
469.99	53.470
470.34	53.131
470.68	54.276
471.03	54.303
471.38	54.702
471.73	54.474
472.08	55.121
472.43	53.818
472.78	53.073
473.13	52.566
473.48	53.056
473.83	53.887
474.17	53.495
474.52	54.384
474.87	53.269
475.22	53.969
475.57	53.358
475.92	53.347
476.27	52.612
476.61	52.708
476.96	52.612
477.31	53.008
477.66	54.321
478.01	52.243
478.36	53.296
478.70	52.556
479.05	53.818
479.40	53.968
479.75	53.923
480.10	53.195
480.45	52.568
480.79	53.226
481.14	52.734
481.49	52.928
481.84	52.243
482.19	52.751
482.53	53.228
482.88	52.867
483.23	53.451
483.58	53.636
483.92	53.976
484.27	53.253
484.62	52.886
484.97	51.578
485.31	50.366
485.66	48.524
486.01	46.838
486.36	45.906
486.70	46.227
487.05	46.904
487.40	48.338
487.75	49.015
488.09	49.176
488.44	50.478
488.79	50.503
489.13	51.437
489.48	53.935
489.83	52.669
490.17	53.633
490.52	53.747
490.87	53.534
491.22	54.566
491.56	53.579
491.91	55.063
492.26	54.521
492.60	54.533
492.95	53.376
493.30	54.777
493.64	53.459
493.99	52.594
494.34	55.043
494.68	53.918
495.03	53.974
495.37	54.345
495.72	54.033
496.07	54.897
496.41	53.519
496.76	53.694
497.11	54.199
497.45	54.494
497.80	54.680
498.14	54.600
498.49	54.132
498.84	55.000
499.18	53.291
499.53	55.214
499.87	53.908
500.22	55.136
500.56	55.246
500.91	55.844
501.26	54.295
501.60	54.827
501.95	53.674
502.29	53.733
502.64	53.463
502.98	53.802
503.33	53.764
503.67	53.687
504.02	53.874
504.36	53.846
504.71	54.588
505.06	54.059
505.40	53.954
505.75	54.022
506.09	54.643
506.44	54.370
506.78	54.348
507.13	55.356
507.47	55.216
507.82	54.745
508.16	55.463
508.51	55.169
508.85	54.843
509.19	55.017
509.54	54.687
509.88	55.047
510.23	55.000
510.57	54.199
510.92	57.443
511.26	56.376
511.61	54.407
511.95	55.202
512.30	54.900
512.64	55.607
512.98	55.920
513.33	55.943
513.67	56.603
514.02	56.156
514.36	56.490
514.70	56.960
515.05	56.420
515.39	57.730
515.74	57.463
516.08	56.972
516.42	57.978
516.77	56.640
517.11	56.053
517.46	57.381
517.80	56.690
518.14	58.423
518.49	58.214
518.83	55.495
519.17	58.070
519.52	58.820
519.86	57.057
520.20	57.863
520.55	58.225
520.89	58.218
521.23	58.995
521.58	57.544
521.92	57.493
522.26	59.538
522.61	58.289
522.95	58.258
523.29	58.363
523.64	57.803
523.98	58.685
524.32	57.612
524.66	58.551
525.01	58.757
525.35	57.219
525.69	59.422
526.04	59.250
526.38	58.564
526.72	59.666
527.06	57.008
527.41	59.311
527.75	58.734
528.09	57.857
528.43	58.755
528.78	59.213
529.12	59.482
529.46	57.919
529.80	57.068
530.15	58.515
530.49	57.882
530.83	57.892
531.17	58.118
531.51	59.044
531.86	57.488
532.20	57.973
532.54	59.322
532.88	58.838
533.22	57.831
533.57	59.060
533.91	57.051
534.25	56.838
534.59	56.784
534.93	55.973
535.27	55.094
535.62	55.134
535.96	55.615
536.30	57.282
536.64	58.323
536.98	57.269
537.32	57.938
537.66	57.207
538.01	57.399
538.35	56.519
538.69	56.311
539.03	56.343
539.37	55.218
539.71	55.802
540.05	56.615
540.39	57.170
540.73	56.013
541.07	55.521
541.42	56.032
541.76	56.535
542.10	55.240
542.44	55.237
542.78	57.206
543.12	56.442
543.46	56.140
543.80	55.576
544.14	57.461
544.48	55.900
544.82	55.046
545.16	53.005
545.50	54.886
545.84	55.871
546.18	57.672
546.52	56.393
546.86	57.124
547.20	56.266
547.54	55.288
547.88	55.292
548.22	55.556
548.56	53.683
548.90	54.093
549.24	56.286
549.58	56.057
549.92	56.647
550.26	57.742
550.60	55.888
550.94	57.191
551.28	56.690
551.62	58.690
551.96	56.014
552.30	55.570
552.64	55.793
552.98	54.575
553.32	54.738
553.66	56.873
554.00	55.212
554.34	57.257
554.68	56.317
555.02	56.280
555.36	55.851
555.69	54.843
556.03	55.924
556.37	56.597
556.71	56.975
557.05	54.260
557.39	55.667
557.73	55.795
558.07	55.198
558.41	55.929
558.75	55.540
559.08	56.540
559.42	58.554
559.76	58.446
560.10	56.641
560.44	54.678
560.78	55.435
561.12	55.118
561.45	54.881
561.79	53.933
562.13	53.632
562.47	55.678
562.81	54.977
563.15	54.880
563.48	52.422
563.82	54.959
564.16	53.918
564.50	52.743
564.84	53.860
565.17	53.179
565.51	55.419
565.85	54.596
566.19	53.214
566.52	53.610
566.86	53.065
567.20	53.371
567.54	52.293
567.88	52.061
568.21	49.176
568.55	50.389
568.89	48.495
569.23	48.188
569.56	48.003
569.90	45.526
570.24	45.417
570.57	44.906
570.91	44.119
571.25	43.921
571.59	42.922
571.92	42.008
572.26	42.480
572.60	41.988
572.93	43.416
573.27	43.682
573.61	42.231
573.95	41.783
574.28	42.172
574.62	41.267
574.96	40.552
575.29	41.001
575.63	41.084
575.97	41.237
576.30	40.977
576.64	41.815
576.98	40.933
577.31	41.053
577.65	40.733
577.98	39.446
578.32	39.666
578.66	39.833
578.99	39.899
579.33	39.964
579.67	40.665
580.00	40.128
580.34	40.434
580.67	40.089
581.01	39.982
581.35	39.376
581.68	38.662
582.02	38.563
582.35	38.698
582.69	39.457
583.02	39.416
583.36	40.076
583.70	39.912
584.03	41.114
584.37	41.217
584.70	40.906
585.04	39.829
585.37	40.149
585.71	40.966
586.04	40.086
586.38	40.675
586.72	40.386
587.05	40.968
587.39	40.531
587.72	41.059
588.06	40.278
588.39	40.839
588.73	40.834
589.06	41.436
589.40	42.473
589.73	43.068
590.07	43.548
590.40	43.624
590.73	44.914
591.07	44.288
591.40	43.992
591.74	44.034
592.07	43.344
592.41	43.925
592.74	42.146
593.08	41.927
593.41	41.173
593.75	40.322
594.08	41.330
594.41	41.968
594.75	41.952
595.08	42.695
595.42	41.837
595.75	41.724
596.09	43.413
596.42	42.462
596.75	42.989
597.09	43.500
597.42	43.959
597.75	43.286
598.09	42.593
598.42	43.248
598.76	42.598
599.09	42.038
599.42	41.176
599.76	41.214
600.09	40.949
600.42	40.746
600.76	41.230
601.09	42.043
601.42	41.535
601.76	41.640
602.09	42.568
602.42	41.516
602.76	42.163
603.09	42.873
603.42	41.725
603.76	41.540
604.09	40.825
604.42	41.921
604.76	42.947
605.09	42.612
605.42	42.706
605.75	41.453
606.09	41.966
606.42	41.338
606.75	41.741
607.09	41.413
607.42	42.266
607.75	41.561
608.08	42.364
608.42	42.995
608.75	43.004
609.08	42.895
609.41	42.909
609.75	43.407
610.08	44.290
610.41	43.215
610.74	43.247
611.07	43.247
611.41	43.652
611.74	44.073
612.07	43.593
612.40	43.470
612.73	44.533
613.07	44.450
613.40	44.561
613.73	44.683
614.06	43.800
614.39	44.141
614.72	43.697
615.06	43.571
615.39	43.911
615.72	42.885
616.05	44.400
616.38	43.125
616.71	44.004
617.05	44.261
617.38	44.719
617.71	46.063
618.04	45.317
618.37	45.025
618.70	45.208
619.03	45.177
619.36	47.487
619.69	46.636
620.03	47.684
620.36	47.527
620.69	47.765
621.02	47.418
621.35	47.851
621.68	49.336
622.01	50.701
622.34	47.924
622.67	48.736
623.00	47.924
623.33	48.246
623.66	45.243
623.99	49.384
624.32	46.816
624.65	47.597
624.99	47.600
625.32	48.096
625.65	47.586
625.98	48.047
626.31	48.665
626.64	48.519
626.97	48.661
627.30	49.379
627.63	51.177
627.96	49.922
628.29	50.743
628.62	51.155
628.95	51.507
629.28	51.358
629.61	50.879
629.94	49.870
630.26	50.173
630.59	52.660
630.92	52.735
