SpectraSuite Data File
++++++++++++++++++++++++++++++++++++
Date: Tue May 12 17:05:37 PDT 2015
User: schluterlab
Dark Spectrum Present: Yes
Reference Spectrum Present: Yes
Number of Sampled Component Spectra: 1
Spectrometers: USB2E3373
Integration Time (usec): 3000 (USB2E3373)
Spectra Averaged: 3 (USB2E3373)
Boxcar Smoothing: 0 (USB2E3373)
Correct for Electrical Dark: No (USB2E3373)
Strobe/Lamp Enabled: No (USB2E3373)
Correct for Detector Non-linearity: No (USB2E3373)
Correct for Stray Light: No (USB2E3373)
Number of Pixels in Processed Spectrum: 2048
>>>>>Begin Processed Spectral Data<<<<<
178.53	0.000
178.91	-308.333
179.29	-725.000
179.67	-2700.000
180.04	-140.000
180.42	725.000
180.80	1650.000
181.18	0.000
181.56	-362.500
181.94	0.000
182.31	800.000
182.69	-2500.000
183.07	557.143
183.45	-3600.000
183.83	-1750.000
184.20	380.000
184.58	528.571
184.96	-261.538
185.34	-233.333
185.72	1600.000
186.09	-700.000
186.47	-2900.000
186.85	1233.333
187.23	700.000
187.61	1750.000
187.98	362.500
188.36	285.714
188.74	341.667
189.12	358.333
189.49	950.000
189.87	0.000
190.25	550.000
190.63	2200.000
191.00	-250.000
191.38	-4000.000
191.76	-725.000
192.14	525.000
192.51	-2500.000
192.89	1750.000
193.27	833.333
193.65	-1066.667
194.02	-920.000
194.40	557.143
194.78	-185.714
195.15	240.000
195.53	-3600.000
195.91	-460.000
196.29	3800.000
196.66	256.250
197.04	700.000
197.42	-1450.000
197.79	600.000
198.17	325.000
198.55	0.000
198.92	542.857
199.30	1166.667
199.68	1850.000
200.05	816.667
200.43	-600.000
200.81	266.667
201.18	3500.000
201.56	391.667
201.94	-650.000
202.31	-312.500
202.69	-440.000
203.07	2700.000
203.44	-516.667
203.82	266.667
204.19	840.000
204.57	-1250.000
204.95	-875.000
205.32	-640.000
205.70	533.333
206.08	825.000
206.45	-733.333
206.83	455.556
207.20	178.947
207.58	316.667
207.96	780.000
208.33	0.000
208.71	571.429
209.08	580.000
209.46	-2200.000
209.84	-800.000
210.21	740.000
210.59	-600.000
210.96	341.667
211.34	-700.000
211.71	418.182
212.09	1100.000
212.46	2000.000
212.84	-400.000
213.22	377.778
213.59	-2800.000
213.97	310.000
214.34	825.000
214.72	1300.000
215.09	1200.000
215.47	-2400.000
215.84	-340.000
216.22	-375.000
216.59	0.000
216.97	0.000
217.34	1850.000
217.72	-1450.000
218.09	1166.667
218.47	437.500
218.84	825.000
219.22	1300.000
219.59	933.333
219.97	428.571
220.34	400.000
220.72	1400.000
221.09	3600.000
221.47	241.667
221.84	1333.333
222.22	370.000
222.59	244.444
222.97	257.143
223.34	250.000
223.72	-2150.000
224.09	1266.667
224.46	269.231
224.84	-875.000
225.21	455.556
225.59	293.333
225.96	1133.333
226.34	-580.000
226.71	-550.000
227.08	-560.000
227.46	0.000
227.83	-433.333
228.21	-1800.000
228.58	350.000
228.95	1125.000
229.33	411.111
229.70	1150.000
230.08	307.692
230.45	4200.000
230.82	-800.000
231.20	-900.000
231.57	-1133.333
231.95	620.000
232.32	258.333
232.69	566.667
233.07	316.667
233.44	-1700.000
233.81	280.000
234.19	137.037
234.56	200.000
234.93	176.471
235.31	175.000
235.68	231.250
236.05	189.286
236.43	133.333
236.80	292.857
237.17	141.379
237.55	112.500
237.92	97.500
238.29	127.273
238.67	93.750
239.04	87.805
239.41	87.500
239.79	87.500
240.16	77.083
240.53	39.344
240.91	68.116
241.28	61.017
241.65	51.515
242.02	67.606
242.40	52.857
242.77	47.253
243.14	39.241
243.51	53.535
243.89	47.664
244.26	36.449
244.63	36.634
245.00	44.037
245.38	25.424
245.75	37.879
246.12	40.000
246.49	26.241
246.87	25.410
247.24	30.000
247.61	29.375
247.98	35.374
248.36	26.061
248.73	30.102
249.10	28.571
249.47	28.500
249.84	25.373
250.22	27.568
250.59	24.000
250.96	22.785
251.33	17.209
251.70	25.000
252.08	23.529
252.45	19.522
252.82	18.631
253.19	18.182
253.56	20.385
253.94	20.290
254.31	22.093
254.68	18.118
255.05	20.690
255.42	19.343
255.79	20.521
256.16	17.966
256.54	19.805
256.91	19.281
257.28	17.726
257.65	13.793
258.02	15.044
258.39	18.625
258.76	21.449
259.14	15.714
259.51	16.618
259.88	17.629
260.25	17.308
260.62	16.164
260.99	16.804
261.36	16.435
261.73	17.021
262.10	20.157
262.47	16.000
262.85	15.200
263.22	17.995
263.59	18.414
263.96	19.298
264.33	15.802
264.70	16.216
265.07	19.268
265.44	16.743
265.81	13.915
266.18	17.391
266.55	14.657
266.92	14.094
267.29	17.544
267.66	14.798
268.03	16.368
268.40	14.799
268.77	17.181
269.14	15.401
269.51	15.145
269.88	13.673
270.25	12.527
270.62	13.090
270.99	16.836
271.36	14.634
271.73	14.675
272.10	15.354
272.47	13.889
272.84	12.974
273.21	15.289
273.58	17.611
273.95	14.784
274.32	14.202
274.69	17.520
275.06	14.572
275.43	13.793
275.80	15.094
276.17	15.625
276.54	14.579
276.91	15.858
277.28	15.693
277.65	16.052
278.02	14.706
278.39	12.950
278.76	16.034
279.13	14.413
279.50	14.727
279.87	10.801
280.23	12.707
280.60	14.599
280.97	13.793
281.34	12.211
281.71	15.478
282.08	14.701
282.45	13.345
282.82	16.555
283.19	13.355
283.56	12.562
283.92	12.541
284.29	11.814
284.66	13.109
285.03	13.930
285.40	12.066
285.77	10.340
286.14	13.313
286.51	14.417
286.87	12.816
287.24	11.411
287.61	12.462
287.98	13.582
288.35	12.593
288.72	11.229
289.08	13.514
289.45	13.415
289.82	12.656
290.19	12.299
290.56	13.392
290.93	12.086
291.29	12.293
291.66	12.571
292.03	11.220
292.40	12.602
292.77	11.421
293.13	11.840
293.50	11.606
293.87	11.111
294.24	10.769
294.60	11.709
294.97	11.329
295.34	11.421
295.71	11.958
296.08	12.000
296.44	11.563
296.81	11.166
297.18	11.660
297.55	12.192
297.91	10.345
298.28	10.507
298.65	10.184
299.02	10.133
299.38	11.271
299.75	10.488
300.12	11.927
300.48	11.124
300.85	10.012
301.22	11.163
301.59	9.552
301.95	9.218
302.32	11.525
302.69	11.312
303.05	12.009
303.42	9.753
303.79	10.076
304.15	9.901
304.52	10.465
304.89	9.275
305.25	10.234
305.62	10.554
305.99	9.239
306.35	10.316
306.72	9.677
307.09	9.834
307.45	9.609
307.82	9.465
308.19	9.897
308.55	10.800
308.92	9.814
309.29	10.947
309.65	9.514
310.02	10.041
310.38	9.571
310.75	9.547
311.12	10.345
311.48	9.846
311.85	9.542
312.22	9.742
312.58	8.552
312.95	9.515
313.31	10.487
313.68	10.507
314.05	10.989
314.41	9.777
314.78	9.280
315.14	10.332
315.51	10.407
315.87	10.310
316.24	9.897
316.61	9.132
316.97	8.716
317.34	10.692
317.70	10.272
318.07	10.231
318.43	10.721
318.80	10.771
319.16	10.052
319.53	10.177
319.89	10.036
320.26	11.359
320.62	10.531
320.99	9.438
321.35	10.668
321.72	11.006
322.08	9.695
322.45	9.900
322.81	10.522
323.18	10.924
323.54	11.760
323.91	11.423
324.27	10.433
324.64	9.862
325.00	10.431
325.37	11.383
325.73	11.130
326.10	10.439
326.46	11.396
326.83	9.840
327.19	10.763
327.56	10.304
327.92	10.820
328.29	11.375
328.65	12.243
329.01	11.035
329.38	11.337
329.74	10.589
330.11	11.555
330.47	12.361
330.84	10.267
331.20	11.168
331.56	11.485
331.93	10.778
332.29	10.119
332.66	11.310
333.02	9.708
333.38	10.646
333.75	11.760
334.11	10.906
334.48	10.769
334.84	11.149
335.20	11.121
335.57	10.411
335.93	10.681
336.29	11.194
336.66	10.892
337.02	10.436
337.38	11.264
337.75	9.882
338.11	11.983
338.47	11.346
338.84	10.076
339.20	10.043
339.56	11.102
339.93	10.117
340.29	9.580
340.65	10.562
341.02	10.780
341.38	10.427
341.74	10.465
342.11	10.017
342.47	8.860
342.83	11.239
343.20	11.156
343.56	8.022
343.92	10.735
344.28	9.968
344.65	10.350
345.01	10.079
345.37	9.135
345.73	10.794
346.10	9.084
346.46	10.287
346.82	10.031
347.19	10.742
347.55	10.226
347.91	9.290
348.27	9.682
348.63	9.652
349.00	10.053
349.36	10.506
349.72	9.939
350.08	10.792
350.45	10.129
350.81	9.939
351.17	9.245
351.53	10.008
351.89	9.557
352.26	9.146
352.62	10.332
352.98	10.813
353.34	10.940
353.70	9.098
354.07	9.769
354.43	10.215
354.79	9.719
355.15	9.265
355.51	8.912
355.87	10.392
356.24	10.085
356.60	8.752
356.96	8.795
357.32	9.797
357.68	9.325
358.04	10.410
358.40	10.420
358.77	10.068
359.13	9.535
359.49	9.266
359.85	10.276
360.21	8.915
360.57	9.927
360.93	9.380
361.29	10.029
361.66	10.142
362.02	8.594
362.38	9.812
362.74	9.908
363.10	9.537
363.46	9.254
363.82	10.309
364.18	9.246
364.54	9.871
364.90	9.906
365.26	10.132
365.62	8.702
365.98	9.429
366.35	9.241
366.71	9.438
367.07	8.805
367.43	9.201
367.79	9.973
368.15	8.412
368.51	8.615
368.87	8.220
369.23	8.385
369.59	9.575
369.95	9.580
370.31	8.556
370.67	9.507
371.03	10.294
371.39	8.934
371.75	8.793
372.11	8.973
372.47	10.000
372.83	9.313
373.19	10.487
373.55	9.347
373.91	8.633
374.27	9.656
374.63	8.949
374.99	9.232
375.35	9.274
375.71	9.037
376.07	9.748
376.42	9.015
376.78	9.313
377.14	9.305
377.50	10.112
377.86	8.905
378.22	9.080
378.58	10.230
378.94	8.992
379.30	9.582
379.66	9.934
380.02	9.326
380.38	9.016
380.74	8.881
381.09	9.930
381.45	8.786
381.81	8.629
382.17	8.852
382.53	8.998
382.89	9.107
383.25	9.059
383.61	8.761
383.97	7.978
384.32	9.102
384.68	9.447
385.04	9.496
385.40	9.015
385.76	9.713
386.12	8.782
386.48	9.362
386.83	9.046
387.19	9.423
387.55	9.717
387.91	9.122
388.27	9.280
388.62	10.094
388.98	9.446
389.34	8.328
389.70	9.257
390.06	9.329
390.42	9.315
390.77	9.582
391.13	9.475
391.49	9.437
391.85	9.477
392.20	9.297
392.56	10.096
392.92	9.321
393.28	8.857
393.64	8.716
393.99	9.425
394.35	9.182
394.71	8.685
395.07	8.820
395.42	9.016
395.78	10.117
396.14	10.241
396.50	8.905
396.85	9.451
397.21	8.965
397.57	9.743
397.92	8.897
398.28	9.211
398.64	9.599
399.00	8.658
399.35	8.374
399.71	9.547
400.07	8.733
400.42	9.313
400.78	9.208
401.14	9.336
401.49	8.871
401.85	9.270
402.21	9.139
402.57	9.216
402.92	9.333
403.28	8.055
403.63	9.005
403.99	9.047
404.35	9.261
404.70	9.510
405.06	8.422
405.42	9.276
405.77	9.041
406.13	9.002
406.49	8.755
406.84	9.193
407.20	9.589
407.55	8.923
407.91	10.530
408.27	8.611
408.62	8.930
408.98	8.457
409.34	8.767
409.69	9.023
410.05	9.004
410.40	8.657
410.76	8.701
411.11	8.768
411.47	8.765
411.83	8.787
412.18	8.575
412.54	8.829
412.89	8.319
413.25	9.236
413.60	9.696
413.96	9.216
414.31	8.678
414.67	10.118
415.03	8.301
415.38	9.464
415.74	9.097
416.09	10.056
416.45	9.308
416.80	9.750
417.16	9.039
417.51	9.427
417.87	8.886
418.22	9.052
418.58	9.172
418.93	9.518
419.29	8.503
419.64	9.449
420.00	10.203
420.35	9.059
420.71	8.985
421.06	8.770
421.42	8.923
421.77	8.884
422.12	9.261
422.48	8.885
422.83	8.761
423.19	9.179
423.54	8.722
423.90	9.456
424.25	9.191
424.61	8.938
424.96	8.696
425.31	8.758
425.67	9.484
426.02	8.918
426.38	8.751
426.73	8.907
427.09	9.312
427.44	8.554
427.79	8.805
428.15	9.605
428.50	9.943
428.85	9.524
429.21	8.698
429.56	9.222
429.92	9.000
430.27	8.418
430.62	8.370
430.98	8.533
431.33	8.518
431.68	7.556
432.04	8.898
432.39	9.605
432.74	8.372
433.10	9.025
433.45	8.673
433.80	9.597
434.16	9.564
434.51	8.927
434.86	9.472
435.22	8.428
435.57	9.840
435.92	9.903
436.28	9.044
436.63	8.698
436.98	9.122
437.34	9.760
437.69	8.567
438.04	9.032
438.39	8.815
438.75	9.911
439.10	9.390
439.45	9.384
439.81	9.427
440.16	9.796
440.51	9.403
440.86	9.345
441.22	8.550
441.57	9.239
441.92	8.736
442.27	9.072
442.63	8.994
442.98	9.106
443.33	9.159
443.68	8.652
444.03	9.001
444.39	8.898
444.74	8.747
445.09	9.163
445.44	9.352
445.79	8.918
446.15	9.263
446.50	9.177
446.85	8.616
447.20	8.209
447.55	8.428
447.91	9.696
448.26	8.839
448.61	8.624
448.96	9.314
449.31	8.691
449.66	10.022
450.02	9.076
450.37	9.550
450.72	9.532
451.07	9.773
451.42	9.366
451.77	9.450
452.12	9.699
452.47	9.478
452.83	10.028
453.18	9.670
453.53	10.302
453.88	9.257
454.23	9.529
454.58	10.373
454.93	9.319
455.28	9.914
455.63	9.870
455.98	9.814
456.34	9.909
456.69	9.329
457.04	9.905
457.39	9.543
457.74	10.135
458.09	8.591
458.44	10.077
458.79	9.496
459.14	9.438
459.49	10.023
459.84	9.348
460.19	9.944
460.54	9.744
460.89	9.648
461.24	9.336
461.59	9.637
461.94	9.338
462.29	9.783
462.64	10.050
462.99	9.917
463.34	10.823
463.69	9.800
464.04	9.845
464.39	10.189
464.74	9.144
465.09	9.402
465.44	9.467
465.79	8.928
466.14	9.380
466.49	9.712
466.84	9.588
467.19	10.428
467.54	8.889
467.89	9.859
468.24	9.380
468.59	9.583
468.94	9.300
469.29	11.057
469.64	9.775
469.99	10.604
470.34	9.741
470.68	9.793
471.03	10.007
471.38	10.000
471.73	9.993
472.08	10.763
472.43	10.118
472.78	10.819
473.13	9.262
473.48	10.024
473.83	9.776
474.17	9.666
474.52	10.249
474.87	9.267
475.22	9.652
475.57	9.549
475.92	9.402
476.27	9.521
476.61	10.080
476.96	9.509
477.31	10.643
477.66	9.930
478.01	9.180
478.36	9.372
478.70	9.231
479.05	9.833
479.40	9.524
479.75	9.782
480.10	9.439
480.45	9.944
480.79	9.171
481.14	8.607
481.49	9.469
481.84	9.147
482.19	9.301
482.53	9.003
482.88	9.946
483.23	9.202
483.58	9.515
483.92	10.101
484.27	9.289
484.62	9.465
484.97	9.233
485.31	8.406
485.66	8.303
486.01	7.850
486.36	7.659
486.70	7.431
487.05	7.716
487.40	7.764
487.75	8.169
488.09	8.494
488.44	8.572
488.79	8.816
489.13	9.145
489.48	9.109
489.83	8.382
490.17	8.960
490.52	9.087
490.87	9.784
491.22	9.530
491.56	9.838
491.91	9.095
492.26	8.820
492.60	9.339
492.95	10.014
493.30	9.236
493.64	9.299
493.99	9.884
494.34	9.144
494.68	9.606
495.03	9.744
495.37	9.725
495.72	10.117
496.07	9.434
496.41	9.383
496.76	9.287
497.11	9.940
497.45	9.820
497.80	9.639
498.14	9.801
498.49	10.121
498.84	10.140
499.18	9.324
499.53	9.600
499.87	9.389
500.22	9.304
500.56	9.378
500.91	10.622
501.26	10.289
501.60	9.290
501.95	9.185
502.29	9.467
502.64	8.866
502.98	9.649
503.33	9.800
503.67	9.581
504.02	9.404
504.36	10.000
504.71	9.792
505.06	9.808
505.40	9.640
505.75	9.542
506.09	9.986
506.44	9.774
506.78	9.641
507.13	9.501
507.47	9.413
507.82	10.219
508.16	10.534
508.51	9.324
508.85	10.209
509.19	9.643
509.54	10.156
509.88	9.945
510.23	10.294
510.57	9.459
510.92	9.690
511.26	10.291
511.61	10.143
511.95	9.856
512.30	10.700
512.64	10.073
512.98	10.661
513.33	10.451
513.67	10.979
514.02	10.234
514.36	9.657
514.70	10.187
515.05	10.602
515.39	10.252
515.74	11.099
516.08	10.022
516.42	10.984
516.77	10.560
517.11	10.400
517.46	10.830
517.80	11.196
518.14	10.197
518.49	10.805
518.83	10.165
519.17	10.483
519.52	11.087
519.86	10.354
520.20	11.178
520.55	10.741
520.89	10.920
521.23	11.040
521.58	9.753
521.92	10.496
522.26	10.190
522.61	10.339
522.95	11.051
523.29	11.813
523.64	9.595
523.98	10.505
524.32	11.073
524.66	10.493
525.01	10.296
525.35	10.607
525.69	10.897
526.04	11.243
526.38	10.594
526.72	9.666
527.06	10.053
527.41	11.064
527.75	11.442
528.09	10.355
528.43	11.897
528.78	10.495
529.12	10.476
529.46	10.345
529.80	10.222
530.15	10.843
530.49	10.469
530.83	10.177
531.17	11.562
531.51	10.607
531.86	10.386
532.20	10.754
532.54	10.860
532.88	11.056
533.22	11.274
533.57	10.433
533.91	10.431
534.25	10.964
534.59	11.053
534.93	10.523
535.27	9.676
535.62	10.793
535.96	10.047
536.30	11.152
536.64	10.062
536.98	10.258
537.32	11.000
537.66	10.332
538.01	11.022
538.35	11.167
538.69	10.133
539.03	10.012
539.37	10.862
539.71	10.617
540.05	10.400
540.39	10.692
540.73	10.063
541.07	9.222
541.42	10.759
541.76	11.159
542.10	10.173
542.44	10.411
542.78	10.636
543.12	9.693
543.46	11.028
543.80	10.652
544.14	10.217
544.48	10.645
544.82	10.765
545.16	10.018
545.50	11.063
545.84	11.237
546.18	11.443
546.52	11.738
546.86	11.283
547.20	10.271
547.54	10.830
547.88	11.192
548.22	10.868
548.56	10.430
548.90	10.380
549.24	10.676
549.58	10.309
549.92	10.544
550.26	11.494
550.60	10.246
550.94	10.923
551.28	11.793
551.62	12.483
551.96	11.216
552.30	9.624
552.64	11.715
552.98	9.794
553.32	10.115
553.66	9.772
554.00	10.232
554.34	10.786
554.68	11.022
555.02	10.523
555.36	10.705
555.69	10.798
556.03	10.318
556.37	9.943
556.71	10.430
557.05	10.157
557.39	10.733
557.73	10.916
558.07	11.670
558.41	10.761
558.75	11.765
559.08	11.723
559.42	11.024
559.76	10.478
560.10	10.668
560.44	10.617
560.78	11.509
561.12	10.108
561.45	10.826
561.79	10.362
562.13	9.665
562.47	10.707
562.81	10.800
563.15	10.601
563.48	10.062
563.82	11.104
564.16	10.759
564.50	10.368
564.84	10.881
565.17	9.982
565.51	10.160
565.85	10.672
566.19	10.595
566.52	9.988
566.86	10.391
567.20	10.281
567.54	9.552
567.88	10.224
568.21	9.486
568.55	9.728
568.89	9.443
569.23	9.405
569.56	8.946
569.90	8.947
570.24	8.961
570.57	8.598
570.91	8.144
571.25	8.215
571.59	7.812
571.92	7.992
572.26	7.574
572.60	7.803
572.93	8.309
573.27	8.300
573.61	7.769
573.95	7.819
574.28	7.804
574.62	7.825
574.96	7.595
575.29	7.562
575.63	7.397
575.97	7.498
576.30	7.441
576.64	7.711
576.98	7.616
577.31	7.525
577.65	7.934
577.98	7.216
578.32	7.378
578.66	7.523
578.99	7.552
579.33	7.691
579.67	7.408
580.00	7.498
580.34	7.734
580.67	7.450
581.01	7.790
581.35	7.255
581.68	7.089
582.02	7.002
582.35	7.244
582.69	7.157
583.02	7.291
583.36	7.572
583.70	7.563
584.03	7.830
584.37	7.824
584.70	7.838
585.04	7.733
585.37	7.349
585.71	7.506
586.04	7.371
586.38	7.613
586.72	7.748
587.05	7.823
587.39	7.509
587.72	7.685
588.06	7.872
588.39	7.625
588.73	8.036
589.06	7.791
589.40	7.981
589.73	8.194
590.07	8.614
590.40	8.885
590.73	9.034
591.07	9.146
591.40	8.383
591.74	8.807
592.07	8.569
592.41	9.153
592.74	7.946
593.08	8.105
593.41	7.540
593.75	7.877
594.08	7.946
594.41	7.885
594.75	7.979
595.08	8.196
595.42	8.097
595.75	8.292
596.09	8.551
596.42	8.339
596.75	8.934
597.09	8.832
597.42	8.245
597.75	8.276
598.09	8.371
598.42	8.813
598.76	8.443
599.09	8.459
599.42	7.889
599.76	8.853
600.09	8.237
600.42	8.218
600.76	8.192
601.09	8.043
601.42	8.307
601.76	8.092
602.09	8.462
602.42	8.429
602.76	8.577
603.09	8.974
603.42	8.807
603.76	8.351
604.09	7.564
604.42	8.173
604.76	8.376
605.09	8.122
605.42	9.021
605.75	8.922
606.09	8.684
606.42	7.929
606.75	8.628
607.09	8.448
607.42	8.477
607.75	8.081
608.08	8.530
608.42	8.431
608.75	8.002
609.08	8.755
609.41	8.955
609.75	9.341
610.08	8.408
610.41	8.564
610.74	8.528
611.07	9.095
611.41	9.175
611.74	8.126
612.07	9.152
612.40	8.918
612.73	8.937
613.07	9.326
613.40	9.123
613.73	9.735
614.06	8.250
614.39	9.848
614.72	8.840
615.06	8.457
615.39	9.604
615.72	7.890
616.05	9.091
616.38	9.640
616.71	8.519
617.05	9.336
617.38	9.326
617.71	9.280
618.04	9.198
618.37	8.894
618.70	9.122
619.03	9.402
619.36	9.799
619.69	9.894
620.03	10.959
620.36	9.249
620.69	10.473
621.02	11.005
621.35	10.458
621.68	10.177
622.01	10.480
622.34	9.760
622.67	10.534
623.00	10.075
623.33	11.201
623.66	10.845
623.99	10.548
624.32	10.298
624.65	9.743
624.99	9.872
625.32	10.087
625.65	9.034
625.98	9.693
626.31	10.905
626.64	10.099
626.97	9.411
627.30	10.870
627.63	10.518
627.96	9.624
628.29	10.396
628.62	9.752
628.95	11.348
629.28	11.656
629.61	10.633
629.94	10.545
630.26	10.832
630.59	11.613
630.92	11.121
631.25	11.333
631.58	11.283
631.91	11.989
632.24	10.884
632.57	10.707
632.90	12.733
633.23	12.277
633.56	11.591
633.89	12.219
634.22	11.841
634.55	12.366
634.88	12.924
635.20	12.668
635.53	13.821
635.86	13.870
636.19	13.019
636.52	12.973
636.85	11.974
637.18	10.726
637.51	12.179
637.83	12.014
638.16	12.309
638.49	12.575
638.82	12.676
639.15	11.868
639.48	14.336
639.81	12.698
640.13	12.638
640.46	13.527
640.79	12.354
641.12	11.417
641.45	13.454
641.77	13.342
642.10	12.048
642.43	14.225
642.76	13.636
643.09	14.986
643.41	13.324
643.74	13.813
644.07	13.717
644.40	13.462
644.73	15.315
