SpectraSuite Data File
++++++++++++++++++++++++++++++++++++
Date: Tue May 12 17:15:46 PDT 2015
User: schluterlab
Dark Spectrum Present: Yes
Reference Spectrum Present: Yes
Number of Sampled Component Spectra: 1
Spectrometers: USB2E3373
Integration Time (usec): 3000 (USB2E3373)
Spectra Averaged: 3 (USB2E3373)
Boxcar Smoothing: 0 (USB2E3373)
Correct for Electrical Dark: No (USB2E3373)
Strobe/Lamp Enabled: No (USB2E3373)
Correct for Detector Non-linearity: No (USB2E3373)
Correct for Stray Light: No (USB2E3373)
Number of Pixels in Processed Spectrum: 2048
>>>>>Begin Processed Spectral Data<<<<<
178.53	0.000
178.91	-316.667
179.29	-650.000
179.67	-3900.000
180.04	-66.667
180.42	600.000
180.80	1950.000
181.18	0.000
181.56	-337.500
181.94	0.000
182.31	900.000
182.69	-3100.000
183.07	542.857
183.45	-2900.000
183.83	-1550.000
184.20	330.000
184.58	471.429
184.96	-192.308
185.34	-183.333
185.72	1650.000
186.09	-825.000
186.47	-2400.000
186.85	1066.667
187.23	580.000
187.61	1750.000
187.98	525.000
188.36	242.857
188.74	300.000
189.12	316.667
189.49	875.000
189.87	0.000
190.25	475.000
190.63	2700.000
191.00	-200.000
191.38	-2500.000
191.76	-625.000
192.14	637.500
192.51	-3100.000
192.89	1800.000
193.27	1266.667
193.65	-1333.333
194.02	-740.000
194.40	414.286
194.78	-114.286
195.15	220.000
195.53	-3200.000
195.91	-620.000
196.29	4000.000
196.66	293.750
197.04	675.000
197.42	-1550.000
197.79	700.000
198.17	316.667
198.55	0.000
198.92	371.429
199.30	1100.000
199.68	2050.000
200.05	550.000
200.43	-266.667
200.81	194.444
201.18	3200.000
201.56	275.000
201.94	-875.000
202.31	-250.000
202.69	-580.000
203.07	2700.000
203.44	-466.667
203.82	283.333
204.19	520.000
204.57	-1600.000
204.95	-1025.000
205.32	-640.000
205.70	366.667
206.08	750.000
206.45	-833.333
206.83	400.000
207.20	194.737
207.58	275.000
207.96	540.000
208.33	0.000
208.71	500.000
209.08	700.000
209.46	-2800.000
209.84	-725.000
210.21	740.000
210.59	-580.000
210.96	316.667
211.34	-950.000
211.71	290.909
212.09	650.000
212.46	2050.000
212.84	-650.000
213.22	355.556
213.59	-2700.000
213.97	400.000
214.34	1050.000
214.72	1200.000
215.09	1000.000
215.47	-1700.000
215.84	-310.000
216.22	-487.500
216.59	0.000
216.97	0.000
217.34	1400.000
217.72	-1650.000
218.09	866.667
218.47	312.500
218.84	850.000
219.22	1300.000
219.59	833.333
219.97	642.857
220.34	488.889
220.72	2100.000
221.09	3400.000
221.47	250.000
221.84	1000.000
222.22	330.000
222.59	238.889
222.97	242.857
223.34	243.750
223.72	-1600.000
224.09	1333.333
224.46	330.769
224.84	-650.000
225.21	355.556
225.59	280.000
225.96	1133.333
226.34	-620.000
226.71	-750.000
227.08	-520.000
227.46	0.000
227.83	-533.333
228.21	-1650.000
228.58	366.667
228.95	925.000
229.33	311.111
229.70	950.000
230.08	330.769
230.45	3100.000
230.82	-900.000
231.20	-1000.000
231.57	-833.333
231.95	720.000
232.32	308.333
232.69	566.667
233.07	350.000
233.44	-1950.000
233.81	280.000
234.19	177.778
234.56	212.500
234.93	188.235
235.31	200.000
235.68	300.000
236.05	142.857
236.43	129.630
236.80	242.857
237.17	127.586
237.55	121.875
237.92	132.500
238.29	115.152
238.67	134.375
239.04	85.366
239.41	81.250
239.79	90.000
240.16	79.167
240.53	60.656
240.91	66.667
241.28	76.271
241.65	71.212
242.02	59.155
242.40	71.429
242.77	59.341
243.14	50.633
243.51	66.667
243.89	57.944
244.26	47.664
244.63	57.426
245.00	50.459
245.38	43.220
245.75	46.212
246.12	47.407
246.49	47.518
246.87	41.803
247.24	42.000
247.61	45.000
247.98	49.660
248.36	40.606
248.73	41.327
249.10	35.119
249.47	33.500
249.84	35.821
250.22	37.297
250.59	37.500
250.96	35.443
251.33	35.349
251.70	39.732
252.08	33.193
252.45	31.076
252.82	29.278
253.19	32.411
253.56	30.385
253.94	31.159
254.31	33.721
254.68	32.753
255.05	34.138
255.42	33.212
255.79	33.225
256.16	32.542
256.54	31.169
256.91	29.085
257.28	29.431
257.65	27.900
258.02	30.383
258.39	29.513
258.76	31.304
259.14	27.714
259.51	29.446
259.88	29.179
260.25	28.571
260.62	27.671
260.99	26.997
261.36	28.969
261.73	30.319
262.10	28.272
262.47	31.000
262.85	26.933
263.22	28.278
263.59	26.854
263.96	29.825
264.33	26.914
264.70	31.204
265.07	28.049
265.44	25.688
265.81	28.302
266.18	27.918
266.55	26.005
266.92	27.293
267.29	29.386
267.66	26.009
268.03	26.457
268.40	26.850
268.77	29.295
269.14	25.380
269.51	25.612
269.88	28.980
270.25	24.406
270.62	25.966
270.99	29.209
271.36	28.252
271.73	26.415
272.10	26.465
272.47	24.405
272.84	22.355
273.21	25.413
273.58	26.113
273.95	24.641
274.32	25.486
274.69	26.969
275.06	24.954
275.43	26.437
275.80	24.340
276.17	23.713
276.54	27.664
276.91	26.493
277.28	24.818
277.65	25.461
278.02	26.654
278.39	25.719
278.76	25.690
279.13	24.021
279.50	24.727
279.87	22.533
280.23	26.335
280.60	25.547
280.97	26.724
281.34	25.083
281.71	25.739
282.08	27.179
282.45	26.014
282.82	26.589
283.19	25.596
283.56	25.289
283.92	24.593
284.29	26.789
284.66	22.521
285.03	26.368
285.40	23.636
285.77	24.846
286.14	24.149
286.51	23.773
286.87	22.627
287.24	22.072
287.61	25.684
287.98	25.373
288.35	22.519
288.72	23.824
289.08	22.823
289.45	23.780
289.82	24.688
290.19	24.012
290.56	25.619
290.93	23.022
291.29	23.757
291.66	22.458
292.03	22.581
292.40	24.797
292.77	23.120
293.13	22.967
293.50	24.426
293.87	23.442
294.24	24.476
294.60	23.149
294.97	25.315
295.34	25.232
295.71	24.704
296.08	23.200
296.44	24.396
296.81	23.077
297.18	22.940
297.55	25.616
297.91	22.783
298.28	24.517
298.65	25.521
299.02	24.608
299.38	24.820
299.75	25.732
300.12	25.000
300.48	26.347
300.85	26.460
301.22	25.116
301.59	26.651
301.95	23.921
302.32	25.378
302.69	26.810
303.05	26.375
303.42	25.673
303.79	27.411
304.15	24.642
304.52	28.013
304.89	27.825
305.25	28.254
305.62	26.546
305.99	27.065
306.35	27.789
306.72	26.951
307.09	27.226
307.45	27.561
307.82	27.778
308.19	28.144
308.55	27.300
308.92	27.674
309.29	28.008
309.65	28.741
310.02	27.992
310.38	27.119
310.75	28.447
311.12	28.831
311.48	28.475
311.85	28.817
312.22	28.940
312.58	29.738
312.95	29.612
313.31	30.243
313.68	29.081
314.05	30.952
314.41	29.795
314.78	30.492
315.14	32.512
315.51	30.180
315.87	30.383
316.24	31.092
316.61	31.603
316.97	31.743
317.34	32.165
317.70	32.572
318.07	33.363
318.43	32.601
318.80	32.750
319.16	33.741
319.53	32.655
319.89	33.244
320.26	34.358
320.62	33.974
320.99	34.128
321.35	34.508
321.72	38.140
322.08	35.734
322.45	36.603
322.81	35.590
323.18	38.277
323.54	38.328
323.91	40.073
324.27	39.080
324.64	39.100
325.00	40.000
325.37	40.978
325.73	40.556
326.10	41.922
326.46	41.371
326.83	42.160
327.19	43.052
327.56	42.572
327.92	43.033
328.29	44.926
328.65	44.863
329.01	45.680
329.38	45.516
329.74	43.894
330.11	44.570
330.47	45.695
330.84	44.521
331.20	45.770
331.56	46.287
331.93	47.733
332.29	44.303
332.66	46.514
333.02	45.876
333.38	48.080
333.75	46.122
334.11	45.721
334.48	46.752
334.84	46.030
335.20	45.937
335.57	45.844
335.93	45.500
336.29	46.020
336.66	47.427
337.02	46.279
337.38	46.088
337.75	45.524
338.11	45.992
338.47	46.063
338.84	44.877
339.20	45.887
339.56	45.500
339.93	45.736
340.29	45.126
340.65	46.354
341.02	45.455
341.38	45.320
341.74	46.013
342.11	46.327
342.47	45.283
342.83	47.088
343.20	46.079
343.56	45.115
343.92	45.169
344.28	45.774
344.65	45.314
345.01	45.238
345.37	44.792
345.73	44.921
346.10	44.462
346.46	45.774
346.82	43.981
347.19	45.904
347.55	44.965
347.91	44.562
348.27	43.377
348.63	45.332
349.00	44.554
349.36	44.514
349.72	45.413
350.08	45.419
350.45	44.554
350.81	45.719
351.17	45.300
351.53	44.496
351.89	44.522
352.26	44.218
352.62	45.173
352.98	45.706
353.34	45.686
353.70	43.349
354.07	44.308
354.43	45.161
354.79	44.343
355.15	44.717
355.51	45.166
355.87	45.482
356.24	45.266
356.60	45.510
356.96	45.944
357.32	44.913
357.68	44.567
358.04	45.061
358.40	45.052
358.77	45.755
359.13	45.420
359.49	44.329
359.85	44.155
360.21	44.948
360.57	44.745
360.93	44.949
361.29	46.392
361.66	45.638
362.02	43.963
362.38	44.444
362.74	43.878
363.10	44.460
363.46	44.682
363.82	44.741
364.18	45.021
364.54	45.994
364.90	44.378
365.26	44.761
365.62	45.511
365.98	44.666
366.35	44.276
366.71	44.622
367.07	44.710
367.43	45.131
367.79	44.481
368.15	44.573
368.51	44.935
368.87	43.954
369.23	44.075
369.59	43.898
369.95	43.427
370.31	44.490
370.67	43.928
371.03	44.328
371.39	44.114
371.75	45.220
372.11	43.848
372.47	44.315
372.83	44.731
373.19	45.853
373.55	43.986
373.91	43.715
374.27	44.180
374.63	44.339
374.99	44.272
375.35	44.355
375.71	45.317
376.07	43.966
376.42	43.095
376.78	44.509
377.14	44.823
377.50	43.508
377.86	43.882
378.22	43.998
378.58	44.068
378.94	43.814
379.30	43.542
379.66	44.852
380.02	44.927
380.38	43.033
380.74	44.291
381.09	43.867
381.45	43.006
381.81	43.853
382.17	44.078
382.53	42.711
382.89	43.938
383.25	43.813
383.61	42.767
383.97	43.611
384.32	43.701
384.68	45.039
385.04	43.376
385.40	43.476
385.76	43.125
386.12	43.723
386.48	43.283
386.83	44.132
387.19	42.874
387.55	42.521
387.91	43.476
388.27	43.783
388.62	42.195
388.98	42.041
389.34	42.058
389.70	42.040
390.06	42.561
390.42	42.505
390.77	42.936
391.13	43.150
391.49	40.956
391.85	42.769
392.20	42.431
392.56	41.458
392.92	41.606
393.28	42.713
393.64	41.456
393.99	41.909
394.35	41.495
394.71	41.134
395.07	41.910
395.42	42.389
395.78	42.073
396.14	41.988
396.50	41.456
396.85	41.768
397.21	40.433
397.57	40.765
397.92	39.746
398.28	40.596
398.64	41.885
399.00	40.139
399.35	40.150
399.71	40.839
400.07	40.868
400.42	41.433
400.78	40.645
401.14	41.221
401.49	40.553
401.85	40.846
402.21	39.367
402.57	40.215
402.92	40.545
403.28	39.320
403.63	39.141
403.99	39.324
404.35	40.797
404.70	41.051
405.06	39.079
405.42	39.078
405.77	39.305
406.13	40.022
406.49	39.682
406.84	38.691
407.20	39.384
407.55	39.385
407.91	39.630
408.27	38.508
408.62	40.745
408.98	39.208
409.34	39.100
409.69	38.643
410.05	39.058
410.40	38.457
410.76	38.809
411.11	38.744
411.47	37.901
411.83	38.606
412.18	39.372
412.54	39.940
412.89	37.817
413.25	38.255
413.60	38.435
413.96	38.540
414.31	39.079
414.67	39.603
415.03	38.889
415.38	38.801
415.74	39.040
416.09	40.162
416.45	39.690
416.80	40.603
417.16	38.829
417.51	39.299
417.87	39.299
418.22	38.275
418.58	40.000
418.93	39.381
419.29	38.386
419.64	39.370
420.00	39.618
420.35	39.315
420.71	39.382
421.06	38.081
421.42	39.551
421.77	39.311
422.12	38.920
422.48	38.932
422.83	38.895
423.19	39.471
423.54	39.221
423.90	40.091
424.25	40.176
424.61	39.814
424.96	39.469
425.31	39.026
425.67	40.965
426.02	40.213
426.38	39.907
426.73	40.370
427.09	40.807
427.44	39.674
427.79	40.938
428.15	40.778
428.50	41.086
428.85	40.329
429.21	40.573
429.56	40.130
429.92	41.671
430.27	40.493
430.62	38.962
430.98	40.719
431.33	40.121
431.68	39.852
432.04	40.921
432.39	40.670
432.74	41.979
433.10	41.860
433.45	42.447
433.80	43.298
434.16	41.408
434.51	41.434
434.86	42.188
435.22	42.626
435.57	41.494
435.92	42.345
436.28	42.742
436.63	41.977
436.98	42.793
437.34	41.952
437.69	42.385
438.04	41.667
438.39	42.732
438.75	42.094
439.10	42.688
439.45	42.001
439.81	43.378
440.16	42.763
440.51	42.173
440.86	43.419
441.22	42.262
441.57	43.045
441.92	42.646
442.27	42.216
442.63	42.530
442.98	42.403
443.33	43.332
443.68	42.103
444.03	41.989
444.39	43.032
444.74	41.874
445.09	42.654
445.44	42.880
445.79	41.813
446.15	43.000
446.50	42.511
446.85	42.181
447.20	43.035
447.55	43.176
447.91	43.420
448.26	42.971
448.61	43.118
448.96	44.336
449.31	43.509
449.66	43.355
450.02	43.652
450.37	43.365
450.72	43.857
451.07	42.990
451.42	43.687
451.77	43.184
452.12	43.335
452.47	43.985
452.83	44.169
453.18	44.264
453.53	45.826
453.88	45.143
454.23	44.218
454.58	43.007
454.93	43.777
455.28	43.880
455.63	44.385
455.98	44.219
456.34	45.106
456.69	44.817
457.04	43.735
457.39	44.629
457.74	44.538
458.09	43.459
458.44	43.538
458.79	44.297
459.14	43.972
459.49	44.168
459.84	44.620
460.19	43.446
460.54	43.362
460.89	44.616
461.24	44.044
461.59	43.878
461.94	44.563
462.29	45.195
462.64	45.666
462.99	44.594
463.34	44.588
463.69	45.614
464.04	44.732
464.39	44.018
464.74	43.611
465.09	43.413
465.44	43.961
465.79	44.094
466.14	42.395
466.49	44.004
466.84	42.642
467.19	44.405
467.54	43.303
467.89	44.131
468.24	45.049
468.59	44.524
468.94	45.048
469.29	45.816
469.64	44.823
469.99	44.730
470.34	44.719
470.68	45.862
471.03	45.697
471.38	44.702
471.73	44.807
472.08	46.575
472.43	45.251
472.78	45.391
473.13	43.867
473.48	45.416
473.83	44.641
474.17	44.681
474.52	45.142
474.87	44.628
475.22	45.802
475.57	43.704
475.92	43.485
476.27	43.961
476.61	43.700
476.96	42.999
477.31	44.165
477.66	45.035
478.01	43.734
478.36	44.284
478.70	43.176
479.05	44.665
479.40	43.899
479.75	44.439
480.10	44.579
480.45	43.137
480.79	44.562
481.14	44.365
481.49	43.779
481.84	43.404
482.19	44.367
482.53	43.390
482.88	44.086
483.23	44.294
483.58	44.434
483.92	45.201
484.27	42.680
484.62	43.633
484.97	42.150
485.31	42.030
485.66	40.432
486.01	39.732
486.36	39.537
486.70	39.487
487.05	39.919
487.40	40.480
487.75	40.534
488.09	41.222
488.44	41.619
488.79	41.687
489.13	43.188
489.48	43.348
489.83	42.744
490.17	43.848
490.52	44.229
490.87	43.362
491.22	44.282
491.56	44.357
491.91	43.683
492.26	43.742
492.60	44.920
492.95	44.404
493.30	44.677
493.64	43.845
493.99	43.739
494.34	43.389
494.68	45.020
495.03	43.916
495.37	44.034
495.72	44.429
496.07	44.385
496.41	43.006
496.76	43.647
497.11	44.430
497.45	44.410
497.80	44.254
498.14	44.429
498.49	43.686
498.84	45.561
499.18	44.150
499.53	44.281
499.87	44.429
500.22	44.404
500.56	43.965
500.91	44.712
501.26	44.235
501.60	43.488
501.95	43.504
502.29	43.422
502.64	43.494
502.98	42.952
503.33	43.786
503.67	43.355
504.02	44.648
504.36	43.710
504.71	44.797
505.06	44.158
505.40	45.297
505.75	42.844
506.09	44.004
506.44	43.797
506.78	44.423
507.13	46.146
507.47	45.124
507.82	44.915
508.16	45.811
508.51	44.879
508.85	43.780
509.19	44.298
509.54	45.361
509.88	45.848
510.23	44.314
510.57	43.098
510.92	45.105
511.26	45.080
511.61	44.067
511.95	43.902
512.30	44.950
512.64	44.029
512.98	45.105
513.33	44.826
513.67	44.381
514.02	45.506
514.36	44.081
514.70	44.587
515.05	44.433
515.39	45.888
515.74	45.599
516.08	45.915
516.42	46.448
516.77	45.440
517.11	45.280
517.46	45.366
517.80	45.385
518.14	46.197
518.49	46.472
518.83	44.505
519.17	45.979
519.52	45.713
519.86	45.395
520.20	45.918
520.55	44.941
520.89	46.437
521.23	47.021
521.58	45.898
521.92	46.064
522.26	45.675
522.61	47.653
522.95	47.988
523.29	45.906
523.64	45.491
523.98	46.303
524.32	45.502
524.66	46.087
525.01	46.331
525.35	45.846
525.69	46.839
526.04	46.460
526.38	45.792
526.72	44.928
527.06	45.772
527.41	45.889
527.75	46.744
528.09	45.274
528.43	46.004
528.78	46.094
529.12	46.779
529.46	45.704
529.80	46.262
530.15	45.963
530.49	45.006
530.83	45.887
531.17	45.080
531.51	46.168
531.86	44.022
532.20	45.056
532.54	45.386
532.88	47.033
533.22	46.496
533.57	45.638
533.91	43.998
534.25	43.855
534.59	45.263
534.93	43.231
535.27	44.109
535.62	44.399
535.96	43.676
536.30	45.765
536.64	45.280
536.98	45.249
537.32	44.750
537.66	44.324
538.01	43.467
538.35	44.978
538.69	44.053
539.03	43.470
539.37	43.083
539.71	44.074
540.05	44.308
540.39	45.220
540.73	44.367
541.07	42.974
541.42	44.092
541.76	43.588
542.10	44.760
542.44	44.077
542.78	44.682
543.12	43.804
543.46	43.484
543.80	44.361
544.14	44.582
544.48	42.701
544.82	43.486
545.16	43.048
545.50	44.253
545.84	44.508
546.18	45.124
546.52	44.393
546.86	45.068
547.20	43.152
547.54	43.699
547.88	43.552
548.22	43.777
548.56	41.897
548.90	42.289
549.24	43.967
549.58	43.750
549.92	45.645
550.26	45.030
550.60	42.515
550.94	44.912
551.28	44.828
551.62	45.862
551.96	44.865
552.30	42.782
552.64	44.531
552.98	43.106
553.32	42.446
553.66	42.801
554.00	43.694
554.34	45.539
554.68	43.280
555.02	44.942
555.36	43.816
555.69	44.437
556.03	42.675
556.37	43.658
556.71	44.915
557.05	42.202
557.39	44.000
557.73	43.396
558.07	43.192
558.41	44.277
558.75	43.502
559.08	43.531
559.42	45.168
559.76	44.405
560.10	43.634
560.44	42.800
560.78	43.798
561.12	43.293
561.45	42.115
561.79	41.885
562.13	42.135
562.47	43.154
562.81	42.746
563.15	43.180
563.48	41.304
563.82	43.668
564.16	42.289
564.50	42.134
564.84	42.188
565.17	42.246
565.51	43.658
565.85	43.800
566.19	42.381
566.52	42.659
566.86	42.732
567.20	41.404
567.54	41.376
567.88	42.514
568.21	39.990
568.55	39.689
568.89	39.644
569.23	38.093
569.56	38.818
569.90	37.046
570.24	36.934
570.57	36.470
570.91	36.131
571.25	36.121
571.59	35.166
571.92	34.742
572.26	34.690
572.60	35.462
572.93	35.911
573.27	35.325
573.61	35.111
573.95	34.885
574.28	34.586
574.62	34.537
574.96	34.200
575.29	33.824
575.63	34.016
575.97	33.471
576.30	34.017
576.64	34.055
576.98	33.782
577.31	34.334
577.65	34.090
577.98	33.481
578.32	33.039
578.66	33.029
578.99	33.753
579.33	33.604
579.67	33.326
580.00	32.997
580.34	33.505
580.67	33.714
581.01	34.452
581.35	33.174
581.68	32.550
582.02	32.394
582.35	32.709
582.69	32.318
583.02	33.136
583.36	33.031
583.70	34.194
584.03	34.502
584.37	34.175
584.70	34.013
585.04	34.404
585.37	33.183
585.71	33.528
586.04	33.258
586.38	33.397
586.72	33.900
587.05	33.994
587.39	33.906
587.72	34.447
588.06	33.797
588.39	34.110
588.73	33.942
589.06	34.724
589.40	34.429
589.73	34.808
590.07	35.999
590.40	36.585
590.73	36.798
591.07	36.243
591.40	35.928
591.74	36.242
592.07	35.899
592.41	35.612
592.74	35.408
593.08	33.919
593.41	34.171
593.75	33.968
594.08	34.647
594.41	35.223
594.75	35.034
595.08	34.808
595.42	34.661
595.75	34.485
596.09	35.106
596.42	34.924
596.75	35.857
597.09	36.649
597.42	36.612
597.75	34.848
598.09	35.125
598.42	35.904
598.76	35.544
599.09	35.197
599.42	34.187
599.76	35.007
600.09	34.373
600.42	35.186
600.76	34.194
601.09	34.726
601.42	34.776
601.76	35.195
602.09	35.467
602.42	34.603
602.76	34.991
603.09	35.219
603.42	35.193
603.76	34.816
604.09	34.600
604.42	34.501
604.76	35.282
605.09	35.592
605.42	35.351
605.75	34.820
606.09	35.233
606.42	34.536
606.75	34.745
607.09	34.899
607.42	34.512
607.75	34.793
608.08	34.484
608.42	35.319
608.75	34.531
609.08	34.976
609.41	35.227
609.75	36.355
610.08	35.387
610.41	35.266
610.74	35.368
611.07	35.971
611.41	36.747
611.74	35.946
612.07	35.983
612.40	36.111
612.73	36.296
613.07	36.594
613.40	36.892
613.73	36.695
614.06	35.200
614.39	36.919
614.72	36.364
615.06	34.916
615.39	36.188
615.72	35.286
616.05	36.012
616.38	35.972
616.71	36.951
617.05	35.530
617.38	36.910
617.71	37.345
618.04	37.016
618.37	36.965
618.70	35.739
619.03	37.302
619.36	37.940
619.69	38.588
620.03	39.661
620.36	38.857
620.69	39.336
621.02	39.334
621.35	38.754
621.68	40.192
622.01	39.410
622.34	39.621
622.67	39.115
623.00	37.577
623.33	37.989
623.66	38.124
623.99	38.425
624.32	38.076
624.65	37.591
624.99	37.863
625.32	37.675
625.65	39.103
625.98	38.494
626.31	39.169
626.64	38.573
626.97	38.944
627.30	39.752
627.63	40.031
627.96	39.984
628.29	41.172
628.62	40.462
628.95	40.514
629.28	41.017
629.61	39.631
629.94	41.400
630.26	41.421
630.59	41.489
630.92	40.807
631.25	40.888
