SpectraSuite Data File
++++++++++++++++++++++++++++++++++++
Date: Tue May 12 17:20:08 PDT 2015
User: schluterlab
Dark Spectrum Present: Yes
Reference Spectrum Present: Yes
Number of Sampled Component Spectra: 1
Spectrometers: USB2E3373
Integration Time (usec): 3000 (USB2E3373)
Spectra Averaged: 3 (USB2E3373)
Boxcar Smoothing: 0 (USB2E3373)
Correct for Electrical Dark: No (USB2E3373)
Strobe/Lamp Enabled: No (USB2E3373)
Correct for Detector Non-linearity: No (USB2E3373)
Correct for Stray Light: No (USB2E3373)
Number of Pixels in Processed Spectrum: 2048
>>>>>Begin Processed Spectral Data<<<<<
178.53	0.000
178.91	-266.667
179.29	-625.000
179.67	-3900.000
180.04	-146.667
180.42	675.000
180.80	1400.000
181.18	0.000
181.56	-300.000
181.94	0.000
182.31	700.000
182.69	-2700.000
183.07	500.000
183.45	-3900.000
183.83	-1600.000
184.20	330.000
184.58	357.143
184.96	-238.462
185.34	-216.667
185.72	1750.000
186.09	-850.000
186.47	-3500.000
186.85	1033.333
187.23	700.000
187.61	1600.000
187.98	462.500
188.36	257.143
188.74	383.333
189.12	383.333
189.49	1050.000
189.87	0.000
190.25	575.000
190.63	3400.000
191.00	-250.000
191.38	-3900.000
191.76	-850.000
192.14	575.000
192.51	-3700.000
192.89	2100.000
193.27	1033.333
193.65	-1066.667
194.02	-560.000
194.40	528.571
194.78	-200.000
195.15	206.667
195.53	-1500.000
195.91	-560.000
196.29	4400.000
196.66	231.250
197.04	1000.000
197.42	-1400.000
197.79	675.000
198.17	308.333
198.55	0.000
198.92	557.143
199.30	833.333
199.68	1850.000
200.05	666.667
200.43	-450.000
200.81	244.444
201.18	4100.000
201.56	366.667
201.94	-800.000
202.31	-350.000
202.69	-500.000
203.07	3400.000
203.44	-383.333
203.82	216.667
204.19	780.000
204.57	-1600.000
204.95	-825.000
205.32	-760.000
205.70	533.333
206.08	725.000
206.45	-733.333
206.83	333.333
207.20	210.526
207.58	316.667
207.96	700.000
208.33	0.000
208.71	485.714
209.08	820.000
209.46	-4500.000
209.84	-925.000
210.21	920.000
210.59	-600.000
210.96	325.000
211.34	-900.000
211.71	436.364
212.09	750.000
212.46	1800.000
212.84	-450.000
213.22	333.333
213.59	-2700.000
213.97	390.000
214.34	1025.000
214.72	1033.333
215.09	1100.000
215.47	-3400.000
215.84	-340.000
216.22	-400.000
216.59	0.000
216.97	0.000
217.34	1400.000
217.72	-1000.000
218.09	1100.000
218.47	412.500
218.84	850.000
219.22	1000.000
219.59	866.667
219.97	642.857
220.34	511.111
220.72	1300.000
221.09	2600.000
221.47	258.333
221.84	1033.333
222.22	350.000
222.59	238.889
222.97	257.143
223.34	250.000
223.72	-1500.000
224.09	1133.333
224.46	230.769
224.84	-975.000
225.21	466.667
225.59	233.333
225.96	1200.000
226.34	-600.000
226.71	-775.000
227.08	-400.000
227.46	0.000
227.83	-650.000
228.21	-1600.000
228.58	325.000
228.95	950.000
229.33	400.000
229.70	1050.000
230.08	353.846
230.45	3400.000
230.82	-950.000
231.20	-700.000
231.57	-1166.667
231.95	600.000
232.32	300.000
232.69	500.000
233.07	241.667
233.44	-1150.000
233.81	233.333
234.19	137.037
234.56	193.750
234.93	211.765
235.31	195.000
235.68	231.250
236.05	175.000
236.43	118.519
236.80	185.714
237.17	155.172
237.55	106.250
237.92	105.000
238.29	93.939
238.67	90.625
239.04	63.415
239.41	58.333
239.79	57.500
240.16	58.333
240.53	39.344
240.91	57.971
241.28	57.627
241.65	48.485
242.02	61.972
242.40	48.571
242.77	45.055
243.14	22.785
243.51	43.434
243.89	40.187
244.26	26.168
244.63	28.713
245.00	28.440
245.38	22.881
245.75	34.091
246.12	31.111
246.49	26.241
246.87	18.852
247.24	22.667
247.61	21.250
247.98	19.728
248.36	15.152
248.73	27.551
249.10	20.833
249.47	17.500
249.84	17.910
250.22	19.459
250.59	18.500
250.96	12.658
251.33	16.279
251.70	15.179
252.08	18.067
252.45	19.124
252.82	12.167
253.19	13.439
253.56	11.923
253.94	11.232
254.31	13.953
254.68	11.847
255.05	17.931
255.42	10.219
255.79	14.332
256.16	13.220
256.54	12.338
256.91	12.092
257.28	12.040
257.65	7.210
258.02	9.735
258.39	13.181
258.76	12.754
259.14	9.143
259.51	9.621
259.88	9.726
260.25	9.890
260.62	10.411
260.99	8.264
261.36	11.421
261.73	9.574
262.10	8.377
262.47	8.750
262.85	8.533
263.22	11.054
263.59	8.696
263.96	11.028
264.33	7.654
264.70	8.600
265.07	8.537
265.44	8.257
265.81	8.019
266.18	8.467
266.55	6.383
266.92	8.054
267.29	6.579
267.66	6.502
268.03	7.175
268.40	6.765
268.77	9.471
269.14	6.941
269.51	7.127
269.88	10.408
270.25	4.536
270.62	7.511
270.99	8.114
271.36	8.740
271.73	7.128
272.10	6.061
272.47	5.952
272.84	5.589
273.21	8.264
273.58	8.300
273.95	3.491
274.32	8.171
274.69	6.890
275.06	8.743
275.43	8.429
275.80	6.226
276.17	6.985
276.54	5.794
276.91	8.769
277.28	6.569
277.65	4.982
278.02	7.169
278.39	7.014
278.76	8.448
279.13	8.007
279.50	7.636
279.87	6.518
280.23	6.814
280.60	8.212
280.97	6.379
281.34	6.766
281.71	7.478
282.08	6.667
282.45	5.912
282.82	6.020
283.19	6.995
283.56	6.446
283.92	3.909
284.29	5.990
284.66	4.370
285.03	6.799
285.40	4.298
285.77	4.167
286.14	5.263
286.51	5.521
286.87	4.747
287.24	2.252
287.61	6.535
287.98	5.821
288.35	4.000
288.72	4.249
289.08	5.255
289.45	4.421
289.82	7.500
290.19	5.271
290.56	7.278
290.93	7.338
291.29	6.354
291.66	5.226
292.03	6.171
292.40	4.607
292.77	4.457
293.13	5.421
293.50	3.644
293.87	4.336
294.24	6.154
294.60	4.307
294.97	4.476
295.34	5.445
295.71	5.388
296.08	5.467
296.44	4.956
296.81	3.226
297.18	4.436
297.55	3.941
297.91	3.079
298.28	4.469
298.65	4.663
299.02	4.825
299.38	4.796
299.75	4.390
300.12	5.849
300.48	5.738
300.85	4.410
301.22	4.302
301.59	3.066
301.95	3.151
302.32	5.704
302.69	4.525
303.05	5.163
303.42	3.027
303.79	4.875
304.15	4.180
304.52	3.594
304.89	4.478
305.25	5.117
305.62	4.158
305.99	3.370
306.35	4.211
306.72	4.162
307.09	3.002
307.45	4.752
307.82	3.704
308.19	4.330
308.55	3.700
308.92	5.103
309.29	5.621
309.65	3.964
310.02	4.361
310.38	4.287
310.75	3.761
311.12	4.981
311.48	4.344
311.85	4.676
312.22	4.394
312.58	4.276
312.95	3.398
313.31	4.682
313.68	3.659
314.05	5.861
314.41	3.445
314.78	3.693
315.14	4.171
315.51	4.257
315.87	3.741
316.24	4.669
316.61	4.297
316.97	4.220
317.34	4.942
317.70	4.039
318.07	4.893
318.43	4.745
318.80	4.291
319.16	4.895
319.53	4.071
319.89	4.391
320.26	5.866
320.62	5.037
320.99	4.671
321.35	3.803
321.72	4.744
322.08	4.801
322.45	4.087
322.81	5.032
323.18	4.973
323.54	5.575
323.91	4.624
324.27	4.156
324.64	3.806
325.00	3.793
325.37	4.637
325.73	4.047
326.10	6.048
326.46	4.459
326.83	4.160
327.19	5.382
327.56	4.233
327.92	5.246
328.29	5.728
328.65	5.223
329.01	4.277
329.38	5.076
329.74	4.868
330.11	5.300
330.47	5.200
330.84	4.142
331.20	5.076
331.56	5.354
331.93	5.218
332.29	3.656
332.66	5.102
333.02	4.210
333.38	4.538
333.75	6.172
334.11	5.537
334.48	3.846
334.84	5.321
335.20	5.560
335.57	3.359
335.93	5.214
336.29	4.809
336.66	5.060
337.02	4.277
337.38	4.385
337.75	5.574
338.11	5.232
338.47	4.572
338.84	5.673
339.20	4.416
339.56	5.551
339.93	5.268
340.29	3.529
340.65	4.946
341.02	6.034
341.38	4.844
341.74	4.485
342.11	4.341
342.47	3.363
342.83	4.758
343.20	5.335
343.56	3.733
343.92	3.633
344.28	5.183
344.65	4.156
345.01	4.603
345.37	3.606
345.73	4.524
346.10	4.940
346.46	5.024
346.82	4.012
347.19	4.946
347.55	3.903
347.91	3.852
348.27	2.943
348.63	4.668
349.00	3.808
349.36	4.436
349.72	4.740
350.08	4.503
350.45	4.494
350.81	5.275
351.17	3.313
351.53	3.849
351.89	4.196
352.26	4.384
352.62	4.374
352.98	4.755
353.34	5.008
353.70	3.823
354.07	5.000
354.43	4.608
354.79	4.252
355.15	4.135
355.51	3.474
355.87	4.367
356.24	3.849
356.60	4.186
356.96	3.715
357.32	3.919
357.68	4.699
358.04	4.331
358.40	4.648
358.77	4.358
359.13	3.904
359.49	4.522
359.85	3.872
360.21	3.566
360.57	3.869
360.93	4.113
361.29	4.113
361.66	4.847
362.02	3.480
362.38	4.040
362.74	4.388
363.10	4.558
363.46	4.006
363.82	4.979
364.18	4.410
364.54	3.362
364.90	4.819
365.26	4.580
365.62	4.351
365.98	3.854
366.35	3.448
366.71	4.094
367.07	4.505
367.43	4.634
367.79	4.388
368.15	3.867
368.51	3.790
368.87	3.193
369.23	3.396
369.59	4.046
369.95	3.986
370.31	3.696
370.67	4.025
371.03	4.622
371.39	3.878
371.75	3.978
372.11	4.555
372.47	3.973
372.83	4.147
373.19	4.249
373.55	3.918
373.91	2.831
374.27	3.439
374.63	4.475
374.99	3.774
375.35	3.562
375.71	4.354
376.07	3.647
376.42	3.645
376.78	4.560
377.14	3.997
377.50	3.683
377.86	3.587
378.22	3.473
378.58	4.661
378.94	3.681
379.30	3.639
379.66	3.974
380.02	4.692
380.38	3.864
380.74	4.556
381.09	4.556
381.45	4.220
381.81	3.073
382.17	3.419
382.53	4.079
382.89	4.199
383.25	4.085
383.61	3.631
383.97	3.179
384.32	3.978
384.68	5.169
385.04	4.338
385.40	3.915
385.76	4.154
386.12	4.267
386.48	3.830
386.83	3.484
387.19	3.475
387.55	4.299
387.91	4.273
388.27	4.581
388.62	4.695
388.98	3.907
389.34	2.974
389.70	3.656
390.06	4.207
390.42	4.133
390.77	3.808
391.13	4.225
391.49	4.356
391.85	4.369
392.20	4.291
392.56	5.078
392.92	3.593
393.28	3.475
393.64	3.670
393.99	3.972
394.35	4.002
394.71	3.257
395.07	4.136
395.42	4.391
395.78	4.257
396.14	5.241
396.50	4.212
396.85	4.329
397.21	3.791
397.57	4.961
397.92	3.293
398.28	3.696
398.64	4.596
399.00	4.329
399.35	3.972
399.71	4.470
400.07	3.824
400.42	3.642
400.78	4.223
401.14	4.169
401.49	3.917
401.85	4.056
402.21	3.808
402.57	4.249
402.92	4.303
403.28	3.938
403.63	4.179
403.99	4.222
404.35	4.982
404.70	3.839
405.06	4.099
405.42	4.428
405.77	3.418
406.13	4.067
406.49	3.752
406.84	4.061
407.20	4.795
407.55	3.938
407.91	4.084
408.27	4.488
408.62	4.140
408.98	4.199
409.34	4.033
409.69	4.045
410.05	3.459
410.40	3.534
410.76	3.148
411.11	4.147
411.47	3.704
411.83	4.101
412.18	3.563
412.54	4.384
412.89	3.776
413.25	4.105
413.60	3.621
413.96	3.890
414.31	4.132
414.67	3.973
415.03	4.342
415.38	4.669
415.74	3.159
416.09	4.872
416.45	4.719
416.80	4.875
417.16	4.392
417.51	3.949
417.87	3.755
418.22	3.767
418.58	4.013
418.93	3.748
419.29	3.512
419.64	4.846
420.00	3.699
420.35	3.600
420.71	3.851
421.06	3.355
421.42	3.915
421.77	3.609
422.12	3.032
422.48	4.366
422.83	4.018
423.19	3.942
423.54	3.950
423.90	3.964
424.25	3.247
424.61	4.005
424.96	2.993
425.31	3.229
425.67	3.648
426.02	3.758
426.38	3.151
426.73	4.049
427.09	4.389
427.44	3.376
427.79	3.488
428.15	4.361
428.50	4.343
428.85	3.762
429.21	4.484
429.56	3.838
429.92	4.127
430.27	3.967
430.62	3.818
430.98	3.693
431.33	3.175
431.68	3.160
432.04	3.414
432.39	3.842
432.74	4.567
433.10	3.267
433.45	4.365
433.80	4.413
434.16	3.521
434.51	3.148
434.86	4.518
435.22	3.404
435.57	3.142
435.92	3.586
436.28	3.802
436.63	3.782
436.98	3.660
437.34	4.452
437.69	2.744
438.04	4.247
438.39	4.495
438.75	3.731
439.10	4.047
439.45	3.505
439.81	4.453
440.16	3.853
440.51	3.885
440.86	4.330
441.22	4.113
441.57	4.042
441.92	3.603
442.27	3.608
442.63	3.150
442.98	4.095
443.33	3.589
443.68	3.370
444.03	3.676
444.39	3.390
444.74	3.727
445.09	3.581
445.44	3.082
445.79	3.655
446.15	3.263
446.50	3.639
446.85	3.685
447.20	3.483
447.55	3.426
447.91	3.836
448.26	4.153
448.61	3.317
448.96	4.139
449.31	3.740
449.66	3.544
450.02	3.350
450.37	3.998
450.72	3.581
451.07	4.712
451.42	3.972
451.77	4.181
452.12	3.914
452.47	4.070
452.83	3.775
453.18	4.384
453.53	4.322
453.88	4.057
454.23	4.358
454.58	4.079
454.93	3.495
455.28	4.162
455.63	3.783
455.98	3.497
456.34	4.195
456.69	3.537
457.04	3.461
457.39	4.057
457.74	4.617
458.09	3.706
458.44	3.943
458.79	3.767
459.14	3.764
459.49	4.134
459.84	4.076
460.19	4.124
460.54	3.989
460.89	4.531
461.24	4.238
461.59	4.252
461.94	3.842
462.29	4.348
462.64	4.334
462.99	3.455
463.34	4.472
463.69	4.779
464.04	4.491
464.39	4.179
464.74	3.810
465.09	3.889
465.44	3.373
465.79	3.266
466.14	4.346
466.49	3.473
466.84	4.125
467.19	4.687
467.54	3.604
467.89	4.460
468.24	3.590
468.59	3.631
468.94	4.227
469.29	4.765
469.64	4.630
469.99	4.499
470.34	3.985
470.68	3.862
471.03	4.003
471.38	4.238
471.73	4.050
472.08	4.827
472.43	4.345
472.78	4.930
473.13	3.692
473.48	3.973
473.83	3.828
474.17	3.769
474.52	3.851
474.87	3.184
475.22	3.998
475.57	3.830
475.92	3.373
476.27	3.591
476.61	3.110
476.96	4.023
477.31	4.010
477.66	3.972
478.01	4.384
478.36	3.708
478.70	2.878
479.05	3.033
479.40	4.167
479.75	3.823
480.10	3.630
480.45	3.922
480.79	3.641
481.14	3.043
481.49	3.522
481.84	3.430
482.19	3.755
482.53	3.733
482.88	3.584
483.23	3.022
483.58	3.232
483.92	4.068
484.27	3.425
484.62	3.523
484.97	3.935
485.31	3.244
485.66	2.741
486.01	2.827
486.36	2.843
486.70	2.581
487.05	2.721
487.40	2.778
487.75	2.853
488.09	3.125
488.44	3.187
488.79	3.297
489.13	2.949
489.48	3.476
489.83	3.211
490.17	3.592
490.52	3.704
490.87	3.922
491.22	3.369
491.56	3.865
491.91	3.047
492.26	3.296
492.60	3.508
492.95	3.715
493.30	4.140
493.64	3.819
493.99	3.757
494.34	2.913
494.68	3.232
495.03	4.131
495.37	3.827
495.72	4.056
496.07	3.639
496.41	3.562
496.76	3.377
497.11	3.856
497.45	3.858
497.80	3.614
498.14	3.652
498.49	3.807
498.84	4.252
499.18	2.971
499.53	3.813
499.87	3.684
500.22	3.270
500.56	3.203
500.91	4.453
501.26	3.583
501.60	3.916
501.95	3.719
502.29	3.822
502.64	3.264
502.98	3.513
503.33	3.697
503.67	4.238
504.02	3.762
504.36	3.575
504.71	3.548
505.06	3.942
505.40	3.650
505.75	3.414
506.09	4.946
506.44	4.370
506.78	4.017
507.13	3.539
507.47	3.396
507.82	4.720
508.16	4.508
508.51	3.865
508.85	4.084
509.19	3.818
509.54	4.150
509.88	4.724
510.23	4.314
510.57	3.764
510.92	3.796
511.26	3.966
511.61	3.840
511.95	4.380
512.30	4.200
512.64	3.583
512.98	4.459
513.33	4.303
513.67	4.454
514.02	4.364
514.36	3.063
514.70	3.627
515.05	3.570
515.39	4.057
515.74	4.374
516.08	4.412
516.42	4.590
516.77	4.427
517.11	4.480
517.46	5.172
517.80	4.151
518.14	4.507
518.49	3.859
518.83	4.121
519.17	4.770
519.52	4.806
519.86	4.360
520.20	4.767
520.55	4.862
520.89	4.713
521.23	4.381
521.58	4.877
521.92	4.373
522.26	4.621
522.61	4.872
522.95	4.324
523.29	4.912
523.64	4.682
523.98	4.401
524.32	4.844
524.66	4.754
525.01	4.556
525.35	4.125
525.69	4.877
526.04	4.700
526.38	4.473
526.72	4.415
527.06	4.258
527.41	5.079
527.75	4.565
528.09	4.455
528.43	4.698
528.78	4.592
529.12	4.997
529.46	4.208
529.80	3.914
530.15	5.068
530.49	4.212
530.83	5.058
531.17	4.551
531.51	5.273
531.86	4.771
532.20	4.141
532.54	4.394
532.88	4.997
533.22	4.692
533.57	4.271
533.91	4.079
534.25	4.385
534.59	4.094
534.93	4.039
535.27	3.927
535.62	4.084
535.96	4.551
536.30	5.119
536.64	4.286
536.98	4.468
537.32	5.375
537.66	4.337
538.01	5.139
538.35	4.367
538.69	4.854
539.03	4.291
539.37	4.612
539.71	5.309
540.05	4.431
540.39	4.906
540.73	4.873
541.07	3.576
541.42	4.789
541.76	5.240
542.10	4.131
542.44	5.112
542.78	5.223
543.12	4.601
543.46	4.135
543.80	4.449
544.14	4.830
544.48	4.015
544.82	4.709
545.16	4.189
545.50	4.118
545.84	5.051
546.18	5.462
546.52	4.852
546.86	5.222
547.20	4.651
547.54	5.510
547.88	5.353
548.22	4.311
548.56	5.068
548.90	4.626
549.24	4.801
549.58	3.802
549.92	5.108
550.26	4.936
550.60	4.458
550.94	5.427
551.28	5.655
551.62	5.586
551.96	5.000
552.30	3.889
552.64	4.337
552.98	4.124
553.32	4.738
553.66	4.300
554.00	4.376
554.34	5.260
554.68	4.839
555.02	3.938
555.36	5.186
555.69	4.974
556.03	5.032
556.37	4.780
556.71	5.606
557.05	4.325
557.39	4.533
557.73	5.526
558.07	4.695
558.41	4.729
558.75	5.062
559.08	5.075
559.42	4.366
559.76	5.560
560.10	4.680
560.44	4.910
560.78	4.795
561.12	4.323
561.45	4.443
561.79	4.245
562.13	4.485
562.47	4.023
562.81	4.619
563.15	3.878
563.48	3.975
563.82	5.365
564.16	4.851
564.50	4.219
564.84	4.255
565.17	4.219
565.51	4.557
565.85	4.257
566.19	4.226
566.52	4.091
566.86	5.196
567.20	4.326
567.54	4.421
567.88	4.434
568.21	3.595
568.55	4.232
568.89	4.471
569.23	3.279
569.56	3.954
569.90	3.953
570.24	4.089
570.57	3.796
570.91	3.432
571.25	3.055
571.59	3.299
571.92	3.364
572.26	2.938
572.60	3.221
572.93	3.306
573.27	2.786
573.61	3.113
573.95	3.038
574.28	3.272
574.62	2.841
574.96	2.893
575.29	2.966
575.63	2.898
575.97	3.116
576.30	2.658
576.64	2.870
576.98	3.018
577.31	3.427
577.65	2.999
577.98	2.829
578.32	2.722
578.66	2.916
578.99	3.063
579.33	3.000
579.67	2.746
580.00	3.233
580.34	3.017
580.67	2.841
581.01	3.006
581.35	2.783
581.68	2.658
582.02	2.868
582.35	2.627
582.69	2.786
583.02	2.730
583.36	3.122
583.70	3.274
584.03	2.983
584.37	3.029
584.70	2.787
585.04	2.879
585.37	2.863
585.71	3.258
586.04	2.736
586.38	2.897
586.72	3.063
587.05	3.448
587.39	2.984
587.72	3.050
588.06	2.955
588.39	2.994
588.73	3.133
589.06	3.181
589.40	3.349
589.73	3.114
590.07	3.569
590.40	3.798
590.73	3.783
591.07	4.137
591.40	3.234
591.74	3.653
592.07	3.494
592.41	3.837
592.74	3.259
593.08	3.092
593.41	2.902
593.75	3.045
594.08	3.573
594.41	3.063
594.75	3.116
595.08	3.635
595.42	3.555
595.75	3.060
596.09	3.233
596.42	3.350
596.75	3.966
597.09	3.467
597.42	3.224
597.75	3.327
598.09	3.529
598.42	3.917
598.76	3.508
599.09	3.567
599.42	3.391
599.76	3.596
600.09	3.288
600.42	3.660
600.76	2.889
601.09	3.659
601.42	3.309
601.76	3.115
602.09	3.091
602.42	3.734
602.76	3.605
603.09	3.658
603.42	4.110
603.76	2.711
604.09	3.257
604.42	3.089
604.76	3.398
605.09	3.633
605.42	3.941
605.75	3.316
606.09	3.634
606.42	3.645
606.75	3.692
607.09	3.119
607.42	3.294
607.75	3.384
608.08	3.412
608.42	3.314
608.75	3.380
609.08	3.564
609.41	3.500
609.75	4.258
610.08	3.058
610.41	3.821
610.74	3.506
611.07	3.547
611.41	3.892
611.74	3.298
612.07	3.613
612.40	4.240
612.73	3.794
613.07	3.649
613.40	3.759
613.73	4.044
614.06	3.750
614.39	3.485
614.72	3.516
615.06	3.264
615.39	4.455
615.72	3.679
616.05	3.717
616.38	3.551
616.71	3.473
617.05	4.009
617.38	3.596
617.71	3.993
618.04	3.814
618.37	3.558
618.70	3.522
619.03	3.968
619.36	4.585
619.69	4.288
620.03	5.153
620.36	4.945
620.69	5.172
621.02	5.842
621.35	4.226
621.68	4.941
622.01	5.018
622.34	3.787
622.67	5.056
623.00	4.765
623.33	5.061
623.66	4.059
623.99	5.411
624.32	4.472
624.65	3.621
624.99	4.057
625.32	4.743
625.65	4.621
625.98	4.324
626.31	4.896
626.64	3.797
626.97	4.973
627.30	4.814
627.63	4.867
627.96	3.756
628.29	4.043
628.62	4.790
628.95	5.230
629.28	5.521
629.61	4.482
629.94	4.667
630.26	5.199
630.59	6.206
630.92	5.022
631.25	5.530
631.58	5.882
631.91	4.186
632.24	5.053
632.57	3.929
632.90	6.315
633.23	6.086
633.56	5.163
633.89	4.716
634.22	6.351
634.55	4.946
634.88	6.462
635.20	6.502
635.53	6.272
635.86	6.152
636.19	7.183
636.52	5.514
636.85	4.639
637.18	6.067
637.51	5.140
637.83	5.263
638.16	6.331
638.49	7.425
638.82	5.282
639.15	4.935
639.48	6.635
639.81	6.227
640.13	6.380
640.46	6.574
640.79	6.112
641.12	6.562
641.45	6.856
641.77	7.266
642.10	6.560
642.43	6.828
642.76	5.682
643.09	4.323
643.41	6.452
643.74	6.763
644.07	5.605
644.40	5.769
644.73	6.907
645.05	7.281
645.38	7.657
645.71	7.891
646.04	5.496
646.36	7.199
646.69	6.560
647.02	5.120
647.35	6.772
647.67	7.131
648.00	7.329
648.33	7.068
648.66	6.515
648.98	5.942
649.31	6.613
649.64	5.671
649.96	5.690
650.29	7.429
650.62	7.806
650.94	8.886
651.27	7.974
651.60	6.260
651.92	8.295
652.25	7.402
652.58	8.227
652.90	6.737
653.23	6.056
653.56	6.231
653.88	6.167
654.21	6.452
654.54	6.442
654.86	7.522
655.19	5.805
655.52	4.685
655.84	2.351
656.17	2.241
