SpectraSuite Data File
++++++++++++++++++++++++++++++++++++
Date: Tue May 12 17:17:18 PDT 2015
User: schluterlab
Dark Spectrum Present: Yes
Reference Spectrum Present: Yes
Number of Sampled Component Spectra: 1
Spectrometers: USB2E3373
Integration Time (usec): 3000 (USB2E3373)
Spectra Averaged: 3 (USB2E3373)
Boxcar Smoothing: 0 (USB2E3373)
Correct for Electrical Dark: No (USB2E3373)
Strobe/Lamp Enabled: No (USB2E3373)
Correct for Detector Non-linearity: No (USB2E3373)
Correct for Stray Light: No (USB2E3373)
Number of Pixels in Processed Spectrum: 2048
>>>>>Begin Processed Spectral Data<<<<<
178.53	0.000
178.91	-150.000
179.29	-750.000
179.67	-3200.000
180.04	-106.667
180.42	575.000
180.80	1850.000
181.18	0.000
181.56	-350.000
181.94	0.000
182.31	1133.333
182.69	-3200.000
183.07	757.143
183.45	-3700.000
183.83	-1550.000
184.20	420.000
184.58	557.143
184.96	-284.615
185.34	-141.667
185.72	1200.000
186.09	-1025.000
186.47	-2500.000
186.85	1000.000
187.23	520.000
187.61	1900.000
187.98	562.500
188.36	264.286
188.74	350.000
189.12	300.000
189.49	875.000
189.87	0.000
190.25	537.500
190.63	2500.000
191.00	-191.667
191.38	-3800.000
191.76	-825.000
192.14	662.500
192.51	-2800.000
192.89	1600.000
193.27	933.333
193.65	-966.667
194.02	-800.000
194.40	557.143
194.78	-178.571
195.15	200.000
195.53	-2900.000
195.91	-600.000
196.29	4700.000
196.66	225.000
197.04	650.000
197.42	-1950.000
197.79	575.000
198.17	258.333
198.55	0.000
198.92	500.000
199.30	1300.000
199.68	1700.000
200.05	650.000
200.43	-266.667
200.81	227.778
201.18	3700.000
201.56	233.333
201.94	-675.000
202.31	-350.000
202.69	-460.000
203.07	2700.000
203.44	-383.333
203.82	308.333
204.19	620.000
204.57	-1250.000
204.95	-600.000
205.32	-380.000
205.70	550.000
206.08	775.000
206.45	-733.333
206.83	344.444
207.20	194.737
207.58	258.333
207.96	660.000
208.33	0.000
208.71	628.571
209.08	700.000
209.46	-3000.000
209.84	-850.000
210.21	820.000
210.59	-520.000
210.96	308.333
211.34	-950.000
211.71	409.091
212.09	925.000
212.46	2150.000
212.84	-466.667
213.22	455.556
213.59	-2700.000
213.97	330.000
214.34	875.000
214.72	1333.333
215.09	1266.667
215.47	-2800.000
215.84	-300.000
216.22	-512.500
216.59	0.000
216.97	0.000
217.34	1350.000
217.72	-1600.000
218.09	1066.667
218.47	475.000
218.84	875.000
219.22	966.667
219.59	966.667
219.97	414.286
220.34	322.222
220.72	1650.000
221.09	3500.000
221.47	275.000
221.84	1266.667
222.22	340.000
222.59	244.444
222.97	235.714
223.34	275.000
223.72	-1600.000
224.09	1166.667
224.46	284.615
224.84	-675.000
225.21	233.333
225.59	306.667
225.96	1300.000
226.34	-720.000
226.71	-825.000
227.08	-440.000
227.46	0.000
227.83	-500.000
228.21	-1650.000
228.58	316.667
228.95	725.000
229.33	333.333
229.70	1050.000
230.08	338.462
230.45	3500.000
230.82	-900.000
231.20	-1033.333
231.57	-1200.000
231.95	640.000
232.32	250.000
232.69	583.333
233.07	308.333
233.44	-1400.000
233.81	300.000
234.19	166.667
234.56	200.000
234.93	182.353
235.31	155.000
235.68	318.750
236.05	153.571
236.43	166.667
236.80	250.000
237.17	162.069
237.55	143.750
237.92	117.500
238.29	145.455
238.67	140.625
239.04	104.878
239.41	91.667
239.79	85.000
240.16	87.500
240.53	100.000
240.91	75.362
241.28	72.881
241.65	65.152
242.02	70.423
242.40	70.000
242.77	65.934
243.14	58.228
243.51	68.687
243.89	54.206
244.26	49.533
244.63	62.376
245.00	47.706
245.38	46.610
245.75	44.697
246.12	51.111
246.49	49.645
246.87	47.541
247.24	47.333
247.61	47.500
247.98	44.898
248.36	46.061
248.73	46.429
249.10	39.286
249.47	40.000
249.84	43.284
250.22	38.919
250.59	38.500
250.96	35.443
251.33	40.930
251.70	40.179
252.08	38.655
252.45	33.865
252.82	34.601
253.19	36.759
253.56	36.923
253.94	32.246
254.31	39.535
254.68	35.889
255.05	35.172
255.42	36.496
255.79	35.505
256.16	34.237
256.54	35.390
256.91	31.373
257.28	35.117
257.65	29.467
258.02	35.103
258.39	34.097
258.76	35.652
259.14	27.714
259.51	36.735
259.88	37.082
260.25	33.242
260.62	33.699
260.99	30.028
261.36	32.312
261.73	32.447
262.10	32.984
262.47	30.250
262.85	30.933
263.22	32.648
263.59	32.481
263.96	32.080
264.33	30.370
264.70	28.993
265.07	30.732
265.44	31.193
265.81	32.783
266.18	32.265
266.55	30.496
266.92	29.978
267.29	31.579
267.66	31.614
268.03	28.700
268.40	28.330
268.77	33.040
269.14	27.332
269.51	32.517
269.88	30.408
270.25	26.134
270.62	30.472
270.99	31.034
271.36	32.724
271.73	29.560
272.10	30.707
272.47	29.762
272.84	28.343
273.21	29.545
273.58	31.174
273.95	30.185
274.32	30.350
274.69	32.874
275.06	31.512
275.43	27.203
275.80	29.245
276.17	28.860
276.54	26.916
276.91	30.224
277.28	28.650
277.65	29.520
278.02	27.941
278.39	29.137
278.76	29.828
279.13	27.936
279.50	30.000
279.87	26.629
280.23	27.440
280.60	28.285
280.97	30.345
281.34	28.218
281.71	29.217
282.08	29.060
282.45	29.899
282.82	28.261
283.19	28.140
283.56	27.438
283.92	28.827
284.29	25.957
284.66	25.882
285.03	27.363
285.40	25.785
285.77	26.543
286.14	26.935
286.51	26.227
286.87	25.000
287.24	25.225
287.61	26.292
287.98	28.060
288.35	25.333
288.72	26.707
289.08	24.625
289.45	26.372
289.82	25.156
290.19	26.208
290.56	27.511
290.93	27.482
291.29	25.691
291.66	24.435
292.03	26.087
292.40	25.610
292.77	24.513
293.13	25.392
293.50	23.347
293.87	23.713
294.24	25.455
294.60	25.707
294.97	25.035
295.34	22.709
295.71	25.230
296.08	25.467
296.44	23.761
296.81	25.558
297.18	23.321
297.55	25.000
297.91	22.783
298.28	24.517
298.65	23.558
299.02	23.040
299.38	24.940
299.75	23.415
300.12	22.821
300.48	25.527
300.85	25.745
301.22	23.605
301.59	23.349
301.95	21.937
302.32	23.865
302.69	23.869
303.05	23.906
303.42	23.094
303.79	24.594
304.15	23.432
304.52	23.256
304.89	24.520
305.25	25.028
305.62	24.094
305.99	23.804
306.35	23.053
306.72	25.078
307.09	23.913
307.45	23.337
307.82	25.103
308.19	24.948
308.55	23.900
308.92	25.810
309.29	26.134
309.65	25.570
310.02	25.659
310.38	25.324
310.75	24.783
311.12	25.000
311.48	27.220
311.85	27.195
312.22	27.316
312.58	28.377
312.95	28.447
313.31	26.779
313.68	27.767
314.05	29.212
314.41	29.888
314.78	29.451
315.14	31.185
315.51	31.031
315.87	30.748
316.24	30.906
316.61	30.439
316.97	30.917
317.34	31.267
317.70	32.046
318.07	34.698
318.43	34.446
318.80	33.538
319.16	35.227
319.53	34.425
319.89	35.125
320.26	38.547
320.62	37.729
320.99	37.274
321.35	39.332
321.72	38.140
322.08	39.243
322.45	39.600
322.81	39.890
323.18	40.142
323.54	41.463
323.91	43.336
324.27	43.324
324.64	42.734
325.00	44.310
325.37	44.941
325.73	45.953
326.10	48.053
326.46	47.812
326.83	48.400
327.19	48.112
327.56	48.562
327.92	50.984
328.29	51.637
328.65	53.682
329.01	51.240
329.38	50.931
329.74	51.324
330.11	54.474
330.47	53.538
330.84	53.322
331.20	53.299
331.56	54.750
331.93	54.405
332.29	53.912
332.66	55.867
333.02	54.725
333.38	56.981
333.75	54.629
334.11	55.369
334.48	56.496
334.84	55.152
335.20	55.860
335.57	53.652
335.93	54.836
336.29	55.638
336.66	57.890
337.02	56.459
337.38	56.234
337.75	56.419
338.11	56.709
338.47	55.800
338.84	56.732
339.20	55.498
339.56	56.098
339.93	58.278
340.29	54.790
340.65	56.329
341.02	56.959
341.38	56.404
341.74	56.811
342.11	56.344
342.47	57.588
342.83	58.080
343.20	56.831
343.56	56.473
343.92	57.556
344.28	59.171
344.65	57.213
345.01	55.556
345.37	56.250
345.73	56.111
346.10	56.096
346.46	57.656
346.82	55.710
347.19	57.032
347.55	56.674
347.91	54.909
348.27	56.778
348.63	57.674
349.00	56.893
349.36	58.444
349.72	56.575
350.08	58.540
350.45	55.750
350.81	55.734
351.17	55.624
351.53	55.966
351.89	56.954
352.26	56.614
352.62	56.938
352.98	57.055
353.34	58.243
353.70	56.575
354.07	57.385
354.43	55.684
354.79	56.492
355.15	57.427
355.51	57.931
355.87	57.907
356.24	57.583
356.60	57.915
356.96	55.269
357.32	57.800
357.68	55.653
358.04	56.459
358.40	56.747
358.77	57.701
359.13	58.183
359.49	56.116
359.85	57.111
360.21	56.092
360.57	56.204
360.93	56.638
361.29	57.864
361.66	58.240
362.02	56.605
362.38	58.586
362.74	57.749
363.10	54.909
363.46	56.423
363.82	55.891
364.18	57.397
364.54	59.013
364.90	55.890
365.26	57.599
365.62	56.837
365.98	54.783
366.35	56.552
366.71	57.391
367.07	57.611
367.43	56.011
367.79	57.513
368.15	56.649
368.51	57.822
368.87	57.677
369.23	57.034
369.59	56.102
369.95	58.601
370.31	55.236
370.67	56.419
371.03	57.423
371.39	57.618
371.75	57.502
372.11	58.192
372.47	56.370
372.83	56.764
373.19	57.025
373.55	56.632
373.91	54.903
374.27	56.415
374.63	56.881
374.99	57.143
375.35	57.930
375.71	57.718
376.07	57.095
376.42	56.202
376.78	59.024
377.14	57.602
377.50	55.930
377.86	57.463
378.22	57.709
378.58	57.567
378.94	55.341
379.30	56.155
379.66	57.435
380.02	57.654
380.38	57.026
380.74	57.497
381.09	57.068
381.45	57.052
381.81	56.974
382.17	56.349
382.53	56.809
382.89	56.180
383.25	56.661
383.61	56.484
383.97	56.629
384.32	57.203
384.68	56.566
385.04	57.093
385.40	56.999
385.76	57.226
386.12	57.328
386.48	56.596
386.83	58.252
387.19	57.126
387.55	56.478
387.91	56.351
388.27	57.287
388.62	55.869
388.98	55.335
389.34	56.752
389.70	56.132
390.06	56.951
390.42	55.521
390.77	57.494
391.13	55.824
391.49	56.685
391.85	56.923
392.20	56.675
392.56	56.332
392.92	55.980
393.28	55.942
393.64	55.906
393.99	56.076
394.35	54.562
394.71	55.489
395.07	55.535
395.42	55.621
395.78	56.878
396.14	57.651
396.50	55.295
396.85	55.671
397.21	56.258
397.57	56.426
397.92	55.806
398.28	55.764
398.64	56.719
399.00	55.265
399.35	55.717
399.71	54.967
400.07	55.308
400.42	55.582
400.78	56.129
401.14	56.136
401.49	55.357
401.85	54.461
402.21	55.067
402.57	56.134
402.92	55.394
403.28	54.296
403.63	54.385
403.99	53.619
404.35	56.272
404.70	55.582
405.06	55.306
405.42	54.877
405.77	54.686
406.13	54.176
406.49	54.292
406.84	53.751
407.20	54.110
407.55	53.662
407.91	56.222
408.27	54.033
408.62	55.115
408.98	54.997
409.34	53.185
409.69	54.138
410.05	53.787
410.40	54.299
410.76	53.177
411.11	53.732
411.47	54.259
411.83	53.896
412.18	55.072
412.54	52.973
412.89	52.625
413.25	54.048
413.60	54.147
413.96	53.621
414.31	51.948
414.67	54.004
415.03	54.023
415.38	54.448
415.74	54.138
416.09	55.153
416.45	55.010
416.80	56.318
417.16	53.278
417.51	53.885
417.87	54.005
418.22	52.734
418.58	54.331
418.93	53.778
419.29	54.036
419.64	53.119
420.00	52.924
420.35	53.833
420.71	53.326
421.06	52.855
421.42	53.598
421.77	54.026
422.12	53.418
422.48	52.183
422.83	53.013
423.19	53.834
423.54	53.593
423.90	53.681
424.25	53.660
424.61	53.395
424.96	52.795
425.31	53.914
425.67	54.433
426.02	54.571
426.38	52.917
426.73	54.482
427.09	53.737
427.44	53.123
427.79	54.145
428.15	54.390
428.50	53.600
428.85	54.909
429.21	53.485
429.56	52.941
429.92	54.003
430.27	52.250
430.62	52.374
430.98	52.645
431.33	53.125
431.68	52.395
432.04	53.182
432.39	54.501
432.74	53.630
433.10	53.101
433.45	54.279
433.80	55.047
434.16	53.337
434.51	53.509
434.86	53.511
435.22	53.539
435.57	54.475
435.92	53.557
436.28	53.744
436.63	54.781
436.98	54.561
437.34	53.881
437.69	52.016
438.04	53.710
438.39	53.590
438.75	53.508
439.10	54.021
439.45	52.516
439.81	54.829
440.16	53.880
440.51	52.590
440.86	54.017
441.22	53.896
441.57	53.123
441.92	52.863
442.27	53.041
442.63	53.303
442.98	52.209
443.33	53.133
443.68	53.571
444.03	53.016
444.39	53.107
444.74	52.277
445.09	53.818
445.44	52.710
445.79	53.558
446.15	54.105
446.50	53.006
446.85	53.486
447.20	52.786
447.55	53.507
447.91	53.649
448.26	52.609
448.61	53.676
448.96	53.159
449.31	52.640
449.66	53.931
450.02	52.998
450.37	53.359
450.72	54.325
451.07	53.403
451.42	52.875
451.77	54.639
452.12	53.885
452.47	52.552
452.83	53.577
453.18	55.075
453.53	53.523
453.88	54.857
454.23	53.457
454.58	53.788
454.93	52.606
455.28	52.264
455.63	53.191
455.98	52.510
456.34	54.347
456.69	54.329
457.04	54.117
457.39	54.114
457.74	53.378
458.09	51.600
458.44	53.176
458.79	52.626
459.14	52.209
459.49	53.171
459.84	54.022
460.19	52.599
460.54	52.422
460.89	52.825
461.24	51.775
461.59	54.138
461.94	53.487
462.29	53.490
462.64	53.643
462.99	53.167
463.34	53.273
463.69	52.329
464.04	53.310
464.39	53.578
464.74	52.755
465.09	53.279
465.44	51.088
465.79	52.314
466.14	50.821
466.49	52.523
466.84	51.951
467.19	52.138
467.54	52.793
467.89	52.817
468.24	52.693
468.59	52.798
468.94	54.287
469.29	52.657
469.64	51.125
469.99	53.085
470.34	53.953
470.68	52.345
471.03	53.702
471.38	52.980
471.73	53.429
472.08	54.142
472.43	54.252
472.78	52.881
473.13	51.627
473.48	52.445
473.83	52.650
474.17	53.070
474.52	52.903
474.87	51.848
475.22	51.970
475.57	51.784
475.92	51.559
476.27	51.197
476.61	52.440
476.96	51.306
477.31	53.419
477.66	52.174
478.01	52.450
478.36	51.133
478.70	51.414
479.05	52.510
479.40	50.893
479.75	50.993
480.10	52.033
480.45	50.747
480.79	51.705
481.14	51.783
481.49	50.000
481.84	50.440
482.19	50.524
482.53	50.725
482.88	50.806
483.23	50.789
483.58	50.628
483.92	51.600
484.27	50.642
484.62	51.995
484.97	49.085
485.31	48.273
485.66	47.786
486.01	46.224
486.36	45.938
486.70	45.438
487.05	45.888
487.40	46.462
487.75	47.018
488.09	47.386
488.44	48.662
488.79	48.941
489.13	49.795
489.48	50.220
489.83	49.833
490.17	48.761
490.52	50.603
490.87	50.862
491.22	50.975
491.56	50.373
491.91	51.254
492.26	50.913
492.60	52.164
492.95	50.838
493.30	50.546
493.64	50.629
493.99	49.284
494.34	50.515
494.68	50.819
495.03	50.202
495.37	49.932
495.72	50.443
496.07	50.314
496.41	49.609
496.76	49.937
497.11	49.529
497.45	49.584
497.80	51.807
498.14	50.624
498.49	50.696
498.84	50.888
499.18	49.314
499.53	50.988
499.87	49.820
500.22	50.253
500.56	50.511
500.91	51.345
501.26	50.620
501.60	50.546
501.95	50.090
502.29	49.333
502.64	49.096
502.98	49.755
503.33	49.978
503.67	48.521
504.02	49.351
504.36	50.226
504.71	50.000
505.06	48.944
505.40	49.462
505.75	50.047
506.09	49.930
506.44	49.859
506.78	49.386
507.13	49.733
507.47	50.655
507.82	50.852
508.16	51.200
508.51	49.807
508.85	49.098
509.19	50.514
509.54	50.684
509.88	49.727
510.23	49.951
510.57	50.048
510.92	52.398
511.26	50.753
511.61	48.794
511.95	50.124
512.30	50.450
512.64	50.363
512.98	50.384
513.33	51.127
513.67	51.113
514.02	49.766
514.36	49.896
514.70	50.560
515.05	50.932
515.39	50.822
515.74	51.449
516.08	51.253
516.42	52.623
516.77	50.773
517.11	49.973
517.46	50.054
517.80	51.010
518.14	52.845
518.49	51.433
518.83	51.374
519.17	50.638
519.52	51.939
519.86	49.864
520.20	51.397
520.55	51.781
520.89	51.034
521.23	52.103
521.58	51.463
521.92	51.837
522.26	51.896
522.61	51.337
522.95	51.772
523.29	50.877
523.64	50.347
523.98	51.291
524.32	50.692
524.66	51.130
525.01	49.822
525.35	51.679
525.69	51.896
526.04	51.338
526.38	51.207
526.72	49.881
527.06	50.739
527.41	51.814
527.75	51.369
528.09	49.789
528.43	51.800
528.78	50.388
529.12	52.498
529.46	50.672
529.80	50.117
530.15	50.913
530.49	50.542
530.83	51.249
531.17	51.230
531.51	50.950
531.86	48.551
532.20	48.888
532.54	50.722
532.88	50.656
533.22	50.701
533.57	50.763
533.91	49.009
534.25	49.625
534.59	49.708
534.93	48.123
535.27	47.581
535.62	49.067
535.96	48.641
536.30	49.787
536.64	49.814
536.98	49.402
537.32	50.187
537.66	50.829
538.01	50.155
538.35	50.218
538.69	48.665
539.03	48.632
539.37	48.968
539.71	48.642
540.05	48.246
540.39	49.874
540.73	48.608
541.07	48.055
541.42	49.751
541.76	49.383
542.10	48.767
542.44	48.441
542.78	48.773
543.12	48.405
543.46	48.559
543.80	48.371
544.14	48.731
544.48	48.540
544.82	47.890
545.16	47.298
545.50	47.265
545.84	48.801
546.18	49.415
546.52	49.836
546.86	49.001
547.20	47.545
547.54	47.372
547.88	48.236
548.22	47.723
548.56	46.140
548.90	46.679
549.24	47.568
549.58	47.036
549.92	48.985
550.26	48.614
550.60	47.305
550.94	48.982
551.28	48.345
551.62	50.966
551.96	48.446
552.30	45.485
552.64	47.832
552.98	46.843
553.32	46.671
553.66	48.208
554.00	47.812
554.34	48.269
554.68	48.253
555.02	48.201
555.36	46.941
555.69	47.186
556.03	47.771
556.37	46.526
556.71	48.957
557.05	46.723
557.39	47.000
557.73	46.833
558.07	47.015
558.41	48.869
558.75	48.153
559.08	49.964
559.42	48.389
559.76	48.895
560.10	46.937
560.44	46.184
560.78	47.379
561.12	46.790
561.45	46.308
561.79	46.005
562.13	46.873
562.47	46.334
562.81	46.389
563.15	47.382
563.48	45.466
563.82	46.163
564.16	45.522
564.50	45.027
564.84	46.018
565.17	45.752
565.51	46.429
565.85	46.761
566.19	45.476
566.52	44.043
566.86	45.943
567.20	45.899
567.54	44.378
567.88	43.975
568.21	43.285
568.55	43.045
568.89	42.929
569.23	41.674
569.56	41.853
569.90	39.777
570.24	39.591
570.57	39.033
570.91	39.002
571.25	38.256
571.59	38.466
571.92	38.267
572.26	37.601
572.60	37.490
572.93	38.442
573.27	38.283
573.61	37.439
573.95	37.301
574.28	37.252
574.62	37.098
574.96	36.325
575.29	36.133
575.63	36.537
575.97	36.587
576.30	36.016
576.64	36.779
576.98	36.174
577.31	36.999
577.65	36.068
577.98	35.270
578.32	35.236
578.66	35.770
578.99	36.270
579.33	36.626
579.67	35.449
580.00	35.474
580.34	36.209
580.67	35.324
581.01	36.230
581.35	35.361
581.68	34.376
582.02	34.712
582.35	34.850
582.69	35.156
583.02	35.312
583.36	35.457
583.70	36.315
584.03	36.291
584.37	36.345
584.70	36.079
585.04	35.903
585.37	35.122
585.71	35.618
586.04	35.858
586.38	35.336
586.72	35.804
587.05	36.258
587.39	36.005
587.72	35.887
588.06	35.535
588.39	35.542
588.73	35.740
589.06	36.504
589.40	37.308
589.73	37.201
590.07	37.680
590.40	37.840
590.73	38.487
591.07	38.634
591.40	37.685
591.74	37.987
592.07	38.270
592.41	38.329
592.74	36.983
593.08	36.914
593.41	35.577
593.75	35.520
594.08	36.526
594.41	36.364
594.75	36.747
595.08	37.071
595.42	36.175
595.75	36.097
596.09	36.913
596.42	36.635
596.75	37.500
597.09	38.341
597.42	37.837
597.75	36.349
598.09	38.162
598.42	36.883
598.76	36.546
599.09	36.558
599.42	35.882
599.76	36.058
600.09	35.797
600.42	35.497
600.76	35.418
601.09	35.278
601.42	35.727
601.76	35.696
602.09	36.865
602.42	36.081
602.76	36.584
603.09	37.104
603.42	36.514
603.76	35.503
604.09	36.265
604.42	35.480
604.76	37.139
605.09	36.571
605.42	36.692
605.75	36.360
606.09	36.037
606.42	36.114
606.75	36.728
607.09	36.281
607.42	36.119
607.75	36.982
608.08	36.353
608.42	36.326
608.75	36.200
609.08	36.868
609.41	37.045
609.75	36.767
610.08	36.960
610.41	36.583
610.74	36.580
611.07	37.290
611.41	37.535
611.74	37.285
612.07	37.476
612.40	37.086
612.73	37.993
613.07	38.672
613.40	38.045
613.73	37.743
614.06	36.450
614.39	37.778
614.72	37.569
615.06	36.647
615.39	37.772
615.72	37.657
616.05	38.322
616.38	37.139
616.71	37.493
617.05	37.342
617.38	37.809
617.71	38.526
618.04	37.914
618.37	38.521
618.70	37.529
619.03	38.706
619.36	38.945
619.69	39.512
620.03	40.183
620.36	38.600
620.69	40.358
621.02	40.217
621.35	40.401
621.68	40.929
622.01	42.140
622.34	39.840
622.67	41.152
623.00	40.231
623.33	40.216
623.66	39.388
623.99	39.384
624.32	38.889
624.65	38.776
624.99	39.013
625.32	39.345
625.65	38.621
625.98	39.540
626.31	41.988
626.64	40.926
626.97	41.010
627.30	40.994
627.63	42.151
627.96	39.437
628.29	41.089
628.62	40.719
628.95	43.883
629.28	43.208
629.61	42.531
629.94	43.042
630.26	41.421
630.59	42.908
630.92	41.525
631.25	45.059
