SpectraSuite Data File
++++++++++++++++++++++++++++++++++++
Date: Tue May 12 16:59:27 PDT 2015
User: schluterlab
Dark Spectrum Present: Yes
Reference Spectrum Present: Yes
Number of Sampled Component Spectra: 1
Spectrometers: USB2E3373
Integration Time (usec): 3000 (USB2E3373)
Spectra Averaged: 3 (USB2E3373)
Boxcar Smoothing: 0 (USB2E3373)
Correct for Electrical Dark: No (USB2E3373)
Strobe/Lamp Enabled: No (USB2E3373)
Correct for Detector Non-linearity: No (USB2E3373)
Correct for Stray Light: No (USB2E3373)
Number of Pixels in Processed Spectrum: 2048
>>>>>Begin Processed Spectral Data<<<<<
178.53	0.000
178.91	-216.667
179.29	-675.000
179.67	-3900.000
180.04	-120.000
180.42	850.000
180.80	1750.000
181.18	0.000
181.56	-362.500
181.94	0.000
182.31	1200.000
182.69	-3500.000
183.07	628.571
183.45	-3200.000
183.83	-1450.000
184.20	420.000
184.58	500.000
184.96	-215.385
185.34	-175.000
185.72	1500.000
186.09	-775.000
186.47	-3700.000
186.85	733.333
187.23	760.000
187.61	1650.000
187.98	550.000
188.36	228.571
188.74	325.000
189.12	408.333
189.49	725.000
189.87	0.000
190.25	487.500
190.63	3000.000
191.00	-225.000
191.38	-3400.000
191.76	-825.000
192.14	525.000
192.51	-3200.000
192.89	2000.000
193.27	866.667
193.65	-1333.333
194.02	-760.000
194.40	657.143
194.78	-228.571
195.15	246.667
195.53	-3200.000
195.91	-560.000
196.29	4700.000
196.66	231.250
197.04	925.000
197.42	-950.000
197.79	600.000
198.17	400.000
198.55	0.000
198.92	571.429
199.30	1266.667
199.68	2050.000
200.05	666.667
200.43	-350.000
200.81	244.444
201.18	3400.000
201.56	341.667
201.94	-975.000
202.31	-312.500
202.69	-320.000
203.07	3600.000
203.44	-633.333
203.82	366.667
204.19	700.000
204.57	-1150.000
204.95	-575.000
205.32	-780.000
205.70	683.333
206.08	725.000
206.45	-633.333
206.83	422.222
207.20	194.737
207.58	258.333
207.96	880.000
208.33	0.000
208.71	471.429
209.08	620.000
209.46	-3400.000
209.84	-1025.000
210.21	740.000
210.59	-620.000
210.96	350.000
211.34	-800.000
211.71	436.364
212.09	1125.000
212.46	2050.000
212.84	-516.667
213.22	388.889
213.59	-2800.000
213.97	340.000
214.34	1025.000
214.72	833.333
215.09	1033.333
215.47	-3600.000
215.84	-330.000
216.22	-425.000
216.59	0.000
216.97	0.000
217.34	1700.000
217.72	-1400.000
218.09	1066.667
218.47	500.000
218.84	850.000
219.22	1033.333
219.59	1066.667
219.97	442.857
220.34	388.889
220.72	1250.000
221.09	3500.000
221.47	258.333
221.84	1500.000
222.22	310.000
222.59	244.444
222.97	221.429
223.34	350.000
223.72	-1250.000
224.09	1466.667
224.46	315.385
224.84	-775.000
225.21	344.444
225.59	233.333
225.96	1200.000
226.34	-700.000
226.71	-600.000
227.08	-500.000
227.46	0.000
227.83	-516.667
228.21	-1500.000
228.58	425.000
228.95	950.000
229.33	366.667
229.70	1000.000
230.08	361.538
230.45	4300.000
230.82	-1075.000
231.20	-1000.000
231.57	-866.667
231.95	580.000
232.32	300.000
232.69	550.000
233.07	225.000
233.44	-1150.000
233.81	240.000
234.19	159.259
234.56	218.750
234.93	194.118
235.31	170.000
235.68	275.000
236.05	185.714
236.43	140.741
236.80	271.429
237.17	162.069
237.55	103.125
237.92	165.000
238.29	178.788
238.67	143.750
239.04	112.195
239.41	97.917
239.79	117.500
240.16	106.250
240.53	91.803
240.91	79.710
241.28	84.746
241.65	81.818
242.02	98.592
242.40	84.286
242.77	67.033
243.14	58.228
243.51	83.838
243.89	62.617
244.26	67.290
244.63	63.366
245.00	74.312
245.38	60.169
245.75	64.394
246.12	65.926
246.49	60.284
246.87	53.279
247.24	58.000
247.61	60.000
247.98	59.864
248.36	49.697
248.73	55.612
249.10	54.167
249.47	51.000
249.84	49.751
250.22	50.811
250.59	45.000
250.96	49.367
251.33	49.302
251.70	50.446
252.08	50.000
252.45	48.606
252.82	46.008
253.19	43.874
253.56	45.769
253.94	46.014
254.31	47.674
254.68	51.220
255.05	47.931
255.42	47.080
255.79	45.928
256.16	46.780
256.54	44.156
256.91	41.503
257.28	47.492
257.65	44.828
258.02	44.838
258.39	44.986
258.76	46.957
259.14	43.429
259.51	42.274
259.88	43.769
260.25	42.033
260.62	44.658
260.99	40.496
261.36	43.175
261.73	43.883
262.10	45.288
262.47	43.750
262.85	41.600
263.22	44.473
263.59	43.223
263.96	44.110
264.33	39.753
264.70	42.506
265.07	43.659
265.44	40.138
265.81	40.566
266.18	42.563
266.55	40.662
266.92	39.821
267.29	39.035
267.66	42.152
268.03	39.013
268.40	41.015
268.77	45.815
269.14	39.696
269.51	40.312
269.88	39.388
270.25	37.365
270.62	40.343
270.99	39.757
271.36	41.260
271.73	37.945
272.10	41.010
272.47	39.683
272.84	38.523
273.21	38.223
273.58	40.891
273.95	37.988
274.32	38.132
274.69	40.748
275.06	38.434
275.43	36.782
275.80	37.170
276.17	40.993
276.54	41.121
276.91	39.739
277.28	36.314
277.65	39.668
278.02	37.316
278.39	39.388
278.76	40.862
279.13	37.011
279.50	39.818
279.87	37.058
280.23	35.727
280.60	38.686
280.97	38.448
281.34	37.954
281.71	38.261
282.08	36.752
282.45	36.655
282.82	38.462
283.19	37.838
283.56	36.860
283.92	38.599
284.29	37.604
284.66	36.807
285.03	36.318
285.40	37.025
285.77	34.722
286.14	38.080
286.51	35.429
286.87	36.392
287.24	33.784
287.61	36.170
287.98	36.866
288.35	34.963
288.72	36.267
289.08	35.586
289.45	35.671
289.82	32.969
290.19	35.139
290.56	34.352
290.93	34.101
291.29	34.807
291.66	33.616
292.03	33.100
292.40	32.791
292.77	33.565
293.13	33.381
293.50	34.683
293.87	31.978
294.24	33.566
294.60	33.782
294.97	34.266
295.34	32.669
295.71	33.377
296.08	33.200
296.44	31.131
296.81	32.134
297.18	31.052
297.55	32.389
297.91	30.049
298.28	31.039
298.65	29.939
299.02	31.604
299.38	29.376
299.75	30.488
300.12	30.275
300.48	30.679
300.85	32.181
301.22	29.884
301.59	30.896
301.95	31.622
302.32	30.733
302.69	31.448
303.05	31.762
303.42	30.493
303.79	31.311
304.15	31.793
304.52	31.184
304.89	31.237
305.25	31.813
305.62	29.638
305.99	30.326
306.35	30.737
306.72	30.905
307.09	32.609
307.45	31.257
307.82	30.658
308.19	31.959
308.55	30.900
308.92	32.090
309.29	33.136
309.65	32.309
310.02	33.874
310.38	31.206
310.75	31.533
311.12	32.088
311.48	33.494
311.85	33.397
312.22	33.238
312.58	34.208
312.95	34.369
313.31	35.206
313.68	33.959
314.05	36.172
314.41	36.034
314.78	37.121
315.14	37.156
315.51	37.559
315.87	36.496
316.24	37.908
316.61	36.974
316.97	37.431
317.34	40.341
317.70	40.035
318.07	41.370
318.43	40.685
318.80	42.032
319.16	41.434
319.53	41.504
319.89	43.011
320.26	45.158
320.62	44.597
320.99	44.042
321.35	44.434
321.72	46.395
322.08	46.353
322.45	46.140
322.81	47.758
323.18	48.845
323.54	50.784
323.91	52.040
324.27	51.901
324.64	50.865
325.00	53.621
325.37	54.806
325.73	54.722
326.10	55.592
326.46	57.060
326.83	57.040
327.19	57.992
327.56	58.466
327.92	60.902
328.29	59.984
328.65	62.158
329.01	63.045
329.38	63.198
329.74	60.632
330.11	63.249
330.47	64.109
330.84	60.742
331.20	63.113
331.56	63.903
331.93	65.355
332.29	64.201
332.66	66.241
333.02	64.261
333.38	67.277
333.75	65.555
334.11	63.926
334.48	65.983
334.84	66.301
335.20	66.296
335.57	66.079
335.93	66.358
336.29	65.174
336.66	70.240
337.02	67.408
337.38	66.122
337.75	66.723
338.11	68.186
338.47	67.993
338.84	66.808
339.20	67.619
339.56	66.695
339.93	67.726
340.29	67.479
340.65	66.806
341.02	66.693
341.38	68.309
341.74	69.186
342.11	68.447
342.47	68.499
342.83	70.057
343.20	68.391
343.56	66.243
343.92	67.300
344.28	68.102
344.65	69.927
345.01	66.984
345.37	67.228
345.73	68.810
346.10	68.207
346.46	68.740
346.82	66.821
347.19	69.397
347.55	68.072
347.91	68.353
348.27	68.552
348.63	68.196
349.00	67.479
349.36	69.883
349.72	69.495
350.08	68.866
350.45	69.535
350.81	68.349
351.17	67.565
351.53	70.670
351.89	68.842
352.26	69.161
352.62	68.854
352.98	68.482
353.34	70.493
353.70	70.107
354.07	71.308
354.43	69.124
354.79	68.185
355.15	69.602
355.51	70.015
355.87	71.009
356.24	71.517
356.60	69.482
356.96	70.584
357.32	69.706
357.68	69.897
358.04	70.365
358.40	70.840
358.77	71.300
359.13	70.571
359.49	69.978
359.85	73.864
360.21	71.620
360.57	70.146
360.93	70.202
361.29	71.789
361.66	73.378
362.02	71.165
362.38	69.625
362.74	71.833
363.10	71.388
363.46	72.307
363.82	70.266
364.18	72.973
364.54	74.249
364.90	70.750
365.26	72.241
365.62	72.307
365.98	71.507
366.35	70.621
366.71	72.797
367.07	72.355
367.43	70.786
367.79	71.809
368.15	72.659
368.51	73.053
368.87	72.622
369.23	72.696
369.59	72.218
369.95	73.287
370.31	72.827
370.67	71.548
371.03	72.549
371.39	74.515
371.75	75.715
372.11	74.915
372.47	72.192
372.83	72.944
373.19	74.640
373.55	73.677
373.91	73.481
374.27	74.735
374.63	73.627
374.99	75.135
375.35	76.344
375.71	75.132
376.07	74.934
376.42	73.082
376.78	76.044
377.14	76.606
377.50	75.468
377.86	75.336
378.22	74.954
378.58	76.513
378.94	76.584
379.30	75.804
379.66	75.557
380.02	76.657
380.38	75.761
380.74	77.739
381.09	76.577
381.45	75.954
381.81	77.187
382.17	76.679
382.53	76.185
382.89	78.415
383.25	77.738
383.61	76.196
383.97	76.005
384.32	77.697
384.68	77.837
385.04	77.022
385.40	76.453
385.76	77.238
386.12	79.406
386.48	78.419
386.83	78.545
387.19	78.799
387.55	79.211
387.91	77.656
388.27	77.454
388.62	78.169
388.98	77.901
389.34	75.729
389.70	77.476
390.06	77.622
390.42	78.038
390.77	79.791
391.13	78.636
391.49	77.314
391.85	78.954
392.20	78.367
392.56	77.658
392.92	77.148
393.28	78.980
393.64	77.924
393.99	78.127
394.35	77.575
394.71	77.684
395.07	77.798
395.42	78.337
395.78	80.753
396.14	80.361
396.50	78.339
396.85	77.500
397.21	79.242
397.57	78.840
397.92	79.318
398.28	80.309
398.64	79.639
399.00	77.766
399.35	78.690
399.71	79.249
400.07	78.710
400.42	81.134
400.78	79.765
401.14	80.035
401.49	79.378
401.85	79.027
402.21	80.258
402.57	80.431
402.92	80.606
403.28	79.236
403.63	78.634
403.99	79.373
404.35	78.253
404.70	80.449
405.06	79.001
405.42	78.695
405.77	78.886
406.13	78.688
406.49	78.852
406.84	79.357
407.20	81.107
407.55	80.431
407.91	82.514
408.27	79.563
408.62	78.533
408.98	78.711
409.34	78.141
409.69	80.460
410.05	80.262
410.40	78.563
410.76	79.794
411.11	81.043
411.47	80.988
411.83	79.086
412.18	79.891
412.54	79.219
412.89	79.351
413.25	80.502
413.60	80.549
413.96	81.269
414.31	79.929
414.67	82.185
415.03	79.949
415.38	80.505
415.74	81.049
416.09	80.887
416.45	80.802
416.80	82.553
417.16	79.504
417.51	81.146
417.87	80.413
418.22	81.470
418.58	82.611
418.93	82.153
419.29	81.454
419.64	81.829
420.00	82.279
420.35	82.578
420.71	81.739
421.06	81.695
421.42	82.153
421.77	82.121
422.12	81.974
422.48	79.558
422.83	81.529
423.19	82.613
423.54	82.117
423.90	82.333
424.25	85.195
424.61	82.066
424.96	81.988
425.31	83.470
425.67	83.389
426.02	83.679
426.38	83.431
426.73	85.194
427.09	85.172
427.44	83.680
427.79	85.020
428.15	86.211
428.50	84.571
428.85	85.244
429.21	84.225
429.56	84.347
429.92	85.182
430.27	83.696
430.62	83.064
430.98	85.080
431.33	83.972
431.68	83.556
432.04	84.997
432.39	85.236
432.74	86.651
433.10	85.548
433.45	87.536
433.80	86.376
434.16	84.866
434.51	87.307
434.86	85.357
435.22	86.062
435.57	86.722
435.92	87.365
436.28	86.866
436.63	87.358
436.98	87.894
437.34	87.500
437.69	86.058
438.04	86.075
438.39	87.799
438.75	85.635
439.10	87.858
439.45	85.189
439.81	87.739
440.16	87.892
440.51	86.486
440.86	88.034
441.22	87.879
441.57	87.192
441.92	87.167
442.27	86.804
442.63	86.230
442.98	85.399
443.33	86.931
443.68	86.821
444.03	86.098
444.39	87.335
444.74	86.646
445.09	88.046
445.44	88.098
445.79	87.573
446.15	87.211
446.50	88.555
446.85	87.550
447.20	88.060
447.55	89.342
447.91	88.599
448.26	87.487
448.61	88.170
448.96	89.325
449.31	89.604
449.66	89.203
450.02	87.628
450.37	89.617
450.72	89.366
451.07	88.424
451.42	88.382
451.77	88.202
452.12	88.656
452.47	89.429
452.83	89.746
453.18	88.949
453.53	88.869
453.88	89.486
454.23	89.599
454.58	87.587
454.93	88.964
455.28	88.984
455.63	90.426
455.98	87.874
456.34	90.638
456.69	90.244
457.04	90.990
457.39	89.714
457.74	89.077
458.09	88.321
458.44	88.116
458.79	88.541
459.14	86.525
459.49	88.562
459.84	89.946
460.19	85.085
460.54	89.060
460.89	88.859
461.24	88.259
461.59	89.853
461.94	87.648
462.29	88.730
462.64	89.322
462.99	91.747
463.34	89.307
463.69	90.079
464.04	90.040
464.39	88.724
464.74	88.335
465.09	87.464
465.44	89.173
465.79	87.044
466.14	87.758
466.49	87.737
466.84	87.291
467.19	87.053
467.54	86.847
467.89	88.263
468.24	90.330
468.59	88.810
468.94	88.768
469.29	87.721
469.64	88.167
469.99	88.817
470.34	89.880
470.68	90.276
471.03	91.528
471.38	88.344
471.73	88.178
472.08	90.998
472.43	91.248
472.78	89.373
473.13	87.985
473.48	88.753
473.83	88.280
474.17	88.085
474.52	87.500
474.87	88.175
475.22	87.093
475.57	86.097
475.92	87.174
476.27	87.486
476.61	88.365
476.96	87.356
477.31	88.638
477.66	90.714
478.01	88.035
478.36	88.465
478.70	86.650
479.05	89.854
479.40	88.343
479.75	88.431
480.10	88.529
480.45	88.469
480.79	86.912
481.14	87.779
481.49	86.597
481.84	87.511
482.19	87.860
482.53	86.517
482.88	86.559
483.23	87.325
483.58	88.151
483.92	88.437
484.27	87.543
484.62	87.436
484.97	86.015
485.31	85.211
485.66	83.210
486.01	81.343
486.36	80.628
486.70	80.372
487.05	81.523
487.40	81.766
487.75	82.132
488.09	82.187
488.44	84.512
488.79	85.283
489.13	86.040
489.48	86.736
489.83	86.322
490.17	86.003
490.52	87.295
490.87	85.733
491.22	87.411
491.56	87.308
491.91	88.172
492.26	86.993
492.60	89.431
492.95	87.993
493.30	87.216
493.64	87.376
493.99	86.538
494.34	86.777
494.68	86.676
495.03	87.158
495.37	86.898
495.72	87.413
496.07	87.017
496.41	86.620
496.76	86.323
497.11	85.261
497.45	86.497
497.80	88.740
498.14	87.101
498.49	85.655
498.84	88.271
499.18	86.152
499.53	87.368
499.87	86.882
500.22	88.991
500.56	87.790
500.91	88.404
501.26	87.460
501.60	87.432
501.95	85.484
502.29	87.067
502.64	86.281
502.98	85.771
503.33	86.993
503.67	85.077
504.02	85.132
504.36	85.249
504.71	88.269
505.06	85.781
505.40	86.430
505.75	86.296
506.09	86.234
506.44	87.030
506.78	87.004
507.13	88.560
507.47	86.997
507.82	86.813
508.16	88.045
508.51	86.425
508.85	86.182
509.19	87.812
509.54	86.328
509.88	87.767
510.23	87.206
510.57	85.183
510.92	87.862
511.26	88.102
511.61	86.460
511.95	86.660
512.30	86.950
512.64	88.058
512.98	87.596
513.33	87.756
513.67	87.209
514.02	88.260
514.36	88.474
514.70	88.107
515.05	88.332
515.39	90.954
515.74	90.869
516.08	88.072
516.42	90.492
516.77	88.053
517.11	87.947
517.46	89.116
517.80	88.859
518.14	91.099
518.49	89.195
518.83	88.681
519.17	89.517
519.52	89.732
519.86	88.447
520.20	89.479
520.55	89.373
520.89	89.253
521.23	90.421
521.58	89.329
521.92	88.746
522.26	88.507
522.61	90.196
522.95	90.691
523.29	89.883
523.64	89.884
523.98	90.904
524.32	89.100
524.66	89.217
525.01	88.521
525.35	89.864
525.69	91.030
526.04	89.530
526.38	89.994
526.72	89.320
527.06	89.060
527.41	91.052
527.75	90.749
528.09	90.006
528.43	89.811
528.78	89.863
529.12	91.030
529.46	89.831
529.80	87.850
530.15	87.861
530.49	89.230
530.83	89.214
531.17	90.467
531.51	90.006
531.86	87.440
532.20	88.443
532.54	89.328
532.88	91.193
533.22	88.665
533.57	89.079
533.91	87.238
534.25	87.132
534.59	88.889
534.93	85.779
535.27	85.430
535.62	87.515
535.96	87.175
536.30	88.665
536.64	87.391
536.98	87.791
537.32	87.750
537.66	88.457
538.01	87.864
538.35	88.896
538.69	86.286
539.03	89.490
539.37	85.619
539.71	86.852
540.05	86.215
540.39	87.925
540.73	87.025
541.07	87.265
541.42	87.873
541.76	87.115
542.10	86.190
542.44	87.968
542.78	87.162
543.12	86.074
543.46	86.905
543.80	86.466
544.14	86.192
544.48	86.375
544.82	87.278
545.16	86.946
545.50	87.707
545.84	86.869
546.18	89.142
546.52	87.410
546.86	87.750
547.20	85.853
547.54	86.257
547.88	84.915
548.22	86.278
548.56	84.738
548.90	86.299
549.24	87.871
549.58	86.340
549.92	86.248
550.26	88.709
550.60	87.026
550.94	89.891
551.28	88.207
551.62	88.276
551.96	86.554
552.30	86.750
552.64	86.731
552.98	87.049
553.32	86.300
553.66	86.059
554.00	87.516
554.34	89.348
554.68	87.903
555.02	88.323
555.36	87.301
555.69	87.173
556.03	85.605
556.37	85.214
556.71	87.288
557.05	85.911
557.39	87.667
557.73	87.129
558.07	87.860
558.41	89.171
558.75	87.141
559.08	90.350
559.42	90.193
559.76	88.311
560.10	87.543
560.44	88.321
560.78	87.340
561.12	87.667
561.45	85.982
561.79	87.016
562.13	87.682
562.47	86.697
562.81	87.899
563.15	86.749
563.48	84.224
563.82	87.461
564.16	87.313
564.50	84.027
564.84	84.134
565.17	85.324
565.51	86.823
565.85	86.922
566.19	85.357
566.52	85.379
566.86	86.515
567.20	85.618
567.54	83.515
567.88	82.890
568.21	81.128
568.55	82.490
568.89	80.338
569.23	79.810
569.56	80.751
569.90	77.902
570.24	77.751
570.57	76.866
570.91	76.786
571.25	75.830
571.59	74.732
571.92	74.731
572.26	74.690
572.60	74.563
572.93	75.877
573.27	75.560
573.61	74.770
573.95	74.278
574.28	74.406
574.62	73.428
574.96	73.124
575.29	72.379
575.63	73.616
575.97	72.663
576.30	72.994
576.64	73.510
576.98	73.044
577.31	73.707
577.65	72.387
577.98	71.503
578.32	71.203
578.66	71.753
578.99	72.100
579.33	72.012
579.67	72.490
580.00	73.125
580.34	72.485
580.67	72.260
581.01	72.350
581.35	72.192
581.68	70.995
582.02	70.624
582.35	71.323
582.69	71.113
583.02	71.769
583.36	72.917
583.70	73.323
584.03	74.472
584.37	74.356
584.70	73.650
585.04	73.210
585.37	72.949
585.71	72.876
586.04	72.507
586.38	73.546
586.72	73.668
587.05	73.237
587.39	73.426
587.72	74.116
588.06	73.951
588.39	73.618
588.73	74.585
589.06	74.905
589.40	75.869
589.73	76.696
590.07	76.767
590.40	76.167
590.73	77.892
591.07	77.419
591.40	77.605
591.74	77.192
592.07	78.411
592.41	77.378
592.74	77.005
593.08	75.651
593.41	74.297
593.75	72.884
594.08	74.500
594.41	75.725
594.75	75.890
595.08	75.892
595.42	75.181
595.75	74.531
596.09	75.391
596.42	75.055
596.75	78.285
597.09	77.342
597.42	76.898
597.75	76.592
598.09	76.693
598.42	76.377
598.76	75.636
599.09	76.572
599.42	75.087
599.76	74.627
600.09	73.932
600.42	75.656
600.76	74.609
601.09	75.319
601.42	74.762
601.76	75.761
602.09	75.533
602.42	75.342
602.76	76.850
603.09	76.772
603.42	74.789
603.76	76.247
604.09	76.041
604.42	75.857
604.76	75.701
605.09	76.939
605.42	77.001
605.75	76.115
606.09	76.320
606.42	76.250
606.75	76.137
607.09	75.681
607.42	75.974
607.75	75.995
608.08	75.589
608.42	76.091
608.75	76.209
609.08	76.463
609.41	78.318
609.75	78.342
610.08	77.788
610.41	77.690
610.74	77.489
611.07	78.172
611.41	77.989
611.74	78.298
612.07	78.035
612.40	77.680
612.73	79.031
613.07	80.030
613.40	78.997
613.73	79.081
614.06	78.000
614.39	78.939
614.72	77.951
615.06	76.162
615.39	77.327
615.72	75.653
616.05	78.604
616.38	76.865
616.71	79.544
617.05	80.286
617.38	79.438
617.71	80.090
618.04	80.258
618.37	80.989
618.70	81.813
619.03	81.868
619.36	82.412
619.69	82.586
620.03	83.627
620.36	82.017
620.69	82.631
621.02	83.696
621.35	83.524
621.68	86.209
622.01	86.125
622.34	84.632
622.67	83.357
623.00	81.688
623.33	82.996
623.66	82.568
623.99	83.630
624.32	83.401
624.65	81.040
624.99	85.057
625.32	83.367
625.65	83.724
625.98	82.706
626.31	86.276
626.64	85.573
626.97	85.922
627.30	86.879
627.63	87.441
627.96	85.524
628.29	85.726
628.62	87.767
628.95	88.830
629.28	90.622
629.61	87.961
629.94	86.863
630.26	87.955
630.59	89.894
630.92	89.327
631.25	88.486
