SpectraSuite Data File
++++++++++++++++++++++++++++++++++++
Date: Tue May 12 17:22:09 PDT 2015
User: schluterlab
Dark Spectrum Present: Yes
Reference Spectrum Present: Yes
Number of Sampled Component Spectra: 1
Spectrometers: USB2E3373
Integration Time (usec): 3000 (USB2E3373)
Spectra Averaged: 3 (USB2E3373)
Boxcar Smoothing: 0 (USB2E3373)
Correct for Electrical Dark: No (USB2E3373)
Strobe/Lamp Enabled: No (USB2E3373)
Correct for Detector Non-linearity: No (USB2E3373)
Correct for Stray Light: No (USB2E3373)
Number of Pixels in Processed Spectrum: 2048
>>>>>Begin Processed Spectral Data<<<<<
178.53	0.000
178.91	-200.000
179.29	-850.000
179.67	-3900.000
180.04	-146.667
180.42	875.000
180.80	1800.000
181.18	0.000
181.56	-287.500
181.94	0.000
182.31	1433.333
182.69	-2800.000
183.07	528.571
183.45	-2100.000
183.83	-1550.000
184.20	380.000
184.58	657.143
184.96	-215.385
185.34	-250.000
185.72	1700.000
186.09	-725.000
186.47	-3300.000
186.85	1200.000
187.23	660.000
187.61	1700.000
187.98	487.500
188.36	257.143
188.74	325.000
189.12	325.000
189.49	800.000
189.87	0.000
190.25	425.000
190.63	2300.000
191.00	-283.333
191.38	-3600.000
191.76	-725.000
192.14	600.000
192.51	-3100.000
192.89	1550.000
193.27	1033.333
193.65	-833.333
194.02	-860.000
194.40	557.143
194.78	-142.857
195.15	253.333
195.53	-2900.000
195.91	-640.000
196.29	4900.000
196.66	231.250
197.04	900.000
197.42	-1700.000
197.79	825.000
198.17	250.000
198.55	0.000
198.92	414.286
199.30	1100.000
199.68	1650.000
200.05	616.667
200.43	-450.000
200.81	172.222
201.18	3500.000
201.56	333.333
201.94	-800.000
202.31	-337.500
202.69	-580.000
203.07	4500.000
203.44	-550.000
203.82	341.667
204.19	560.000
204.57	-1200.000
204.95	-725.000
205.32	-680.000
205.70	633.333
206.08	900.000
206.45	-1166.667
206.83	333.333
207.20	147.368
207.58	216.667
207.96	640.000
208.33	0.000
208.71	542.857
209.08	780.000
209.46	-3700.000
209.84	-625.000
210.21	920.000
210.59	-680.000
210.96	416.667
211.34	-900.000
211.71	381.818
212.09	800.000
212.46	2050.000
212.84	-350.000
213.22	355.556
213.59	-2700.000
213.97	300.000
214.34	750.000
214.72	1033.333
215.09	1100.000
215.47	-3300.000
215.84	-280.000
216.22	-337.500
216.59	0.000
216.97	0.000
217.34	1700.000
217.72	-2000.000
218.09	1200.000
218.47	425.000
218.84	950.000
219.22	1333.333
219.59	1000.000
219.97	542.857
220.34	366.667
220.72	1450.000
221.09	2800.000
221.47	225.000
221.84	1033.333
222.22	380.000
222.59	205.556
222.97	242.857
223.34	300.000
223.72	-1550.000
224.09	1300.000
224.46	230.769
224.84	-700.000
225.21	455.556
225.59	293.333
225.96	1000.000
226.34	-860.000
226.71	-650.000
227.08	-560.000
227.46	0.000
227.83	-483.333
228.21	-1550.000
228.58	333.333
228.95	850.000
229.33	355.556
229.70	1150.000
230.08	330.769
230.45	3400.000
230.82	-675.000
231.20	-666.667
231.57	-733.333
231.95	440.000
232.32	233.333
232.69	583.333
233.07	308.333
233.44	-1700.000
233.81	266.667
234.19	166.667
234.56	206.250
234.93	158.824
235.31	190.000
235.68	225.000
236.05	157.143
236.43	122.222
236.80	271.429
237.17	168.966
237.55	100.000
237.92	120.000
238.29	127.273
238.67	134.375
239.04	87.805
239.41	75.000
239.79	95.000
240.16	77.083
240.53	62.295
240.91	66.667
241.28	69.492
241.65	56.061
242.02	83.099
242.40	57.143
242.77	59.341
243.14	51.899
243.51	55.556
243.89	54.206
244.26	46.729
244.63	48.515
245.00	43.119
245.38	38.136
245.75	41.667
246.12	48.889
246.49	38.298
246.87	37.705
247.24	34.000
247.61	32.500
247.98	48.299
248.36	35.152
248.73	38.265
249.10	30.357
249.47	39.000
249.84	29.353
250.22	35.135
250.59	34.000
250.96	27.004
251.33	29.302
251.70	27.679
252.08	27.731
252.45	24.303
252.82	26.996
253.19	28.458
253.56	26.923
253.94	26.087
254.31	27.132
254.68	26.481
255.05	26.207
255.42	26.277
255.79	26.059
256.16	25.763
256.54	27.597
256.91	27.124
257.28	27.759
257.65	17.241
258.02	19.174
258.39	25.788
258.76	26.377
259.14	22.000
259.51	26.239
259.88	23.404
260.25	22.527
260.62	25.479
260.99	20.937
261.36	23.955
261.73	22.074
262.10	23.822
262.47	20.750
262.85	21.600
263.22	24.165
263.59	24.808
263.96	25.564
264.33	19.259
264.70	20.885
265.07	22.195
265.44	21.101
265.81	19.811
266.18	25.172
266.55	21.513
266.92	23.043
267.29	21.711
267.66	22.646
268.03	20.628
268.40	23.044
268.77	22.467
269.14	16.920
269.51	18.708
269.88	21.633
270.25	16.631
270.62	20.172
270.99	21.298
271.36	24.390
271.73	17.610
272.10	19.394
272.47	18.254
272.84	19.561
273.21	19.008
273.58	20.850
273.95	17.659
274.32	20.233
274.69	20.276
275.06	19.854
275.43	18.774
275.80	20.377
276.17	21.140
276.54	19.626
276.91	19.030
277.28	19.343
277.65	19.373
278.02	20.221
278.39	19.964
278.76	20.172
279.13	17.794
279.50	18.364
279.87	18.994
280.23	18.785
280.60	18.066
280.97	19.483
281.34	18.647
281.71	18.957
282.08	19.487
282.45	16.554
282.82	19.565
283.19	17.965
283.56	16.860
283.92	17.590
284.29	17.637
284.66	17.815
285.03	16.915
285.40	17.521
285.77	16.667
286.14	18.576
286.51	16.871
286.87	15.981
287.24	16.216
287.61	16.261
287.98	16.418
288.35	16.593
288.72	15.781
289.08	18.018
289.45	16.463
289.82	16.719
290.19	16.691
290.56	18.923
290.93	16.547
291.29	15.884
291.66	14.831
292.03	15.428
292.40	16.667
292.77	14.903
293.13	15.407
293.50	14.710
293.87	14.905
294.24	15.944
294.60	16.689
294.97	14.965
295.34	14.608
295.71	16.163
296.08	16.133
296.44	14.104
296.81	13.400
297.18	14.956
297.55	15.517
297.91	13.793
298.28	12.923
298.65	14.969
299.02	13.872
299.38	15.108
299.75	13.780
300.12	13.991
300.48	15.457
300.85	13.588
301.22	14.651
301.59	13.443
301.95	12.952
302.32	14.435
302.69	14.480
303.05	14.815
303.42	13.004
303.79	13.976
304.15	13.421
304.52	12.579
304.89	13.859
305.25	13.459
305.62	13.753
305.99	12.826
306.35	12.316
306.72	13.528
307.09	13.354
307.45	13.305
307.82	13.374
308.19	13.505
308.55	12.000
308.92	14.524
309.29	13.314
309.65	12.785
310.02	14.199
310.38	13.161
310.75	13.886
311.12	12.548
311.48	14.575
311.85	13.740
312.22	13.945
312.58	12.731
312.95	14.272
313.31	15.637
313.68	14.447
314.05	14.469
314.41	14.060
314.78	13.920
315.14	14.882
315.51	15.232
315.87	14.690
316.24	14.846
316.61	15.577
316.97	14.771
317.34	16.442
317.70	15.891
318.07	15.391
318.43	15.993
318.80	16.025
319.16	16.434
319.53	15.929
319.89	16.129
320.26	18.063
320.62	17.308
320.99	16.873
321.35	17.625
321.72	18.691
322.08	18.283
322.45	18.619
322.81	17.841
323.18	18.739
323.54	18.728
323.91	19.674
324.27	20.071
324.64	18.166
325.00	21.207
325.37	20.911
325.73	20.320
326.10	20.713
326.46	19.901
326.83	21.280
327.19	23.133
327.56	20.687
327.92	22.131
328.29	23.486
328.65	23.801
329.01	21.300
329.38	23.604
329.74	22.032
330.11	21.720
330.47	23.188
330.84	22.865
331.20	23.181
331.56	24.957
331.93	23.524
332.29	23.044
332.66	23.724
333.02	22.337
333.38	23.211
333.75	23.686
334.11	22.987
334.48	23.333
334.84	22.973
335.20	23.524
335.57	23.510
335.93	23.802
336.29	22.803
336.66	24.700
337.02	22.926
337.38	23.302
337.75	22.804
338.11	24.557
338.47	22.354
338.84	23.709
339.20	22.424
339.56	22.708
339.93	23.579
340.29	22.437
340.65	24.225
341.02	24.537
341.38	24.795
341.74	23.173
342.11	22.788
342.47	23.134
342.83	23.626
343.20	24.010
343.56	24.067
343.92	23.865
344.28	23.764
344.65	23.146
345.01	23.254
345.37	23.798
345.73	24.286
346.10	23.108
346.46	23.206
346.82	23.611
347.19	23.725
347.55	22.795
347.91	23.565
348.27	23.625
348.63	23.734
349.00	23.458
349.36	22.490
349.72	23.624
350.08	23.602
350.45	23.534
350.81	24.159
351.17	22.573
351.53	24.172
351.89	22.766
352.26	24.187
352.62	24.057
352.98	24.770
353.34	24.268
353.70	23.777
354.07	24.154
354.43	24.731
354.79	23.918
355.15	23.507
355.51	24.396
355.87	24.247
356.24	23.941
356.60	24.353
356.96	23.882
357.32	24.491
357.68	25.037
358.04	24.392
358.40	24.363
358.77	24.343
359.13	24.399
359.49	23.647
359.85	24.572
360.21	23.403
360.57	24.161
360.93	24.387
361.29	23.954
361.66	24.907
362.02	24.219
362.38	25.036
362.74	25.053
363.10	25.245
363.46	24.033
363.82	25.175
364.18	24.182
364.54	24.964
364.90	24.699
365.26	24.705
365.62	24.931
365.98	24.226
366.35	25.310
366.71	24.358
367.07	24.300
367.43	25.252
367.79	24.136
368.15	24.152
368.51	25.431
368.87	24.728
369.23	25.502
369.59	24.545
369.95	24.965
370.31	24.572
370.67	24.219
371.03	25.490
371.39	26.108
371.75	24.285
372.11	25.561
372.47	25.685
372.83	24.745
373.19	26.525
373.55	25.017
373.91	24.655
374.27	25.397
374.63	25.492
374.99	26.011
375.35	25.874
375.71	26.979
376.07	25.133
376.42	25.192
376.78	26.268
377.14	25.557
377.50	25.655
377.86	25.753
378.22	25.107
378.58	26.513
378.94	25.830
379.30	25.773
379.66	25.406
380.02	26.452
380.38	25.293
380.74	27.278
381.09	25.935
381.45	26.243
381.81	25.768
382.17	26.618
382.53	26.335
382.89	25.843
383.25	26.347
383.61	24.611
383.97	26.035
384.32	26.100
384.68	26.203
385.04	26.377
385.40	26.097
385.76	26.624
386.12	25.541
386.48	26.565
386.83	26.834
387.19	26.561
387.55	26.266
387.91	26.097
388.27	26.234
388.62	26.350
388.98	25.948
389.34	25.580
389.70	25.531
390.06	26.768
390.42	25.848
390.77	26.106
391.13	26.675
391.49	26.255
391.85	26.646
392.20	26.877
392.56	27.121
392.92	25.491
393.28	25.392
393.64	25.688
393.99	26.378
394.35	26.015
394.71	24.910
395.07	25.547
395.42	25.878
395.78	26.342
396.14	27.651
396.50	25.933
396.85	25.732
397.21	26.233
397.57	26.001
397.92	25.477
398.28	25.924
398.64	26.178
399.00	25.494
399.35	25.174
399.71	25.552
400.07	25.970
400.42	25.851
400.78	25.806
401.14	25.661
401.49	25.288
401.85	25.782
402.21	24.429
402.57	26.032
402.92	25.455
403.28	25.060
403.63	25.544
403.99	25.030
404.35	24.912
404.70	25.635
405.06	24.481
405.42	25.972
405.77	24.807
406.13	24.566
406.49	24.559
406.84	24.929
407.20	25.228
407.55	25.231
407.91	26.101
408.27	25.955
408.62	25.192
408.98	24.778
409.34	25.015
409.69	24.642
410.05	24.925
410.40	24.735
410.76	23.812
411.11	24.822
411.47	25.185
411.83	23.960
412.18	24.336
412.54	24.505
412.89	24.012
413.25	24.914
413.60	24.766
413.96	24.536
414.31	24.734
414.67	25.016
415.03	24.457
415.38	25.110
415.74	25.521
416.09	24.547
416.45	25.727
416.80	25.978
417.16	24.761
417.51	25.032
417.87	24.531
418.22	24.787
418.58	24.777
418.93	24.747
419.29	24.399
419.64	24.531
420.00	25.776
420.35	24.448
420.71	24.796
421.06	24.191
421.42	25.561
421.77	24.486
422.12	25.303
422.48	25.116
422.83	24.944
423.19	24.838
423.54	24.355
423.90	25.198
424.25	24.711
424.61	25.363
424.96	25.127
425.31	24.302
425.67	26.319
426.02	25.351
426.38	25.788
426.73	25.101
427.09	25.741
427.44	24.705
427.79	25.443
428.15	26.635
428.50	25.943
428.85	26.220
429.21	25.824
429.56	25.523
429.92	25.709
430.27	25.448
430.62	24.914
430.98	24.800
431.33	25.050
431.68	24.938
432.04	26.022
432.39	26.235
432.74	25.995
433.10	26.301
433.45	25.617
433.80	26.641
434.16	24.908
434.51	26.058
434.86	26.565
435.22	25.554
435.57	27.090
435.92	27.035
436.28	26.786
436.63	26.310
436.98	26.070
437.34	25.913
437.69	26.148
438.04	26.075
438.39	26.036
438.75	26.169
439.10	26.228
439.45	26.173
439.81	26.547
440.16	26.087
440.51	26.182
440.86	27.293
441.22	25.866
441.57	26.404
441.92	25.913
442.27	25.206
442.63	26.575
442.98	26.509
443.33	26.299
443.68	25.503
444.03	26.060
444.39	26.271
444.74	26.915
445.09	27.067
445.44	26.514
445.79	25.975
446.15	26.579
446.50	26.741
446.85	26.295
447.20	26.318
447.55	26.917
447.91	26.692
448.26	26.464
448.61	27.032
448.96	27.505
449.31	27.173
449.66	26.467
450.02	26.094
450.37	26.985
450.72	27.438
451.07	27.341
451.42	27.090
451.77	26.690
452.12	26.659
452.47	26.853
452.83	27.831
453.18	27.688
453.53	27.057
453.88	27.143
454.23	27.252
454.58	26.981
454.93	27.100
455.28	27.723
455.63	26.891
455.98	27.524
456.34	27.781
456.69	26.402
457.04	26.551
457.39	26.171
457.74	27.815
458.09	26.558
458.44	26.670
458.79	26.844
459.14	26.296
459.49	26.557
459.84	27.011
460.19	27.175
460.54	26.781
460.89	27.345
461.24	25.773
461.59	27.664
461.94	27.069
462.29	27.174
462.64	26.884
462.99	27.639
463.34	27.933
463.69	27.707
464.04	28.037
464.39	26.732
464.74	26.729
465.09	27.510
465.44	26.115
465.79	26.565
466.14	26.285
466.49	26.858
466.84	26.979
467.19	27.827
467.54	26.967
467.89	26.174
468.24	26.809
468.59	27.024
468.94	26.812
469.29	27.734
469.64	27.524
469.99	26.671
470.34	27.514
470.68	27.586
471.03	28.152
471.38	28.013
471.73	27.564
472.08	27.723
472.43	27.374
472.78	27.529
473.13	26.846
473.48	27.384
473.83	26.207
474.17	26.930
474.52	27.014
474.87	26.947
475.22	27.698
475.57	27.125
475.92	27.082
476.27	26.496
476.61	26.059
476.96	27.377
477.31	27.455
477.66	28.717
478.01	27.231
478.36	27.394
478.70	26.700
479.05	27.249
479.40	26.389
479.75	26.713
480.10	28.170
480.45	26.377
480.79	26.774
481.14	26.819
481.49	25.755
481.84	26.869
482.19	27.860
482.53	26.307
482.88	27.106
483.23	26.658
483.58	27.020
483.92	27.834
484.27	26.627
484.62	26.401
484.97	26.529
485.31	25.811
485.66	25.514
486.01	24.740
486.36	24.111
486.70	24.018
487.05	24.650
487.40	24.763
487.75	25.078
488.09	25.142
488.44	25.303
488.79	25.859
489.13	26.241
489.48	26.249
489.83	26.355
490.17	25.764
490.52	26.055
490.87	26.767
491.22	27.083
491.56	26.131
491.91	26.299
492.26	27.127
492.60	27.426
492.95	26.688
493.30	26.570
493.64	27.269
493.99	26.655
494.34	27.342
494.68	26.428
495.03	26.628
495.37	27.105
495.72	27.040
496.07	26.819
496.41	27.020
496.76	26.425
497.11	27.035
497.45	26.567
497.80	27.108
498.14	27.092
498.49	26.555
498.84	27.804
499.18	26.554
499.53	26.826
499.87	27.224
500.22	26.301
500.56	26.462
500.91	27.319
501.26	27.791
501.60	27.505
501.95	26.747
502.29	27.067
502.64	26.334
502.98	27.034
503.33	26.949
503.67	26.799
504.02	26.646
504.36	27.466
504.71	28.146
505.06	27.030
505.40	26.252
505.75	26.193
506.09	27.438
506.44	26.974
506.78	26.890
507.13	27.484
507.47	27.317
507.82	28.078
508.16	28.809
508.51	28.164
508.85	27.398
509.19	28.243
509.54	27.344
509.88	28.593
510.23	27.059
510.57	27.413
510.92	28.472
511.26	28.012
511.61	26.834
511.95	28.273
512.30	27.500
512.64	27.310
512.98	27.934
513.33	27.510
513.67	27.706
514.02	28.208
514.36	28.816
514.70	28.693
515.05	27.917
515.39	28.015
515.74	28.595
516.08	28.540
516.42	28.852
516.77	27.360
517.11	29.280
517.46	29.041
517.80	27.744
518.14	28.901
518.49	28.225
518.83	28.626
519.17	28.674
519.52	29.274
519.86	28.610
520.20	28.822
520.55	28.660
520.89	29.483
521.23	29.498
521.58	29.088
521.92	29.679
522.26	29.088
522.61	28.996
522.95	29.790
523.29	29.766
523.64	28.382
523.98	28.932
524.32	29.700
524.66	29.507
525.01	29.290
525.35	28.403
525.69	29.621
526.04	29.744
526.38	29.488
526.72	29.236
527.06	28.800
527.41	29.202
527.75	29.763
528.09	28.477
528.43	30.323
528.78	29.040
529.12	30.464
529.46	29.982
529.80	29.556
530.15	29.405
530.49	29.543
530.83	29.494
531.17	29.705
531.51	29.675
531.86	28.804
532.20	29.419
532.54	28.814
532.88	28.982
533.22	29.799
533.57	28.920
533.91	28.730
534.25	28.448
534.59	29.240
534.93	29.352
535.27	28.230
535.62	29.288
535.96	28.842
536.30	29.921
536.64	28.696
536.98	29.641
537.32	30.125
537.66	28.635
538.01	30.031
538.35	29.258
538.69	28.459
539.03	29.540
539.37	28.277
539.71	28.642
540.05	28.308
540.39	30.189
540.73	29.620
541.07	28.607
541.42	29.104
541.76	28.360
542.10	28.237
542.44	29.364
542.78	29.704
543.12	28.221
543.46	29.574
543.80	29.511
544.14	29.040
544.48	29.136
544.82	28.379
545.16	27.930
545.50	28.949
545.84	28.662
546.18	30.299
546.52	30.492
546.86	29.852
547.20	28.359
547.54	28.056
547.88	28.710
548.22	28.901
548.56	28.757
548.90	28.233
549.24	29.375
549.58	29.510
549.92	29.601
550.26	30.156
550.60	29.075
550.94	30.665
551.28	29.862
551.62	29.931
551.96	29.459
552.30	28.939
552.64	29.579
552.98	28.930
553.32	29.385
553.66	29.772
554.00	29.022
554.34	29.694
554.68	29.704
555.02	30.007
555.36	28.856
555.69	29.254
556.03	29.427
556.37	29.063
556.71	30.704
557.05	28.571
557.39	29.133
557.73	29.245
558.07	28.773
558.41	30.569
558.75	29.822
559.08	30.808
559.42	29.993
559.76	30.078
560.10	30.489
560.44	30.458
560.78	29.668
561.12	29.434
561.45	28.473
561.79	28.340
562.13	27.858
562.47	29.202
562.81	28.757
563.15	28.895
563.48	28.323
563.82	28.759
564.16	28.545
564.50	27.728
564.84	28.936
565.17	28.461
565.51	29.433
565.85	29.673
566.19	28.988
566.52	28.279
566.86	29.539
567.20	28.652
567.54	28.821
567.88	28.743
568.21	28.058
568.55	28.113
568.89	27.007
569.23	26.704
569.56	26.957
569.90	25.620
570.24	26.235
570.57	26.282
570.91	25.616
571.25	25.208
571.59	24.817
571.92	24.892
572.26	24.367
572.60	24.993
572.93	25.187
573.27	25.014
573.61	24.716
573.95	25.025
574.28	25.109
574.62	24.686
574.96	24.164
575.29	24.043
575.63	23.651
575.97	24.051
576.30	24.247
576.64	24.666
576.98	24.147
577.31	24.748
577.65	24.573
577.98	23.841
578.32	23.578
578.66	23.814
578.99	24.145
579.33	24.515
579.67	24.140
580.00	24.260
580.34	24.139
580.67	23.982
581.01	24.797
581.35	23.952
581.68	23.092
582.02	23.808
582.35	23.289
582.69	24.343
583.02	23.879
583.36	24.046
583.70	24.233
584.03	25.155
584.37	24.735
584.70	25.205
585.04	23.840
585.37	23.738
585.71	24.652
586.04	24.395
586.38	24.276
586.72	24.196
587.05	24.884
587.39	24.501
587.72	24.787
588.06	24.534
588.39	24.846
588.73	25.089
589.06	25.328
589.40	25.477
589.73	25.008
590.07	25.704
590.40	25.819
590.73	26.845
591.07	26.262
591.40	25.908
591.74	25.731
592.07	25.541
592.41	26.179
592.74	25.082
593.08	24.902
593.41	24.596
593.75	24.305
594.08	25.316
594.41	24.210
594.75	24.795
595.08	25.309
595.42	25.708
595.75	25.107
596.09	25.721
596.42	25.892
596.75	26.402
597.09	26.207
597.42	26.082
597.75	25.436
598.09	25.851
598.42	25.622
598.76	25.675
599.09	25.818
599.42	24.844
599.76	25.407
600.09	24.780
600.42	24.827
600.76	24.983
601.09	24.853
601.42	25.097
601.76	25.242
602.09	25.018
602.42	25.989
602.76	25.237
603.09	25.490
603.42	25.468
603.76	24.910
604.09	25.045
604.42	24.972
604.76	25.405
605.09	25.143
605.42	26.087
605.75	24.951
606.09	25.057
606.42	25.442
606.75	25.223
607.09	24.793
607.42	24.950
607.75	25.597
608.08	24.736
608.42	25.629
608.75	25.931
609.08	25.561
609.41	25.727
609.75	25.412
610.08	25.944
610.41	25.999
610.74	24.935
611.07	26.421
611.41	26.506
611.74	25.813
612.07	25.241
612.40	26.218
612.73	26.760
613.07	26.761
613.40	25.915
613.73	26.111
614.06	25.900
614.39	25.707
614.72	25.465
615.06	26.212
615.39	25.594
615.72	25.702
616.05	27.072
616.38	26.636
616.71	26.262
617.05	25.810
617.38	26.348
617.71	26.490
618.04	26.472
618.37	27.126
618.70	25.577
619.03	26.618
619.36	28.455
619.69	26.715
620.03	28.245
620.36	27.360
620.69	27.842
621.02	28.125
621.35	28.367
621.68	28.466
622.01	29.077
622.34	27.604
622.67	28.230
623.00	28.251
623.33	26.991
623.66	27.146
623.99	27.945
624.32	27.981
624.65	26.794
624.99	27.519
625.32	28.457
625.65	26.552
625.98	27.545
626.31	28.338
626.64	28.170
626.97	26.626
627.30	28.494
627.63	28.571
627.96	28.638
628.29	29.620
628.62	28.743
628.95	29.344
629.28	30.762
629.61	28.735
629.94	29.386
630.26	28.336
630.59	29.521
630.92	27.892
631.25	30.462
