SpectraSuite Data File
++++++++++++++++++++++++++++++++++++
Date: Tue May 12 17:13:25 PDT 2015
User: schluterlab
Dark Spectrum Present: Yes
Reference Spectrum Present: Yes
Number of Sampled Component Spectra: 1
Spectrometers: USB2E3373
Integration Time (usec): 3000 (USB2E3373)
Spectra Averaged: 3 (USB2E3373)
Boxcar Smoothing: 0 (USB2E3373)
Correct for Electrical Dark: No (USB2E3373)
Strobe/Lamp Enabled: No (USB2E3373)
Correct for Detector Non-linearity: No (USB2E3373)
Correct for Stray Light: No (USB2E3373)
Number of Pixels in Processed Spectrum: 2048
>>>>>Begin Processed Spectral Data<<<<<
178.53	0.000
178.91	-200.000
179.29	-775.000
179.67	-3200.000
180.04	-160.000
180.42	725.000
180.80	1400.000
181.18	0.000
181.56	-337.500
181.94	0.000
182.31	1066.667
182.69	-2800.000
183.07	628.571
183.45	-2800.000
183.83	-1200.000
184.20	280.000
184.58	357.143
184.96	-215.385
185.34	-141.667
185.72	1300.000
186.09	-800.000
186.47	-3900.000
186.85	1100.000
187.23	640.000
187.61	1400.000
187.98	437.500
188.36	221.429
188.74	375.000
189.12	341.667
189.49	900.000
189.87	0.000
190.25	375.000
190.63	2400.000
191.00	-208.333
191.38	-2800.000
191.76	-925.000
192.14	512.500
192.51	-3100.000
192.89	1600.000
193.27	900.000
193.65	-966.667
194.02	-780.000
194.40	542.857
194.78	-250.000
195.15	233.333
195.53	-3000.000
195.91	-600.000
196.29	2900.000
196.66	287.500
197.04	900.000
197.42	-1400.000
197.79	625.000
198.17	300.000
198.55	0.000
198.92	542.857
199.30	900.000
199.68	1900.000
200.05	616.667
200.43	-516.667
200.81	227.778
201.18	3400.000
201.56	341.667
201.94	-800.000
202.31	-312.500
202.69	-500.000
203.07	3100.000
203.44	-433.333
203.82	300.000
204.19	600.000
204.57	-1150.000
204.95	-625.000
205.32	-680.000
205.70	566.667
206.08	525.000
206.45	-733.333
206.83	311.111
207.20	189.474
207.58	275.000
207.96	740.000
208.33	0.000
208.71	628.571
209.08	660.000
209.46	-2600.000
209.84	-650.000
210.21	660.000
210.59	-400.000
210.96	350.000
211.34	-1000.000
211.71	354.545
212.09	875.000
212.46	1750.000
212.84	-350.000
213.22	388.889
213.59	-2100.000
213.97	330.000
214.34	900.000
214.72	1000.000
215.09	1166.667
215.47	-2800.000
215.84	-250.000
216.22	-337.500
216.59	0.000
216.97	0.000
217.34	1500.000
217.72	-1650.000
218.09	1100.000
218.47	525.000
218.84	950.000
219.22	1166.667
219.59	1300.000
219.97	557.143
220.34	400.000
220.72	1850.000
221.09	3200.000
221.47	225.000
221.84	1100.000
222.22	330.000
222.59	238.889
222.97	271.429
223.34	206.250
223.72	-1600.000
224.09	833.333
224.46	300.000
224.84	-675.000
225.21	333.333
225.59	313.333
225.96	1200.000
226.34	-560.000
226.71	-675.000
227.08	-360.000
227.46	0.000
227.83	-516.667
228.21	-1750.000
228.58	283.333
228.95	975.000
229.33	422.222
229.70	800.000
230.08	323.077
230.45	2900.000
230.82	-775.000
231.20	-866.667
231.57	-1233.333
231.95	540.000
232.32	316.667
232.69	450.000
233.07	175.000
233.44	-1650.000
233.81	226.667
234.19	137.037
234.56	250.000
234.93	217.647
235.31	265.000
235.68	293.750
236.05	167.857
236.43	155.556
236.80	292.857
237.17	155.172
237.55	134.375
237.92	105.000
238.29	136.364
238.67	165.625
239.04	117.073
239.41	91.667
239.79	105.000
240.16	108.333
240.53	88.525
240.91	85.507
241.28	93.220
241.65	77.273
242.02	81.690
242.40	91.429
242.77	69.231
243.14	69.620
243.51	80.808
243.89	63.551
244.26	67.290
244.63	61.386
245.00	73.394
245.38	56.780
245.75	65.152
246.12	66.667
246.49	56.028
246.87	59.016
247.24	56.000
247.61	56.250
247.98	58.503
248.36	61.818
248.73	52.551
249.10	50.595
249.47	52.000
249.84	54.229
250.22	60.541
250.59	50.500
250.96	50.633
251.33	48.372
251.70	49.107
252.08	45.798
252.45	46.614
252.82	44.867
253.19	49.407
253.56	53.846
253.94	43.841
254.31	44.961
254.68	52.613
255.05	48.621
255.42	54.380
255.79	43.322
256.16	50.508
256.54	48.052
256.91	44.771
257.28	48.495
257.65	44.201
258.02	46.903
258.39	46.132
258.76	46.087
259.14	43.143
259.51	45.481
259.88	49.544
260.25	45.330
260.62	44.384
260.99	45.179
261.36	46.518
261.73	47.074
262.10	44.503
262.47	44.000
262.85	41.067
263.22	43.188
263.59	42.711
263.96	43.108
264.33	43.704
264.70	42.752
265.07	45.610
265.44	44.954
265.81	42.453
266.18	41.419
266.55	44.917
266.92	41.834
267.29	42.982
267.66	42.825
268.03	46.413
268.40	43.975
268.77	42.731
269.14	42.733
269.51	42.984
269.88	42.041
270.25	40.173
270.62	41.631
270.99	43.205
271.36	43.293
271.73	40.042
272.10	41.212
272.47	43.452
272.84	38.323
273.21	39.876
273.58	43.320
273.95	42.710
274.32	41.829
274.69	42.323
275.06	41.348
275.43	40.038
275.80	39.811
276.17	40.441
276.54	41.308
276.91	40.299
277.28	40.876
277.65	39.668
278.02	38.787
278.39	38.849
278.76	38.103
279.13	40.391
279.50	38.727
279.87	39.106
280.23	39.595
280.60	41.788
280.97	40.690
281.34	36.964
281.71	39.130
282.08	39.316
282.45	38.851
282.82	38.127
283.19	38.951
283.56	39.504
283.92	38.436
284.29	36.606
284.66	35.126
285.03	38.308
285.40	37.025
285.77	35.802
286.14	37.461
286.51	39.877
286.87	34.968
287.24	36.336
287.61	36.474
287.98	35.821
288.35	36.296
288.72	34.143
289.08	34.234
289.45	35.976
289.82	36.094
290.19	35.139
290.56	35.808
290.93	33.957
291.29	34.116
291.66	33.616
292.03	33.380
292.40	33.333
292.77	33.008
293.13	34.094
293.50	32.928
293.87	31.436
294.24	33.147
294.60	33.647
294.97	34.545
295.34	32.005
295.71	32.457
296.08	32.133
296.44	32.402
296.81	29.280
297.18	30.545
297.55	30.049
297.91	30.049
298.28	30.918
298.65	30.920
299.02	28.951
299.38	31.295
299.75	29.634
300.12	29.587
300.48	30.094
300.85	30.989
301.22	31.395
301.59	31.604
301.95	30.338
302.32	30.268
302.69	28.959
303.05	29.854
303.42	28.812
303.79	29.252
304.15	28.823
304.52	27.801
304.89	28.998
305.25	28.142
305.62	29.318
305.99	29.239
306.35	28.316
306.72	27.888
307.09	27.950
307.45	27.666
307.82	28.807
308.19	25.773
308.55	27.400
308.92	28.950
309.29	29.191
309.65	29.534
310.02	28.905
310.38	28.116
310.75	27.290
311.12	28.544
311.48	29.537
311.85	27.290
312.22	27.794
312.58	28.280
312.95	29.709
313.31	28.464
313.68	28.518
314.05	29.029
314.41	27.747
314.78	29.072
315.14	29.384
315.51	28.477
315.87	27.555
316.24	27.824
316.61	28.021
316.97	28.349
317.34	29.021
317.70	28.885
318.07	28.648
318.43	29.174
318.80	29.335
319.16	29.458
319.53	28.850
319.89	27.778
320.26	30.726
320.62	29.304
320.99	29.552
321.35	29.035
321.72	28.748
322.08	27.978
322.45	26.703
322.81	27.996
323.18	28.242
323.54	29.617
323.91	29.374
324.27	29.178
324.64	28.806
325.00	30.086
325.37	30.017
325.73	29.174
326.10	30.323
326.46	29.315
326.83	27.440
327.19	29.880
327.56	27.955
327.92	28.607
328.29	30.524
328.65	29.966
329.01	29.855
329.38	28.934
329.74	29.291
330.11	29.887
330.47	29.668
330.84	27.783
331.20	28.511
331.56	28.584
331.93	30.539
332.29	27.211
332.66	29.252
333.02	27.320
333.38	29.058
333.75	28.691
334.11	28.607
334.48	28.632
334.84	27.703
335.20	28.400
335.57	28.128
335.93	29.016
336.29	28.109
336.66	29.588
337.02	27.288
337.38	27.601
337.75	27.534
338.11	28.017
338.47	29.128
338.84	26.842
339.20	27.013
339.56	27.418
339.93	28.094
340.29	26.639
340.65	27.578
341.02	28.158
341.38	27.833
341.74	27.741
342.11	28.715
342.47	27.400
342.83	28.220
343.20	27.486
343.56	26.291
343.92	27.333
344.28	26.954
344.65	27.628
345.01	26.270
345.37	27.885
345.73	26.905
346.10	26.454
346.46	27.911
346.82	25.772
347.19	27.821
347.55	26.073
347.91	26.133
348.27	26.801
348.63	27.532
349.00	27.266
349.36	27.082
349.72	27.446
350.08	27.019
350.45	26.657
350.81	26.911
351.17	26.502
351.53	25.943
351.89	26.651
352.26	26.153
352.62	25.943
352.98	26.227
353.34	26.965
353.70	26.682
354.07	27.154
354.43	26.498
354.79	25.588
355.15	26.953
355.51	26.284
355.87	26.958
356.24	26.405
356.60	26.560
356.96	24.792
357.32	25.019
357.68	25.918
358.04	25.988
358.40	25.937
358.77	26.071
359.13	25.826
359.49	24.833
359.85	25.987
360.21	24.220
360.57	25.620
360.93	26.046
361.29	25.325
361.66	26.398
362.02	24.716
362.38	26.335
362.74	26.610
363.10	25.666
363.46	25.138
363.82	25.806
364.18	25.960
364.54	25.465
364.90	26.104
365.26	24.983
365.62	25.345
365.98	24.363
366.35	24.759
366.71	25.538
367.07	25.119
367.43	25.588
367.79	25.199
368.15	23.541
368.51	25.775
368.87	24.728
369.23	25.641
369.59	25.152
369.95	24.545
370.31	25.325
370.67	25.746
371.03	26.120
371.39	24.931
371.75	25.541
372.11	24.609
372.47	25.959
372.83	25.425
373.19	24.812
373.55	24.880
373.91	24.931
374.27	24.339
374.63	24.000
374.99	24.394
375.35	23.925
375.71	25.792
376.07	24.602
376.42	23.657
376.78	25.305
377.14	24.509
377.50	24.345
377.86	24.151
378.22	24.558
378.58	24.879
378.94	24.442
379.30	24.318
379.66	24.684
380.02	25.103
380.38	24.063
380.74	25.548
381.09	25.350
381.45	24.451
381.81	24.113
382.17	23.321
382.53	24.115
382.89	24.246
383.25	23.742
383.61	22.997
383.97	23.875
384.32	24.714
384.68	24.718
385.04	23.974
385.40	22.954
385.76	23.054
386.12	23.871
386.48	23.708
386.83	24.022
387.19	24.323
387.55	23.616
387.91	23.499
388.27	24.688
388.62	24.413
388.98	24.023
389.34	24.033
389.70	23.703
390.06	23.415
390.42	24.244
390.77	24.386
391.13	23.537
391.49	24.077
391.85	24.123
392.20	24.374
392.56	23.716
392.92	22.852
393.28	23.318
393.64	22.592
393.99	23.770
394.35	24.485
394.71	22.738
395.07	23.297
395.42	23.946
395.78	23.689
396.14	24.518
396.50	23.406
396.85	23.171
397.21	23.345
397.57	22.953
397.92	23.455
398.28	23.221
398.64	22.513
399.00	22.929
399.35	22.598
399.71	22.958
400.07	22.660
400.42	22.507
400.78	22.874
401.14	22.959
401.49	22.984
401.85	23.523
402.21	22.906
402.57	23.579
402.92	22.242
403.28	22.554
403.63	23.367
403.99	23.160
404.35	23.740
404.70	23.745
405.06	21.898
405.42	22.322
405.77	22.712
406.13	22.831
406.49	22.854
406.84	22.109
407.20	23.231
407.55	23.015
407.91	23.165
408.27	22.862
408.62	22.472
408.98	23.004
409.34	22.852
409.69	22.526
410.05	22.242
410.40	22.438
410.76	22.667
411.11	22.690
411.47	22.407
411.83	21.793
412.18	21.558
412.54	22.162
412.89	22.242
413.25	22.748
413.60	22.780
413.96	22.023
414.31	22.491
414.67	23.402
415.03	23.691
415.38	22.776
415.74	23.437
416.09	22.673
416.45	23.400
416.80	24.118
417.16	22.215
417.51	23.057
417.87	22.653
418.22	22.175
418.58	23.312
418.93	21.773
419.29	22.304
419.64	23.137
420.00	22.733
420.35	22.300
420.71	22.404
421.06	21.954
421.42	22.337
421.77	22.543
422.12	22.492
422.48	22.085
422.83	22.098
423.19	21.652
423.54	21.832
423.90	22.424
424.25	22.289
424.61	22.345
424.96	21.739
425.31	21.894
425.67	22.503
426.02	22.210
426.38	21.587
426.73	21.689
427.09	22.123
427.44	22.060
427.79	22.241
428.15	22.392
428.50	22.514
428.85	22.810
429.21	21.988
429.56	22.283
429.92	22.824
430.27	21.964
430.62	21.635
430.98	22.106
431.33	21.321
431.68	20.938
432.04	22.142
432.39	22.997
432.74	22.834
433.10	22.204
433.45	23.492
433.80	23.662
434.16	22.648
434.51	22.446
434.86	22.591
435.22	23.393
435.57	23.059
435.92	22.311
436.28	23.272
436.63	22.312
436.98	23.649
437.34	23.402
437.69	22.452
438.04	22.742
438.39	22.884
438.75	22.996
439.10	23.475
439.45	23.177
439.81	23.250
440.16	22.620
440.51	22.973
440.86	23.305
441.22	22.835
441.57	23.202
441.92	22.557
442.27	22.165
442.63	22.307
442.98	22.737
443.33	22.657
443.68	22.787
444.03	22.196
444.39	22.458
444.74	22.930
445.09	22.433
445.44	22.317
445.79	22.710
446.15	23.737
446.50	23.049
446.85	22.510
447.20	22.338
447.55	22.784
447.91	23.548
448.26	23.429
448.61	22.388
448.96	23.148
449.31	22.937
449.66	23.034
450.02	22.907
450.37	23.542
450.72	23.471
451.07	23.560
451.42	22.347
451.77	24.112
452.12	23.653
452.47	23.633
452.83	23.437
453.18	23.544
453.53	24.275
453.88	24.457
454.23	23.881
454.58	23.543
454.93	23.789
455.28	23.133
455.63	23.818
455.98	23.858
456.34	24.498
456.69	23.659
457.04	24.224
457.39	22.857
457.74	24.550
458.09	23.863
458.44	25.301
458.79	23.448
459.14	23.186
459.49	22.933
459.84	23.859
460.19	24.011
460.54	24.786
460.89	23.881
461.24	23.253
461.59	23.356
461.94	23.936
462.29	25.000
462.64	24.246
462.99	24.888
463.34	24.498
463.69	24.622
464.04	24.583
464.39	24.957
464.74	24.033
465.09	23.506
465.44	23.885
465.79	24.007
466.14	23.211
466.49	23.114
466.84	23.690
467.19	23.902
467.54	24.565
467.89	24.707
468.24	24.725
468.59	23.929
468.94	25.725
469.29	24.863
469.64	25.466
469.99	25.450
470.34	24.858
470.68	24.552
471.03	24.950
471.38	24.967
471.73	23.906
472.08	25.440
472.43	25.078
472.78	25.480
473.13	24.593
473.48	24.572
473.83	24.735
474.17	25.532
474.52	24.941
474.87	23.707
475.22	24.329
475.57	23.767
475.92	24.067
476.27	23.613
476.61	24.129
476.96	24.765
477.31	24.987
477.66	24.638
478.01	24.549
478.36	24.253
478.70	23.921
479.05	24.163
479.40	23.909
479.75	24.677
480.10	24.492
480.45	23.810
480.79	24.194
481.14	24.156
481.49	24.062
481.84	23.659
482.19	23.843
482.53	24.067
482.88	24.149
483.23	23.951
483.58	24.192
483.92	25.411
484.27	23.630
484.62	24.066
484.97	22.828
485.31	23.125
485.66	20.638
486.01	20.610
486.36	20.289
486.70	20.516
487.05	21.381
487.40	22.365
487.75	22.796
488.09	22.585
488.44	23.391
488.79	23.256
489.13	23.218
489.48	23.692
489.83	24.437
490.17	24.112
490.52	24.117
490.87	24.052
491.22	24.867
491.56	24.594
491.91	24.283
492.26	24.499
492.60	24.920
492.95	24.150
493.30	24.932
493.64	24.753
493.99	24.955
494.34	24.429
494.68	23.860
495.03	25.146
495.37	25.709
495.72	24.848
496.07	24.394
496.41	24.891
496.76	24.483
497.11	25.150
497.45	24.726
497.80	25.162
498.14	24.965
498.49	24.930
498.84	24.907
499.18	24.634
499.53	24.897
499.87	24.394
500.22	24.321
500.56	24.513
500.91	25.046
501.26	25.172
501.60	24.772
501.95	23.073
502.29	24.889
502.64	24.658
502.98	24.055
503.33	24.633
503.67	25.298
504.02	24.541
504.36	24.344
504.71	25.024
505.06	24.683
505.40	24.848
505.75	24.649
506.09	25.152
506.44	25.329
506.78	25.756
507.13	25.109
507.47	25.328
507.82	25.012
508.16	26.311
508.51	25.604
508.85	26.068
509.19	25.844
509.54	26.270
509.88	26.057
510.23	25.147
510.57	24.710
510.92	25.674
511.26	25.452
511.61	25.357
511.95	25.784
512.30	25.300
512.64	26.012
512.98	25.935
513.33	25.410
513.67	26.204
514.02	25.922
514.36	26.064
514.70	25.813
515.05	26.372
515.39	26.371
515.74	26.517
516.08	26.743
516.42	27.705
516.77	26.080
517.11	26.347
517.46	26.562
517.80	25.778
518.14	27.211
518.49	26.681
518.83	26.703
519.17	25.402
519.52	26.707
519.86	26.649
520.20	27.288
520.55	26.060
520.89	27.356
521.23	27.220
521.58	25.990
521.92	26.822
522.26	26.718
522.61	27.392
522.95	27.087
523.29	26.901
523.64	26.532
523.98	26.408
524.32	26.874
524.66	27.072
525.01	26.923
525.35	27.225
525.69	27.694
526.04	27.781
526.38	26.722
526.72	26.492
527.06	26.552
527.41	27.449
527.75	26.719
528.09	26.490
528.43	27.639
528.78	26.893
529.12	27.032
529.46	26.008
529.80	27.103
530.15	27.637
530.49	26.715
530.83	26.996
531.17	27.675
531.51	27.529
531.86	26.389
532.20	26.329
532.54	27.746
532.88	27.295
533.22	27.544
533.57	26.968
533.91	25.991
534.25	26.313
534.59	27.135
534.93	26.792
535.27	25.612
535.62	27.013
535.96	25.887
536.30	27.239
536.64	26.335
536.98	26.117
537.32	27.375
537.66	26.403
538.01	26.563
538.35	27.012
538.69	25.850
539.03	26.057
539.37	25.789
539.71	26.790
540.05	25.231
540.39	26.541
540.73	26.582
541.07	25.471
541.42	25.124
541.76	26.757
542.10	25.709
542.44	25.998
542.78	26.054
543.12	25.767
543.46	26.190
543.80	26.504
544.14	25.511
544.48	25.608
544.82	25.627
545.16	25.440
545.50	26.245
545.84	26.136
546.18	27.308
546.52	26.623
546.86	26.112
547.20	26.486
547.54	27.296
547.88	26.460
548.22	25.562
548.56	24.867
548.90	25.741
549.24	26.342
549.58	26.418
549.92	26.392
550.26	26.166
550.60	25.749
550.94	26.934
551.28	27.379
551.62	28.138
551.96	27.027
552.30	26.697
552.64	26.019
552.98	25.451
553.32	26.120
553.66	26.580
554.00	25.483
554.34	27.497
554.68	27.554
555.02	27.155
555.36	26.064
555.69	26.374
556.03	25.987
556.37	26.641
556.71	27.249
557.05	26.409
557.39	26.800
557.73	27.022
558.07	26.559
558.41	27.690
558.75	27.770
559.08	27.663
559.42	28.275
559.76	27.798
560.10	26.084
560.44	26.941
560.78	26.854
561.12	26.446
561.45	25.031
561.79	25.780
562.13	26.153
562.47	25.762
562.81	26.155
563.15	26.761
563.48	24.472
563.82	26.076
564.16	26.493
564.50	26.100
564.84	25.471
565.17	24.658
565.51	26.847
565.85	26.033
566.19	25.774
566.52	25.331
566.86	25.452
567.20	25.899
567.54	24.727
567.88	24.674
568.21	23.864
568.55	23.930
568.89	23.905
569.23	23.339
569.56	22.564
569.90	22.386
570.24	22.249
570.57	22.161
570.91	21.092
571.25	21.263
571.59	20.981
571.92	20.614
572.26	20.404
572.60	20.439
572.93	21.737
573.27	20.764
573.61	20.763
573.95	20.393
574.28	20.359
574.62	20.331
574.96	19.778
575.29	19.968
575.63	20.165
575.97	19.596
576.30	19.742
576.64	20.409
576.98	20.014
577.31	19.955
577.65	19.721
577.98	19.627
578.32	19.279
578.66	19.654
578.99	19.740
579.33	20.072
579.67	19.894
580.00	19.972
580.34	19.937
580.67	19.664
581.01	20.408
581.35	19.479
581.68	19.060
582.02	18.656
582.35	18.973
582.69	19.206
583.02	19.412
583.36	19.764
583.70	20.706
584.03	20.706
584.37	20.318
584.70	20.503
585.04	19.629
585.37	19.612
585.71	20.270
586.04	19.964
586.38	20.517
586.72	20.129
587.05	20.690
587.39	19.924
587.72	20.127
588.06	19.965
588.39	19.985
588.73	20.349
589.06	21.010
589.40	21.158
589.73	21.304
590.07	22.100
590.40	21.777
590.73	22.181
591.07	21.973
591.40	22.036
591.74	22.037
592.07	21.298
592.41	22.062
592.74	21.897
593.08	20.931
593.41	20.108
593.75	20.703
594.08	21.250
594.41	21.180
594.75	21.404
595.08	21.468
595.42	22.449
595.75	21.422
596.09	21.446
596.42	21.559
596.75	22.796
597.09	22.782
597.42	22.367
597.75	22.069
598.09	21.625
598.42	21.134
598.76	21.742
599.09	21.993
599.42	20.623
599.76	21.336
600.09	20.983
600.42	20.994
600.76	21.142
601.09	21.125
601.42	21.401
601.76	21.053
602.09	21.560
602.42	21.294
602.76	21.518
603.09	21.531
603.42	21.431
603.76	21.150
604.09	20.992
604.42	21.092
604.76	21.414
605.09	21.673
605.42	21.942
605.75	21.753
606.09	21.959
606.42	21.007
606.75	21.609
607.09	21.477
607.42	21.937
607.75	21.736
608.08	21.243
608.42	21.938
608.75	21.609
609.08	21.205
609.41	22.136
609.75	22.390
610.08	22.482
610.41	21.827
610.74	22.208
611.07	22.192
611.41	22.660
611.74	23.709
612.07	22.254
612.40	22.515
612.73	23.365
613.07	23.213
613.40	23.058
613.73	22.716
614.06	22.200
614.39	22.828
614.72	23.054
615.06	22.750
615.39	22.822
615.72	21.926
616.05	22.551
616.38	22.070
616.71	22.409
617.05	22.405
617.38	23.202
617.71	23.735
618.04	23.892
618.37	22.568
618.70	22.921
619.03	23.565
619.36	25.126
619.69	24.802
620.03	25.636
620.36	24.727
620.69	25.160
621.02	26.291
621.35	25.358
621.68	25.590
622.01	26.421
622.34	25.200
622.67	25.421
623.00	25.187
623.33	25.371
623.66	24.617
623.99	24.932
624.32	24.322
624.65	25.280
624.99	24.070
625.32	24.516
625.65	24.276
625.98	25.662
626.31	25.964
626.64	25.209
626.97	24.790
627.30	25.776
627.63	25.903
627.96	25.509
628.29	27.145
628.62	25.834
628.95	27.571
629.28	27.520
629.61	26.362
629.94	26.880
630.26	26.430
630.59	26.862
630.92	27.175
631.25	27.108
