SpectraSuite Data File
++++++++++++++++++++++++++++++++++++
Date: Tue May 12 16:46:00 PDT 2015
User: schluterlab
Dark Spectrum Present: Yes
Reference Spectrum Present: Yes
Number of Sampled Component Spectra: 1
Spectrometers: USB2E3373
Integration Time (usec): 3000 (USB2E3373)
Spectra Averaged: 3 (USB2E3373)
Boxcar Smoothing: 0 (USB2E3373)
Correct for Electrical Dark: No (USB2E3373)
Strobe/Lamp Enabled: No (USB2E3373)
Correct for Detector Non-linearity: No (USB2E3373)
Correct for Stray Light: No (USB2E3373)
Number of Pixels in Processed Spectrum: 2048
>>>>>Begin Processed Spectral Data<<<<<
178.53	0.000
178.91	-275.000
179.29	-575.000
179.67	-3600.000
180.04	-93.333
180.42	825.000
180.80	2100.000
181.18	0.000
181.56	-362.500
181.94	0.000
182.31	1000.000
182.69	-2800.000
183.07	585.714
183.45	-4000.000
183.83	-1350.000
184.20	380.000
184.58	442.857
184.96	-176.923
185.34	-258.333
185.72	1600.000
186.09	-1025.000
186.47	-3500.000
186.85	1166.667
187.23	660.000
187.61	1350.000
187.98	275.000
188.36	257.143
188.74	258.333
189.12	316.667
189.49	850.000
189.87	0.000
190.25	500.000
190.63	2000.000
191.00	-200.000
191.38	-3800.000
191.76	-775.000
192.14	625.000
192.51	-3600.000
192.89	1950.000
193.27	733.333
193.65	-833.333
194.02	-700.000
194.40	500.000
194.78	-207.143
195.15	260.000
195.53	-2900.000
195.91	-640.000
196.29	3700.000
196.66	231.250
197.04	825.000
197.42	-1600.000
197.79	650.000
198.17	358.333
198.55	0.000
198.92	442.857
199.30	1133.333
199.68	1800.000
200.05	666.667
200.43	-233.333
200.81	238.889
201.18	3800.000
201.56	291.667
201.94	-775.000
202.31	-287.500
202.69	-580.000
203.07	4300.000
203.44	-383.333
203.82	341.667
204.19	500.000
204.57	-1200.000
204.95	-775.000
205.32	-620.000
205.70	533.333
206.08	925.000
206.45	-800.000
206.83	333.333
207.20	215.789
207.58	308.333
207.96	600.000
208.33	0.000
208.71	485.714
209.08	700.000
209.46	-2700.000
209.84	-925.000
210.21	780.000
210.59	-540.000
210.96	283.333
211.34	-1175.000
211.71	372.727
212.09	1025.000
212.46	1550.000
212.84	-433.333
213.22	411.111
213.59	-3400.000
213.97	330.000
214.34	1075.000
214.72	1300.000
215.09	1000.000
215.47	-3800.000
215.84	-410.000
216.22	-462.500
216.59	0.000
216.97	0.000
217.34	1550.000
217.72	-1200.000
218.09	1266.667
218.47	462.500
218.84	775.000
219.22	1166.667
219.59	800.000
219.97	600.000
220.34	355.556
220.72	1600.000
221.09	3300.000
221.47	258.333
221.84	966.667
222.22	420.000
222.59	244.444
222.97	221.429
223.34	218.750
223.72	-1450.000
224.09	1033.333
224.46	253.846
224.84	-825.000
225.21	400.000
225.59	260.000
225.96	1166.667
226.34	-720.000
226.71	-750.000
227.08	-640.000
227.46	0.000
227.83	-650.000
228.21	-1100.000
228.58	250.000
228.95	900.000
229.33	400.000
229.70	1025.000
230.08	338.462
230.45	2700.000
230.82	-1000.000
231.20	-1000.000
231.57	-1166.667
231.95	380.000
232.32	341.667
232.69	416.667
233.07	333.333
233.44	-1750.000
233.81	226.667
234.19	188.889
234.56	225.000
234.93	223.529
235.31	205.000
235.68	268.750
236.05	167.857
236.43	166.667
236.80	328.571
237.17	196.552
237.55	162.500
237.92	160.000
238.29	157.576
238.67	168.750
239.04	151.220
239.41	125.000
239.79	132.500
240.16	120.833
240.53	113.115
240.91	102.899
241.28	127.119
241.65	112.121
242.02	116.901
242.40	121.429
242.77	94.505
243.14	91.139
243.51	108.081
243.89	82.243
244.26	90.654
244.63	96.040
245.00	106.422
245.38	82.203
245.75	89.394
246.12	92.593
246.49	83.688
246.87	84.426
247.24	80.667
247.61	82.500
247.98	89.796
248.36	86.061
248.73	78.061
249.10	82.143
249.47	82.000
249.84	74.627
250.22	89.189
250.59	80.000
250.96	76.793
251.33	76.279
251.70	80.357
252.08	75.630
252.45	70.916
252.82	74.905
253.19	73.913
253.56	78.077
253.94	76.087
254.31	78.295
254.68	76.307
255.05	71.034
255.42	75.182
255.79	73.616
256.16	74.915
256.54	73.377
256.91	72.876
257.28	72.241
257.65	69.906
258.02	70.796
258.39	72.493
258.76	73.623
259.14	67.714
259.51	70.262
259.88	75.380
260.25	67.033
260.62	67.671
260.99	68.320
261.36	68.245
261.73	71.809
262.10	70.419
262.47	68.250
262.85	71.467
263.22	66.581
263.59	70.077
263.96	67.920
264.33	65.679
264.70	71.744
265.07	68.780
265.44	69.495
265.81	69.575
266.18	71.396
266.55	68.558
266.92	67.338
267.29	68.640
267.66	68.161
268.03	69.955
268.40	67.442
268.77	65.859
269.14	69.848
269.51	68.820
269.88	66.531
270.25	63.715
270.62	68.670
270.99	65.112
271.36	64.228
271.73	68.344
272.10	64.444
272.47	63.690
272.84	63.273
273.21	64.256
273.58	64.980
273.95	66.119
274.32	66.537
274.69	67.717
275.06	64.117
275.43	65.517
275.80	64.151
276.17	65.993
276.54	62.991
276.91	65.672
277.28	62.044
277.65	64.945
278.02	62.500
278.39	60.791
278.76	61.207
279.13	60.498
279.50	64.000
279.87	61.639
280.23	61.878
280.60	66.971
280.97	63.966
281.34	62.871
281.71	61.565
282.08	62.393
282.45	62.331
282.82	63.880
283.19	60.413
283.56	60.331
283.92	63.518
284.29	60.067
284.66	58.151
285.03	60.199
285.40	60.826
285.77	59.105
286.14	59.598
286.51	60.276
286.87	58.544
287.24	56.907
287.61	59.726
287.98	57.313
288.35	56.148
288.72	57.663
289.08	57.357
289.45	58.232
289.82	58.125
290.19	55.783
290.56	58.515
290.93	55.971
291.29	55.249
291.66	52.542
292.03	55.400
292.40	52.575
292.77	54.318
293.13	54.779
293.50	54.386
293.87	50.813
294.24	53.986
294.60	51.817
294.97	52.867
295.34	51.262
295.71	50.854
296.08	51.067
296.44	52.859
296.81	51.117
297.18	47.909
297.55	49.015
297.91	50.616
298.28	49.034
298.65	48.344
299.02	48.613
299.38	47.362
299.75	49.512
300.12	47.936
300.48	50.468
300.85	50.298
301.22	48.605
301.59	48.113
301.95	46.908
302.32	48.428
302.69	48.756
303.05	47.811
303.42	46.300
303.79	47.454
304.15	48.625
304.52	47.463
304.89	47.974
305.25	46.941
305.62	47.655
305.99	48.043
306.35	46.947
306.72	47.138
307.09	45.963
307.45	47.413
307.82	45.576
308.19	44.639
308.55	44.600
308.92	46.222
309.29	47.239
309.65	46.878
310.02	46.552
310.38	46.859
310.75	45.419
311.12	43.870
311.48	48.263
311.85	45.802
312.22	47.087
312.58	45.675
312.95	45.534
313.31	45.318
313.68	44.653
314.05	46.429
314.41	45.345
314.78	47.443
315.14	47.109
315.51	45.885
315.87	44.982
316.24	46.592
316.61	46.106
316.97	45.229
317.34	44.834
317.70	47.059
318.07	46.619
318.43	47.891
318.80	47.548
319.16	46.329
319.53	45.487
319.89	45.520
320.26	46.369
320.62	47.253
320.99	47.092
321.35	46.939
321.72	48.861
322.08	47.368
322.45	46.866
322.81	46.752
323.18	45.737
323.54	47.300
323.91	49.411
324.27	46.773
324.64	46.367
325.00	48.190
325.37	47.555
325.73	47.302
326.10	48.799
326.46	48.307
326.83	46.720
327.19	48.193
327.56	47.604
327.92	48.033
328.29	47.627
328.65	48.545
329.01	47.648
329.38	48.054
329.74	46.541
330.11	48.740
330.47	47.826
330.84	47.196
331.20	47.970
331.56	49.136
331.93	48.161
332.29	45.833
332.66	48.895
333.02	47.337
333.38	47.993
333.75	48.040
334.11	46.980
334.48	48.376
334.84	46.706
335.20	46.450
335.57	46.851
335.93	47.603
336.29	45.688
336.66	48.113
337.02	45.851
337.38	47.549
337.75	46.791
338.11	46.329
338.47	46.317
338.84	46.486
339.20	45.541
339.56	45.585
339.93	46.739
340.29	46.134
340.65	47.443
341.02	45.696
341.38	45.649
341.74	45.598
342.11	45.826
342.47	45.119
342.83	46.924
343.20	47.130
343.56	44.003
343.92	45.334
344.28	43.939
344.65	45.395
345.01	45.952
345.37	45.673
345.73	45.556
346.10	44.940
346.46	45.056
346.82	43.210
347.19	44.513
347.55	45.433
347.91	43.656
348.27	43.687
348.63	44.066
349.00	43.717
349.36	44.591
349.72	44.878
350.08	44.022
350.45	45.392
350.81	44.113
351.17	44.222
351.53	44.573
351.89	43.279
352.26	44.671
352.62	44.042
352.98	44.402
353.34	45.069
353.70	43.349
354.07	44.462
354.43	42.857
354.79	42.976
355.15	45.023
355.51	43.731
355.87	44.127
356.24	43.880
356.60	44.521
356.96	44.049
357.32	43.180
357.68	43.465
358.04	44.529
358.40	44.378
358.77	44.252
359.13	44.294
359.49	44.033
359.85	44.304
360.21	43.611
360.57	44.088
360.93	43.506
361.29	44.156
361.66	44.519
362.02	43.750
362.38	44.084
362.74	44.444
363.10	43.689
363.46	43.025
363.82	43.548
364.18	43.599
364.54	45.494
364.90	44.244
365.26	44.622
365.62	42.887
365.98	43.359
366.35	43.379
366.71	43.511
367.07	42.594
367.43	43.251
367.79	42.553
368.15	42.266
368.51	44.039
368.87	42.595
369.23	42.134
369.59	42.616
369.95	44.406
370.31	43.600
370.67	43.789
371.03	43.697
371.39	43.837
371.75	43.336
372.11	44.052
372.47	42.534
372.83	43.168
373.19	43.043
373.55	43.230
373.91	42.472
374.27	42.659
374.63	43.525
374.99	44.272
375.35	44.758
375.71	44.525
376.07	43.634
376.42	42.136
376.78	44.766
377.14	43.775
377.50	42.697
377.86	43.434
378.22	44.059
378.58	44.189
378.94	44.056
379.30	43.966
379.66	43.769
380.02	43.930
380.38	42.506
380.74	44.291
381.09	43.984
381.45	43.006
381.81	43.381
382.17	44.811
382.53	43.911
382.89	43.525
383.25	43.221
383.61	43.689
383.97	42.352
384.32	44.063
384.68	44.623
385.04	42.614
385.40	43.891
385.76	43.125
386.12	43.970
386.48	44.195
386.83	44.377
387.19	43.816
387.55	43.640
387.91	43.938
388.27	44.259
388.62	42.782
388.98	43.032
389.34	41.999
389.70	42.335
390.06	43.049
390.42	43.060
390.77	44.042
391.13	43.573
391.49	42.589
391.85	44.615
392.20	43.921
392.56	43.787
392.92	43.571
393.28	42.321
393.64	42.833
393.99	43.450
394.35	43.732
394.71	42.461
395.07	43.431
395.42	42.213
395.78	45.096
396.14	43.434
396.50	43.261
396.85	42.561
397.21	43.742
397.57	44.112
397.92	42.288
398.28	42.250
398.64	42.583
399.00	42.651
399.35	42.566
399.71	43.598
400.07	43.208
400.42	43.821
400.78	42.229
401.14	42.513
401.49	42.569
401.85	42.642
402.21	43.351
402.57	43.447
402.92	42.788
403.28	40.931
403.63	42.319
403.99	43.727
404.35	42.321
404.70	43.532
405.06	41.437
405.42	43.268
405.77	42.393
406.13	42.028
406.49	41.330
406.84	42.188
407.20	42.865
407.55	42.708
407.91	43.842
408.27	42.450
408.62	42.578
408.98	42.401
409.34	42.139
409.69	41.693
410.05	42.934
410.40	41.814
410.76	41.099
411.11	41.055
411.47	40.926
411.83	40.949
412.18	41.908
412.54	42.523
412.89	41.416
413.25	43.101
413.60	42.932
413.96	42.190
414.31	41.972
414.67	42.334
415.03	41.635
415.38	42.650
415.74	42.577
416.09	41.786
416.45	42.599
416.80	42.784
417.16	41.693
417.51	42.548
417.87	42.553
418.22	42.649
418.58	42.293
418.93	41.166
419.29	42.452
419.64	42.156
420.00	41.647
420.35	41.289
420.71	41.074
421.06	41.554
421.42	42.487
421.77	41.532
422.12	42.117
422.48	41.808
422.83	42.076
423.19	41.037
423.54	41.086
423.90	42.186
424.25	42.543
424.61	41.439
424.96	41.446
425.31	42.365
425.67	42.368
426.02	41.391
426.38	40.665
426.73	41.932
427.09	42.349
427.44	40.855
427.79	42.196
428.15	41.839
428.50	43.257
428.85	42.093
429.21	41.653
429.56	40.479
429.92	41.422
430.27	41.461
430.62	41.214
430.98	41.617
431.33	40.575
431.68	41.185
432.04	41.128
432.39	42.536
432.74	41.335
433.10	41.860
433.45	41.470
433.80	42.747
434.16	42.197
434.51	41.744
434.86	42.515
435.22	42.193
435.57	41.079
435.92	42.459
436.28	41.417
436.63	41.329
436.98	41.836
437.34	42.123
437.69	40.370
438.04	40.968
438.39	41.214
438.75	41.537
439.10	41.284
439.45	39.910
439.81	42.626
440.16	41.827
440.51	40.597
440.86	42.279
441.22	40.909
441.57	42.047
441.92	40.819
442.27	41.289
442.63	41.006
442.98	40.894
443.33	42.207
443.68	42.153
444.03	42.177
444.39	41.902
444.74	41.408
445.09	40.653
445.44	41.392
445.79	41.520
446.15	42.211
446.50	41.192
446.85	42.430
447.20	41.542
447.55	41.762
447.91	42.888
448.26	41.800
448.61	42.841
448.96	41.885
449.31	42.739
449.66	42.580
450.02	41.491
450.37	42.532
450.72	41.928
451.07	41.419
451.42	42.501
451.77	43.242
452.12	41.860
452.47	41.859
452.83	41.127
453.18	41.982
453.53	41.800
453.88	41.829
454.23	41.720
454.58	41.783
454.93	42.060
455.28	42.166
455.63	41.726
455.98	41.230
456.34	42.249
456.69	42.561
457.04	41.826
457.39	41.886
457.74	41.554
458.09	40.988
458.44	41.183
458.79	42.122
459.14	41.462
459.49	42.356
459.84	41.793
460.19	41.582
460.54	42.450
460.89	41.151
461.24	40.378
461.59	41.383
461.94	41.785
462.29	42.334
462.64	41.709
462.99	41.459
463.34	40.959
463.69	41.500
464.04	42.257
464.39	40.927
464.74	40.973
465.09	41.555
465.44	41.023
465.79	40.882
466.14	40.329
466.49	41.725
466.84	41.360
467.19	41.652
467.54	40.721
467.89	40.669
468.24	42.038
468.59	40.893
468.94	40.700
469.29	41.051
469.64	40.643
469.99	41.003
470.34	41.366
470.68	40.552
471.03	40.560
471.38	39.868
471.73	39.843
472.08	40.835
472.43	40.348
472.78	40.205
473.13	39.800
473.48	40.342
473.83	40.754
474.17	40.912
474.52	39.633
474.87	39.170
475.22	40.377
475.57	39.927
475.92	39.653
476.27	39.554
476.61	39.946
476.96	39.028
477.31	40.308
477.66	41.009
478.01	39.660
478.36	40.371
478.70	38.660
479.05	39.644
479.40	39.583
479.75	40.318
480.10	39.545
480.45	39.776
480.79	38.986
481.14	39.848
481.49	38.289
481.84	39.138
482.19	38.908
482.53	38.999
482.88	39.561
483.23	39.468
483.58	38.959
483.92	40.219
484.27	38.699
484.62	38.582
484.97	38.605
485.31	38.123
485.66	37.770
486.01	38.207
486.36	37.890
486.70	37.827
487.05	38.234
487.40	38.628
487.75	39.134
488.09	38.750
488.44	38.273
488.79	38.632
489.13	38.074
489.48	38.314
489.83	38.032
490.17	37.737
490.52	39.147
490.87	38.362
491.22	38.032
491.56	38.384
491.91	38.441
492.26	37.728
492.60	38.770
492.95	38.469
493.30	37.716
493.64	38.365
493.99	37.880
494.34	37.606
494.68	38.203
495.03	37.988
495.37	37.731
495.72	38.508
496.07	37.152
496.41	36.664
496.76	37.358
497.11	37.147
497.45	37.703
497.80	38.137
498.14	37.587
498.49	37.604
498.84	37.757
499.18	36.563
499.53	37.115
499.87	36.568
500.22	38.277
500.56	37.372
500.91	37.059
501.26	38.080
501.60	36.658
501.95	37.097
502.29	36.933
502.64	35.509
502.98	36.149
503.33	36.927
503.67	36.865
504.02	37.125
504.36	37.195
504.71	37.606
505.06	35.711
505.40	36.781
505.75	36.763
506.09	37.051
506.44	36.842
506.78	36.626
507.13	36.403
507.47	37.021
507.82	37.032
508.16	36.943
508.51	36.667
508.85	36.895
509.19	37.004
509.54	36.670
509.88	37.195
510.23	35.588
510.57	35.039
510.92	36.713
511.26	36.195
511.61	35.401
511.95	36.088
512.30	35.950
512.64	35.566
512.98	36.135
513.33	35.963
513.67	35.785
514.02	36.468
514.36	35.358
514.70	35.467
515.05	35.376
515.39	37.007
515.74	36.577
516.08	35.839
516.42	36.339
516.77	35.467
517.11	36.107
517.46	35.183
517.80	35.117
518.14	36.000
518.49	35.391
518.83	34.725
519.17	34.276
519.52	35.008
519.86	35.150
520.20	36.000
520.55	34.257
520.89	35.115
521.23	35.631
521.58	33.907
521.92	34.985
522.26	35.723
522.61	37.255
522.95	35.796
523.29	34.912
523.64	33.988
523.98	34.331
524.32	34.948
524.66	35.014
525.01	35.385
525.35	34.001
525.69	35.762
526.04	35.277
526.38	34.844
526.72	33.353
527.06	33.294
527.41	33.676
527.75	34.388
528.09	33.835
528.43	34.411
528.78	34.645
529.12	35.039
529.46	34.541
529.80	34.638
530.15	34.532
530.49	33.454
530.83	34.247
531.17	34.010
531.51	33.844
531.86	32.971
532.20	33.869
532.54	33.710
532.88	34.291
533.22	34.247
533.57	34.716
533.91	33.100
534.25	33.353
534.59	33.626
534.93	33.447
535.27	32.954
535.62	33.489
535.96	34.102
536.30	34.918
536.64	32.919
536.98	32.725
537.32	33.438
537.66	33.163
538.01	33.498
538.35	33.749
538.69	32.828
539.03	33.706
539.37	31.735
539.71	33.704
540.05	33.231
540.39	34.025
540.73	34.051
541.07	32.685
541.42	33.271
541.76	33.477
542.10	33.046
542.44	33.978
542.78	32.788
543.12	32.393
543.46	33.083
543.80	32.895
544.14	33.437
544.48	32.725
544.82	33.089
545.16	32.605
545.50	33.559
545.84	33.333
546.18	34.135
546.52	32.852
546.86	33.785
547.20	32.494
547.54	32.742
547.88	32.299
548.22	32.058
548.56	31.585
548.90	32.325
549.24	32.849
549.58	32.216
549.92	32.024
550.26	33.063
550.60	32.535
550.94	32.972
551.28	32.552
551.62	33.241
551.96	32.162
552.30	31.575
552.64	33.074
552.98	32.216
553.32	31.178
553.66	32.117
554.00	33.076
554.34	32.224
554.68	32.661
555.02	32.519
555.36	31.184
555.69	32.592
556.03	31.401
556.37	32.122
556.71	32.269
557.05	31.389
557.39	32.467
557.73	33.019
558.07	32.931
558.41	32.351
558.75	32.558
559.08	32.380
559.42	32.928
559.76	32.858
560.10	31.452
560.44	32.780
560.78	32.417
561.12	32.486
561.45	30.976
561.79	31.523
562.13	31.522
562.47	32.187
562.81	31.295
563.15	31.739
563.48	31.118
563.82	31.878
564.16	31.965
564.50	31.826
564.84	31.307
565.17	31.670
565.51	31.835
565.85	32.819
566.19	31.905
566.52	31.167
566.86	32.633
567.20	31.573
567.54	31.441
567.88	33.125
568.21	31.003
568.55	32.101
568.89	31.980
569.23	31.881
569.56	31.909
569.90	30.722
570.24	31.857
570.57	31.538
570.91	31.232
571.25	31.435
571.59	30.711
571.92	31.136
572.26	30.458
572.60	31.436
572.93	31.225
573.27	32.051
573.61	31.267
573.95	31.026
574.28	31.386
574.62	30.787
574.96	30.787
575.29	30.564
575.63	30.601
575.97	30.672
576.30	30.246
576.64	31.233
576.98	30.810
577.31	31.221
577.65	31.070
577.98	30.960
578.32	30.768
578.66	31.435
578.99	30.690
579.33	31.078
579.67	30.810
580.00	30.864
580.34	30.599
580.67	30.761
581.01	31.380
581.35	30.888
581.68	30.597
582.02	31.060
582.35	31.036
582.69	31.029
583.02	30.807
583.36	31.386
583.70	31.635
584.03	31.718
584.37	31.146
584.70	31.152
585.04	30.478
585.37	30.884
585.71	31.124
586.04	30.454
586.38	30.740
586.72	30.656
587.05	30.468
587.39	30.746
587.72	31.056
588.06	30.767
588.39	30.425
588.73	30.809
589.06	31.369
589.40	30.892
589.73	31.400
590.07	31.332
590.40	30.941
590.73	32.648
591.07	31.613
591.40	31.018
591.74	31.088
592.07	30.241
592.41	31.175
592.74	30.465
593.08	30.566
593.41	30.700
593.75	30.483
594.08	30.582
594.41	30.792
594.75	30.856
595.08	30.727
595.42	31.139
595.75	30.734
596.09	30.865
596.42	30.991
596.75	31.290
597.09	30.541
597.42	30.612
597.75	30.710
598.09	29.832
598.42	29.661
598.76	30.378
599.09	30.783
599.42	30.796
599.76	30.597
600.09	30.339
600.42	30.698
600.76	30.693
601.09	30.480
601.42	29.849
601.76	31.042
602.09	30.537
602.42	28.983
602.76	30.209
603.09	30.656
603.42	30.789
603.76	30.513
604.09	29.967
604.42	30.169
604.76	31.055
605.09	30.531
605.42	30.150
605.75	30.320
606.09	30.413
606.42	29.876
606.75	30.509
607.09	29.767
607.42	29.851
607.75	30.175
608.08	30.341
608.42	30.747
608.75	29.653
609.08	30.048
609.41	30.682
609.75	29.991
610.08	30.531
610.41	29.644
610.74	30.000
611.07	30.150
611.41	30.028
611.74	29.828
612.07	30.154
612.40	30.556
612.73	30.205
613.07	30.157
613.40	30.627
613.73	30.554
614.06	29.200
614.39	30.202
614.72	29.382
615.06	29.377
615.39	30.396
615.72	29.090
616.05	30.588
616.38	29.376
616.71	30.222
617.05	29.929
617.38	29.494
617.71	30.652
618.04	29.333
618.37	29.850
618.70	29.388
619.03	29.915
619.36	30.653
619.69	29.222
620.03	30.398
620.36	30.058
620.69	30.332
621.02	30.774
621.35	30.086
621.68	29.351
622.01	29.815
622.34	29.643
622.67	31.180
623.00	29.204
623.33	30.094
623.66	29.408
623.99	30.411
624.32	29.946
624.65	29.625
624.99	30.223
625.32	29.860
625.65	28.069
625.98	29.498
626.31	31.009
626.64	29.916
626.97	28.845
627.30	28.727
627.63	29.670
627.96	30.047
628.29	30.116
628.62	27.802
628.95	29.255
629.28	29.886
629.61	27.768
629.94	29.646
630.26	29.723
630.59	30.496
630.92	29.148
