SpectraSuite Data File
++++++++++++++++++++++++++++++++++++
Date: Tue May 12 16:59:18 PDT 2015
User: schluterlab
Dark Spectrum Present: Yes
Reference Spectrum Present: Yes
Number of Sampled Component Spectra: 1
Spectrometers: USB2E3373
Integration Time (usec): 3000 (USB2E3373)
Spectra Averaged: 3 (USB2E3373)
Boxcar Smoothing: 0 (USB2E3373)
Correct for Electrical Dark: No (USB2E3373)
Strobe/Lamp Enabled: No (USB2E3373)
Correct for Detector Non-linearity: No (USB2E3373)
Correct for Stray Light: No (USB2E3373)
Number of Pixels in Processed Spectrum: 2048
>>>>>Begin Processed Spectral Data<<<<<
178.53	0.000
178.91	-241.667
179.29	-800.000
179.67	-3100.000
180.04	-73.333
180.42	775.000
180.80	1450.000
181.18	0.000
181.56	-437.500
181.94	0.000
182.31	933.333
182.69	-3700.000
183.07	500.000
183.45	-3400.000
183.83	-1800.000
184.20	410.000
184.58	557.143
184.96	-161.538
185.34	-200.000
185.72	1400.000
186.09	-950.000
186.47	-3700.000
186.85	966.667
187.23	660.000
187.61	1600.000
187.98	487.500
188.36	257.143
188.74	333.333
189.12	325.000
189.49	875.000
189.87	0.000
190.25	475.000
190.63	2100.000
191.00	-191.667
191.38	-3500.000
191.76	-800.000
192.14	525.000
192.51	-2800.000
192.89	1700.000
193.27	1066.667
193.65	-900.000
194.02	-680.000
194.40	500.000
194.78	-221.429
195.15	180.000
195.53	-3500.000
195.91	-600.000
196.29	3800.000
196.66	275.000
197.04	600.000
197.42	-1550.000
197.79	525.000
198.17	341.667
198.55	0.000
198.92	457.143
199.30	1333.333
199.68	1850.000
200.05	566.667
200.43	-450.000
200.81	161.111
201.18	2800.000
201.56	275.000
201.94	-625.000
202.31	-337.500
202.69	-420.000
203.07	3600.000
203.44	-466.667
203.82	358.333
204.19	700.000
204.57	-1300.000
204.95	-650.000
205.32	-760.000
205.70	583.333
206.08	925.000
206.45	-733.333
206.83	422.222
207.20	210.526
207.58	325.000
207.96	860.000
208.33	0.000
208.71	542.857
209.08	860.000
209.46	-2800.000
209.84	-825.000
210.21	780.000
210.59	-320.000
210.96	366.667
211.34	-850.000
211.71	345.455
212.09	825.000
212.46	1400.000
212.84	-516.667
213.22	377.778
213.59	-2000.000
213.97	340.000
214.34	1225.000
214.72	1133.333
215.09	1000.000
215.47	-2800.000
215.84	-400.000
216.22	-387.500
216.59	0.000
216.97	0.000
217.34	1250.000
217.72	-1900.000
218.09	1466.667
218.47	462.500
218.84	675.000
219.22	1000.000
219.59	766.667
219.97	442.857
220.34	400.000
220.72	1650.000
221.09	3600.000
221.47	250.000
221.84	1200.000
222.22	290.000
222.59	233.333
222.97	207.143
223.34	237.500
223.72	-1300.000
224.09	1133.333
224.46	261.538
224.84	-675.000
225.21	444.444
225.59	306.667
225.96	1466.667
226.34	-740.000
226.71	-875.000
227.08	-580.000
227.46	0.000
227.83	-583.333
228.21	-1550.000
228.58	366.667
228.95	900.000
229.33	400.000
229.70	850.000
230.08	330.769
230.45	2900.000
230.82	-875.000
231.20	-900.000
231.57	-1066.667
231.95	720.000
232.32	300.000
232.69	566.667
233.07	266.667
233.44	-1900.000
233.81	266.667
234.19	162.963
234.56	212.500
234.93	223.529
235.31	200.000
235.68	275.000
236.05	160.714
236.43	144.444
236.80	221.429
237.17	179.310
237.55	159.375
237.92	132.500
238.29	145.455
238.67	171.875
239.04	146.341
239.41	114.583
239.79	130.000
240.16	106.250
240.53	77.049
240.91	81.159
241.28	89.831
241.65	87.879
242.02	90.141
242.40	92.857
242.77	74.725
243.14	79.747
243.51	93.939
243.89	86.916
244.26	67.290
244.63	83.168
245.00	76.147
245.38	61.864
245.75	59.091
246.12	67.407
246.49	68.085
246.87	59.836
247.24	63.333
247.61	67.500
247.98	68.707
248.36	62.424
248.73	57.143
249.10	63.095
249.47	55.000
249.84	63.682
250.22	62.703
250.59	62.000
250.96	52.743
251.33	59.070
251.70	52.679
252.08	51.681
252.45	48.207
252.82	51.711
253.19	52.964
253.56	47.692
253.94	52.536
254.31	51.550
254.68	51.220
255.05	54.138
255.42	54.015
255.79	50.163
256.16	55.932
256.54	52.273
256.91	50.654
257.28	52.174
257.65	48.903
258.02	48.378
258.39	52.722
258.76	48.406
259.14	48.571
259.51	50.437
259.88	52.584
260.25	48.352
260.62	50.959
260.99	47.383
261.36	48.747
261.73	48.936
262.10	48.429
262.47	49.500
262.85	48.000
263.22	45.501
263.59	45.780
263.96	49.624
264.33	45.185
264.70	50.123
265.07	48.049
265.44	49.083
265.81	46.462
266.18	48.284
266.55	48.700
266.92	46.980
267.29	47.149
267.66	47.534
268.03	45.067
268.40	47.569
268.77	50.881
269.14	45.336
269.51	47.216
269.88	45.510
270.25	46.220
270.62	47.854
270.99	46.450
271.36	46.138
271.73	45.702
272.10	45.051
272.47	44.444
272.84	42.315
273.21	45.455
273.58	44.332
273.95	44.559
274.32	42.996
274.69	47.244
275.06	45.537
275.43	43.487
275.80	44.906
276.17	45.037
276.54	46.168
276.91	46.455
277.28	44.891
277.65	44.649
278.02	42.463
278.39	43.705
278.76	42.931
279.13	43.594
279.50	44.727
279.87	43.762
280.23	43.094
280.60	44.343
280.97	44.138
281.34	43.564
281.71	43.304
282.08	45.641
282.45	42.905
282.82	44.816
283.19	42.925
283.56	41.157
283.92	42.997
284.29	42.429
284.66	42.689
285.03	43.284
285.40	40.000
285.77	40.895
286.14	41.796
286.51	40.031
286.87	40.190
287.24	35.736
287.61	40.729
287.98	40.149
288.35	38.815
288.72	39.454
289.08	38.889
289.45	40.854
289.82	39.531
290.19	38.214
290.56	40.611
290.93	37.842
291.29	37.845
291.66	35.876
292.03	38.710
292.40	37.127
292.77	36.908
293.13	36.805
293.50	36.032
293.87	33.469
294.24	36.923
294.60	37.550
294.97	35.105
295.34	35.857
295.71	35.611
296.08	36.533
296.44	36.595
296.81	33.623
297.18	32.319
297.55	34.360
297.91	31.773
298.28	33.213
298.65	32.147
299.02	33.052
299.38	32.854
299.75	33.171
300.12	31.651
300.48	33.489
300.85	33.254
301.22	30.930
301.59	31.250
301.95	29.638
302.32	31.315
302.69	31.787
303.05	31.538
303.42	30.942
303.79	30.444
304.15	32.013
304.52	29.704
304.89	29.638
305.25	31.479
305.62	30.810
305.99	29.674
306.35	30.737
306.72	29.657
307.09	30.435
307.45	29.356
307.82	29.835
308.19	30.412
308.55	28.600
308.92	30.029
309.29	31.755
309.65	29.237
310.02	29.108
310.38	29.013
310.75	28.447
311.12	29.215
311.48	29.344
311.85	30.057
312.22	29.608
312.58	28.474
312.95	30.194
313.31	29.307
313.68	28.049
314.05	29.304
314.41	29.888
314.78	29.735
315.14	28.626
315.51	28.950
315.87	29.745
316.24	29.599
316.61	29.275
316.97	28.165
317.34	29.021
317.70	28.095
318.07	29.893
318.43	29.086
318.80	28.459
319.16	28.934
319.53	29.115
319.89	27.778
320.26	30.912
320.62	29.396
320.99	28.027
321.35	29.685
321.72	29.602
322.08	27.701
322.45	28.792
322.81	27.905
323.18	28.686
323.54	28.920
323.91	29.284
324.27	27.940
324.64	28.460
325.00	28.190
325.37	28.752
325.73	29.005
326.10	28.500
326.46	28.406
326.83	28.240
327.19	28.032
327.56	27.077
327.92	27.213
328.29	29.133
328.65	29.024
329.01	29.512
329.38	28.680
329.74	26.900
330.11	27.454
330.47	29.156
330.84	26.402
331.20	28.426
331.56	28.584
331.93	28.571
332.29	26.531
332.66	27.976
333.02	27.577
333.38	27.400
333.75	28.691
334.11	27.768
334.48	28.547
334.84	27.703
335.20	27.203
335.57	27.372
335.93	27.418
336.29	26.451
336.66	28.388
337.02	27.973
337.38	26.827
337.75	26.182
338.11	27.764
338.47	27.180
338.84	27.265
339.20	26.667
339.56	28.175
339.93	27.007
340.29	26.387
340.65	26.488
341.02	27.514
341.38	27.011
341.74	25.831
342.11	26.544
342.47	25.677
342.83	27.153
343.20	26.112
343.56	24.623
343.92	26.342
344.28	27.113
344.65	26.813
345.01	26.349
345.37	25.962
345.73	26.429
346.10	26.693
346.46	26.475
346.82	24.691
347.19	27.048
347.55	25.137
347.91	25.604
348.27	25.407
348.63	26.424
349.00	26.580
349.36	26.226
349.72	26.529
350.08	25.621
350.45	25.819
350.81	26.376
351.17	24.653
351.53	24.942
351.89	25.874
352.26	25.775
352.62	25.716
352.98	26.610
353.34	26.425
353.70	25.535
354.07	25.692
354.43	24.654
354.79	25.057
355.15	26.187
355.51	25.151
355.87	26.355
356.24	25.404
356.60	23.896
356.96	24.412
357.32	25.245
357.68	24.670
358.04	25.228
358.40	26.312
358.77	24.793
359.13	26.201
359.49	25.130
359.85	24.497
360.21	25.483
360.57	24.234
360.93	24.387
361.29	24.098
361.66	25.130
362.02	24.077
362.38	25.180
362.74	25.548
363.10	25.316
363.46	24.724
363.82	24.474
364.18	23.257
364.54	24.750
364.90	25.368
365.26	24.705
365.62	23.688
365.98	25.052
366.35	24.069
366.71	24.983
367.07	24.505
367.43	24.782
367.79	23.737
368.15	24.695
368.51	24.673
368.87	23.573
369.23	25.087
369.59	24.208
369.95	25.035
370.31	23.614
370.67	23.595
371.03	23.880
371.39	23.961
371.75	24.983
372.11	24.405
372.47	24.863
372.83	25.289
373.19	25.360
373.55	23.299
373.91	23.826
374.27	24.140
374.63	24.271
374.99	24.124
375.35	25.067
375.71	24.406
376.07	24.801
376.42	23.338
376.78	25.562
377.14	24.115
377.50	23.783
377.86	24.087
378.22	24.314
378.58	24.818
378.94	23.899
379.30	23.833
379.66	23.540
380.02	24.809
380.38	23.829
380.74	25.029
381.09	23.949
381.45	24.162
381.81	23.759
382.17	24.542
382.53	24.475
382.89	24.483
383.25	23.919
383.61	23.631
383.97	23.935
384.32	24.292
384.68	24.658
385.04	24.033
385.40	24.970
385.76	23.523
386.12	24.242
386.48	24.559
386.83	24.939
387.19	24.912
387.55	23.852
387.91	24.307
388.27	24.271
388.62	24.413
388.98	23.440
389.34	24.093
389.70	24.233
390.06	24.146
390.42	23.812
390.77	24.263
391.13	24.080
391.49	24.319
391.85	24.369
392.20	24.434
392.56	24.313
392.92	23.582
393.28	24.215
393.64	24.713
393.99	23.829
394.35	24.426
394.71	24.608
395.07	24.757
395.42	23.946
395.78	24.985
396.14	24.458
396.50	24.428
396.85	24.085
397.21	23.586
397.57	24.029
397.92	23.512
398.28	23.938
398.64	23.967
399.00	22.715
399.35	23.403
399.71	24.227
400.07	23.916
400.42	24.060
400.78	23.460
401.14	24.193
401.49	23.157
401.85	25.029
402.21	23.140
402.57	25.135
402.92	23.636
403.28	23.508
403.63	23.367
403.99	23.945
404.35	23.916
404.70	24.276
405.06	23.358
405.42	24.177
405.77	23.484
406.13	23.915
406.49	22.626
406.84	23.463
407.20	23.288
407.55	24.677
407.91	24.633
408.27	23.347
408.62	23.714
408.98	23.596
409.34	23.320
409.69	23.273
410.05	23.912
410.40	23.793
410.76	23.125
411.11	23.341
411.47	24.012
411.83	23.433
412.18	23.309
412.54	23.243
412.89	23.835
413.25	24.173
413.60	23.189
413.96	23.040
414.31	23.200
414.67	23.774
415.03	23.563
415.38	23.344
415.74	24.068
416.09	23.485
416.45	23.723
416.80	24.054
417.16	23.997
417.51	23.312
417.87	23.842
418.22	23.694
418.58	23.631
418.93	23.617
419.29	23.229
419.64	23.985
420.00	23.926
420.35	23.868
420.71	22.929
421.06	22.955
421.42	23.316
421.77	23.098
422.12	23.043
422.48	23.369
422.83	24.051
423.19	22.732
423.54	23.478
423.90	24.122
424.25	23.830
424.61	23.854
424.96	22.360
425.31	23.207
425.67	23.345
426.02	24.061
426.38	24.037
426.73	23.366
427.09	24.021
427.44	23.129
427.79	22.699
428.15	24.219
428.50	24.114
428.85	23.810
429.21	23.825
429.56	22.981
429.92	22.974
430.27	23.174
430.62	23.446
430.98	23.503
431.33	22.228
431.68	22.321
432.04	23.073
432.39	23.106
432.74	24.239
433.10	22.702
433.45	22.803
433.80	23.607
434.16	23.121
434.51	23.375
434.86	23.517
435.22	22.961
435.57	24.126
435.92	24.360
436.28	24.251
436.63	23.771
436.98	25.056
437.34	24.087
437.69	22.844
438.04	23.602
438.39	23.818
438.75	24.555
439.10	23.745
439.45	22.781
439.81	22.961
440.16	24.051
440.51	23.930
440.86	24.729
441.22	24.242
441.57	23.360
441.92	23.791
442.27	23.608
442.63	23.628
442.98	23.330
443.33	23.674
443.68	23.089
444.03	23.233
444.39	24.294
444.74	22.878
445.09	23.486
445.44	23.698
445.79	23.782
446.15	23.684
446.50	23.207
446.85	22.958
447.20	22.985
447.55	23.763
447.91	24.347
448.26	23.003
448.61	23.936
448.96	24.564
449.31	24.037
449.66	24.585
450.02	23.555
450.37	24.320
450.72	24.242
451.07	24.607
451.42	23.948
451.77	24.399
452.12	25.128
452.47	24.484
452.83	23.775
453.18	24.805
453.53	24.512
453.88	24.571
454.23	24.056
454.58	23.893
454.93	23.360
455.28	24.786
455.63	23.759
455.98	24.196
456.34	24.681
456.69	23.963
457.04	23.866
457.39	24.171
457.74	24.831
458.09	24.031
458.44	24.535
458.79	24.085
459.14	23.241
459.49	23.669
459.84	24.620
460.19	23.503
460.54	23.875
460.89	24.414
461.24	23.769
461.59	23.923
461.94	24.468
462.29	24.314
462.64	25.565
462.99	24.824
463.34	25.016
463.69	25.166
464.04	24.467
464.39	23.984
464.74	22.919
465.09	25.305
465.44	24.701
465.79	24.007
466.14	22.999
466.49	24.579
466.84	24.136
467.19	24.780
467.54	24.144
467.89	24.354
468.24	24.320
468.59	24.107
468.94	24.336
469.29	24.924
469.64	24.566
469.99	24.229
470.34	24.541
470.68	24.207
471.03	24.416
471.38	24.503
471.73	24.951
472.08	25.571
472.43	24.767
472.78	25.800
473.13	23.592
473.48	23.778
473.83	24.558
474.17	23.647
474.52	24.585
474.87	23.366
475.22	24.443
475.57	23.767
475.92	24.119
476.27	24.538
476.61	23.324
476.96	23.459
477.31	23.702
477.66	24.852
478.01	24.600
478.36	23.893
478.70	24.069
479.05	23.274
479.40	24.752
479.75	24.379
480.10	24.879
480.45	24.463
480.79	24.009
481.14	24.251
481.49	23.879
481.84	24.406
482.19	24.105
482.53	23.671
482.88	23.611
483.23	23.996
483.58	24.013
483.92	25.046
484.27	24.229
484.62	23.896
484.97	23.451
485.31	23.195
485.66	22.667
486.01	22.266
486.36	21.920
486.70	22.292
487.05	22.802
487.40	22.792
487.75	23.185
488.09	23.381
488.44	23.454
488.79	23.152
489.13	24.001
489.48	23.412
489.83	23.186
490.17	23.782
490.52	23.988
490.87	23.664
491.22	24.113
491.56	24.682
491.91	24.149
492.26	24.053
492.60	24.465
492.95	24.422
493.30	24.431
493.64	23.989
493.99	23.792
494.34	23.980
494.68	24.081
495.03	24.113
495.37	24.268
495.72	24.149
496.07	23.810
496.41	24.153
496.76	23.892
497.11	23.865
497.45	24.156
497.80	24.282
498.14	24.411
498.49	24.048
498.84	24.252
499.18	23.675
499.53	24.621
499.87	23.630
500.22	24.090
500.56	23.863
500.91	24.954
501.26	24.667
501.60	23.953
501.95	24.104
502.29	24.311
502.64	23.379
502.98	23.699
503.33	23.341
503.67	24.062
504.02	23.690
504.36	24.072
504.71	24.267
505.06	24.167
505.40	23.959
505.75	23.807
506.09	24.778
506.44	24.765
506.78	24.480
507.13	24.430
507.47	24.115
507.82	24.720
508.16	24.596
508.51	24.300
508.85	23.884
509.19	24.816
509.54	24.170
509.88	26.057
510.23	24.657
510.57	23.986
510.92	23.726
511.26	24.498
511.61	24.569
511.95	24.639
512.30	25.350
512.64	24.714
512.98	24.193
513.33	24.232
513.67	24.702
514.02	24.468
514.36	24.663
514.70	24.800
515.05	23.388
515.39	24.452
515.74	25.205
516.08	24.946
516.42	25.574
516.77	24.853
517.11	24.427
517.46	24.838
517.80	24.959
518.14	25.521
518.49	23.925
518.83	23.901
519.17	25.513
519.52	25.014
519.86	25.722
520.20	25.479
520.55	25.382
520.89	25.287
521.23	25.701
521.58	24.670
521.92	25.481
522.26	24.763
522.61	25.787
522.95	25.526
523.29	25.029
523.64	24.566
523.98	25.763
524.32	25.087
524.66	24.928
525.01	24.793
525.35	24.750
525.69	25.406
526.04	25.342
526.38	25.486
526.72	24.940
527.06	24.837
527.41	25.877
527.75	25.502
528.09	25.467
528.43	25.869
528.78	25.224
529.12	25.527
529.46	24.605
529.80	25.409
530.15	25.516
530.49	24.308
530.83	25.046
531.17	24.908
531.51	25.445
531.86	24.940
532.20	24.969
532.54	24.733
532.88	24.797
533.22	25.533
533.57	25.320
533.91	24.767
534.25	24.986
534.59	25.497
534.93	24.744
535.27	23.335
535.62	24.154
535.96	25.177
536.30	26.813
536.64	25.031
536.98	24.229
537.32	25.375
537.66	24.809
538.01	24.830
538.35	25.889
538.69	25.364
539.03	23.943
539.37	24.029
539.71	25.494
540.05	24.923
540.39	25.157
540.73	25.000
541.07	24.718
541.42	25.373
541.76	24.908
542.10	24.538
542.44	25.187
542.78	25.488
543.12	23.558
543.46	24.123
543.80	25.752
544.14	25.449
544.48	25.243
544.82	25.872
545.16	24.954
545.50	25.200
545.84	25.442
546.18	26.658
546.52	25.115
546.86	26.048
547.20	25.517
547.54	25.269
547.88	24.088
548.22	25.562
548.56	24.573
548.90	24.970
549.24	25.332
549.58	25.064
549.92	25.671
550.26	26.099
550.60	25.216
550.94	26.187
551.28	26.138
551.62	25.724
551.96	25.405
552.30	24.192
552.64	25.890
552.98	25.064
553.32	25.160
553.66	24.169
554.00	25.933
554.34	26.165
554.68	25.470
555.02	25.390
555.36	24.601
555.69	26.178
556.03	25.541
556.37	25.558
556.71	25.945
557.05	24.967
557.39	24.533
557.73	25.606
558.07	24.816
558.41	24.812
558.75	25.718
559.08	26.876
559.42	25.698
559.76	26.657
560.10	25.189
560.44	24.818
560.78	25.831
561.12	25.366
561.45	24.343
561.79	24.906
562.13	24.889
562.47	24.205
562.81	25.374
563.15	25.598
563.48	23.913
563.82	25.328
564.16	24.627
564.50	24.714
564.84	24.438
565.17	24.599
565.51	25.862
565.85	24.800
566.19	25.060
566.52	24.609
566.86	25.511
567.20	25.056
567.54	24.400
567.88	24.152
568.21	23.914
568.55	24.660
568.89	24.544
569.23	24.159
569.56	23.882
569.90	23.356
570.24	22.283
570.57	23.589
570.91	23.307
571.25	22.746
571.59	22.504
571.92	22.713
572.26	22.426
572.60	23.132
572.93	23.260
573.27	22.947
573.61	22.631
573.95	22.510
574.28	23.025
574.62	22.986
574.96	22.265
575.29	22.119
575.63	22.191
575.97	22.103
576.30	22.096
576.64	22.306
576.98	22.243
577.31	22.396
577.65	22.428
577.98	22.205
578.32	21.757
578.66	21.928
578.99	22.299
579.33	22.260
579.67	22.640
580.00	22.036
580.34	22.128
580.67	21.678
581.01	22.625
581.35	22.262
581.68	21.519
582.02	21.691
582.35	22.285
582.69	22.114
583.02	22.046
583.36	22.316
583.70	22.504
584.03	23.117
584.37	22.817
584.70	22.269
585.04	22.056
585.37	22.768
585.71	22.607
586.04	22.247
586.38	22.169
586.72	22.574
587.05	22.697
587.39	22.554
587.72	22.835
588.06	22.920
588.39	22.569
588.73	22.446
589.06	22.877
589.40	23.349
589.73	22.812
590.07	23.336
590.40	23.066
590.73	24.275
591.07	23.833
591.40	23.034
591.74	23.295
592.07	22.879
592.41	23.221
592.74	22.885
593.08	22.656
593.41	22.262
593.75	22.079
594.08	22.636
594.41	22.939
594.75	22.397
595.08	22.942
595.42	22.844
595.75	22.902
596.09	23.219
596.42	23.052
596.75	23.678
597.09	22.988
597.42	23.469
597.75	22.921
598.09	23.061
598.42	22.807
598.76	23.015
599.09	22.619
599.42	22.249
599.76	22.931
600.09	22.610
600.42	22.617
600.76	22.774
601.09	22.437
601.42	22.774
601.76	22.735
602.09	23.216
602.42	22.551
602.76	22.657
603.09	23.265
603.42	23.339
603.76	22.777
604.09	22.150
604.42	23.051
604.76	23.074
605.09	22.939
605.42	23.893
605.75	23.056
606.09	23.221
606.42	22.661
606.75	22.620
607.09	22.542
607.42	23.343
607.75	23.049
608.08	22.868
608.42	23.322
608.75	22.550
609.08	22.481
609.41	23.636
609.75	23.489
610.08	23.336
610.41	22.749
610.74	23.247
611.07	23.238
611.41	23.401
611.74	22.945
612.07	23.314
612.40	23.099
612.73	24.264
613.07	23.264
613.40	22.907
613.73	23.165
614.06	22.750
614.39	23.182
614.72	23.204
615.06	22.404
615.39	23.119
615.72	22.991
616.05	23.104
616.38	22.831
616.71	23.114
617.05	23.943
617.38	22.865
617.71	23.622
618.04	23.780
618.37	23.402
618.70	22.806
619.03	23.871
619.36	23.807
619.69	23.615
620.03	24.136
620.36	24.021
620.69	24.713
621.02	23.438
621.35	24.427
621.68	24.263
622.01	25.166
622.34	23.452
622.67	23.736
623.00	23.826
623.33	23.617
623.66	23.886
623.99	23.630
624.32	24.119
624.65	24.029
624.99	23.665
625.32	24.783
625.65	22.828
625.98	23.501
626.31	25.593
626.64	24.677
626.97	23.642
627.30	25.466
627.63	25.667
627.96	23.396
628.29	25.000
628.62	24.294
628.95	24.734
629.28	25.241
629.61	24.605
629.94	25.497
630.26	23.830
630.59	26.152
630.92	25.291
631.25	23.935
