SpectraSuite Data File
++++++++++++++++++++++++++++++++++++
Date: Tue May 12 19:40:56 PDT 2015
User: schluterlab
Dark Spectrum Present: Yes
Reference Spectrum Present: Yes
Number of Sampled Component Spectra: 1
Spectrometers: USB2E3373
Integration Time (usec): 3000 (USB2E3373)
Spectra Averaged: 3 (USB2E3373)
Boxcar Smoothing: 0 (USB2E3373)
Correct for Electrical Dark: No (USB2E3373)
Strobe/Lamp Enabled: No (USB2E3373)
Correct for Detector Non-linearity: No (USB2E3373)
Correct for Stray Light: No (USB2E3373)
Number of Pixels in Processed Spectrum: 2048
>>>>>Begin Processed Spectral Data<<<<<
178.53	0.000
178.91	-70.000
179.29	-116.667
179.67	366.667
180.04	0.000
180.42	160.000
180.80	-400.000
181.18	850.000
181.56	300.000
181.94	200.000
182.31	800.000
182.69	-71.429
183.07	0.000
183.45	216.667
183.83	220.000
184.20	50.000
184.58	750.000
184.96	166.667
185.34	0.000
185.72	35.714
186.09	-83.333
186.47	-1400.000
186.85	-100.000
187.23	150.000
187.61	-28.571
187.98	-120.000
188.36	500.000
188.74	25.000
189.12	0.000
189.49	-50.000
189.87	125.000
190.25	88.889
190.63	266.667
191.00	340.000
191.38	-166.667
191.76	280.000
192.14	-71.429
192.51	0.000
192.89	100.000
193.27	-140.000
193.65	-300.000
194.02	-16.667
194.40	200.000
194.78	25.000
195.15	-42.857
195.53	266.667
195.91	-100.000
196.29	-325.000
196.66	-33.333
197.04	-185.714
197.42	80.000
197.79	-137.500
198.17	-25.000
198.55	100.000
198.92	-55.556
199.30	450.000
199.68	-250.000
200.05	-750.000
200.43	-16.667
200.81	-91.667
201.18	283.333
201.56	-200.000
201.94	-1900.000
202.31	33.333
202.69	77.778
203.07	25.000
203.44	-75.000
203.82	0.000
204.19	150.000
204.57	-233.333
204.95	200.000
205.32	-20.000
205.70	175.000
206.08	100.000
206.45	-20.000
206.83	1600.000
207.20	-111.111
207.58	46.154
207.96	-133.333
208.33	600.000
208.71	100.000
209.08	100.000
209.46	-44.444
209.84	566.667
210.21	433.333
210.59	150.000
210.96	188.889
211.34	-200.000
211.71	350.000
212.09	60.000
212.46	-100.000
212.84	-212.500
213.22	100.000
213.59	12.500
213.97	0.000
214.34	450.000
214.72	-300.000
215.09	200.000
215.47	40.000
215.84	-150.000
216.22	-1600.000
216.59	200.000
216.97	-50.000
217.34	-50.000
217.72	5.556
218.09	375.000
218.47	-15.789
218.84	-100.000
219.22	-21.429
219.59	-80.000
219.97	-50.000
220.34	283.333
220.72	72.727
221.09	-100.000
221.47	0.000
221.84	50.000
222.22	-225.000
222.59	-425.000
222.97	39.130
223.34	126.667
223.72	200.000
224.09	-83.333
224.46	92.308
224.84	0.000
225.21	-150.000
225.59	-375.000
225.96	15.000
226.34	100.000
226.71	190.000
227.08	15.385
227.46	-71.429
227.83	25.000
228.21	-450.000
228.58	183.333
228.95	-5.263
229.33	12.500
229.70	-100.000
230.08	-155.556
230.45	-466.667
230.82	-1100.000
231.20	14.286
231.57	-120.000
231.95	-466.667
232.32	33.333
232.69	-500.000
233.07	50.000
233.44	12.500
233.81	29.032
234.19	-180.000
234.56	-22.222
234.93	33.333
235.31	14.815
235.68	48.148
236.05	7.692
236.43	-21.053
236.80	0.000
237.17	-107.143
237.55	30.000
237.92	32.558
238.29	6.452
238.67	60.714
239.04	20.000
239.41	3.922
239.79	34.000
240.16	37.500
240.53	31.034
240.91	42.466
241.28	28.169
241.65	25.000
242.02	21.053
242.40	25.333
242.77	25.263
243.14	32.941
243.51	37.634
243.89	33.333
244.26	39.815
244.63	29.592
245.00	24.107
245.38	25.210
245.75	36.441
246.12	32.813
246.49	33.600
246.87	36.885
247.24	30.986
247.61	42.384
247.98	25.281
248.36	32.704
248.73	32.386
249.10	34.444
249.47	33.333
249.84	35.025
250.22	31.771
250.59	34.831
250.96	34.545
251.33	42.925
251.70	34.404
252.08	37.662
252.45	31.837
252.82	31.224
253.19	40.078
253.56	40.000
253.94	36.179
254.31	41.367
254.68	35.764
255.05	42.053
255.42	36.727
255.79	39.735
256.16	36.458
256.54	40.606
256.91	39.744
257.28	38.636
257.65	38.361
258.02	38.438
258.39	39.577
258.76	40.367
259.14	35.000
259.51	40.282
259.88	38.040
260.25	39.773
260.62	34.551
260.99	36.212
261.36	38.218
261.73	37.867
262.10	41.962
262.47	37.741
262.85	38.046
263.22	37.903
263.59	40.751
263.96	38.120
264.33	37.197
264.70	37.838
265.07	37.685
265.44	39.110
265.81	42.410
266.18	39.110
266.55	38.810
266.92	39.509
267.29	40.667
267.66	34.091
268.03	38.280
268.40	36.384
268.77	37.862
269.14	36.765
269.51	41.629
269.88	39.744
270.25	38.608
270.62	38.235
270.99	37.895
271.36	37.528
271.73	38.333
272.10	40.041
272.47	37.400
272.84	34.607
273.21	37.578
273.58	35.918
273.95	37.849
274.32	36.557
274.69	39.530
275.06	36.023
275.43	36.200
275.80	39.388
276.17	38.538
276.54	38.593
276.91	39.539
277.28	39.652
277.65	36.106
278.02	37.879
278.39	38.475
278.76	38.734
279.13	38.462
279.50	37.184
279.87	37.736
280.23	38.980
280.60	35.689
280.97	40.070
281.34	37.966
281.71	35.346
282.08	38.462
282.45	38.448
282.82	36.869
283.19	35.522
283.56	39.932
283.92	36.651
284.29	36.717
284.66	36.814
285.03	35.678
285.40	37.667
285.77	39.901
286.14	36.767
286.51	38.103
286.87	37.277
287.24	34.135
287.61	35.185
287.98	35.994
288.35	36.434
288.72	34.709
289.08	33.648
289.45	35.413
289.82	31.988
290.19	32.273
290.56	33.719
290.93	35.451
291.29	34.326
291.66	30.899
292.03	34.146
292.40	33.381
292.77	33.528
293.13	32.012
293.50	31.818
293.87	31.345
294.24	32.163
294.60	32.514
294.97	28.670
295.34	30.959
295.71	29.126
296.08	29.781
296.44	31.489
296.81	29.884
297.18	30.789
297.55	29.899
297.91	29.695
298.28	28.900
298.65	29.884
299.02	30.456
299.38	29.847
299.75	31.017
300.12	29.496
300.48	28.756
300.85	28.973
301.22	29.327
301.59	28.832
301.95	29.390
302.32	29.040
302.69	27.586
303.05	27.745
303.42	30.314
303.79	26.854
304.15	29.219
304.52	28.045
304.89	28.072
305.25	27.867
305.62	26.932
305.99	27.100
306.35	26.510
306.72	28.649
307.09	26.333
307.45	26.645
307.82	27.855
308.19	27.943
308.55	28.059
308.92	28.178
309.29	27.720
309.65	27.245
310.02	28.092
310.38	28.571
310.75	28.996
311.12	27.670
311.48	27.338
311.85	26.950
312.22	28.202
312.58	26.788
312.95	28.131
313.31	28.712
313.68	26.812
314.05	29.593
314.41	28.193
314.78	27.839
315.14	28.697
315.51	28.898
315.87	29.395
316.24	28.684
316.61	28.932
316.97	28.824
317.34	29.091
317.70	29.318
318.07	28.351
318.43	28.355
318.80	28.780
319.16	30.103
319.53	29.151
319.89	29.261
320.26	29.695
320.62	29.651
320.99	31.531
321.35	31.225
321.72	32.323
322.08	31.683
322.45	32.347
322.81	32.118
323.18	31.352
323.54	32.796
323.91	30.740
324.27	31.726
324.64	31.115
325.00	31.301
325.37	33.363
325.73	31.478
326.10	31.611
326.46	32.185
326.83	33.861
327.19	33.100
327.56	34.748
327.92	32.465
328.29	33.961
328.65	34.746
329.01	31.651
329.38	32.782
329.74	33.890
330.11	32.805
330.47	33.426
330.84	31.673
331.20	33.364
331.56	33.113
331.93	33.669
332.29	32.840
332.66	33.635
333.02	33.240
333.38	34.283
333.75	35.682
334.11	33.906
334.48	33.989
334.84	34.930
335.20	33.572
335.57	34.605
335.93	34.140
336.29	34.278
336.66	34.608
337.02	35.539
337.38	34.811
337.75	35.455
338.11	36.554
338.47	36.769
338.84	35.912
339.20	36.572
339.56	34.949
339.93	35.405
340.29	37.353
340.65	38.174
341.02	37.378
341.38	37.688
341.74	37.278
342.11	37.931
342.47	39.161
342.83	37.554
343.20	39.611
343.56	38.811
343.92	40.507
344.28	40.137
344.65	41.010
345.01	41.202
345.37	42.051
345.73	42.636
346.10	42.264
346.46	41.846
346.82	44.010
347.19	44.996
347.55	45.493
347.91	44.636
348.27	44.903
348.63	46.327
349.00	47.913
349.36	47.321
349.72	48.030
350.08	48.936
350.45	48.332
350.81	48.307
351.17	47.529
351.53	47.504
351.89	48.964
352.26	49.675
352.62	51.594
352.98	50.879
353.34	51.295
353.70	51.029
354.07	52.801
354.43	51.419
354.79	52.049
355.15	51.574
355.51	52.486
355.87	52.373
356.24	53.758
356.60	53.673
356.96	53.160
357.32	53.580
357.68	53.461
358.04	53.323
358.40	53.928
358.77	54.458
359.13	55.100
359.49	54.240
359.85	55.076
360.21	54.718
360.57	54.545
360.93	55.899
361.29	55.530
361.66	54.811
362.02	56.201
362.38	56.799
362.74	56.649
363.10	53.922
363.46	56.132
363.82	55.590
364.18	54.958
364.54	56.947
364.90	56.593
365.26	56.632
365.62	56.397
365.98	56.222
366.35	57.262
366.71	56.161
367.07	58.081
367.43	56.462
367.79	57.340
368.15	57.598
368.51	56.030
368.87	58.664
369.23	57.229
369.59	57.647
369.95	57.377
370.31	57.879
370.67	58.496
371.03	59.211
371.39	58.837
371.75	57.429
372.11	59.111
372.47	58.872
372.83	58.656
373.19	58.208
373.55	59.581
373.91	59.697
374.27	60.412
374.63	58.837
374.99	59.078
375.35	59.071
375.71	59.971
376.07	58.940
376.42	58.575
376.78	60.488
377.14	60.196
377.50	59.781
377.86	61.212
378.22	60.700
378.58	61.645
378.94	61.362
379.30	60.103
379.66	59.795
380.02	60.458
380.38	62.341
380.74	60.970
381.09	60.673
381.45	62.667
381.81	61.990
382.17	62.606
382.53	62.853
382.89	62.668
383.25	62.016
383.61	62.047
383.97	62.378
384.32	62.000
384.68	61.750
385.04	62.190
385.40	60.958
385.76	62.682
386.12	62.772
386.48	63.536
386.83	63.463
387.19	63.027
387.55	63.731
387.91	62.617
388.27	64.363
388.62	63.536
388.98	63.104
389.34	63.240
389.70	64.551
390.06	64.356
390.42	64.300
390.77	65.795
391.13	65.192
391.49	66.644
391.85	66.201
392.20	65.479
392.56	65.357
392.92	65.553
393.28	66.487
393.64	65.104
393.99	66.688
394.35	66.385
394.71	65.430
395.07	66.446
395.42	65.905
395.78	65.524
396.14	67.355
396.50	65.136
396.85	66.424
397.21	64.489
397.57	66.623
397.92	66.794
398.28	65.408
398.64	67.619
399.00	65.757
399.35	66.120
399.71	65.569
400.07	66.152
400.42	66.346
400.78	66.347
401.14	66.856
401.49	65.584
401.85	66.286
402.21	67.513
402.57	67.096
402.92	69.124
403.28	66.775
403.63	66.026
403.99	67.371
404.35	66.306
404.70	67.194
405.06	68.692
405.42	67.209
405.77	66.171
406.13	66.726
406.49	67.950
406.84	66.563
407.20	66.419
407.55	67.401
407.91	67.413
408.27	68.085
408.62	67.074
408.98	67.375
409.34	66.709
409.69	65.552
410.05	66.645
410.40	66.667
410.76	66.065
411.11	66.580
411.47	67.279
411.83	65.422
412.18	67.147
412.54	65.847
412.89	66.645
413.25	67.712
413.60	67.028
413.96	66.214
414.31	65.647
414.67	68.737
415.03	67.289
415.38	66.783
415.74	65.212
416.09	66.506
416.45	66.384
416.80	66.342
417.16	66.291
417.51	66.551
417.87	66.279
418.22	66.511
418.58	65.791
418.93	65.442
419.29	66.554
419.64	68.544
420.00	66.339
420.35	66.353
420.71	65.173
421.06	66.191
421.42	66.374
421.77	66.809
422.12	65.387
422.48	65.277
422.83	64.742
423.19	64.000
423.54	65.486
423.90	64.710
424.25	65.861
424.61	66.323
424.96	64.681
425.31	65.942
425.67	63.879
426.02	65.776
426.38	64.736
426.73	63.489
427.09	63.756
427.44	63.827
427.79	65.161
428.15	63.602
428.50	64.196
428.85	64.144
429.21	64.316
429.56	63.315
429.92	63.061
430.27	62.347
430.62	63.494
430.98	62.493
431.33	61.791
431.68	62.746
432.04	63.176
432.39	61.794
432.74	62.113
433.10	62.583
433.45	63.268
433.80	62.917
434.16	62.486
434.51	61.037
434.86	62.236
435.22	61.118
435.57	63.654
435.92	60.929
436.28	59.838
436.63	60.823
436.98	62.037
437.34	62.828
437.69	61.667
438.04	61.538
438.39	62.206
438.75	60.862
439.10	62.381
439.45	61.489
439.81	60.381
440.16	62.461
440.51	60.285
440.86	61.237
441.22	59.261
441.57	59.487
441.92	62.286
442.27	61.200
442.63	60.497
442.98	60.941
443.33	59.988
443.68	59.512
444.03	59.278
444.39	58.615
444.74	59.359
445.09	58.914
445.44	58.776
445.79	59.709
446.15	58.601
446.50	58.878
446.85	58.306
447.20	58.042
447.55	58.348
447.91	58.671
448.26	57.389
448.61	58.489
448.96	57.599
449.31	58.831
449.66	56.477
450.02	56.923
450.37	57.594
450.72	56.912
451.07	58.273
451.42	56.983
451.77	56.620
452.12	57.832
452.47	56.843
452.83	56.787
453.18	57.934
453.53	57.936
453.88	56.541
454.23	56.230
454.58	56.593
454.93	56.403
455.28	56.212
455.63	56.075
455.98	55.838
456.34	55.191
456.69	54.638
457.04	55.446
457.39	55.056
457.74	57.649
458.09	55.134
458.44	55.365
458.79	54.358
459.14	53.667
459.49	55.096
459.84	54.935
460.19	54.659
460.54	52.841
460.89	52.882
461.24	54.091
461.59	54.953
461.94	54.306
462.29	54.511
462.64	53.830
462.99	55.112
463.34	54.945
463.69	53.635
464.04	53.688
464.39	52.862
464.74	51.006
465.09	53.183
465.44	52.310
465.79	51.203
466.14	51.730
466.49	52.290
466.84	51.966
467.19	51.137
467.54	50.133
467.89	51.143
468.24	51.010
468.59	50.654
468.94	52.118
469.29	52.457
469.64	51.641
469.99	51.045
470.34	49.646
470.68	49.846
471.03	50.365
471.38	50.636
471.73	49.637
472.08	50.961
472.43	50.138
472.78	50.254
473.13	49.053
473.48	50.277
473.83	49.472
474.17	48.366
474.52	50.100
474.87	49.116
475.22	49.555
475.57	49.765
475.92	48.266
476.27	48.463
476.61	47.872
476.96	48.844
477.31	48.573
477.66	48.344
478.01	48.911
478.36	48.023
478.70	48.056
479.05	47.185
479.40	47.208
479.75	49.692
480.10	47.727
480.45	48.325
480.79	47.794
481.14	47.707
481.49	47.558
481.84	47.828
482.19	46.585
482.53	47.794
482.88	46.467
483.23	46.734
483.58	46.535
483.92	46.734
484.27	45.837
484.62	46.488
484.97	45.123
485.31	46.404
485.66	45.769
486.01	44.627
486.36	44.856
486.70	44.713
487.05	44.550
487.40	44.383
487.75	43.974
488.09	43.170
488.44	43.953
488.79	43.884
489.13	44.722
489.48	43.860
489.83	44.198
490.17	44.726
490.52	43.786
490.87	45.846
491.22	44.625
491.56	44.615
491.91	43.926
492.26	44.263
492.60	44.490
492.95	44.456
493.30	44.590
493.64	43.864
493.99	44.559
494.34	44.095
494.68	44.103
495.03	43.611
495.37	43.639
495.72	43.618
496.07	43.560
496.41	43.083
496.76	42.598
497.11	44.510
497.45	44.249
497.80	43.458
498.14	43.189
498.49	43.353
498.84	42.872
499.18	41.671
499.53	42.731
499.87	42.448
500.22	44.312
500.56	42.752
500.91	42.790
501.26	42.782
501.60	43.374
501.95	41.812
502.29	42.996
502.64	41.961
502.98	42.049
503.33	41.088
503.67	41.552
504.02	42.186
504.36	41.140
504.71	41.649
505.06	41.993
505.40	42.252
505.75	40.916
506.09	41.441
506.44	41.953
506.78	41.113
507.13	41.151
507.47	42.659
507.82	41.295
508.16	41.147
508.51	42.013
508.85	40.714
509.19	40.976
509.54	41.133
509.88	40.219
510.23	41.348
510.57	41.454
510.92	41.383
511.26	41.068
511.61	40.982
511.95	41.296
512.30	40.348
512.64	40.176
512.98	41.406
513.33	39.449
513.67	39.222
514.02	40.144
514.36	40.688
514.70	39.587
515.05	41.585
515.39	40.527
515.74	41.103
516.08	39.674
516.42	40.584
516.77	40.932
517.11	39.083
517.46	40.849
517.80	40.396
518.14	40.670
518.49	40.556
518.83	40.467
519.17	40.103
519.52	39.913
519.86	40.405
520.20	39.554
520.55	40.209
520.89	40.418
521.23	39.679
521.58	39.550
521.92	39.052
522.26	39.725
522.61	39.590
522.95	39.932
523.29	40.148
523.64	39.417
523.98	40.054
524.32	39.663
524.66	40.517
525.01	40.687
525.35	39.466
525.69	38.059
526.04	40.733
526.38	39.411
526.72	38.750
527.06	39.592
527.41	39.121
527.75	39.483
528.09	39.109
528.43	39.192
528.78	38.505
529.12	38.630
529.46	37.608
529.80	37.849
530.15	38.568
530.49	38.912
530.83	38.106
531.17	37.147
531.51	38.972
531.86	37.885
532.20	37.590
532.54	37.266
532.88	38.109
533.22	38.506
533.57	37.724
533.91	38.541
534.25	38.153
534.59	37.895
534.93	37.206
535.27	37.710
535.62	38.082
535.96	37.962
536.30	37.648
536.64	38.770
536.98	37.832
537.32	37.946
537.66	37.610
538.01	38.218
538.35	38.473
538.69	36.023
539.03	37.491
539.37	36.683
539.71	36.594
540.05	37.627
540.39	37.328
540.73	38.095
541.07	36.838
541.42	37.919
541.76	36.835
542.10	37.088
542.44	37.139
542.78	36.290
543.12	35.307
543.46	36.885
543.80	36.669
544.14	36.989
544.48	36.421
544.82	36.480
545.16	36.304
545.50	36.608
545.84	37.527
546.18	36.180
546.52	36.126
546.86	36.037
547.20	36.364
547.54	35.785
547.88	35.613
548.22	35.865
548.56	36.434
548.90	35.509
549.24	35.673
549.58	36.662
549.92	35.639
550.26	36.216
550.60	35.369
550.94	37.381
551.28	35.203
551.62	36.609
551.96	35.783
552.30	35.814
552.64	34.861
552.98	35.141
553.32	35.455
553.66	35.812
554.00	35.212
554.34	36.094
554.68	35.327
555.02	34.603
555.36	34.313
555.69	34.666
556.03	34.812
556.37	34.734
556.71	34.238
557.05	35.000
557.39	35.582
557.73	34.748
558.07	35.759
558.41	35.036
558.75	35.685
559.08	35.234
559.42	34.950
559.76	35.299
560.10	35.778
560.44	34.442
560.78	35.011
561.12	33.809
561.45	34.524
561.79	34.949
562.13	34.692
562.47	33.869
562.81	35.102
563.15	33.536
563.48	33.858
563.82	34.207
564.16	33.672
564.50	33.883
564.84	35.082
565.17	34.478
565.51	34.624
565.85	34.085
566.19	34.447
566.52	35.341
566.86	34.153
567.20	34.731
567.54	33.504
567.88	33.981
568.21	34.760
568.55	34.465
568.89	34.121
569.23	33.534
569.56	34.069
569.90	33.319
570.24	32.979
570.57	33.559
570.91	33.370
571.25	33.058
571.59	33.213
571.92	32.031
572.26	32.891
572.60	32.521
572.93	32.449
573.27	32.122
573.61	32.869
573.95	33.013
574.28	32.414
574.62	31.821
574.96	32.621
575.29	31.982
575.63	31.732
575.97	31.943
576.30	32.273
576.64	31.753
576.98	32.409
577.31	32.868
577.65	32.159
577.98	32.228
578.32	31.946
578.66	31.907
578.99	32.726
579.33	31.731
579.67	31.429
580.00	31.334
580.34	31.673
580.67	32.096
581.01	32.354
581.35	31.867
581.68	31.770
582.02	31.610
582.35	31.878
582.69	31.364
583.02	31.269
583.36	31.338
583.70	31.276
584.03	31.441
584.37	32.544
584.70	31.206
585.04	31.171
585.37	31.740
585.71	31.571
586.04	31.901
586.38	32.280
586.72	31.557
587.05	31.411
587.39	31.611
587.72	31.398
588.06	32.016
588.39	31.931
588.73	31.293
589.06	31.598
589.40	31.785
589.73	32.199
590.07	32.249
590.40	31.277
590.73	32.695
591.07	32.078
591.40	31.476
591.74	31.996
592.07	31.280
592.41	31.818
592.74	31.657
593.08	31.630
593.41	31.711
593.75	31.783
594.08	31.641
594.41	31.349
594.75	31.754
595.08	31.437
595.42	31.656
595.75	31.515
596.09	32.586
596.42	31.374
596.75	31.818
597.09	31.763
597.42	31.347
597.75	32.270
598.09	31.133
598.42	31.614
598.76	31.239
599.09	31.134
599.42	29.583
599.76	31.228
600.09	30.724
600.42	30.273
600.76	30.485
601.09	30.824
601.42	31.240
601.76	31.209
602.09	30.540
602.42	31.350
602.76	31.501
603.09	31.549
603.42	30.707
603.76	31.221
604.09	31.078
604.42	30.356
604.76	31.036
605.09	31.271
605.42	31.801
605.75	30.745
606.09	31.733
606.42	31.409
606.75	31.306
607.09	31.110
607.42	31.299
607.75	30.487
608.08	31.244
608.42	30.844
608.75	31.916
609.08	29.833
609.41	31.363
609.75	29.858
610.08	31.059
610.41	31.399
610.74	30.738
611.07	30.724
611.41	29.872
611.74	31.230
612.07	31.752
612.40	30.808
612.73	30.787
613.07	30.476
613.40	30.477
613.73	30.756
614.06	30.621
614.39	30.404
614.72	30.815
615.06	31.745
615.39	30.774
615.72	29.451
616.05	30.551
616.38	29.953
616.71	29.975
617.05	29.711
617.38	30.516
617.71	30.503
618.04	31.012
618.37	30.935
618.70	33.152
619.03	31.037
619.36	31.075
619.69	30.715
620.03	31.655
620.36	31.595
620.69	30.525
621.02	30.245
621.35	32.596
621.68	30.873
622.01	32.086
622.34	31.156
622.67	32.040
623.00	31.286
623.33	30.709
623.66	30.120
623.99	31.021
624.32	30.739
624.65	30.703
624.99	30.625
625.32	29.226
625.65	30.104
625.98	32.333
626.31	30.390
626.64	30.000
626.97	31.985
627.30	31.667
627.63	30.977
627.96	30.447
628.29	32.122
628.62	30.928
628.95	30.729
629.28	31.198
629.61	30.199
629.94	32.158
630.26	32.218
630.59	30.262
630.92	30.453
631.25	29.385
631.58	30.930
631.91	30.296
632.24	31.716
632.57	29.727
632.90	32.841
633.23	30.839
