SpectraSuite Data File
++++++++++++++++++++++++++++++++++++
Date: Wed May 13 19:52:39 PDT 2015
User: schluterlab
Dark Spectrum Present: Yes
Reference Spectrum Present: Yes
Number of Sampled Component Spectra: 1
Spectrometers: USB2E3373
Integration Time (usec): 3000 (USB2E3373)
Spectra Averaged: 3 (USB2E3373)
Boxcar Smoothing: 0 (USB2E3373)
Correct for Electrical Dark: No (USB2E3373)
Strobe/Lamp Enabled: No (USB2E3373)
Correct for Detector Non-linearity: No (USB2E3373)
Correct for Stray Light: No (USB2E3373)
Number of Pixels in Processed Spectrum: 2048
>>>>>Begin Processed Spectral Data<<<<<
178.53	0.000
178.91	-1475.000
179.29	-1325.000
179.67	-227.778
180.04	-1350.000
180.42	2750.000
180.80	1140.000
181.18	-1200.000
181.56	814.286
181.94	0.000
182.31	-728.571
182.69	1733.333
183.07	-600.000
183.45	-477.778
183.83	500.000
184.20	-310.000
184.58	3200.000
184.96	6200.000
185.34	-860.000
185.72	-650.000
186.09	-1950.000
186.47	2000.000
186.85	2050.000
187.23	4800.000
187.61	-1766.667
187.98	1300.000
188.36	627.273
188.74	518.182
189.12	-880.000
189.49	580.000
189.87	-4600.000
190.25	-1225.000
190.63	414.286
191.00	476.923
191.38	1000.000
191.76	-1275.000
192.14	1250.000
192.51	637.500
192.89	1050.000
193.27	687.500
193.65	-1100.000
194.02	590.000
194.40	1100.000
194.78	520.000
195.15	558.333
195.53	670.000
195.91	-2400.000
196.29	368.750
196.66	321.053
197.04	-360.000
197.42	0.000
197.79	660.000
198.17	-5000.000
198.55	771.429
198.92	750.000
199.30	1080.000
199.68	0.000
200.05	344.444
200.43	714.286
200.81	5100.000
201.18	1833.333
201.56	-1733.333
201.94	588.889
202.31	633.333
202.69	441.667
203.07	550.000
203.44	0.000
203.82	1575.000
204.19	914.286
204.57	442.857
204.95	650.000
205.32	1966.667
205.70	590.909
206.08	435.714
206.45	2950.000
206.83	387.500
207.20	816.667
207.58	880.000
207.96	333.333
208.33	762.500
208.71	-750.000
209.08	800.000
209.46	511.111
209.84	536.364
210.21	-1833.333
210.59	1450.000
210.96	-525.000
211.34	2950.000
211.71	610.000
212.09	950.000
212.46	0.000
212.84	1733.333
213.22	950.000
213.59	-5300.000
213.97	866.667
214.34	885.714
214.72	545.455
215.09	1180.000
215.47	-1900.000
215.84	-2700.000
216.22	1666.667
216.59	457.143
216.97	1275.000
217.34	472.727
217.72	-783.333
218.09	0.000
218.47	-5600.000
218.84	666.667
219.22	714.286
219.59	1566.667
219.97	-614.286
220.34	1060.000
220.72	-1566.667
221.09	400.000
221.47	1575.000
221.84	-916.667
222.22	0.000
222.59	1475.000
222.97	-2800.000
223.34	1020.000
223.72	415.385
224.09	1180.000
224.46	2100.000
224.84	-5200.000
225.21	-1120.000
225.59	-4400.000
225.96	720.000
226.34	315.000
226.71	2900.000
227.08	700.000
227.46	600.000
227.83	-1025.000
228.21	-1700.000
228.58	633.333
228.95	-2500.000
229.33	-2600.000
229.70	2066.667
230.08	871.429
230.45	-1100.000
230.82	416.667
231.20	866.667
231.57	785.714
231.95	475.000
232.32	250.000
232.69	500.000
233.07	757.143
233.44	384.615
233.81	-1666.667
234.19	342.105
234.56	441.667
234.93	441.667
235.31	509.091
235.68	415.385
236.05	450.000
236.43	209.091
236.80	315.789
237.17	5100.000
237.55	257.143
237.92	260.714
238.29	261.905
238.67	180.645
239.04	231.034
239.41	186.111
239.79	152.174
240.16	188.095
240.53	152.273
240.91	141.176
241.28	136.000
241.65	124.000
242.02	121.739
242.40	122.581
242.77	111.667
243.14	91.398
243.51	102.247
243.89	96.471
244.26	87.778
244.63	91.398
245.00	89.362
245.38	79.208
245.75	79.439
246.12	76.147
246.49	77.372
246.87	84.000
247.24	80.000
247.61	76.429
247.98	61.438
248.36	62.162
248.73	62.420
249.10	66.242
249.47	66.102
249.84	64.706
250.22	62.032
250.59	64.497
250.96	63.131
251.33	58.768
251.70	65.842
252.08	56.190
252.45	54.709
252.82	56.522
253.19	60.426
253.56	57.255
253.94	60.166
254.31	53.125
254.68	55.385
255.05	53.875
255.42	55.285
255.79	50.735
256.16	53.791
256.54	50.177
256.91	58.719
257.28	48.921
257.65	53.795
258.02	51.553
258.39	48.265
258.76	46.823
259.14	48.512
259.51	50.456
259.88	43.168
260.25	51.057
260.62	46.821
260.99	50.621
261.36	47.147
261.73	47.278
262.10	50.000
262.47	49.296
262.85	45.125
263.22	47.578
263.59	49.288
263.96	44.780
264.33	46.214
264.70	48.158
265.07	46.803
265.44	45.202
265.81	43.552
266.18	45.729
266.55	44.146
266.92	47.420
267.29	44.907
267.66	41.284
268.03	45.455
268.40	42.056
268.77	43.437
269.14	40.991
269.51	45.824
269.88	45.688
270.25	41.986
270.62	42.697
270.99	44.086
271.36	44.206
271.73	44.159
272.10	42.174
272.47	47.742
272.84	41.126
273.21	44.025
273.58	41.485
273.95	42.138
274.32	39.669
274.69	41.970
275.06	40.748
275.43	41.915
275.80	40.882
276.17	41.141
276.54	42.620
276.91	42.095
277.28	40.625
277.65	41.973
278.02	38.302
278.39	43.164
278.76	39.455
279.13	40.943
279.50	40.223
279.87	40.438
280.23	40.918
280.60	39.845
280.97	41.774
281.34	39.469
281.71	41.091
282.08	42.610
282.45	38.000
282.82	42.096
283.19	38.324
283.56	42.105
283.92	40.440
284.29	38.272
284.66	39.927
285.03	39.421
285.40	36.444
285.77	36.532
286.14	37.997
286.51	39.500
286.87	38.803
287.24	40.391
287.61	36.918
287.98	37.338
288.35	37.559
288.72	35.202
289.08	36.307
289.45	36.903
289.82	38.862
290.19	35.636
290.56	34.763
290.93	33.837
291.29	34.663
291.66	34.218
292.03	36.192
292.40	35.389
292.77	34.024
293.13	33.433
293.50	32.945
293.87	35.852
294.24	32.593
294.60	32.023
294.97	32.267
295.34	33.427
295.71	33.949
296.08	32.051
296.44	33.150
296.81	32.232
297.18	32.520
297.55	29.683
297.91	29.815
298.28	32.262
298.65	30.418
299.02	31.094
299.38	30.279
299.75	30.863
300.12	28.736
300.48	30.500
300.85	29.593
301.22	31.083
301.59	28.788
301.95	29.597
302.32	29.910
302.69	28.076
303.05	28.121
303.42	29.506
303.79	28.766
304.15	28.671
304.52	29.200
304.89	28.339
305.25	26.914
305.62	28.879
305.99	29.752
306.35	28.635
306.72	28.139
307.09	29.301
307.45	29.167
307.82	25.670
308.19	27.483
308.55	27.400
308.92	27.497
309.29	27.033
309.65	27.572
310.02	26.533
310.38	27.097
310.75	27.666
311.12	27.329
311.48	26.646
311.85	27.463
312.22	26.847
312.58	25.468
312.95	27.666
313.31	24.757
313.68	26.507
314.05	28.994
314.41	27.538
314.78	26.083
315.14	26.614
315.51	26.982
315.87	27.525
316.24	27.110
316.61	26.121
316.97	26.027
317.34	25.538
317.70	26.291
318.07	26.468
318.43	26.321
318.80	26.710
319.16	26.648
319.53	25.047
319.89	26.667
320.26	26.800
320.62	28.075
320.99	25.455
321.35	26.263
321.72	25.667
322.08	26.160
322.45	26.368
322.81	27.132
323.18	27.457
323.54	26.809
323.91	27.264
324.27	25.717
324.64	25.629
325.00	25.518
325.37	27.480
325.73	26.481
326.10	26.567
326.46	25.000
326.83	26.057
327.19	25.790
327.56	26.045
327.92	25.722
328.29	26.087
328.65	25.230
329.01	24.458
329.38	25.994
329.74	25.854
330.11	25.259
330.47	26.263
330.84	26.195
331.20	25.774
331.56	25.688
331.93	23.981
332.29	25.555
332.66	25.752
333.02	25.503
333.38	25.203
333.75	25.045
334.11	24.822
334.48	24.756
334.84	24.632
335.20	24.182
335.57	25.023
335.93	24.911
336.29	24.817
336.66	24.707
337.02	22.805
337.38	25.185
337.75	24.421
338.11	24.082
338.47	24.033
338.84	24.748
339.20	23.670
339.56	25.639
339.93	24.182
340.29	24.638
340.65	22.906
341.02	24.171
341.38	24.288
341.74	24.035
342.11	23.581
342.47	23.524
342.83	25.171
343.20	24.762
343.56	23.842
343.92	24.649
344.28	23.724
344.65	25.021
345.01	23.569
345.37	23.413
345.73	24.112
346.10	24.552
346.46	23.644
346.82	23.970
347.19	23.810
347.55	23.892
347.91	23.139
348.27	23.993
348.63	23.746
349.00	22.411
349.36	22.989
349.72	22.775
350.08	23.339
350.45	25.061
350.81	23.477
351.17	23.987
351.53	23.178
351.89	22.937
352.26	23.915
352.62	22.935
352.98	22.690
353.34	22.761
353.70	22.422
354.07	23.468
354.43	22.381
354.79	22.365
355.15	22.825
355.51	23.181
355.87	23.184
356.24	23.290
356.60	22.294
356.96	22.446
357.32	22.159
357.68	22.835
358.04	22.724
358.40	23.199
358.77	23.005
359.13	21.310
359.49	22.588
359.85	21.429
360.21	21.691
360.57	23.580
360.93	23.000
361.29	22.147
361.66	21.517
362.02	22.761
362.38	22.966
362.74	21.280
363.10	21.170
363.46	22.524
363.82	22.525
364.18	22.687
364.54	22.585
364.90	21.034
365.26	22.206
365.62	22.060
365.98	21.622
366.35	21.203
366.71	23.283
367.07	21.194
367.43	22.279
367.79	21.485
368.15	23.276
368.51	21.802
368.87	21.984
369.23	22.312
369.59	22.303
369.95	21.250
370.31	21.652
370.67	20.797
371.03	21.798
371.39	21.939
371.75	20.882
372.11	21.479
372.47	22.287
372.83	21.182
373.19	20.809
373.55	21.951
373.91	21.944
374.27	20.687
374.63	21.382
374.99	21.398
375.35	21.005
375.71	21.247
376.07	22.497
376.42	21.389
376.78	20.610
377.14	20.488
377.50	20.662
377.86	20.346
378.22	21.302
378.58	20.301
378.94	19.987
379.30	19.338
379.66	20.812
380.02	20.823
380.38	20.704
380.74	21.068
381.09	19.988
381.45	21.451
381.81	20.885
382.17	21.083
382.53	20.755
382.89	21.728
383.25	19.575
383.61	21.066
383.97	20.325
384.32	20.711
384.68	19.393
385.04	20.590
385.40	20.372
385.76	19.840
386.12	20.920
386.48	20.453
386.83	21.103
387.19	21.150
387.55	21.027
387.91	19.710
388.27	19.436
388.62	20.836
388.98	19.717
389.34	20.776
389.70	19.804
390.06	21.166
390.42	20.039
390.77	20.483
391.13	20.102
391.49	20.685
391.85	19.924
392.20	19.748
392.56	20.202
392.92	20.129
393.28	18.757
393.64	19.484
393.99	20.159
394.35	20.409
394.71	19.824
395.07	19.626
395.42	20.272
395.78	19.847
396.14	19.677
396.50	20.175
396.85	20.407
397.21	19.359
397.57	20.521
397.92	20.312
398.28	18.890
398.64	20.012
399.00	20.034
399.35	19.684
399.71	19.329
400.07	19.752
400.42	19.571
400.78	20.507
401.14	19.573
401.49	20.239
401.85	19.238
402.21	20.000
402.57	19.186
402.92	18.916
403.28	20.175
403.63	18.626
403.99	19.363
404.35	20.121
404.70	19.904
405.06	19.220
405.42	19.526
405.77	18.743
406.13	19.131
406.49	19.219
406.84	19.374
407.20	19.326
407.55	19.719
407.91	19.333
408.27	19.272
408.62	19.205
408.98	19.301
409.34	19.373
409.69	18.710
410.05	19.331
410.40	19.633
410.76	19.056
411.11	18.938
411.47	19.105
411.83	19.914
412.18	18.800
412.54	19.863
412.89	19.578
413.25	19.008
413.60	19.271
413.96	19.004
414.31	19.198
414.67	19.835
415.03	19.934
415.38	19.330
415.74	19.743
416.09	19.203
416.45	18.675
416.80	19.167
417.16	20.375
417.51	19.841
417.87	18.240
418.22	19.432
418.58	19.819
418.93	19.103
419.29	19.223
419.64	19.710
420.00	19.329
420.35	19.130
420.71	19.845
421.06	19.332
421.42	19.415
421.77	19.283
422.12	18.585
422.48	18.025
422.83	18.928
423.19	19.116
423.54	18.688
423.90	19.536
424.25	18.370
424.61	18.571
424.96	19.359
425.31	19.546
425.67	18.764
426.02	19.371
426.38	19.536
426.73	18.724
427.09	19.149
427.44	18.861
427.79	19.206
428.15	20.119
428.50	18.607
428.85	19.964
429.21	18.940
429.56	18.611
429.92	18.218
430.27	18.520
430.62	18.331
430.98	18.111
431.33	18.402
431.68	19.267
432.04	18.956
432.39	19.132
432.74	19.270
433.10	18.902
433.45	19.067
433.80	18.625
434.16	19.498
434.51	18.895
434.86	18.700
435.22	18.899
435.57	19.210
435.92	18.958
436.28	19.692
436.63	19.702
436.98	19.004
437.34	20.036
437.69	20.478
438.04	19.280
438.39	18.985
438.75	19.407
439.10	19.106
439.45	19.244
439.81	19.154
440.16	18.634
440.51	19.859
440.86	18.992
441.22	19.355
441.57	19.268
441.92	18.731
442.27	18.353
442.63	18.273
442.98	19.662
443.33	19.130
443.68	19.618
444.03	18.790
444.39	18.549
444.74	19.426
445.09	19.137
445.44	19.136
445.79	18.951
446.15	18.952
446.50	18.901
446.85	18.448
447.20	18.460
447.55	18.816
447.91	18.698
448.26	18.920
448.61	19.050
448.96	19.767
449.31	18.841
449.66	18.739
450.02	18.663
450.37	17.914
450.72	18.669
451.07	19.196
451.42	18.116
451.77	19.319
452.12	18.418
452.47	19.216
452.83	18.124
453.18	18.826
453.53	19.295
453.88	18.665
454.23	18.769
454.58	19.685
454.93	20.598
455.28	18.953
455.63	18.204
455.98	20.179
456.34	18.781
456.69	19.161
457.04	19.567
457.39	18.410
457.74	18.688
458.09	18.861
458.44	19.441
458.79	18.384
459.14	19.074
459.49	19.673
459.84	18.338
460.19	19.151
460.54	18.461
460.89	19.144
461.24	19.247
461.59	19.988
461.94	18.804
462.29	19.288
462.64	18.890
462.99	18.282
463.34	19.533
463.69	19.387
464.04	19.420
464.39	18.609
464.74	19.430
465.09	18.697
465.44	19.335
465.79	18.065
466.14	18.774
466.49	18.020
466.84	18.739
467.19	19.372
467.54	17.875
467.89	19.868
468.24	19.546
468.59	19.231
468.94	18.754
469.29	19.537
469.64	19.411
469.99	19.486
470.34	18.758
470.68	18.894
471.03	19.320
471.38	19.388
471.73	18.654
472.08	20.197
472.43	18.781
472.78	18.367
473.13	18.806
473.48	19.101
473.83	19.146
474.17	18.668
474.52	19.107
474.87	19.323
475.22	18.572
475.57	18.968
475.92	19.437
476.27	18.038
476.61	18.698
476.96	18.197
477.31	17.739
477.66	18.873
478.01	18.348
478.36	18.985
478.70	18.069
479.05	18.477
479.40	18.014
479.75	19.166
480.10	17.545
480.45	18.420
480.79	17.582
481.14	18.885
481.49	19.127
481.84	18.519
482.19	18.037
482.53	17.890
482.88	17.776
483.23	18.318
483.58	18.608
483.92	18.322
484.27	17.211
484.62	18.233
484.97	17.304
485.31	18.185
485.66	17.257
486.01	16.802
486.36	16.645
486.70	16.435
487.05	16.599
487.40	16.752
487.75	17.223
488.09	17.561
488.44	17.145
488.79	17.722
489.13	17.800
489.48	17.863
489.83	17.695
490.17	17.580
490.52	17.626
490.87	17.503
491.22	17.599
491.56	17.494
491.91	17.497
492.26	17.593
492.60	18.157
492.95	17.587
493.30	17.617
493.64	17.732
493.99	18.059
494.34	17.576
494.68	18.178
495.03	17.481
495.37	17.310
495.72	17.788
496.07	18.190
496.41	17.124
496.76	17.150
497.11	17.605
497.45	17.979
497.80	18.426
498.14	17.536
498.49	17.561
498.84	17.881
499.18	17.429
499.53	17.426
499.87	17.241
500.22	17.475
500.56	18.689
500.91	17.356
501.26	17.496
501.60	18.178
501.95	17.415
502.29	18.088
502.64	17.691
502.98	17.345
503.33	17.048
503.67	17.216
504.02	18.101
504.36	17.735
504.71	18.222
505.06	18.169
505.40	17.598
505.75	17.261
506.09	17.541
506.44	18.106
506.78	18.363
507.13	18.375
507.47	18.030
507.82	18.389
508.16	18.541
508.51	18.468
508.85	17.627
509.19	16.939
509.54	17.959
509.88	17.568
510.23	18.149
510.57	18.627
510.92	18.281
511.26	17.986
511.61	18.828
511.95	16.962
512.30	17.338
512.64	18.109
512.98	18.221
513.33	18.148
513.67	16.969
514.02	17.100
514.36	18.405
514.70	18.207
515.05	17.736
515.39	18.059
515.74	18.300
516.08	18.390
516.42	17.980
516.77	18.729
517.11	18.202
517.46	18.002
517.80	18.699
518.14	17.603
518.49	18.320
518.83	18.693
519.17	17.783
519.52	18.110
519.86	18.311
520.20	18.671
520.55	18.851
520.89	18.370
521.23	19.059
521.58	18.187
521.92	18.310
522.26	17.511
522.61	19.252
522.95	18.478
523.29	19.598
523.64	18.841
523.98	18.854
524.32	18.637
524.66	18.641
525.01	17.892
525.35	17.968
525.69	18.227
526.04	18.442
526.38	18.548
526.72	18.773
527.06	19.460
527.41	17.574
527.75	19.807
528.09	18.818
528.43	20.013
528.78	19.299
529.12	18.788
529.46	19.106
529.80	19.121
530.15	19.128
530.49	18.708
530.83	19.430
531.17	19.843
531.51	20.298
531.86	19.097
532.20	18.644
532.54	19.667
532.88	17.908
533.22	18.676
533.57	18.210
533.91	19.386
534.25	19.016
534.59	19.341
534.93	18.679
535.27	19.131
535.62	19.475
535.96	19.774
536.30	18.754
536.64	19.897
536.98	19.244
537.32	18.631
537.66	19.533
538.01	18.367
538.35	19.910
538.69	19.655
539.03	18.648
539.37	18.403
539.71	17.758
540.05	18.954
540.39	18.870
540.73	18.564
541.07	19.598
541.42	19.700
541.76	19.419
542.10	20.181
542.44	19.272
542.78	19.368
543.12	18.554
543.46	20.197
543.80	19.258
544.14	18.806
544.48	19.302
544.82	19.371
545.16	19.779
545.50	18.702
545.84	19.019
546.18	19.057
546.52	19.890
546.86	18.969
547.20	19.285
547.54	20.508
547.88	19.770
548.22	19.614
548.56	18.931
548.90	19.398
549.24	18.855
549.58	19.918
549.92	18.819
550.26	19.957
550.60	19.640
550.94	20.634
551.28	18.435
551.62	20.417
551.96	18.386
552.30	20.273
552.64	19.337
552.98	20.407
553.32	19.622
553.66	20.654
554.00	20.247
554.34	20.083
554.68	20.172
555.02	18.829
555.36	20.181
555.69	19.892
556.03	19.381
556.37	19.509
556.71	19.372
557.05	19.328
557.39	20.014
557.73	20.466
558.07	20.667
558.41	19.682
558.75	19.324
559.08	18.792
559.42	19.652
559.76	19.338
560.10	19.343
560.44	19.497
560.78	18.829
561.12	20.185
561.45	20.665
561.79	19.117
562.13	19.182
562.47	20.423
562.81	19.247
563.15	19.331
563.48	19.363
563.82	19.439
564.16	19.424
564.50	19.206
564.84	18.837
565.17	19.369
565.51	19.681
565.85	19.289
566.19	19.098
566.52	19.126
566.86	18.264
567.20	19.575
567.54	19.349
567.88	18.088
568.21	19.630
568.55	19.515
568.89	18.677
569.23	19.207
569.56	18.300
569.90	18.717
570.24	18.622
570.57	18.361
570.91	18.293
571.25	18.005
571.59	18.321
571.92	18.059
572.26	18.313
572.60	18.378
572.93	17.811
573.27	18.545
573.61	18.398
573.95	18.553
574.28	17.990
574.62	17.468
574.96	17.849
575.29	17.726
575.63	18.013
575.97	18.094
576.30	18.189
576.64	18.196
576.98	17.574
577.31	17.652
577.65	18.176
577.98	17.833
578.32	17.593
578.66	17.841
578.99	17.599
579.33	17.720
579.67	17.490
580.00	17.766
580.34	18.154
580.67	17.703
581.01	17.675
581.35	17.631
581.68	18.003
582.02	17.527
582.35	17.939
582.69	18.041
583.02	17.765
583.36	18.261
583.70	18.631
584.03	18.260
584.37	18.103
584.70	18.156
585.04	18.493
585.37	18.034
585.71	18.022
586.04	18.265
586.38	18.103
586.72	18.696
587.05	18.555
587.39	17.599
587.72	18.320
588.06	18.143
588.39	18.546
588.73	18.158
589.06	18.884
589.40	18.788
589.73	18.198
590.07	18.790
590.40	17.866
590.73	18.931
591.07	19.088
591.40	19.148
591.74	18.745
592.07	18.892
592.41	18.975
592.74	18.202
593.08	18.454
593.41	19.108
593.75	18.270
594.08	18.471
594.41	19.017
594.75	18.891
595.08	18.611
595.42	18.319
595.75	18.661
596.09	19.452
596.42	18.978
596.75	19.080
597.09	19.177
597.42	17.749
597.75	18.931
598.09	19.174
598.42	18.557
598.76	18.565
599.09	17.826
599.42	18.377
599.76	18.302
600.09	18.142
600.42	18.408
600.76	18.714
601.09	18.324
601.42	18.455
601.76	18.292
602.09	18.656
602.42	18.869
602.76	19.226
603.09	18.332
603.42	19.524
603.76	18.445
604.09	18.185
604.42	18.671
604.76	19.654
605.09	18.785
605.42	18.726
605.75	18.791
606.09	18.544
606.42	18.145
606.75	18.457
607.09	18.669
607.42	18.100
607.75	18.186
608.08	18.888
608.42	18.870
608.75	17.583
609.08	18.501
609.41	18.753
609.75	19.104
610.08	18.897
610.41	18.994
610.74	18.496
611.07	19.516
611.41	19.136
611.74	19.356
612.07	19.410
612.40	19.203
612.73	18.579
613.07	19.397
613.40	19.221
613.73	18.983
614.06	19.140
614.39	19.664
614.72	18.737
615.06	19.065
615.39	18.790
615.72	18.916
616.05	18.820
616.38	19.733
616.71	18.765
617.05	19.611
617.38	19.002
617.71	18.739
618.04	19.952
618.37	18.746
618.70	19.353
619.03	20.132
619.36	19.416
619.69	20.211
620.03	20.536
620.36	19.853
620.69	20.137
621.02	19.764
621.35	19.734
621.68	18.536
622.01	18.576
622.34	20.272
622.67	18.783
623.00	19.663
623.33	18.799
623.66	19.299
623.99	19.588
624.32	18.973
624.65	19.774
624.99	19.122
625.32	19.334
625.65	19.985
625.98	20.061
626.31	19.907
626.64	20.000
626.97	20.200
627.30	18.703
627.63	20.673
627.96	20.017
628.29	19.685
628.62	20.403
628.95	21.038
629.28	19.891
629.61	21.448
629.94	20.190
630.26	20.210
630.59	21.544
