SpectraSuite Data File
++++++++++++++++++++++++++++++++++++
Date: Wed May 13 19:25:29 PDT 2015
User: schluterlab
Dark Spectrum Present: Yes
Reference Spectrum Present: Yes
Number of Sampled Component Spectra: 1
Spectrometers: USB2E3373
Integration Time (usec): 3000 (USB2E3373)
Spectra Averaged: 3 (USB2E3373)
Boxcar Smoothing: 0 (USB2E3373)
Correct for Electrical Dark: No (USB2E3373)
Strobe/Lamp Enabled: No (USB2E3373)
Correct for Detector Non-linearity: No (USB2E3373)
Correct for Stray Light: No (USB2E3373)
Number of Pixels in Processed Spectrum: 2048
>>>>>Begin Processed Spectral Data<<<<<
178.53	0.000
178.91	-1200.000
179.29	-1325.000
179.67	-250.000
180.04	-1625.000
180.42	2650.000
180.80	1080.000
181.18	-1025.000
181.56	728.571
181.94	0.000
182.31	-614.286
182.69	1966.667
183.07	-600.000
183.45	-511.111
183.83	563.636
184.20	-470.000
184.58	2000.000
184.96	5500.000
185.34	-780.000
185.72	-700.000
186.09	-2300.000
186.47	2450.000
186.85	2850.000
187.23	5000.000
187.61	-1566.667
187.98	1525.000
188.36	518.182
188.74	545.455
189.12	-1100.000
189.49	530.000
189.87	-5700.000
190.25	-1225.000
190.63	464.286
191.00	423.077
191.38	850.000
191.76	-1350.000
192.14	1550.000
192.51	650.000
192.89	1016.667
193.27	662.500
193.65	-1050.000
194.02	560.000
194.40	1120.000
194.78	540.000
195.15	608.333
195.53	680.000
195.91	-2500.000
196.29	381.250
196.66	321.053
197.04	-420.000
197.42	0.000
197.79	660.000
198.17	-5000.000
198.55	785.714
198.92	762.500
199.30	1080.000
199.68	0.000
200.05	327.778
200.43	885.714
200.81	4700.000
201.18	1966.667
201.56	-1833.333
201.94	555.556
202.31	633.333
202.69	408.333
203.07	530.000
203.44	0.000
203.82	1275.000
204.19	814.286
204.57	492.857
204.95	650.000
205.32	1700.000
205.70	554.545
206.08	378.571
206.45	2700.000
206.83	393.750
207.20	900.000
207.58	860.000
207.96	350.000
208.33	850.000
208.71	-950.000
209.08	857.143
209.46	633.333
209.84	609.091
210.21	-1400.000
210.59	1500.000
210.96	-575.000
211.34	2850.000
211.71	630.000
212.09	883.333
212.46	0.000
212.84	1900.000
213.22	1525.000
213.59	-5300.000
213.97	883.333
214.34	828.571
214.72	618.182
215.09	1080.000
215.47	-2150.000
215.84	-2450.000
216.22	1900.000
216.59	421.429
216.97	1400.000
217.34	418.182
217.72	-750.000
218.09	0.000
218.47	-5500.000
218.84	711.111
219.22	842.857
219.59	2000.000
219.97	-814.286
220.34	1020.000
220.72	-1600.000
221.09	378.571
221.47	1575.000
221.84	-983.333
222.22	0.000
222.59	1650.000
222.97	-2950.000
223.34	1140.000
223.72	476.923
224.09	1320.000
224.46	2250.000
224.84	-5800.000
225.21	-1020.000
225.59	-4200.000
225.96	610.000
226.34	385.000
226.71	2850.000
227.08	737.500
227.46	660.000
227.83	-1050.000
228.21	-2450.000
228.58	688.889
228.95	-3150.000
229.33	-2300.000
229.70	1966.667
230.08	785.714
230.45	-1000.000
230.82	458.333
231.20	750.000
231.57	728.571
231.95	508.333
232.32	313.636
232.69	472.727
233.07	757.143
233.44	407.692
233.81	-2000.000
234.19	326.316
234.56	541.667
234.93	391.667
235.31	472.727
235.68	438.462
236.05	428.571
236.43	212.121
236.80	289.474
237.17	5700.000
237.55	290.476
237.92	239.286
238.29	290.476
238.67	212.903
239.04	234.483
239.41	169.444
239.79	145.652
240.16	188.095
240.53	159.091
240.91	125.490
241.28	142.000
241.65	140.000
242.02	130.435
242.40	129.032
242.77	123.333
243.14	98.925
243.51	101.124
243.89	114.118
244.26	87.778
244.63	91.398
245.00	92.553
245.38	90.099
245.75	85.047
246.12	77.982
246.49	83.212
246.87	85.600
247.24	87.692
247.61	72.857
247.98	70.588
248.36	72.297
248.73	70.064
249.10	70.701
249.47	70.056
249.84	69.519
250.22	63.102
250.59	63.905
250.96	67.677
251.33	65.403
251.70	63.366
252.08	63.810
252.45	65.471
252.82	60.870
253.19	56.596
253.56	59.216
253.94	60.996
254.31	55.078
254.68	60.769
255.05	55.351
255.42	58.537
255.79	56.985
256.16	51.625
256.54	55.124
256.91	57.651
257.28	51.079
257.65	52.475
258.02	54.969
258.39	53.943
258.76	55.518
259.14	56.548
259.51	50.760
259.88	50.621
260.25	52.568
260.62	51.445
260.99	49.068
261.36	53.754
261.73	50.430
262.10	50.000
262.47	52.958
262.85	50.139
263.22	51.852
263.59	52.422
263.96	47.527
264.33	50.914
264.70	49.474
265.07	52.685
265.44	48.485
265.81	43.796
266.18	50.000
266.55	49.024
266.92	47.912
267.29	50.463
267.66	45.872
268.03	49.318
268.40	48.364
268.77	47.017
269.14	45.721
269.51	47.404
269.88	49.417
270.25	46.727
270.62	47.640
270.99	47.742
271.36	43.777
271.73	52.804
272.10	47.391
272.47	48.387
272.84	45.455
273.21	46.331
273.58	44.541
273.95	45.493
274.32	44.835
274.69	45.610
275.06	44.685
275.43	47.234
275.80	45.090
276.17	43.381
276.54	44.075
276.91	45.257
277.28	42.383
277.65	43.327
278.02	45.756
278.39	45.312
278.76	44.000
279.13	45.283
279.50	44.507
279.87	45.219
280.23	45.709
280.60	45.261
280.97	45.102
281.34	42.124
281.71	44.727
282.08	47.025
282.45	42.364
282.82	42.806
283.19	42.602
283.56	41.579
283.92	44.501
284.29	42.681
284.66	40.472
285.03	39.241
285.40	42.606
285.77	41.751
286.14	42.660
286.51	42.667
286.87	40.855
287.24	43.160
287.61	38.363
287.98	41.721
288.35	41.046
288.72	39.875
289.08	39.280
289.45	39.209
289.82	38.049
290.19	37.206
290.56	38.285
290.93	36.103
291.29	39.110
291.66	36.431
292.03	38.663
292.40	36.564
292.77	37.130
293.13	38.358
293.50	35.714
293.87	36.000
294.24	34.519
294.60	34.061
294.97	35.029
295.34	36.389
295.71	36.506
296.08	32.621
296.44	34.113
296.81	31.704
297.18	34.553
297.55	32.586
297.91	32.718
298.28	35.074
298.65	34.987
299.02	34.651
299.38	34.529
299.75	30.863
300.12	31.928
300.48	32.500
300.85	30.333
301.22	33.503
301.59	29.924
301.95	32.620
302.32	31.707
302.69	30.466
303.05	29.939
303.42	31.605
303.79	30.238
304.15	30.769
304.52	28.621
304.89	30.894
305.25	30.162
305.62	29.672
305.99	31.051
306.35	31.096
306.72	31.166
307.09	30.966
307.45	31.419
307.82	29.018
308.19	30.022
308.55	31.392
308.92	31.257
309.29	29.567
309.65	30.329
310.02	30.444
310.38	30.753
310.75	30.729
311.12	30.911
311.48	30.825
311.85	31.027
312.22	31.113
312.58	31.081
312.95	30.412
313.31	30.291
313.68	32.536
314.05	33.432
314.41	31.156
314.78	32.830
315.14	30.685
315.51	32.853
315.87	33.960
316.24	31.380
316.61	32.261
316.97	33.268
317.34	34.344
317.70	34.608
318.07	34.745
318.43	36.399
318.80	36.832
319.16	36.252
319.53	35.460
319.89	37.619
320.26	40.100
320.62	39.187
320.99	41.010
321.35	40.404
321.72	40.554
322.08	41.362
322.45	42.886
322.81	43.992
323.18	45.279
323.54	44.434
323.91	44.717
324.27	46.176
324.64	48.183
325.00	48.783
325.37	49.955
325.73	51.795
326.10	51.368
326.46	51.971
326.83	53.753
327.19	54.483
327.56	55.401
327.92	58.268
328.29	58.740
328.65	61.142
329.01	60.289
329.38	60.222
329.74	61.311
330.11	63.242
330.47	64.279
330.84	63.051
331.20	65.118
331.56	64.404
331.93	67.222
332.29	64.862
332.66	66.549
333.02	66.910
333.38	68.112
333.75	67.558
334.11	68.950
334.48	68.500
334.84	69.761
335.20	70.364
335.57	69.538
335.93	68.304
336.29	70.513
336.66	71.326
337.02	70.498
337.38	71.667
337.75	69.608
338.11	71.173
338.47	73.204
338.84	72.869
339.20	72.569
339.56	72.719
339.93	75.000
340.29	72.736
340.65	73.351
341.02	72.164
341.38	74.199
341.74	73.860
342.11	76.507
342.47	74.714
342.83	74.829
343.20	75.584
343.56	75.569
343.92	75.614
344.28	74.320
344.65	75.838
345.01	74.495
345.37	75.214
345.73	75.804
346.10	76.641
346.46	76.186
346.82	77.100
347.19	77.193
347.55	75.780
347.91	78.479
348.27	77.650
348.63	75.502
349.00	75.405
349.36	75.780
349.72	76.423
350.08	77.066
350.45	79.089
350.81	76.604
351.17	77.147
351.53	78.542
351.89	76.485
352.26	77.032
352.62	77.065
352.98	75.284
353.34	78.143
353.70	78.314
354.07	76.935
354.43	77.302
354.79	77.715
355.15	76.377
355.51	79.057
355.87	77.796
356.24	78.664
356.60	78.268
356.96	79.324
357.32	79.804
357.68	79.449
358.04	77.910
358.40	77.751
358.77	77.621
359.13	77.269
359.49	77.882
359.85	78.413
360.21	78.628
360.57	78.755
360.93	80.231
361.29	78.685
361.66	77.786
362.02	78.582
362.38	79.544
362.74	79.613
363.10	78.979
363.46	77.036
363.82	78.609
364.18	75.918
364.54	79.792
364.90	79.037
365.26	79.118
365.62	79.985
365.98	77.210
366.35	77.507
366.71	77.440
367.07	79.534
367.43	79.681
367.79	81.156
368.15	79.813
368.51	77.762
368.87	79.086
369.23	78.493
369.59	79.942
369.95	78.382
370.31	77.920
370.67	77.899
371.03	80.674
371.39	79.300
371.75	78.750
372.11	76.814
372.47	79.032
372.83	80.476
373.19	78.468
373.55	79.970
373.91	80.707
374.27	77.045
374.63	79.636
374.99	77.472
375.35	77.390
375.71	78.478
376.07	78.121
376.42	78.611
376.78	78.595
377.14	78.969
377.50	78.808
377.86	77.793
378.22	78.192
378.58	78.697
378.94	77.938
379.30	77.672
379.66	79.949
380.02	77.948
380.38	77.353
380.74	79.232
381.09	77.262
381.45	79.164
381.81	76.536
382.17	78.025
382.53	77.107
382.89	78.457
383.25	78.799
383.61	79.244
383.97	76.923
384.32	74.548
384.68	76.580
385.04	76.030
385.40	76.161
385.76	77.703
386.12	78.433
386.48	78.540
386.83	78.897
387.19	78.169
387.55	76.809
387.91	77.207
388.27	76.395
388.62	76.583
388.98	77.518
389.34	76.220
389.70	75.475
390.06	76.869
390.42	77.043
390.77	75.763
391.13	77.601
391.49	75.761
391.85	75.175
392.20	75.521
392.56	76.641
392.92	75.221
393.28	75.325
393.64	76.799
393.99	73.977
394.35	74.876
394.71	74.780
395.07	75.265
395.42	76.947
395.78	74.873
396.14	75.047
396.50	77.820
396.85	77.114
397.21	73.983
397.57	76.007
397.92	75.300
398.28	73.991
398.64	73.895
399.00	73.699
399.35	73.773
399.71	74.711
400.07	73.743
400.42	74.908
400.78	74.548
401.14	73.902
401.49	74.507
401.85	74.289
402.21	72.455
402.57	74.028
402.92	74.842
403.28	74.891
403.63	73.824
403.99	74.459
404.35	74.182
404.70	72.422
405.06	72.627
405.42	73.799
405.77	71.714
406.13	71.670
406.49	72.797
406.84	71.825
407.20	72.163
407.55	73.006
407.91	74.067
408.27	73.835
408.62	72.306
408.98	72.855
409.34	72.079
409.69	71.677
410.05	72.739
410.40	71.865
410.76	71.446
411.11	70.205
411.47	70.671
411.83	71.900
412.18	72.233
412.54	71.669
412.89	71.084
413.25	71.251
413.60	71.526
413.96	70.128
414.31	69.259
414.67	71.546
415.03	71.457
415.38	71.263
415.74	70.868
416.09	72.763
416.45	71.151
416.80	71.580
417.16	70.576
417.51	71.002
417.87	70.263
418.22	70.599
418.58	70.110
418.93	71.007
419.29	70.910
419.64	69.710
420.00	69.817
420.35	68.986
420.71	70.293
421.06	68.914
421.42	69.298
421.77	69.619
422.12	68.725
422.48	67.620
422.83	68.725
423.19	67.735
423.54	69.588
423.90	68.406
424.25	68.509
424.61	67.738
424.96	69.738
425.31	67.829
425.67	66.517
426.02	68.914
426.38	69.658
426.73	67.408
427.09	68.936
427.44	68.948
427.79	68.028
428.15	68.452
428.50	67.876
428.85	69.011
429.21	67.918
429.56	67.341
429.92	66.432
430.27	66.038
430.62	66.155
430.98	66.788
431.33	65.412
431.68	67.539
432.04	65.389
432.39	66.077
432.74	66.727
433.10	67.629
433.45	67.055
433.80	66.075
434.16	65.064
434.51	64.947
434.86	66.705
435.22	65.314
435.57	67.781
435.92	65.945
436.28	68.327
436.63	65.839
436.98	66.514
437.34	66.249
437.69	66.686
438.04	66.329
438.39	65.612
438.75	66.996
439.10	66.257
439.45	65.643
439.81	65.076
440.16	65.500
440.51	65.495
440.86	66.242
441.22	66.018
441.57	65.074
441.92	66.479
442.27	65.339
442.63	65.508
442.98	65.408
443.33	65.380
443.68	64.843
444.03	64.275
444.39	64.411
444.74	65.530
445.09	64.636
445.44	64.461
445.79	63.780
446.15	63.367
446.50	65.159
446.85	64.029
447.20	64.406
447.55	64.936
447.91	64.203
448.26	64.886
448.61	63.369
448.96	65.282
449.31	64.736
449.66	63.365
450.02	62.284
450.37	63.549
450.72	63.339
451.07	64.168
451.42	62.310
451.77	64.827
452.12	63.799
452.47	63.868
452.83	64.744
453.18	62.653
453.53	64.688
453.88	63.674
454.23	64.196
454.58	63.780
454.93	65.480
455.28	64.900
455.63	64.988
455.98	64.821
456.34	64.887
456.69	63.870
457.04	64.334
457.39	62.127
457.74	63.494
458.09	62.680
458.44	63.056
458.79	61.443
459.14	62.077
459.49	62.288
459.84	62.770
460.19	62.935
460.54	60.417
460.89	63.467
461.24	62.113
461.59	64.846
461.94	63.317
462.29	64.392
462.64	63.178
462.99	62.004
463.34	64.133
463.69	64.040
464.04	62.783
464.39	61.275
464.74	62.805
465.09	60.977
465.44	60.166
465.79	60.906
466.14	60.208
466.49	60.567
466.84	61.529
467.19	61.074
467.54	62.375
467.89	59.904
468.24	61.547
468.59	61.416
468.94	60.843
469.29	63.046
469.64	62.450
469.99	62.179
470.34	63.342
470.68	63.362
471.03	61.769
471.38	62.335
471.73	61.825
472.08	63.816
472.43	61.055
472.78	63.792
473.13	60.847
473.48	60.612
473.83	60.915
474.17	61.108
474.52	62.903
474.87	61.588
475.22	60.592
475.57	59.323
475.92	59.055
476.27	61.218
476.61	60.342
476.96	60.528
477.31	59.236
477.66	61.160
478.01	59.749
478.36	60.656
478.70	59.553
479.05	60.809
479.40	60.082
479.75	60.244
480.10	59.592
480.45	58.782
480.79	58.624
481.14	59.687
481.49	59.279
481.84	58.573
482.19	59.200
482.53	57.615
482.88	58.865
483.23	59.486
483.58	58.872
483.92	58.997
484.27	57.952
484.62	58.405
484.97	56.405
485.31	56.301
485.66	54.695
486.01	51.769
486.36	50.097
486.70	49.506
487.05	51.240
487.40	53.166
487.75	52.820
488.09	54.231
488.44	55.037
488.79	57.034
489.13	56.379
489.48	57.953
489.83	56.927
490.17	57.738
490.52	58.060
490.87	57.983
491.22	57.344
491.56	57.540
491.91	58.585
492.26	57.924
492.60	57.465
492.95	56.782
493.30	57.757
493.64	58.096
493.99	56.360
494.34	57.632
494.68	58.379
495.03	57.895
495.37	57.189
495.72	58.333
496.07	57.541
496.41	55.752
496.76	57.432
497.11	57.091
497.45	57.848
497.80	58.781
498.14	56.957
498.49	58.098
498.84	56.855
499.18	56.619
499.53	57.265
499.87	55.871
500.22	55.535
500.56	58.544
500.91	56.779
501.26	55.334
501.60	57.095
501.95	55.591
502.29	57.404
502.64	56.844
502.98	56.755
503.33	55.850
503.67	56.566
504.02	55.893
504.36	55.873
504.71	56.717
505.06	57.157
505.40	55.566
505.75	56.075
506.09	55.879
506.44	57.326
506.78	56.698
507.13	57.799
507.47	56.768
507.82	58.257
508.16	57.396
508.51	59.411
508.85	57.349
509.19	56.939
509.54	55.969
509.88	57.445
510.23	57.481
510.57	57.843
510.92	56.758
511.26	56.423
511.61	57.469
511.95	55.898
512.30	57.582
512.64	58.141
512.98	58.092
513.33	58.619
513.67	58.004
514.02	57.359
514.36	58.438
514.70	57.554
515.05	57.613
515.39	57.880
515.74	57.601
516.08	58.133
516.42	59.545
516.77	59.365
517.11	57.436
517.46	58.296
517.80	59.117
518.14	58.193
518.49	59.452
518.83	58.580
519.17	57.910
519.52	58.461
519.86	58.928
520.20	58.324
520.55	59.844
520.89	60.036
521.23	59.288
521.58	60.264
521.92	60.992
522.26	58.389
522.61	60.000
522.95	58.932
523.29	58.491
523.64	60.061
523.98	59.519
524.32	59.590
524.66	58.569
525.01	60.478
525.35	58.364
525.69	58.621
526.04	58.879
526.38	59.426
526.72	58.098
527.06	58.506
527.41	58.973
527.75	60.450
528.09	59.859
528.43	59.401
528.78	59.127
529.12	59.091
529.46	58.175
529.80	59.406
530.15	59.065
530.49	57.415
530.83	58.671
531.17	60.444
531.51	59.792
531.86	59.161
532.20	58.735
532.54	59.257
532.88	59.756
533.22	57.964
533.57	58.086
533.91	56.833
534.25	56.865
534.59	56.681
534.93	55.622
535.27	57.333
535.62	56.777
535.96	56.246
536.30	57.216
536.64	58.403
536.98	57.532
537.32	59.052
537.66	58.067
538.01	58.460
538.35	56.755
538.69	57.881
539.03	56.270
539.37	56.102
539.71	56.967
540.05	57.516
540.39	57.342
540.73	55.110
541.07	58.923
541.42	58.187
541.76	57.419
542.10	56.921
542.44	56.026
542.78	57.378
543.12	55.022
543.46	56.000
543.80	57.189
544.14	55.905
544.48	56.000
544.82	55.484
545.16	57.189
545.50	55.977
545.84	56.183
546.18	56.566
546.52	57.330
546.86	59.313
547.20	56.305
547.54	55.979
547.88	56.633
548.22	54.234
548.56	55.220
548.90	55.378
549.24	56.027
549.58	57.367
549.92	56.731
550.26	58.239
550.60	56.293
550.94	57.042
551.28	57.937
551.62	57.297
551.96	56.561
552.30	57.338
552.64	57.201
552.98	56.678
553.32	55.563
553.66	56.510
554.00	56.829
554.34	55.487
554.68	57.797
555.02	57.264
555.36	55.950
555.69	54.601
556.03	54.576
556.37	54.775
556.71	56.480
557.05	54.622
557.39	53.814
557.73	55.822
558.07	57.360
558.41	56.006
558.75	56.943
559.08	57.271
559.42	58.352
559.76	57.132
560.10	55.675
560.44	56.953
560.78	54.158
561.12	55.739
561.45	54.628
561.79	54.515
562.13	55.131
562.47	54.850
562.81	56.974
563.15	53.445
563.48	54.708
563.82	54.534
564.16	54.807
564.50	54.362
564.84	52.845
565.17	53.153
565.51	54.505
565.85	53.553
566.19	52.724
566.52	53.515
566.86	52.562
567.20	53.066
567.54	52.454
567.88	50.896
568.21	52.275
568.55	50.152
568.89	49.514
569.23	48.619
569.56	47.692
569.90	46.340
570.24	45.640
570.57	44.271
570.91	44.312
571.25	43.669
571.59	44.153
571.92	43.088
572.26	44.021
572.60	43.634
572.93	43.268
573.27	43.804
573.61	43.356
573.95	42.661
574.28	42.764
574.62	41.764
574.96	41.314
575.29	41.998
575.63	41.438
575.97	42.229
576.30	42.804
576.64	41.622
576.98	42.027
577.31	40.781
577.65	41.433
577.98	41.194
578.32	40.647
578.66	41.153
578.99	40.813
579.33	41.612
579.67	41.085
580.00	40.518
580.34	41.196
580.67	40.369
581.01	40.904
581.35	40.970
581.68	39.706
582.02	38.971
582.35	39.385
582.69	39.871
583.02	40.804
583.36	41.042
583.70	41.558
584.03	40.987
584.37	41.581
584.70	41.588
585.04	40.974
585.37	41.100
585.71	40.602
586.04	40.058
586.38	41.432
586.72	41.895
587.05	41.212
587.39	40.633
587.72	41.020
588.06	40.475
588.39	41.180
588.73	41.478
589.06	42.100
589.40	42.997
589.73	43.330
590.07	42.918
590.40	42.492
590.73	44.106
591.07	44.526
591.40	45.340
591.74	45.671
592.07	44.764
592.41	44.316
592.74	42.584
593.08	42.239
593.41	42.328
593.75	40.974
594.08	41.636
594.41	41.888
594.75	42.551
595.08	42.269
595.42	42.837
595.75	42.201
596.09	43.184
596.42	43.301
596.75	43.985
597.09	44.632
597.42	43.044
597.75	43.984
598.09	42.957
598.42	44.115
598.76	43.251
599.09	42.645
599.42	41.667
599.76	41.618
600.09	41.858
600.42	41.088
600.76	41.321
601.09	41.421
601.42	41.705
601.76	42.619
602.09	42.846
602.42	42.914
602.76	43.652
603.09	43.352
603.42	42.952
603.76	42.188
604.09	42.187
604.42	42.519
604.76	42.556
605.09	43.687
605.42	42.924
605.75	41.846
606.09	41.968
606.42	42.910
606.75	42.348
607.09	42.277
607.42	42.747
607.75	42.236
608.08	42.293
608.42	43.120
608.75	43.778
609.08	42.461
609.41	43.313
609.75	43.735
610.08	44.109
610.41	43.250
610.74	44.087
611.07	44.071
611.41	43.719
611.74	44.897
612.07	45.807
612.40	44.963
612.73	44.632
613.07	45.636
613.40	44.286
613.73	43.943
614.06	45.376
614.39	44.835
614.72	44.526
615.06	44.275
615.39	44.586
615.72	44.121
616.05	44.551
616.38	46.359
616.71	45.724
617.05	45.583
617.38	46.482
617.71	45.946
618.04	45.853
618.37	45.653
618.70	47.355
619.03	47.895
619.36	47.454
619.69	47.958
620.03	48.420
620.36	47.460
620.69	49.247
621.02	50.221
621.35	48.943
621.68	49.299
622.01	50.232
622.34	50.303
622.67	48.745
623.00	48.863
623.33	47.462
623.66	49.750
623.99	49.190
624.32	48.217
624.65	49.082
624.99	48.229
625.32	48.443
625.65	49.136
625.98	49.424
626.31	50.078
626.64	51.184
626.97	50.790
627.30	50.873
627.63	51.272
627.96	50.799
628.29	51.969
628.62	52.150
628.95	53.774
629.28	52.920
629.61	53.529
629.94	54.000
630.26	52.717
630.59	53.575
