SpectraSuite Data File
++++++++++++++++++++++++++++++++++++
Date: Wed May 13 19:43:42 PDT 2015
User: schluterlab
Dark Spectrum Present: Yes
Reference Spectrum Present: Yes
Number of Sampled Component Spectra: 1
Spectrometers: USB2E3373
Integration Time (usec): 3000 (USB2E3373)
Spectra Averaged: 3 (USB2E3373)
Boxcar Smoothing: 0 (USB2E3373)
Correct for Electrical Dark: No (USB2E3373)
Strobe/Lamp Enabled: No (USB2E3373)
Correct for Detector Non-linearity: No (USB2E3373)
Correct for Stray Light: No (USB2E3373)
Number of Pixels in Processed Spectrum: 2048
>>>>>Begin Processed Spectral Data<<<<<
178.53	0.000
178.91	-1000.000
179.29	-1275.000
179.67	-216.667
180.04	-1225.000
180.42	3100.000
180.80	960.000
181.18	-1050.000
181.56	685.714
181.94	0.000
182.31	-685.714
182.69	1966.667
183.07	-512.500
183.45	-533.333
183.83	609.091
184.20	-300.000
184.58	2600.000
184.96	5200.000
185.34	-800.000
185.72	-550.000
186.09	-2700.000
186.47	2600.000
186.85	2550.000
187.23	5400.000
187.61	-1666.667
187.98	1450.000
188.36	600.000
188.74	500.000
189.12	-1000.000
189.49	440.000
189.87	-5300.000
190.25	-1300.000
190.63	414.286
191.00	415.385
191.38	866.667
191.76	-1425.000
192.14	1375.000
192.51	587.500
192.89	1116.667
193.27	625.000
193.65	-1050.000
194.02	480.000
194.40	960.000
194.78	540.000
195.15	450.000
195.53	560.000
195.91	-2000.000
196.29	368.750
196.66	347.368
197.04	-400.000
197.42	0.000
197.79	540.000
198.17	-4600.000
198.55	714.286
198.92	675.000
199.30	1040.000
199.68	0.000
200.05	311.111
200.43	700.000
200.81	4500.000
201.18	1866.667
201.56	-1066.667
201.94	566.667
202.31	522.222
202.69	483.333
203.07	560.000
203.44	0.000
203.82	925.000
204.19	800.000
204.57	442.857
204.95	637.500
205.32	1400.000
205.70	490.909
206.08	335.714
206.45	2500.000
206.83	362.500
207.20	1000.000
207.58	840.000
207.96	355.556
208.33	712.500
208.71	-966.667
209.08	714.286
209.46	566.667
209.84	536.364
210.21	-1466.667
210.59	1650.000
210.96	-512.500
211.34	2600.000
211.71	550.000
212.09	850.000
212.46	0.000
212.84	1566.667
213.22	1600.000
213.59	-3500.000
213.97	1050.000
214.34	757.143
214.72	581.818
215.09	1200.000
215.47	-1800.000
215.84	-2300.000
216.22	1633.333
216.59	400.000
216.97	1300.000
217.34	500.000
217.72	-716.667
218.09	0.000
218.47	-4300.000
218.84	611.111
219.22	642.857
219.59	1633.333
219.97	-714.286
220.34	940.000
220.72	-1666.667
221.09	400.000
221.47	1550.000
221.84	-1050.000
222.22	0.000
222.59	1425.000
222.97	-2500.000
223.34	1380.000
223.72	407.692
224.09	1000.000
224.46	2000.000
224.84	-5500.000
225.21	-1120.000
225.59	-4600.000
225.96	560.000
226.34	290.000
226.71	2700.000
227.08	650.000
227.46	450.000
227.83	-1075.000
228.21	-2350.000
228.58	644.444
228.95	-2600.000
229.33	-2200.000
229.70	1500.000
230.08	785.714
230.45	-820.000
230.82	425.000
231.20	816.667
231.57	785.714
231.95	591.667
232.32	231.818
232.69	409.091
233.07	671.429
233.44	361.538
233.81	-1433.333
234.19	268.421
234.56	466.667
234.93	408.333
235.31	463.636
235.68	338.462
236.05	314.286
236.43	169.697
236.80	242.105
237.17	3300.000
237.55	214.286
237.92	200.000
238.29	242.857
238.67	164.516
239.04	175.862
239.41	150.000
239.79	108.696
240.16	128.571
240.53	122.727
240.91	82.353
241.28	106.000
241.65	94.000
242.02	78.261
242.40	88.710
242.77	78.333
243.14	67.742
243.51	64.045
243.89	58.824
244.26	50.000
244.63	55.914
245.00	54.255
245.38	49.505
245.75	46.729
246.12	35.780
246.49	56.204
246.87	55.200
247.24	43.846
247.61	38.571
247.98	38.562
248.36	37.162
248.73	36.943
249.10	36.943
249.47	28.249
249.84	33.690
250.22	30.481
250.59	30.769
250.96	34.343
251.33	38.863
251.70	33.663
252.08	25.238
252.45	21.525
252.82	26.522
253.19	31.064
253.56	26.275
253.94	28.631
254.31	25.781
254.68	28.846
255.05	23.616
255.42	23.577
255.79	23.897
256.16	25.993
256.54	21.555
256.91	19.217
257.28	19.784
257.65	23.432
258.02	26.087
258.39	21.451
258.76	19.064
259.14	21.726
259.51	18.845
259.88	17.702
260.25	20.544
260.62	20.809
260.99	22.360
261.36	17.117
261.73	17.765
262.10	14.535
262.47	20.845
262.85	18.106
263.22	16.524
263.59	18.519
263.96	17.582
264.33	17.232
264.70	17.895
265.07	19.182
265.44	17.677
265.81	17.762
266.18	16.080
266.55	18.293
266.92	15.725
267.29	17.593
267.66	15.596
268.03	18.182
268.40	14.486
268.77	13.126
269.14	13.739
269.51	18.284
269.88	16.084
270.25	16.027
270.62	15.955
270.99	17.634
271.36	15.451
271.73	15.888
272.10	16.304
272.47	14.839
272.84	17.100
273.21	17.400
273.58	15.066
273.95	14.885
274.32	14.876
274.69	13.919
275.06	13.976
275.43	15.745
275.80	16.032
276.17	13.849
276.54	16.008
276.91	14.822
277.28	12.695
277.65	15.667
278.02	12.215
278.39	15.820
278.76	14.182
279.13	15.283
279.50	14.339
279.87	13.944
280.23	13.772
280.60	12.379
280.97	12.200
281.34	13.274
281.71	15.455
282.08	13.052
282.45	12.364
282.82	12.256
283.19	11.230
283.56	14.386
283.92	13.367
284.29	11.817
284.66	12.341
285.03	12.297
285.40	11.444
285.77	11.448
286.14	11.226
286.51	13.000
286.87	13.846
287.24	13.355
287.61	12.199
287.98	12.338
288.35	12.044
288.72	12.617
289.08	11.894
289.45	10.544
289.82	13.171
290.19	10.832
290.56	12.251
290.93	10.876
291.29	11.043
291.66	10.914
292.03	11.483
292.40	12.775
292.77	9.763
293.13	12.090
293.50	10.787
293.87	11.259
294.24	9.926
294.60	10.917
294.97	11.773
295.34	11.989
295.71	9.801
296.08	9.687
296.44	9.766
296.81	9.643
297.18	11.382
297.55	8.707
297.91	8.707
298.28	11.647
298.65	9.791
299.02	9.750
299.38	8.898
299.75	8.221
300.12	9.068
300.48	9.625
300.85	8.631
301.22	9.172
301.59	8.965
301.95	8.312
302.32	8.858
302.69	9.319
303.05	9.576
303.42	8.889
303.79	9.400
304.15	8.508
304.52	9.270
304.89	8.943
305.25	9.049
305.62	10.193
305.99	9.799
306.35	9.060
306.72	9.978
307.09	9.545
307.45	9.009
307.82	7.813
308.19	9.382
308.55	10.140
308.92	9.667
309.29	9.504
309.65	8.908
310.02	9.514
310.38	9.140
310.75	8.976
311.12	10.031
311.48	10.554
311.85	10.168
312.22	10.718
312.58	9.979
312.95	11.088
313.31	8.835
313.68	10.915
314.05	12.623
314.41	10.955
314.78	12.185
315.14	11.023
315.51	11.329
315.87	11.881
316.24	11.917
316.61	12.573
316.97	12.524
317.34	11.644
317.70	12.906
318.07	13.859
318.43	13.699
318.80	14.058
319.16	15.160
319.53	14.259
319.89	16.095
320.26	15.600
320.62	15.476
320.99	17.273
321.35	14.747
321.72	17.146
322.08	19.052
322.45	19.104
322.81	18.411
323.18	18.882
323.54	18.089
323.91	19.434
324.27	19.790
324.64	18.546
325.00	19.116
325.37	21.201
325.73	21.275
326.10	21.271
326.46	20.968
326.83	20.880
327.19	21.520
327.56	21.864
327.92	22.922
328.29	22.981
328.65	22.744
329.01	24.549
329.38	24.329
329.74	23.269
330.11	24.128
330.47	23.875
330.84	26.195
331.20	24.954
331.56	25.963
331.93	26.204
332.29	24.756
332.66	26.106
333.02	24.314
333.38	26.739
333.75	25.401
334.11	25.712
334.48	26.353
334.84	26.195
335.20	26.727
335.57	25.748
335.93	24.732
336.29	26.557
336.66	26.060
337.02	25.973
337.38	27.315
337.75	25.936
338.11	25.694
338.47	27.440
338.84	26.948
339.20	26.789
339.56	29.015
339.93	27.818
340.29	27.264
340.65	28.253
341.02	28.098
341.38	27.046
341.74	27.719
342.11	28.908
342.47	27.841
342.83	28.938
343.20	28.745
343.56	27.633
343.92	28.509
344.28	29.167
344.65	29.063
345.01	28.620
345.37	29.074
345.73	29.272
346.10	30.179
346.46	29.492
346.82	29.489
347.19	29.156
347.55	29.228
347.91	29.531
348.27	30.403
348.63	29.766
349.00	29.369
349.36	28.489
349.72	29.751
350.08	29.660
350.45	30.513
350.81	29.813
351.17	30.794
351.53	31.286
351.89	31.188
352.26	30.860
352.62	30.874
352.98	31.442
353.34	31.553
353.70	31.178
354.07	31.532
354.43	30.159
354.79	30.652
355.15	32.083
355.51	32.374
355.87	31.592
356.24	32.410
356.60	30.714
356.96	33.146
357.32	32.870
357.68	32.441
358.04	32.621
358.40	33.017
358.77	34.116
359.13	31.807
359.49	33.961
359.85	32.143
360.21	33.014
360.57	33.541
360.93	34.385
361.29	33.560
361.66	33.746
362.02	34.478
362.38	34.449
362.74	35.119
363.10	33.753
363.46	33.822
363.82	35.601
364.18	34.288
364.54	35.587
364.90	35.482
365.26	35.809
365.62	35.573
365.98	35.281
366.35	34.527
366.71	35.719
367.07	35.907
367.43	36.720
367.79	36.902
368.15	36.853
368.51	35.174
368.87	36.617
369.23	36.357
369.59	38.088
369.95	37.794
370.31	37.393
370.67	37.246
371.03	36.779
371.39	38.265
371.75	37.941
372.11	37.340
372.47	38.563
372.83	38.689
373.19	37.283
373.55	38.359
373.91	39.764
374.27	37.595
374.63	38.473
374.99	39.760
375.35	39.428
375.71	37.971
376.07	39.095
376.42	39.821
376.78	39.430
377.14	39.552
377.50	39.404
377.86	39.694
378.22	40.139
378.58	40.226
378.94	39.158
379.30	40.776
379.66	40.990
380.02	41.216
380.38	39.162
380.74	41.357
381.09	39.914
381.45	41.364
381.81	41.216
382.17	42.484
382.53	41.761
382.89	41.605
383.25	41.964
383.61	41.945
383.97	43.152
384.32	42.296
384.68	42.441
385.04	42.963
385.40	41.981
385.76	42.322
386.12	43.588
386.48	42.857
386.83	43.618
387.19	44.094
387.55	42.981
387.91	42.503
388.27	43.286
388.62	44.069
388.98	43.059
389.34	43.992
389.70	43.838
390.06	44.613
390.42	44.099
390.77	43.257
391.13	44.927
391.49	43.084
391.85	43.985
392.20	42.650
392.56	45.455
392.92	43.673
393.28	43.491
393.64	44.604
393.99	44.288
394.35	42.494
394.71	43.977
395.07	43.925
395.42	44.994
395.78	44.656
396.14	44.755
396.50	45.677
396.85	44.247
397.21	43.218
397.57	44.823
397.92	45.012
398.28	44.675
398.64	43.070
399.00	44.320
399.35	43.429
399.71	44.387
400.07	44.589
400.42	44.294
400.78	44.813
401.14	45.671
401.49	44.239
401.85	43.678
402.21	44.012
402.57	46.021
402.92	44.830
403.28	45.034
403.63	45.235
403.99	45.796
404.35	45.576
404.70	44.964
405.06	44.380
405.42	45.415
405.77	44.286
406.13	43.962
406.49	44.352
406.84	44.123
407.20	43.735
407.55	45.182
407.91	45.533
408.27	45.948
408.62	43.408
408.98	44.118
409.34	44.588
409.69	44.387
410.05	44.857
410.40	44.526
410.76	44.803
411.11	44.029
411.47	43.642
411.83	43.861
412.18	44.156
412.54	44.022
412.89	46.265
413.25	44.038
413.60	44.657
413.96	43.777
414.31	44.107
414.67	45.311
415.03	43.642
415.38	44.716
415.74	44.952
416.09	45.395
416.45	43.173
416.80	44.085
417.16	44.906
417.51	43.265
417.87	43.031
418.22	44.543
418.58	44.609
418.93	44.349
419.29	43.794
419.64	44.962
420.00	44.024
420.35	43.536
420.71	43.395
421.06	43.317
421.42	44.035
421.77	43.610
422.12	43.403
422.48	42.526
422.83	43.623
423.19	42.376
423.54	43.471
423.90	43.478
424.25	43.439
424.61	42.857
424.96	43.090
425.31	42.470
425.67	41.910
426.02	41.371
426.38	42.796
426.73	42.130
427.09	43.465
427.44	42.151
427.79	41.691
428.15	42.738
428.50	43.066
428.85	43.325
429.21	41.579
429.56	42.094
429.92	42.476
430.27	41.509
430.62	40.297
430.98	41.463
431.33	41.186
431.68	41.204
432.04	40.895
432.39	41.576
432.74	40.934
433.10	41.539
433.45	42.974
433.80	41.630
434.16	41.132
434.51	40.368
434.86	41.562
435.22	41.078
435.57	40.912
435.92	40.374
436.28	41.400
436.63	41.611
436.98	40.870
437.34	41.383
437.69	40.490
438.04	40.022
438.39	40.299
438.75	41.546
439.10	41.117
439.45	40.791
439.81	40.725
440.16	39.130
440.51	40.656
440.86	40.822
441.22	39.655
441.57	40.340
441.92	40.225
442.27	40.527
442.63	39.652
442.98	39.887
443.33	40.326
443.68	39.339
444.03	40.459
444.39	39.776
444.74	40.314
445.09	39.569
445.44	38.983
445.79	38.545
446.15	38.962
446.50	39.149
446.85	38.181
447.20	40.133
447.55	38.805
447.91	38.389
448.26	38.286
448.61	38.383
448.96	39.313
449.31	38.470
449.66	39.223
450.02	37.716
450.37	37.755
450.72	38.297
451.07	38.087
451.42	36.778
451.77	38.050
452.12	37.587
452.47	36.940
452.83	37.821
453.18	37.042
453.53	38.899
453.88	36.976
454.23	36.940
454.58	37.371
454.93	39.161
455.28	36.908
455.63	37.561
455.98	38.155
456.34	37.500
456.69	38.009
457.04	36.656
457.39	35.944
457.74	36.622
458.09	36.228
458.44	36.374
458.79	35.412
459.14	36.512
459.49	35.785
459.84	35.457
460.19	35.180
460.54	35.590
460.89	35.272
461.24	36.126
461.59	36.432
461.94	35.882
462.29	36.320
462.64	35.609
462.99	34.873
463.34	35.933
463.69	34.334
464.04	35.478
464.39	34.609
464.74	35.413
465.09	33.776
465.44	33.906
465.79	34.843
466.14	33.662
466.49	33.537
466.84	33.917
467.19	33.374
467.54	34.000
467.89	33.553
468.24	33.275
468.59	34.371
468.94	33.659
469.29	34.704
469.64	33.735
469.99	33.491
470.34	33.554
470.68	34.626
471.03	32.381
471.38	34.468
471.73	33.644
472.08	33.355
472.43	32.915
472.78	32.126
473.13	32.606
473.48	32.647
473.83	32.561
474.17	32.296
474.52	33.002
474.87	32.283
475.22	31.979
475.57	31.757
475.92	31.386
476.27	32.187
476.61	31.440
476.96	30.951
477.31	30.926
477.66	30.963
478.01	30.789
478.36	30.883
478.70	30.478
479.05	31.203
479.40	30.706
479.75	30.656
480.10	30.467
480.45	30.414
480.79	30.244
481.14	29.941
481.49	29.093
481.84	29.950
482.19	29.805
482.53	29.404
482.88	29.176
483.23	28.692
483.58	29.891
483.92	28.772
484.27	27.712
484.62	28.707
484.97	28.025
485.31	28.836
485.66	27.409
486.01	27.708
486.36	27.054
486.70	26.775
487.05	26.635
487.40	27.171
487.75	26.698
488.09	27.176
488.44	26.985
488.79	27.161
489.13	27.082
489.48	26.835
489.83	27.018
490.17	27.137
490.52	27.414
490.87	27.001
491.22	26.285
491.56	26.241
491.91	27.036
492.26	26.137
492.60	26.452
492.95	25.257
493.30	26.028
493.64	26.692
493.99	25.580
494.34	25.486
494.68	26.511
495.03	25.940
495.37	25.826
495.72	25.195
496.07	26.636
496.41	26.018
496.76	26.121
497.11	24.719
497.45	25.245
497.80	25.960
498.14	25.459
498.49	24.878
498.84	25.168
499.18	24.905
499.53	24.834
499.87	24.790
500.22	24.541
500.56	25.194
500.91	24.760
501.26	23.945
501.60	25.439
501.95	24.198
502.29	24.930
502.64	24.628
502.98	24.077
503.33	23.720
503.67	24.223
504.02	23.901
504.36	24.708
504.71	23.596
505.06	24.145
505.40	23.335
505.75	23.626
506.09	23.518
506.44	23.335
506.78	23.380
507.13	24.230
507.47	23.333
507.82	23.860
508.16	23.303
508.51	24.049
508.85	23.287
509.19	23.622
509.54	22.755
509.88	22.669
510.23	22.468
510.57	23.839
510.92	23.356
511.26	22.302
511.61	23.133
511.95	22.234
512.30	22.534
512.64	23.482
512.98	23.044
513.33	22.163
513.67	21.772
514.02	23.323
514.36	23.211
514.70	22.357
515.05	22.644
515.39	22.658
515.74	22.691
516.08	22.750
516.42	22.253
516.77	22.185
517.11	22.919
517.46	22.460
517.80	22.474
518.14	22.235
518.49	22.579
518.83	22.273
519.17	22.286
519.52	21.902
519.86	22.191
520.20	21.734
520.55	22.741
520.89	22.749
521.23	22.557
521.58	21.068
521.92	21.800
522.26	21.599
522.61	22.118
522.95	21.977
523.29	21.668
523.64	21.829
523.98	21.688
524.32	22.135
524.66	22.189
525.01	22.059
525.35	22.181
525.69	21.367
526.04	21.184
526.38	20.805
526.72	20.982
527.06	21.971
527.41	20.730
527.75	21.865
528.09	20.809
528.43	21.160
528.78	21.205
529.12	20.121
529.46	22.045
529.80	22.339
530.15	21.931
530.49	20.800
530.83	22.089
531.17	21.802
531.51	22.309
531.86	20.258
532.20	21.056
532.54	21.204
532.88	21.245
533.22	19.738
533.57	21.543
533.91	19.988
534.25	21.324
534.59	21.110
534.93	20.464
535.27	20.157
535.62	20.696
535.96	21.155
536.30	20.470
536.64	21.185
536.98	20.902
537.32	20.474
537.66	20.533
538.01	19.947
538.35	20.168
538.69	21.059
539.03	20.078
539.37	19.681
539.71	18.341
540.05	20.523
540.39	20.399
540.73	19.793
541.07	21.415
541.42	20.157
541.76	20.645
542.10	20.440
542.44	19.735
542.78	20.356
543.12	18.746
543.46	20.000
543.80	20.104
544.14	20.154
544.48	20.127
544.82	19.949
545.16	19.649
545.50	19.730
545.84	19.019
546.18	20.337
546.52	19.752
546.86	19.931
547.20	20.094
547.54	19.706
547.88	19.707
548.22	19.365
548.56	19.937
548.90	18.822
549.24	19.125
549.58	19.236
549.92	19.643
550.26	19.673
550.60	19.156
550.94	19.366
551.28	18.800
551.62	19.698
551.96	19.789
552.30	19.795
552.64	19.270
552.98	20.068
553.32	19.960
553.66	20.041
554.00	20.110
554.34	18.427
554.68	20.529
555.02	18.336
555.36	18.720
555.69	18.403
556.03	19.314
556.37	18.827
556.71	19.168
557.05	19.258
557.39	19.104
557.73	18.560
558.07	19.072
558.41	18.307
558.75	19.030
559.08	18.867
559.42	18.896
559.76	19.191
560.10	17.844
560.44	18.379
560.78	17.831
561.12	18.206
561.45	19.231
561.79	17.337
562.13	18.913
562.47	18.101
562.81	18.619
563.15	17.860
563.48	18.700
563.82	18.134
564.16	18.574
564.50	17.253
564.84	18.015
565.17	18.597
565.51	18.147
565.85	18.782
566.19	18.410
566.52	18.556
566.86	18.324
567.20	17.689
567.54	17.466
567.88	17.002
568.21	17.196
568.55	16.734
568.89	17.169
569.23	16.845
569.56	16.923
569.90	16.151
570.24	16.433
570.57	16.253
570.91	15.966
571.25	15.967
571.59	15.788
571.92	15.870
572.26	16.031
572.60	16.186
572.93	15.562
573.27	16.356
573.61	15.913
573.95	15.659
574.28	14.975
574.62	15.355
574.96	15.125
575.29	15.107
575.63	15.396
575.97	15.335
576.30	15.428
576.64	14.658
576.98	15.168
577.31	15.088
577.65	15.244
577.98	14.958
578.32	14.754
578.66	14.759
578.99	14.814
579.33	15.033
579.67	14.887
580.00	14.601
580.34	14.689
580.67	14.843
581.01	14.909
581.35	15.116
581.68	14.636
582.02	14.483
582.35	14.539
582.69	14.705
583.02	14.313
583.36	14.434
583.70	15.285
584.03	14.943
584.37	15.415
584.70	14.655
585.04	14.579
585.37	14.958
585.71	15.061
586.04	14.665
586.38	14.577
586.72	15.493
587.05	14.588
587.39	14.644
587.72	14.738
588.06	14.061
588.39	14.623
588.73	14.726
589.06	15.270
589.40	14.714
589.73	15.488
590.07	14.698
590.40	14.980
590.73	14.403
591.07	15.100
591.40	15.352
591.74	15.714
592.07	15.271
592.41	15.461
592.74	14.906
593.08	14.557
593.41	14.363
593.75	14.397
594.08	14.616
594.41	14.988
594.75	14.270
595.08	14.316
595.42	14.676
595.75	14.779
596.09	15.058
596.42	15.363
596.75	15.070
597.09	15.498
597.42	14.798
597.75	14.920
598.09	15.217
598.42	14.863
598.76	14.512
599.09	14.025
599.42	14.447
599.76	14.861
600.09	13.989
600.42	14.025
600.76	13.464
601.09	13.880
601.42	14.155
601.76	14.421
602.09	14.783
602.42	13.973
602.76	14.994
603.09	14.595
603.42	14.799
603.76	13.796
604.09	13.726
604.42	14.594
604.76	14.930
605.09	15.072
605.42	13.809
605.75	14.363
606.09	14.518
606.42	14.344
606.75	13.646
607.09	14.148
607.42	13.907
607.75	14.599
608.08	14.242
608.42	14.119
608.75	14.022
609.08	13.830
609.41	14.327
609.75	14.483
610.08	15.127
610.41	14.339
610.74	14.853
611.07	14.130
611.41	14.377
611.74	14.731
612.07	14.752
612.40	14.743
612.73	14.368
613.07	15.302
613.40	15.008
613.73	14.211
614.06	14.355
614.39	15.417
614.72	14.579
615.06	14.338
615.39	14.013
615.72	14.162
616.05	14.407
616.38	14.786
616.71	15.143
617.05	14.547
617.38	14.793
617.71	14.174
618.04	14.663
618.37	14.666
618.70	14.312
619.03	15.789
619.36	14.460
619.69	15.775
620.03	14.492
620.36	16.377
620.69	16.370
621.02	15.560
621.35	14.722
621.68	15.031
622.01	15.789
622.34	15.809
622.67	14.525
623.00	15.187
623.33	15.440
623.66	14.582
623.99	14.654
624.32	15.549
624.65	15.042
624.99	14.518
625.32	14.772
625.65	14.576
625.98	15.911
626.31	16.096
626.64	15.347
626.97	15.129
627.30	15.212
627.63	16.407
627.96	16.148
628.29	15.923
628.62	16.102
628.95	17.642
629.28	14.872
629.61	16.774
629.94	15.429
630.26	15.253
630.59	15.729
630.92	15.517
631.25	16.881
631.58	17.017
631.91	16.126
