SpectraSuite Data File
++++++++++++++++++++++++++++++++++++
Date: Wed May 13 19:48:05 PDT 2015
User: schluterlab
Dark Spectrum Present: Yes
Reference Spectrum Present: Yes
Number of Sampled Component Spectra: 1
Spectrometers: USB2E3373
Integration Time (usec): 3000 (USB2E3373)
Spectra Averaged: 3 (USB2E3373)
Boxcar Smoothing: 0 (USB2E3373)
Correct for Electrical Dark: No (USB2E3373)
Strobe/Lamp Enabled: No (USB2E3373)
Correct for Detector Non-linearity: No (USB2E3373)
Correct for Stray Light: No (USB2E3373)
Number of Pixels in Processed Spectrum: 2048
>>>>>Begin Processed Spectral Data<<<<<
178.53	0.000
178.91	-1475.000
179.29	-1425.000
179.67	-277.778
180.04	-1225.000
180.42	2300.000
180.80	1060.000
181.18	-1225.000
181.56	714.286
181.94	0.000
182.31	-757.143
182.69	1733.333
183.07	-725.000
183.45	-600.000
183.83	509.091
184.20	-360.000
184.58	2250.000
184.96	5300.000
185.34	-760.000
185.72	-612.500
186.09	-2300.000
186.47	3050.000
186.85	2400.000
187.23	4200.000
187.61	-1766.667
187.98	1200.000
188.36	590.909
188.74	500.000
189.12	-980.000
189.49	550.000
189.87	-4800.000
190.25	-1375.000
190.63	400.000
191.00	453.846
191.38	866.667
191.76	-1325.000
192.14	1350.000
192.51	612.500
192.89	900.000
193.27	625.000
193.65	-1250.000
194.02	580.000
194.40	980.000
194.78	440.000
195.15	541.667
195.53	590.000
195.91	-2200.000
196.29	375.000
196.66	336.842
197.04	-360.000
197.42	0.000
197.79	710.000
198.17	-5200.000
198.55	771.429
198.92	687.500
199.30	1000.000
199.68	0.000
200.05	333.333
200.43	885.714
200.81	5700.000
201.18	1700.000
201.56	-1566.667
201.94	588.889
202.31	544.444
202.69	408.333
203.07	590.000
203.44	0.000
203.82	1375.000
204.19	885.714
204.57	500.000
204.95	625.000
205.32	1633.333
205.70	518.182
206.08	385.714
206.45	2350.000
206.83	356.250
207.20	916.667
207.58	760.000
207.96	338.889
208.33	775.000
208.71	-983.333
209.08	700.000
209.46	644.444
209.84	500.000
210.21	-1600.000
210.59	1275.000
210.96	-450.000
211.34	2250.000
211.71	550.000
212.09	966.667
212.46	0.000
212.84	1600.000
213.22	1325.000
213.59	-4500.000
213.97	816.667
214.34	857.143
214.72	581.818
215.09	1040.000
215.47	-2250.000
215.84	-2200.000
216.22	1733.333
216.59	428.571
216.97	1375.000
217.34	545.455
217.72	-633.333
218.09	0.000
218.47	-5400.000
218.84	722.222
219.22	771.429
219.59	1333.333
219.97	-585.714
220.34	900.000
220.72	-1866.667
221.09	407.143
221.47	1225.000
221.84	-1116.667
222.22	0.000
222.59	1300.000
222.97	-2900.000
223.34	1060.000
223.72	446.154
224.09	920.000
224.46	2550.000
224.84	-5300.000
225.21	-1060.000
225.59	-4900.000
225.96	590.000
226.34	345.000
226.71	2900.000
227.08	712.500
227.46	550.000
227.83	-1000.000
228.21	-2300.000
228.58	588.889
228.95	-2250.000
229.33	-2500.000
229.70	1933.333
230.08	857.143
230.45	-940.000
230.82	441.667
231.20	800.000
231.57	742.857
231.95	516.667
232.32	254.545
232.69	445.455
233.07	757.143
233.44	330.769
233.81	-1633.333
234.19	278.947
234.56	466.667
234.93	375.000
235.31	536.364
235.68	369.231
236.05	392.857
236.43	221.212
236.80	252.632
237.17	4500.000
237.55	204.762
237.92	214.286
238.29	252.381
238.67	209.677
239.04	255.172
239.41	180.556
239.79	126.087
240.16	150.000
240.53	145.455
240.91	113.725
241.28	120.000
241.65	122.000
242.02	104.348
242.40	125.806
242.77	106.667
243.14	76.344
243.51	92.135
243.89	87.059
244.26	72.222
244.63	74.194
245.00	77.660
245.38	73.267
245.75	63.551
246.12	62.385
246.49	74.453
246.87	69.600
247.24	77.692
247.61	61.429
247.98	56.209
248.36	60.135
248.73	56.688
249.10	57.962
249.47	57.627
249.84	54.011
250.22	44.385
250.59	52.663
250.96	52.525
251.33	55.450
251.70	50.000
252.08	42.381
252.45	44.843
252.82	45.217
253.19	52.340
253.56	47.059
253.94	46.473
254.31	44.531
254.68	46.923
255.05	45.018
255.42	45.122
255.79	44.485
256.16	48.375
256.54	40.636
256.91	46.263
257.28	40.647
257.65	43.894
258.02	41.925
258.39	41.325
258.76	41.472
259.14	40.774
259.51	39.818
259.88	39.130
260.25	41.390
260.62	38.728
260.99	36.335
261.36	36.637
261.73	40.688
262.10	38.372
262.47	39.437
262.85	39.833
263.22	35.897
263.59	39.886
263.96	36.813
264.33	36.554
264.70	38.421
265.07	36.573
265.44	33.838
265.81	34.063
266.18	37.437
266.55	37.073
266.92	35.872
267.29	38.426
267.66	36.239
268.03	35.455
268.40	36.682
268.77	37.470
269.14	37.838
269.51	35.666
269.88	35.897
270.25	35.440
270.62	35.281
270.99	36.559
271.36	36.910
271.73	35.514
272.10	30.870
272.47	33.763
272.84	36.364
273.21	33.962
273.58	31.659
273.95	34.801
274.32	34.917
274.69	33.833
275.06	32.874
275.43	35.532
275.80	32.265
276.17	35.438
276.54	33.472
276.91	33.202
277.28	33.203
277.65	34.623
278.02	32.919
278.39	35.352
278.76	32.364
279.13	33.019
279.50	34.078
279.87	33.665
280.23	33.533
280.60	33.462
280.97	32.532
281.34	32.743
281.71	32.182
282.08	32.246
282.45	33.273
282.82	33.215
283.19	31.194
283.56	33.860
283.92	33.841
284.29	31.393
284.66	32.486
285.03	31.284
285.40	29.225
285.77	30.135
286.14	29.534
286.51	32.000
286.87	29.915
287.24	32.573
287.61	30.979
287.98	31.818
288.35	30.269
288.72	29.751
289.08	29.108
289.45	29.489
289.82	29.106
290.19	27.943
290.56	27.565
290.93	27.795
291.29	28.528
291.66	29.204
292.03	29.942
292.40	29.515
292.77	26.923
293.13	26.567
293.50	26.822
293.87	27.259
294.24	26.667
294.60	25.473
294.97	26.453
295.34	26.375
295.71	24.858
296.08	25.071
296.44	23.659
296.81	26.420
297.18	25.339
297.55	24.142
297.91	24.274
298.28	26.506
298.65	24.804
299.02	24.769
299.38	23.373
299.75	23.315
300.12	23.372
300.48	23.000
300.85	23.181
301.22	23.439
301.59	22.854
301.95	24.055
302.32	24.005
302.69	23.178
303.05	23.636
303.42	22.469
303.79	22.877
304.15	20.979
304.52	21.553
304.89	21.370
305.25	21.346
305.62	22.763
305.99	22.786
306.35	21.700
306.72	22.422
307.09	22.531
307.45	22.748
307.82	20.871
308.19	22.075
308.55	22.762
308.92	22.127
309.29	21.225
309.65	21.103
310.02	22.199
310.38	21.290
310.75	21.331
311.12	21.699
311.48	21.630
311.85	21.908
312.22	21.540
312.58	21.102
312.95	20.591
313.31	19.709
313.68	21.830
314.05	23.373
314.41	21.005
314.78	21.249
315.14	21.251
315.51	21.215
315.87	21.584
316.24	20.854
316.61	20.565
316.97	19.178
317.34	20.059
317.70	22.658
318.07	20.885
318.43	21.037
318.80	20.806
319.16	22.222
319.53	20.263
319.89	20.381
320.26	22.100
320.62	22.024
320.99	22.727
321.35	21.717
321.72	22.998
322.08	22.804
322.45	23.582
322.81	22.868
323.18	22.447
323.54	23.098
323.91	23.302
324.27	22.945
324.64	22.554
325.00	21.821
325.37	23.112
325.73	23.250
326.10	23.389
326.46	23.208
326.83	23.555
327.19	24.765
327.56	23.693
327.92	25.109
328.29	25.111
328.65	25.138
329.01	24.819
329.38	23.867
329.74	25.392
330.11	25.071
330.47	24.977
330.84	25.092
331.20	24.954
331.56	24.679
331.93	25.370
332.29	25.466
332.66	25.487
333.02	25.777
333.38	26.016
333.75	27.094
334.11	25.623
334.48	24.756
334.84	25.184
335.20	26.909
335.57	24.297
335.93	24.554
336.29	24.908
336.66	25.609
337.02	24.344
337.38	26.667
337.75	24.421
338.11	25.067
338.47	27.348
338.84	26.123
339.20	26.055
339.56	26.460
339.93	25.364
340.29	25.000
340.65	25.223
341.02	25.654
341.38	26.157
341.74	27.193
342.11	26.463
342.47	25.903
342.83	26.541
343.20	26.494
343.56	25.695
343.92	25.965
344.28	26.105
344.65	25.623
345.01	25.000
345.37	26.072
345.73	25.635
346.10	25.320
346.46	25.678
346.82	25.453
347.19	23.893
347.55	25.944
347.91	26.375
348.27	26.376
348.63	25.000
349.00	25.243
349.36	25.862
349.72	24.218
350.08	25.527
350.45	25.875
350.81	25.426
351.17	25.284
351.53	24.898
351.89	25.000
352.26	25.888
352.62	25.581
352.98	26.013
353.34	26.787
353.70	25.941
354.07	25.726
354.43	25.317
354.79	25.020
355.15	24.980
355.51	26.539
355.87	26.449
356.24	25.814
356.60	24.379
356.96	26.549
357.32	25.920
357.68	25.906
358.04	25.574
358.40	25.337
358.77	26.526
359.13	25.651
359.49	25.569
359.85	25.397
360.21	25.279
360.57	25.992
360.93	25.308
361.29	26.228
361.66	25.387
362.02	25.896
362.38	24.943
362.74	25.149
363.10	25.389
363.46	24.431
363.82	26.304
364.18	24.890
364.54	27.117
364.90	27.479
365.26	26.250
365.62	26.662
365.98	25.420
366.35	25.430
366.71	25.741
367.07	26.948
367.43	25.980
367.79	26.410
368.15	26.293
368.51	25.654
368.87	25.553
369.23	27.725
369.59	25.923
369.95	26.765
370.31	26.709
370.67	26.594
371.03	26.966
371.39	25.510
371.75	26.618
372.11	26.671
372.47	26.613
372.83	27.522
373.19	26.734
373.55	27.051
373.91	27.909
374.27	26.117
374.63	26.400
374.99	27.613
375.35	26.588
375.71	27.485
376.07	27.572
376.42	26.410
376.78	27.369
377.14	26.459
377.50	27.748
377.86	26.795
378.22	27.054
378.58	26.692
378.94	27.278
379.30	27.226
379.66	26.904
380.02	27.150
380.38	27.140
380.74	26.831
381.09	27.995
381.45	28.089
381.81	28.194
382.17	27.580
382.53	27.925
382.89	28.025
383.25	26.767
383.61	27.633
383.97	28.205
384.32	27.948
384.68	28.253
385.04	28.703
385.40	28.421
385.76	28.440
386.12	27.850
386.48	29.264
386.83	29.314
387.19	29.746
387.55	28.015
387.91	28.174
388.27	29.001
388.62	29.809
388.98	29.791
389.34	30.476
389.70	28.755
390.06	30.735
390.42	29.313
390.77	29.835
391.13	30.121
391.49	30.266
391.85	29.854
392.20	29.022
392.56	30.745
392.92	30.135
393.28	29.172
393.64	29.257
393.99	29.811
394.35	29.404
394.71	29.611
395.07	29.720
395.42	31.582
395.78	30.216
396.14	30.416
396.50	30.514
396.85	30.769
397.21	30.395
397.57	30.626
397.92	31.430
398.28	29.933
398.64	31.004
399.00	30.442
399.35	30.626
399.71	31.076
400.07	30.869
400.42	31.104
400.78	31.484
401.14	31.098
401.49	31.821
401.85	31.700
402.21	31.198
402.57	31.524
402.92	32.093
403.28	31.918
403.63	32.302
403.99	31.720
404.35	32.485
404.70	31.954
405.06	31.741
405.42	32.813
405.77	31.257
406.13	31.659
406.49	31.283
406.84	31.719
407.20	31.856
407.55	33.184
407.91	32.600
408.27	32.419
408.62	32.872
408.98	33.395
409.34	32.472
409.69	32.516
410.05	32.590
410.40	31.804
410.76	32.676
411.11	32.509
411.47	32.971
411.83	32.682
412.18	32.715
412.54	33.313
412.89	33.554
413.25	33.235
413.60	33.292
413.96	33.515
414.31	32.807
414.67	33.397
415.03	32.848
415.38	34.343
415.74	34.148
416.09	34.879
416.45	34.270
416.80	34.369
417.16	34.316
417.51	34.705
417.87	33.398
418.22	34.953
418.58	34.280
418.93	33.845
419.29	34.118
419.64	34.257
420.00	35.061
420.35	34.667
420.71	35.027
421.06	34.427
421.42	34.327
421.77	34.529
422.12	33.464
422.48	34.323
422.83	34.246
423.19	34.309
423.54	35.113
423.90	34.493
424.25	34.338
424.61	35.774
424.96	35.685
425.31	34.994
425.67	33.764
426.02	33.943
426.38	35.714
426.73	34.933
427.09	34.711
427.44	35.998
427.79	34.733
428.15	35.000
428.50	34.874
428.85	36.353
429.21	35.119
429.56	35.666
429.92	35.330
430.27	35.303
430.62	34.869
430.98	35.547
431.33	35.206
431.68	35.812
432.04	35.144
432.39	35.465
432.74	35.727
433.10	34.635
433.45	35.802
433.80	35.255
434.16	35.897
434.51	35.105
434.86	35.690
435.22	36.465
435.57	35.502
435.92	36.279
436.28	37.070
436.63	35.982
436.98	36.176
437.34	36.792
437.69	36.523
438.04	37.268
438.39	36.657
438.75	36.665
439.10	37.039
439.45	36.600
439.81	36.737
440.16	36.025
440.51	37.141
440.86	36.943
441.22	36.707
441.57	37.049
441.92	36.336
442.27	37.137
442.63	36.230
442.98	37.014
443.33	36.522
443.68	36.964
444.03	36.262
444.39	36.027
444.74	36.851
445.09	37.466
445.44	36.960
445.79	36.616
446.15	37.057
446.50	36.457
446.85	37.307
447.20	36.359
447.55	36.795
447.91	37.397
448.26	36.283
448.61	36.631
448.96	37.320
449.31	37.120
449.66	36.635
450.02	36.212
450.37	36.791
450.72	37.281
451.07	36.015
451.42	35.988
451.77	37.933
452.12	37.413
452.47	36.381
452.83	37.529
453.18	37.408
453.53	37.539
453.88	38.216
454.23	37.238
454.58	38.522
454.93	37.826
455.28	37.406
455.63	37.197
455.98	37.679
456.34	38.128
456.69	36.694
457.04	38.266
457.39	37.288
457.74	37.028
458.09	37.378
458.44	38.255
458.79	36.768
459.14	37.302
459.49	37.128
459.84	36.953
460.19	36.889
460.54	36.863
460.89	37.301
461.24	38.312
461.59	38.001
461.94	36.806
462.29	37.923
462.64	38.290
462.99	36.435
463.34	38.333
463.69	36.961
464.04	37.391
464.39	36.174
464.74	37.433
465.09	36.852
465.44	36.454
465.79	36.689
466.14	36.727
466.49	35.984
466.84	36.836
467.19	36.995
467.54	38.375
467.89	37.815
468.24	37.813
468.59	37.729
468.94	35.186
469.29	37.918
469.64	38.554
469.99	38.024
470.34	38.705
470.68	38.218
471.03	37.007
471.38	38.638
471.73	38.308
472.08	39.211
472.43	37.437
472.78	37.261
473.13	37.163
473.48	36.954
473.83	37.134
474.17	37.399
474.52	37.097
474.87	37.186
475.22	37.086
475.57	36.701
475.92	36.644
476.27	36.753
476.61	37.231
476.96	36.723
477.31	36.159
477.66	37.144
478.01	35.599
478.36	36.330
478.70	36.241
479.05	36.209
479.40	37.359
479.75	36.909
480.10	35.885
480.45	36.221
480.79	35.882
481.14	36.546
481.49	37.067
481.84	35.665
482.19	36.120
482.53	35.459
482.88	36.063
483.23	36.495
483.58	35.714
483.92	36.739
484.27	34.902
484.62	35.474
484.97	36.303
485.31	35.240
485.66	33.382
486.01	32.701
486.36	31.486
486.70	31.406
487.05	32.544
487.40	33.197
487.75	34.337
488.09	35.365
488.44	34.723
488.79	36.420
489.13	36.516
489.48	35.400
489.83	35.606
490.17	36.300
490.52	35.695
490.87	35.821
491.22	35.607
491.56	34.989
491.91	35.133
492.26	35.921
492.60	35.806
492.95	35.033
493.30	34.766
493.64	35.931
493.99	34.912
494.34	35.661
494.68	36.722
495.03	36.043
495.37	35.691
495.72	35.867
496.07	35.824
496.41	34.248
496.76	34.741
497.11	35.299
497.45	34.932
497.80	35.988
498.14	34.348
498.49	35.561
498.84	35.954
499.18	35.238
499.53	35.945
499.87	34.949
500.22	35.186
500.56	35.825
500.91	34.567
501.26	34.519
501.60	35.168
501.95	34.510
502.29	34.724
502.64	35.149
502.98	35.016
503.33	34.781
503.67	35.452
504.02	35.033
504.36	34.675
504.71	34.880
505.06	35.373
505.40	35.246
505.75	34.908
506.09	34.791
506.44	35.668
506.78	35.314
507.13	35.992
507.47	35.202
507.82	35.664
508.16	35.866
508.51	36.124
508.85	35.402
509.19	35.306
509.54	34.388
509.88	34.982
510.23	35.064
510.57	36.171
510.92	34.386
511.26	34.995
511.61	35.373
511.95	34.708
512.30	35.578
512.64	35.787
512.98	35.263
513.33	36.188
513.67	35.486
514.02	35.227
514.36	36.155
514.70	35.861
515.05	34.969
515.39	36.680
515.74	36.430
516.08	36.892
516.42	36.626
516.77	36.399
517.11	35.572
517.46	36.456
517.80	36.469
518.14	35.727
518.49	35.881
518.83	35.398
519.17	36.432
519.52	35.880
519.86	36.851
520.20	36.185
520.55	37.223
520.89	37.105
521.23	37.515
521.58	36.675
521.92	36.130
522.26	35.876
522.61	37.259
522.95	35.973
523.29	36.093
523.64	36.585
523.98	36.784
524.32	36.671
524.66	36.140
525.01	36.336
525.35	36.431
525.69	36.145
526.04	37.072
526.38	36.181
526.72	35.767
527.06	36.095
527.41	35.396
527.75	38.071
528.09	37.058
528.43	36.711
528.78	37.246
529.12	36.182
529.46	36.436
529.80	36.819
530.15	36.636
530.49	36.308
530.83	36.962
531.17	36.945
531.51	37.678
531.86	36.839
532.20	37.158
532.54	37.156
532.88	36.906
533.22	36.852
533.57	35.926
533.91	35.220
534.25	35.237
534.59	35.937
534.93	34.920
535.27	35.908
535.62	36.691
535.96	35.970
536.30	35.728
536.64	36.768
536.98	36.231
537.32	36.340
537.66	36.667
538.01	36.801
538.35	36.458
538.69	36.311
539.03	35.673
539.37	35.974
539.71	35.386
540.05	36.275
540.39	36.346
540.73	35.317
541.07	36.600
541.42	37.769
541.76	37.032
542.10	36.093
542.44	36.159
542.78	37.945
543.12	34.933
543.46	36.000
543.80	36.630
544.14	36.329
544.48	35.683
544.82	35.215
545.16	36.890
545.50	35.540
545.84	36.156
546.18	37.239
546.52	36.889
546.86	36.082
547.20	37.222
547.54	35.538
547.88	36.288
548.22	35.492
548.56	36.415
548.90	34.763
549.24	35.690
549.58	36.971
549.92	36.126
550.26	36.009
550.60	36.238
550.94	36.690
551.28	35.699
551.62	36.664
551.96	34.667
552.30	36.587
552.64	35.700
552.98	36.203
553.32	36.076
553.66	35.106
554.00	36.582
554.34	35.197
554.68	36.052
555.02	35.896
555.36	36.395
555.69	34.912
556.03	35.935
556.37	36.016
556.71	35.607
557.05	35.644
557.39	35.199
557.73	36.838
558.07	36.403
558.41	35.745
558.75	36.076
559.08	36.913
559.42	36.584
559.76	35.147
560.10	34.333
560.44	35.430
560.78	34.731
561.12	33.311
561.45	34.485
561.79	34.476
562.13	34.675
562.47	34.699
562.81	34.658
563.15	34.448
563.48	34.151
563.82	35.747
564.16	33.486
564.50	34.115
564.84	34.071
565.17	34.685
565.51	33.163
565.85	34.581
566.19	34.502
566.52	34.642
566.86	34.117
567.20	34.080
567.54	33.904
567.88	32.428
568.21	33.069
568.55	32.053
568.89	31.907
569.23	32.130
569.56	30.891
569.90	31.132
570.24	30.571
570.57	30.228
570.91	29.606
571.25	29.463
571.59	29.750
571.92	29.407
572.26	29.752
572.60	29.610
572.93	29.505
573.27	29.488
573.61	30.374
573.95	29.354
574.28	28.668
574.62	29.033
574.96	28.674
575.29	28.443
575.63	28.455
575.97	29.133
576.30	29.129
576.64	28.709
576.98	28.755
577.31	28.720
577.65	28.469
577.98	28.187
578.32	28.038
578.66	28.050
578.99	28.190
579.33	28.661
579.67	28.582
580.00	28.051
580.34	28.595
580.67	27.984
581.01	28.041
581.35	27.633
581.68	27.432
582.02	27.812
582.35	27.324
582.69	27.080
583.02	27.474
583.36	28.476
583.70	29.121
584.03	28.657
584.37	28.696
584.70	28.892
585.04	28.498
585.37	28.239
585.71	28.454
586.04	27.809
586.38	28.501
586.72	28.666
587.05	28.308
587.39	27.968
587.72	27.596
588.06	28.148
588.39	28.615
588.73	28.718
589.06	29.106
589.40	28.923
589.73	29.637
590.07	29.822
590.40	28.718
590.73	29.859
591.07	30.281
591.40	29.523
591.74	30.779
592.07	30.279
592.41	29.392
592.74	28.689
593.08	28.115
593.41	27.934
593.75	28.389
594.08	28.931
594.41	28.915
594.75	28.614
595.08	28.525
595.42	28.371
595.75	28.597
596.09	29.065
596.42	29.234
596.75	29.084
597.09	30.303
597.42	28.373
597.75	29.150
598.09	28.652
598.42	28.737
598.76	28.172
599.09	27.708
599.42	27.547
599.76	28.294
600.09	28.233
600.42	27.721
600.76	27.750
601.09	28.306
601.42	28.082
601.76	28.691
602.09	28.103
602.42	28.742
602.76	28.335
603.09	28.836
603.42	28.465
603.76	27.973
604.09	28.306
604.42	29.189
604.76	28.891
605.09	28.702
605.42	28.217
605.75	28.311
606.09	27.938
606.42	27.871
606.75	27.582
607.09	28.757
607.42	27.557
607.75	27.806
608.08	28.094
608.42	28.328
608.75	27.367
609.08	27.382
609.41	28.605
609.75	28.061
610.08	28.652
610.41	28.305
610.74	28.430
611.07	28.607
611.41	28.067
611.74	29.311
612.07	28.520
612.40	29.591
612.73	29.211
613.07	29.256
613.40	29.858
613.73	28.055
614.06	29.462
614.39	27.897
614.72	28.211
615.06	28.204
615.39	28.238
615.72	28.988
616.05	28.123
616.38	29.127
616.71	28.266
617.05	29.741
617.38	29.164
617.71	29.610
618.04	29.507
618.37	28.681
618.70	29.496
619.03	30.789
619.36	30.414
619.69	29.507
620.03	30.151
620.36	30.080
620.69	30.753
621.02	32.080
621.35	30.227
621.68	30.140
622.01	30.341
622.34	31.089
622.67	30.342
623.00	28.687
623.33	28.520
623.66	30.307
623.99	29.676
624.32	29.886
624.65	28.884
624.99	28.966
625.32	29.689
625.65	28.850
625.98	30.746
626.31	30.404
626.64	31.347
626.97	31.089
627.30	29.842
627.63	31.337
627.96	30.614
628.29	31.584
628.62	32.662
628.95	32.453
629.28	30.839
629.61	31.439
629.94	32.571
630.26	31.554
630.59	31.554
630.92	30.651
