SpectraSuite Data File
++++++++++++++++++++++++++++++++++++
Date: Tue May 12 20:00:27 PDT 2015
User: schluterlab
Dark Spectrum Present: Yes
Reference Spectrum Present: Yes
Number of Sampled Component Spectra: 1
Spectrometers: USB2E3373
Integration Time (usec): 3000 (USB2E3373)
Spectra Averaged: 3 (USB2E3373)
Boxcar Smoothing: 0 (USB2E3373)
Correct for Electrical Dark: No (USB2E3373)
Strobe/Lamp Enabled: No (USB2E3373)
Correct for Detector Non-linearity: No (USB2E3373)
Correct for Stray Light: No (USB2E3373)
Number of Pixels in Processed Spectrum: 2048
>>>>>Begin Processed Spectral Data<<<<<
178.53	0.000
178.91	-120.000
179.29	-233.333
179.67	300.000
180.04	0.000
180.42	-320.000
180.80	-800.000
181.18	1550.000
181.56	-850.000
181.94	433.333
182.31	2300.000
182.69	-128.571
183.07	0.000
183.45	225.000
183.83	320.000
184.20	500.000
184.58	1200.000
184.96	366.667
185.34	-600.000
185.72	-121.429
186.09	-316.667
186.47	-1700.000
186.85	-200.000
187.23	208.333
187.61	-271.429
187.98	-460.000
188.36	750.000
188.74	-275.000
189.12	-177.778
189.49	-180.000
189.87	500.000
190.25	233.333
190.63	900.000
191.00	520.000
191.38	-666.667
191.76	380.000
192.14	-185.714
192.51	-260.000
192.89	-360.000
193.27	-240.000
193.65	-600.000
194.02	-300.000
194.40	1500.000
194.78	-287.500
195.15	-328.571
195.53	566.667
195.91	420.000
196.29	-650.000
196.66	-766.667
197.04	-400.000
197.42	420.000
197.79	-162.500
198.17	-166.667
198.55	-1000.000
198.92	-200.000
199.30	900.000
199.68	-425.000
200.05	-1400.000
200.43	-55.556
200.81	-191.667
201.18	300.000
201.56	-350.000
201.94	-1500.000
202.31	-133.333
202.69	-66.667
203.07	-150.000
203.44	-600.000
203.82	0.000
204.19	350.000
204.57	-733.333
204.95	281.818
205.32	420.000
205.70	525.000
206.08	-1000.000
206.45	-280.000
206.83	2200.000
207.20	-288.889
207.58	-115.385
207.96	866.667
208.33	1000.000
208.71	833.333
209.08	1250.000
209.46	-133.333
209.84	900.000
210.21	-733.333
210.59	-100.000
210.96	333.333
211.34	-575.000
211.71	1100.000
212.09	-240.000
212.46	-300.000
212.84	-337.500
213.22	285.714
213.59	-175.000
213.97	0.000
214.34	-1200.000
214.72	-2100.000
215.09	1050.000
215.47	-60.000
215.84	-250.000
216.22	-2800.000
216.59	1500.000
216.97	-100.000
217.34	-216.667
217.72	-55.556
218.09	700.000
218.47	-110.526
218.84	-300.000
219.22	-121.429
219.59	-180.000
219.97	-140.000
220.34	300.000
220.72	136.364
221.09	-1300.000
221.47	0.000
221.84	850.000
222.22	-450.000
222.59	-525.000
222.97	-56.522
223.34	260.000
223.72	228.571
224.09	-333.333
224.46	176.923
224.84	-120.000
225.21	-550.000
225.59	-575.000
225.96	-35.000
226.34	550.000
226.71	360.000
227.08	-123.077
227.46	-171.429
227.83	-33.333
228.21	-950.000
228.58	283.333
228.95	-47.368
229.33	-50.000
229.70	-350.000
230.08	-244.444
230.45	-633.333
230.82	-2400.000
231.20	-57.143
231.57	-500.000
231.95	-666.667
232.32	311.111
232.69	-1000.000
233.07	43.750
233.44	-37.500
233.81	-3.226
234.19	-400.000
234.56	-111.111
234.93	-300.000
235.31	-66.667
235.68	-33.333
236.05	-26.923
236.43	-73.684
236.80	-27.273
237.17	-92.857
237.55	-65.000
237.92	13.953
238.29	-16.129
238.67	-17.857
239.04	-5.714
239.41	-7.843
239.79	36.000
240.16	-7.500
240.53	-3.448
240.91	28.767
241.28	21.127
241.65	29.688
242.02	14.035
242.40	22.667
242.77	24.211
243.14	21.176
243.51	35.484
243.89	23.810
244.26	25.926
244.63	42.857
245.00	16.964
245.38	25.210
245.75	41.525
246.12	43.750
246.49	33.600
246.87	44.262
247.24	30.282
247.61	39.073
247.98	39.326
248.36	37.107
248.73	39.205
249.10	41.667
249.47	39.062
249.84	41.117
250.22	38.021
250.59	41.011
250.96	41.818
251.33	47.170
251.70	44.495
252.08	43.723
252.45	39.184
252.82	41.350
253.19	43.969
253.56	46.275
253.94	45.528
254.31	47.482
254.68	38.542
255.05	48.675
255.42	43.636
255.79	51.656
256.16	44.792
256.54	42.727
256.91	44.231
257.28	46.104
257.65	44.590
258.02	45.946
258.39	45.921
258.76	42.813
259.14	48.824
259.51	45.915
259.88	46.110
260.25	43.750
260.62	45.787
260.99	44.568
261.36	45.977
261.73	45.600
262.10	47.411
262.47	44.628
262.85	47.044
263.22	47.581
263.59	47.989
263.96	45.170
264.33	47.978
264.70	42.752
265.07	44.089
265.44	45.199
265.81	49.157
266.18	46.370
266.55	48.810
266.92	49.777
267.29	48.667
267.66	46.136
268.03	47.742
268.40	49.657
268.77	46.102
269.14	45.168
269.51	46.606
269.88	45.513
270.25	47.046
270.62	46.008
270.99	46.737
271.36	47.020
271.73	46.250
272.10	46.266
272.47	46.000
272.84	44.586
273.21	48.643
273.58	45.714
273.95	44.622
274.32	44.487
274.69	45.988
275.06	44.653
275.43	43.800
275.80	44.742
276.17	46.838
276.54	45.627
276.91	49.712
277.28	48.743
277.65	44.991
278.02	44.129
278.39	46.824
278.76	46.555
279.13	46.154
279.50	45.487
279.87	43.774
280.23	48.634
280.60	44.346
280.97	46.221
281.34	45.424
281.71	42.806
282.08	44.902
282.45	46.384
282.82	42.761
283.19	43.266
283.56	44.710
283.92	46.288
284.29	43.993
284.66	45.310
285.03	41.509
285.40	47.167
285.77	46.798
286.14	44.216
286.51	44.051
286.87	44.084
287.24	43.750
287.61	41.204
287.98	45.383
288.35	42.481
288.72	42.508
289.08	42.296
289.45	40.718
289.82	40.528
290.19	40.606
290.56	39.797
290.93	42.541
291.29	40.993
291.66	39.888
292.03	41.750
292.40	40.288
292.77	41.545
293.13	39.501
293.50	39.669
293.87	38.835
294.24	38.343
294.60	39.891
294.97	36.565
295.34	38.219
295.71	36.477
296.08	35.246
296.44	38.472
296.81	35.576
297.18	35.964
297.55	35.930
297.91	37.310
298.28	34.910
298.65	35.317
299.02	34.402
299.38	33.801
299.75	37.194
300.12	35.492
300.48	34.038
300.85	35.208
301.22	33.774
301.59	35.158
301.95	34.268
302.32	33.536
302.69	33.888
303.05	34.947
303.42	33.696
303.79	33.034
304.15	34.315
304.52	33.631
304.89	33.258
305.25	35.092
305.62	33.409
305.99	32.923
306.35	32.886
306.72	35.185
307.09	33.624
307.45	32.686
307.82	33.191
308.19	34.213
308.55	33.861
308.92	33.369
309.29	33.264
309.65	33.230
310.02	33.543
310.38	34.009
310.75	33.607
311.12	33.062
311.48	33.710
311.85	31.307
312.22	33.264
312.58	32.830
312.95	34.497
313.31	35.103
313.68	33.267
314.05	35.353
314.41	34.774
314.78	35.477
315.14	33.888
315.51	35.948
315.87	36.621
316.24	36.202
316.61	36.311
316.97	36.078
317.34	36.077
317.70	34.734
318.07	35.873
318.43	36.862
318.80	36.430
319.16	36.440
319.53	38.396
319.89	38.542
320.26	38.741
320.62	40.504
320.99	39.592
321.35	40.613
321.72	40.606
322.08	42.376
322.45	40.927
322.81	42.463
323.18	41.707
323.54	43.602
323.91	42.694
324.27	44.166
324.64	43.580
325.00	44.495
325.37	45.683
325.73	46.533
326.10	46.147
326.46	50.317
326.83	47.581
327.19	48.908
327.56	50.309
327.92	47.569
328.29	50.090
328.65	52.731
329.01	50.917
329.38	53.719
329.74	51.439
330.11	52.470
330.47	51.862
330.84	52.820
331.20	52.773
331.56	53.774
331.93	53.705
332.29	54.764
332.66	56.329
333.02	54.968
333.38	56.342
333.75	55.901
334.11	55.244
334.48	55.546
334.84	56.526
335.20	56.043
335.57	56.222
335.93	58.605
336.29	56.856
336.66	57.832
337.02	57.661
337.38	58.396
337.75	59.273
338.11	59.891
338.47	59.239
338.84	59.116
339.20	59.028
339.56	60.578
339.93	59.279
340.29	60.562
340.65	61.005
341.02	59.256
341.38	60.018
341.74	60.498
342.11	60.831
342.47	59.615
342.83	60.278
343.20	59.859
343.56	61.713
343.92	60.017
344.28	59.949
344.65	62.243
345.01	63.676
345.37	62.393
345.73	62.618
346.10	62.835
346.46	61.346
346.82	63.891
347.19	61.901
347.55	64.116
347.91	61.016
348.27	61.837
348.63	64.477
349.00	63.022
349.36	62.572
349.72	64.204
350.08	62.602
350.45	63.303
350.81	62.758
351.17	63.591
351.53	60.870
351.89	64.853
352.26	64.146
352.62	66.639
352.98	63.598
353.34	64.996
353.70	63.868
354.07	64.168
354.43	64.107
354.79	63.279
355.15	64.084
355.51	66.178
355.87	66.361
356.24	64.869
356.60	64.942
356.96	63.349
357.32	66.255
357.68	64.360
358.04	64.587
358.40	66.203
358.77	65.382
359.13	67.711
359.49	65.360
359.85	66.747
360.21	64.235
360.57	65.949
360.93	67.063
361.29	66.511
361.66	66.009
362.02	67.582
362.38	67.211
362.74	65.642
363.10	65.686
363.46	65.764
363.82	65.926
364.18	66.162
364.54	65.954
364.90	66.444
365.26	67.437
365.62	66.995
365.98	67.241
366.35	68.457
366.71	68.260
367.07	66.790
367.43	64.838
367.79	66.134
368.15	68.273
368.51	68.764
368.87	69.383
369.23	68.963
369.59	67.279
369.95	65.946
370.31	68.485
370.67	67.218
371.03	69.969
371.39	67.900
371.75	67.311
372.11	66.593
372.47	65.405
372.83	66.983
373.19	68.148
373.55	66.766
373.91	70.227
374.27	70.052
374.63	67.968
374.99	67.862
375.35	67.199
375.71	67.719
376.07	67.420
376.42	67.981
376.78	66.829
377.14	67.388
377.50	67.579
377.86	69.220
378.22	68.164
378.58	68.289
378.94	68.042
379.30	67.181
379.66	66.517
380.02	68.214
380.38	69.656
380.74	68.490
381.09	67.980
381.45	70.032
381.81	68.622
382.17	68.339
382.53	70.546
382.89	69.211
383.25	68.865
383.61	69.104
383.97	68.551
384.32	67.290
384.68	68.519
385.04	68.491
385.40	69.010
385.76	67.995
386.12	67.261
386.48	69.733
386.83	67.610
387.19	69.668
387.55	67.228
387.91	66.978
388.27	68.650
388.62	67.876
388.98	69.275
389.34	68.510
389.70	69.295
390.06	67.525
390.42	68.492
390.77	68.008
391.13	68.510
391.49	69.070
391.85	68.064
392.20	69.505
392.56	66.929
392.92	69.450
393.28	66.667
393.64	68.968
393.99	66.364
394.35	69.241
394.71	69.735
395.07	69.032
395.42	67.048
395.78	67.540
396.14	67.755
396.50	67.464
396.85	67.151
397.21	66.365
397.57	68.005
397.92	68.893
398.28	67.446
398.64	68.000
399.00	67.615
399.35	67.175
399.71	67.725
400.07	68.005
400.42	66.218
400.78	67.242
401.14	66.667
401.49	65.959
401.85	65.714
402.21	66.434
402.57	66.903
402.92	66.335
403.28	66.385
403.63	66.282
403.99	66.116
404.35	65.032
404.70	64.281
405.06	66.894
405.42	64.932
405.77	65.279
406.13	65.651
406.49	65.300
406.84	65.816
407.20	65.180
407.55	66.065
407.91	64.755
408.27	65.226
408.62	64.437
408.98	63.835
409.34	63.572
409.69	63.478
410.05	63.925
410.40	65.061
410.76	63.014
411.11	63.025
411.47	64.286
411.83	64.327
412.18	64.202
412.54	63.001
412.89	62.630
413.25	62.821
413.60	63.329
413.96	62.460
414.31	61.695
414.67	64.551
415.03	62.033
415.38	63.370
415.74	62.324
416.09	63.267
416.45	61.925
416.80	61.752
417.16	62.835
417.51	61.346
417.87	62.449
418.22	62.032
418.58	62.267
418.93	60.026
419.29	61.330
419.64	63.530
420.00	61.297
420.35	61.456
420.71	61.268
421.06	59.896
421.42	60.728
421.77	62.241
422.12	59.894
422.48	60.651
422.83	60.547
423.19	61.059
423.54	59.988
423.90	59.642
424.25	61.329
424.61	59.935
424.96	59.705
425.31	60.568
425.67	59.030
426.02	59.565
426.38	59.009
426.73	58.816
427.09	60.210
427.44	58.457
427.79	58.663
428.15	58.022
428.50	59.108
428.85	58.242
429.21	58.398
429.56	57.017
429.92	56.679
430.27	56.213
430.62	58.085
430.98	56.905
431.33	57.453
431.68	58.151
432.04	58.573
432.39	56.447
432.74	55.914
433.10	56.944
433.45	56.998
433.80	56.845
434.16	56.272
434.51	55.909
434.86	56.193
435.22	55.821
435.57	57.058
435.92	54.675
436.28	54.981
436.63	56.768
436.98	56.358
437.34	57.518
437.69	55.679
438.04	55.950
438.39	54.830
438.75	56.369
439.10	55.893
439.45	56.547
439.81	54.857
440.16	55.535
440.51	54.213
440.86	55.556
441.22	54.735
441.57	54.017
441.92	56.046
442.27	55.314
442.63	54.571
442.98	56.418
443.33	54.642
443.68	53.688
444.03	53.918
444.39	54.086
444.74	55.638
445.09	54.782
445.44	52.770
445.79	55.070
446.15	54.461
446.50	53.441
446.85	54.345
447.20	53.228
447.55	53.345
447.91	53.968
448.26	52.641
448.61	54.018
448.96	53.282
449.31	52.803
449.66	53.753
450.02	53.550
450.37	53.402
450.72	52.484
451.07	53.856
451.42	52.569
451.77	50.694
452.12	51.817
452.47	51.491
452.83	51.806
453.18	52.735
453.53	51.927
453.88	52.648
454.23	50.735
454.58	51.958
454.93	50.341
455.28	50.577
455.63	51.722
455.98	51.269
456.34	50.770
456.69	50.440
457.04	50.722
457.39	50.375
457.74	51.011
458.09	48.849
458.44	51.196
458.79	48.704
459.14	48.837
459.49	49.936
459.84	49.762
460.19	50.031
460.54	49.369
460.89	49.118
461.24	49.221
461.59	49.716
461.94	49.638
462.29	49.624
462.64	47.911
462.99	48.368
463.34	48.205
463.69	48.491
464.04	48.749
464.39	49.132
464.74	47.502
465.09	46.881
465.44	47.750
465.79	48.255
466.14	47.852
466.49	48.245
466.84	46.867
467.19	47.628
467.54	45.424
467.89	46.506
468.24	46.528
468.59	46.008
468.94	45.730
469.29	46.920
469.64	46.754
469.99	46.287
470.34	45.262
470.68	45.769
471.03	44.599
471.38	46.298
471.73	45.858
472.08	44.840
472.43	45.367
472.78	45.033
473.13	45.825
473.48	46.266
473.83	45.971
474.17	44.763
474.52	45.479
474.87	45.896
475.22	45.807
475.57	43.420
475.92	44.400
476.27	43.219
476.61	44.681
476.96	44.517
477.31	44.521
477.66	44.218
478.01	43.967
478.36	43.209
478.70	45.014
479.05	45.386
479.40	42.786
479.75	44.588
480.10	44.426
480.45	44.503
480.79	42.968
481.14	43.332
481.49	43.290
481.84	43.636
482.19	43.220
482.53	43.676
482.88	43.569
483.23	43.367
483.58	43.119
483.92	42.412
484.27	42.740
484.62	43.093
484.97	42.443
485.31	42.189
485.66	41.391
486.01	42.528
486.36	43.325
486.70	44.012
487.05	43.597
487.40	43.031
487.75	41.769
488.09	41.197
488.44	40.806
488.79	40.826
489.13	41.397
489.48	40.945
489.83	40.546
490.17	41.350
490.52	41.061
490.87	41.246
491.22	41.272
491.56	40.119
491.91	40.562
492.26	41.968
492.60	41.071
492.95	41.170
493.30	41.401
493.64	40.213
493.99	41.068
494.34	40.649
494.68	40.040
495.03	39.706
495.37	40.193
495.72	39.926
496.07	40.314
496.41	39.625
496.76	39.207
497.11	40.768
497.45	40.532
497.80	39.720
498.14	40.232
498.49	39.989
498.84	39.937
499.18	39.595
499.53	39.356
499.87	39.324
500.22	38.909
500.56	41.026
500.91	40.010
501.26	40.157
501.60	39.501
501.95	40.276
502.29	40.123
502.64	38.925
502.98	38.869
503.33	38.342
503.67	38.948
504.02	39.479
504.36	38.213
504.71	38.191
505.06	39.636
505.40	39.410
505.75	38.231
506.09	38.570
506.44	38.734
506.78	38.544
507.13	38.599
507.47	39.557
507.82	38.002
508.16	38.419
508.51	38.567
508.85	38.077
509.19	37.795
509.54	38.130
509.88	38.320
510.23	38.539
510.57	38.898
510.92	38.719
511.26	37.737
511.61	38.299
511.95	37.189
512.30	37.971
512.64	37.537
512.98	38.571
513.33	36.811
513.67	37.186
514.02	37.620
514.36	37.841
514.70	38.494
515.05	38.049
515.39	37.202
515.74	38.221
516.08	37.665
516.42	37.290
516.77	37.702
517.11	37.125
517.46	38.101
517.80	37.524
518.14	38.393
518.49	37.128
518.83	37.289
519.17	37.147
519.52	38.538
519.86	37.935
520.20	36.433
520.55	38.120
520.89	36.235
521.23	38.143
521.58	36.839
521.92	37.383
522.26	37.320
522.61	37.065
522.95	37.397
523.29	37.989
523.64	36.771
523.98	36.895
524.32	37.710
524.66	37.458
525.01	38.351
525.35	36.594
525.69	35.857
526.04	36.575
526.38	36.806
526.72	37.292
527.06	37.693
527.41	37.208
527.75	36.253
528.09	36.775
528.43	36.712
528.78	35.220
529.12	37.123
529.46	35.282
529.80	36.419
530.15	37.457
530.49	37.517
530.83	35.719
531.17	35.734
531.51	36.545
531.86	35.644
532.20	35.354
532.54	36.331
532.88	35.855
533.22	36.566
533.57	35.448
533.91	36.339
534.25	36.728
534.59	37.070
534.93	36.064
535.27	35.623
535.62	35.989
535.96	36.357
536.30	36.326
536.64	35.265
536.98	35.398
537.32	36.607
537.66	35.484
538.01	36.009
538.35	35.927
538.69	35.315
539.03	35.472
539.37	35.678
539.71	35.797
540.05	34.805
540.39	34.713
540.73	35.604
541.07	35.956
541.42	34.783
541.76	35.036
542.10	35.725
542.44	36.272
542.78	33.578
543.12	34.801
543.46	34.724
543.80	36.312
544.14	35.699
544.48	35.158
544.82	34.564
545.16	36.304
545.50	36.390
545.84	35.772
546.18	35.431
546.52	34.973
546.86	34.813
547.20	35.682
547.54	34.268
547.88	34.829
548.22	34.037
548.56	35.518
548.90	35.228
549.24	34.649
549.58	34.501
549.92	35.338
550.26	34.440
550.60	34.576
550.94	34.603
551.28	34.959
551.62	35.708
551.96	34.904
552.30	34.186
552.64	35.462
552.98	35.141
553.32	34.545
553.66	34.067
554.00	34.363
554.34	34.844
554.68	33.493
555.02	34.286
555.36	34.313
555.69	34.435
556.03	34.590
556.37	33.758
556.71	34.163
557.05	35.469
557.39	35.181
557.73	34.119
558.07	34.898
558.41	33.599
558.75	35.270
559.08	35.319
559.42	33.278
559.76	33.530
560.10	36.104
560.44	33.967
560.78	33.434
561.12	34.711
561.45	34.598
561.79	33.186
562.13	35.063
562.47	34.098
562.81	34.193
563.15	33.232
563.48	32.584
563.82	35.371
564.16	33.164
564.50	33.238
564.84	34.160
565.17	36.123
565.51	34.201
565.85	34.789
566.19	34.308
566.52	34.265
566.86	33.743
567.20	34.198
567.54	34.652
567.88	33.920
568.21	35.170
568.55	34.126
568.89	35.165
569.23	33.685
569.56	35.126
569.90	35.546
570.24	35.067
570.57	35.102
570.91	35.590
571.25	35.882
571.59	34.787
571.92	34.853
572.26	35.113
572.60	34.541
572.93	34.610
573.27	33.647
573.61	33.674
573.95	33.975
574.28	34.483
574.62	34.142
574.96	34.342
575.29	34.306
575.63	33.600
575.97	33.628
576.30	33.690
576.64	34.261
576.98	34.142
577.31	34.163
577.65	34.699
577.98	33.842
578.32	34.842
578.66	34.046
578.99	34.381
579.33	33.419
579.67	34.429
580.00	34.164
580.34	33.859
580.67	33.952
581.01	34.197
581.35	33.730
581.68	33.642
582.02	34.129
582.35	34.335
582.69	34.545
583.02	34.247
583.36	33.553
583.70	33.787
584.03	32.999
584.37	33.714
584.70	33.305
585.04	32.974
585.37	33.734
585.71	33.585
586.04	34.102
586.38	33.833
586.72	33.883
587.05	33.304
587.39	33.620
587.72	34.593
588.06	33.614
588.39	33.976
588.73	33.948
589.06	33.575
589.40	33.439
589.73	33.246
590.07	33.604
590.40	33.136
590.73	33.444
591.07	33.420
591.40	33.531
591.74	33.069
592.07	33.620
592.41	33.786
592.74	33.319
593.08	33.358
593.41	33.528
593.75	33.906
594.08	33.929
594.41	32.969
594.75	33.281
595.08	33.931
595.42	33.383
595.75	33.485
596.09	33.507
596.42	33.192
596.75	34.545
597.09	31.716
597.42	31.300
597.75	32.458
598.09	32.818
598.42	33.743
598.76	33.288
599.09	33.277
599.42	32.179
599.76	32.993
600.09	33.887
600.42	32.578
600.76	32.833
601.09	32.471
601.42	33.213
601.76	33.117
602.09	32.928
602.42	32.696
602.76	33.333
603.09	33.290
603.42	33.135
603.76	33.277
604.09	33.375
604.42	32.933
604.76	32.405
605.09	32.121
605.42	32.607
605.75	31.887
606.09	33.644
606.42	33.071
606.75	33.481
607.09	33.209
607.42	33.043
607.75	32.553
608.08	32.647
608.42	32.784
608.75	32.266
609.08	31.651
609.41	33.126
609.75	33.175
610.08	32.041
610.41	32.468
610.74	31.850
611.07	31.994
611.41	32.334
611.74	32.644
612.07	32.478
612.40	33.036
612.73	32.986
613.07	32.824
613.40	32.317
613.73	31.672
614.06	31.030
614.39	32.572
614.72	31.464
615.06	32.491
615.39	32.448
615.72	31.523
616.05	32.522
616.38	33.452
616.71	31.654
617.05	31.344
617.38	31.548
617.71	32.528
618.04	32.654
618.37	31.785
618.70	32.133
619.03	31.980
619.36	31.811
619.69	30.871
620.03	32.265
620.36	32.729
620.69	32.964
621.02	32.383
621.35	31.745
621.68	30.873
622.01	31.194
622.34	30.988
622.67	31.450
623.00	31.613
623.33	30.709
623.66	32.271
623.99	31.260
624.32	31.295
624.65	31.328
624.99	31.328
625.32	31.517
625.65	30.344
625.98	31.833
626.31	30.303
626.64	31.261
626.97	32.353
627.30	30.648
627.63	32.558
627.96	32.588
628.29	32.122
628.62	31.031
628.95	30.095
629.28	30.269
629.61	30.930
629.94	31.328
630.26	31.172
630.59	30.890
630.92	30.242
