SpectraSuite Data File
++++++++++++++++++++++++++++++++++++
Date: Wed May 13 19:12:36 PDT 2015
User: schluterlab
Dark Spectrum Present: Yes
Reference Spectrum Present: Yes
Number of Sampled Component Spectra: 1
Spectrometers: USB2E3373
Integration Time (usec): 3000 (USB2E3373)
Spectra Averaged: 3 (USB2E3373)
Boxcar Smoothing: 0 (USB2E3373)
Correct for Electrical Dark: No (USB2E3373)
Strobe/Lamp Enabled: No (USB2E3373)
Correct for Detector Non-linearity: No (USB2E3373)
Correct for Stray Light: No (USB2E3373)
Number of Pixels in Processed Spectrum: 2048
>>>>>Begin Processed Spectral Data<<<<<
178.53	0.000
178.91	-1525.000
179.29	-1425.000
179.67	-250.000
180.04	-1425.000
180.42	2600.000
180.80	1180.000
181.18	-1175.000
181.56	771.429
181.94	0.000
182.31	-857.143
182.69	1866.667
183.07	-575.000
183.45	-600.000
183.83	509.091
184.20	-500.000
184.58	2550.000
184.96	5400.000
185.34	-1020.000
185.72	-762.500
186.09	-2700.000
186.47	2900.000
186.85	2700.000
187.23	5000.000
187.61	-1600.000
187.98	1450.000
188.36	554.545
188.74	609.091
189.12	-1080.000
189.49	630.000
189.87	-4200.000
190.25	-1200.000
190.63	492.857
191.00	507.692
191.38	983.333
191.76	-1300.000
192.14	1650.000
192.51	662.500
192.89	1066.667
193.27	575.000
193.65	-1425.000
194.02	650.000
194.40	1000.000
194.78	570.000
195.15	500.000
195.53	660.000
195.91	-2550.000
196.29	412.500
196.66	331.579
197.04	-510.000
197.42	0.000
197.79	690.000
198.17	-5500.000
198.55	828.571
198.92	775.000
199.30	1200.000
199.68	0.000
200.05	366.667
200.43	1028.571
200.81	5200.000
201.18	1733.333
201.56	-2000.000
201.94	611.111
202.31	666.667
202.69	500.000
203.07	560.000
203.44	0.000
203.82	1650.000
204.19	900.000
204.57	485.714
204.95	762.500
205.32	1900.000
205.70	609.091
206.08	414.286
206.45	3000.000
206.83	387.500
207.20	1133.333
207.58	920.000
207.96	355.556
208.33	762.500
208.71	-1033.333
209.08	857.143
209.46	733.333
209.84	563.636
210.21	-1866.667
210.59	1750.000
210.96	-625.000
211.34	2550.000
211.71	650.000
212.09	1000.000
212.46	0.000
212.84	2200.000
213.22	1650.000
213.59	-4600.000
213.97	866.667
214.34	771.429
214.72	600.000
215.09	1220.000
215.47	-2350.000
215.84	-2650.000
216.22	1666.667
216.59	478.571
216.97	1425.000
217.34	554.545
217.72	-966.667
218.09	0.000
218.47	-6800.000
218.84	700.000
219.22	800.000
219.59	1866.667
219.97	-800.000
220.34	1180.000
220.72	-1933.333
221.09	442.857
221.47	1525.000
221.84	-983.333
222.22	0.000
222.59	1300.000
222.97	-2800.000
223.34	1360.000
223.72	407.692
224.09	1240.000
224.46	2650.000
224.84	-5800.000
225.21	-1060.000
225.59	-4800.000
225.96	710.000
226.34	320.000
226.71	3550.000
227.08	775.000
227.46	610.000
227.83	-1350.000
228.21	-2850.000
228.58	722.222
228.95	-3000.000
229.33	-2700.000
229.70	1633.333
230.08	885.714
230.45	-1120.000
230.82	525.000
231.20	983.333
231.57	871.429
231.95	500.000
232.32	295.455
232.69	581.818
233.07	857.143
233.44	423.077
233.81	-2100.000
234.19	347.368
234.56	566.667
234.93	533.333
235.31	745.455
235.68	438.462
236.05	478.571
236.43	218.182
236.80	342.105
237.17	6900.000
237.55	304.762
237.92	289.286
238.29	319.048
238.67	209.677
239.04	255.172
239.41	222.222
239.79	178.261
240.16	214.286
240.53	211.364
240.91	154.902
241.28	180.000
241.65	178.000
242.02	142.029
242.40	166.129
242.77	151.667
243.14	132.258
243.51	124.719
243.89	132.941
244.26	131.111
244.63	111.828
245.00	107.447
245.38	118.812
245.75	114.019
246.12	111.009
246.49	102.190
246.87	116.000
247.24	115.385
247.61	97.857
247.98	94.118
248.36	92.568
248.73	94.904
249.10	102.548
249.47	84.746
249.84	92.513
250.22	83.957
250.59	94.675
250.96	100.000
251.33	84.834
251.70	97.030
252.08	87.619
252.45	86.996
252.82	86.087
253.19	87.234
253.56	82.353
253.94	86.307
254.31	77.734
254.68	82.692
255.05	82.288
255.42	83.333
255.79	82.353
256.16	83.394
256.54	80.919
256.91	85.765
257.28	78.058
257.65	78.548
258.02	76.708
258.39	75.710
258.76	74.916
259.14	77.679
259.51	74.468
259.88	80.435
260.25	78.852
260.62	72.832
260.99	79.814
261.36	75.676
261.73	76.791
262.10	77.035
262.47	75.211
262.85	74.373
263.22	75.783
263.59	79.202
263.96	73.626
264.33	71.802
264.70	75.000
265.07	72.634
265.44	75.758
265.81	69.100
266.18	73.618
266.55	73.415
266.92	74.201
267.29	72.685
267.66	72.477
268.03	69.545
268.40	71.963
268.77	71.360
269.14	72.973
269.51	72.009
269.88	74.359
270.25	69.752
270.62	69.663
270.99	72.043
271.36	70.601
271.73	73.131
272.10	72.174
272.47	69.247
272.84	68.182
273.21	68.344
273.58	68.996
273.95	66.457
274.32	67.975
274.69	67.666
275.06	66.142
275.43	71.915
275.80	68.537
276.17	69.043
276.54	67.983
276.91	69.170
277.28	68.750
277.65	68.665
278.02	70.600
278.39	70.508
278.76	65.455
279.13	64.717
279.50	64.991
279.87	67.530
280.23	67.066
280.60	67.505
280.97	68.022
281.34	67.257
281.71	64.364
282.08	66.795
282.45	62.182
282.82	63.588
283.19	62.567
283.56	65.439
283.92	66.159
284.29	64.021
284.66	62.069
285.03	65.461
285.40	63.908
285.77	64.646
286.14	62.867
286.51	62.500
286.87	62.222
287.24	62.541
287.61	60.835
287.98	61.364
288.35	60.697
288.72	59.034
289.08	61.189
289.45	59.143
289.82	59.187
290.19	57.300
290.56	57.887
290.93	56.647
291.29	58.129
291.66	56.195
292.03	56.686
292.40	57.269
292.77	54.290
293.13	54.030
293.50	57.434
293.87	53.185
294.24	54.222
294.60	55.459
294.97	54.215
295.34	53.738
295.71	53.693
296.08	51.425
296.44	50.894
296.81	49.802
297.18	52.439
297.55	50.132
297.91	50.000
298.28	52.209
298.65	50.131
299.02	51.779
299.38	51.926
299.75	50.135
300.12	49.425
300.48	49.500
300.85	48.952
301.22	49.809
301.59	46.465
301.95	48.111
302.32	48.909
302.69	45.878
303.05	47.394
303.42	47.160
303.79	45.866
304.15	46.853
304.52	45.539
304.89	45.296
305.25	45.708
305.62	45.866
305.99	47.226
306.35	46.309
306.72	44.843
307.09	44.173
307.45	44.820
307.82	44.866
308.19	44.812
308.55	45.415
308.92	44.468
309.29	45.195
309.65	43.902
310.02	44.292
310.38	45.699
310.75	43.823
311.12	44.729
311.48	45.246
311.85	43.187
312.22	45.682
312.58	43.451
312.95	45.301
313.31	43.689
313.68	46.570
314.05	45.957
314.41	44.724
314.78	44.109
315.14	43.893
315.51	44.799
315.87	45.446
316.24	45.680
316.61	43.372
316.97	43.836
317.34	44.814
317.70	44.073
318.07	46.776
318.43	47.358
318.80	46.111
319.16	46.516
319.53	45.872
319.89	47.238
320.26	49.000
320.62	47.123
320.99	47.980
321.35	47.778
321.72	48.871
322.08	47.976
322.45	52.139
322.81	49.806
323.18	51.252
323.54	50.278
323.91	49.906
324.27	49.809
324.64	49.674
325.00	49.775
325.37	50.955
325.73	51.077
326.10	51.456
326.46	50.717
326.83	52.373
327.19	52.263
327.56	51.481
327.92	53.806
328.29	52.706
328.65	54.604
329.01	52.076
329.38	54.579
329.74	54.571
330.11	54.854
330.47	55.647
330.84	53.860
331.20	54.554
331.56	54.771
331.93	56.574
332.29	54.481
332.66	53.274
333.02	55.210
333.38	55.285
333.75	54.902
334.11	54.893
334.48	55.812
334.84	55.882
335.20	56.455
335.57	54.125
335.93	54.286
336.29	56.593
336.66	56.628
337.02	55.566
337.38	54.815
337.75	55.526
338.11	55.953
338.47	57.643
338.84	56.187
339.20	56.239
339.56	56.752
339.93	55.909
340.29	56.431
340.65	55.793
341.02	56.108
341.38	55.516
341.74	57.105
342.11	56.245
342.47	56.740
342.83	56.079
343.20	56.537
343.56	56.108
343.92	57.018
344.28	56.888
344.65	57.438
345.01	55.808
345.37	54.803
345.73	57.614
346.10	56.607
346.46	55.593
346.82	56.590
347.19	56.642
347.55	56.076
347.91	57.686
348.27	56.861
348.63	57.107
349.00	56.392
349.36	56.158
349.72	56.455
350.08	56.807
350.45	57.852
350.81	56.133
351.17	56.969
351.53	57.166
351.89	56.023
352.26	56.985
352.62	58.380
352.98	58.266
353.34	57.601
353.70	58.183
354.07	58.306
354.43	57.143
354.79	57.522
355.15	58.180
355.51	58.034
355.87	60.490
356.24	58.143
356.60	57.338
356.96	59.292
357.32	57.482
357.68	58.504
358.04	57.720
358.40	58.591
358.77	57.746
359.13	58.327
359.49	60.471
359.85	58.810
360.21	59.490
360.57	60.623
360.93	61.154
361.29	58.957
361.66	59.520
362.02	58.806
362.38	59.696
362.74	60.417
363.10	59.363
363.46	60.675
363.82	62.358
364.18	60.352
364.54	62.481
364.90	60.765
365.26	61.544
365.62	63.404
365.98	60.628
366.35	60.673
366.71	62.039
367.07	62.491
367.43	62.337
367.79	62.741
368.15	62.931
368.51	63.372
368.87	64.383
369.23	63.424
369.59	64.881
369.95	64.485
370.31	63.248
370.67	62.971
371.03	66.067
371.39	65.015
371.75	65.515
372.11	63.798
372.47	66.642
372.83	67.075
373.19	65.535
373.55	66.741
373.91	68.041
374.27	65.086
374.63	67.855
374.99	67.655
375.35	67.411
375.71	67.101
376.07	65.912
376.42	68.776
376.78	68.522
377.14	67.843
377.50	70.000
377.86	67.952
378.22	68.078
378.58	68.108
378.94	69.579
379.30	72.774
379.66	69.480
380.02	70.639
380.38	70.917
380.74	71.969
381.09	72.311
381.45	72.280
381.81	71.929
382.17	72.803
382.53	72.327
382.89	72.099
383.25	73.233
383.61	74.907
383.97	73.796
384.32	73.612
384.68	73.420
385.04	73.755
385.40	74.427
385.76	73.833
386.12	74.093
386.48	77.093
386.83	76.523
387.19	77.365
387.55	77.860
387.91	76.239
388.27	77.560
388.62	77.566
388.98	76.720
389.34	77.847
389.70	76.763
390.06	79.087
390.42	78.794
390.77	79.198
391.13	80.217
391.49	79.442
391.85	77.721
392.20	80.568
392.56	80.114
392.92	80.695
393.28	80.355
393.64	80.576
393.99	80.024
394.35	81.452
394.71	80.489
395.07	79.875
395.42	82.077
395.78	81.552
396.14	80.323
396.50	81.391
396.85	82.200
397.21	81.689
397.57	82.393
397.92	83.834
398.28	81.839
398.64	81.840
399.00	81.925
399.35	83.249
399.71	81.887
400.07	83.442
400.42	83.436
400.78	82.388
401.14	83.354
401.49	84.478
401.85	83.001
402.21	81.257
402.57	83.837
402.92	85.309
403.28	83.760
403.63	84.468
403.99	85.987
404.35	84.848
404.70	83.873
405.06	84.275
405.42	85.402
405.77	84.971
406.13	83.804
406.49	83.146
406.84	83.225
407.20	85.225
407.55	86.407
407.91	88.400
408.27	86.981
408.62	85.731
408.98	84.743
409.34	85.855
409.69	85.613
410.05	86.431
410.40	86.483
410.76	85.544
411.11	85.887
411.47	85.240
411.83	86.805
412.18	85.900
412.54	86.924
412.89	86.807
413.25	86.128
413.60	86.597
413.96	84.214
414.31	85.905
414.67	87.072
415.03	88.212
415.38	85.631
415.74	87.010
416.09	88.308
416.45	86.680
416.80	87.508
417.16	87.735
417.51	88.321
417.87	86.705
418.22	87.066
418.58	87.153
418.93	86.609
419.29	87.269
419.64	88.917
420.00	87.805
420.35	86.319
420.71	87.806
421.06	85.084
421.42	86.608
421.77	87.276
422.12	87.310
422.48	86.454
422.83	87.536
423.19	86.022
423.54	87.057
423.90	86.957
424.25	87.046
424.61	85.714
424.96	88.571
425.31	86.323
425.67	83.876
426.02	84.686
426.38	88.339
426.73	86.542
427.09	88.085
427.44	86.774
427.79	87.177
428.15	87.440
428.50	86.893
428.85	87.008
429.21	85.919
429.56	86.988
429.92	84.499
430.27	85.055
430.62	85.765
430.98	86.508
431.33	85.000
431.68	87.068
432.04	85.836
432.39	87.264
432.74	87.612
433.10	87.493
433.45	87.230
433.80	86.086
434.16	86.111
434.51	85.000
434.86	85.234
435.22	85.714
435.57	85.653
435.92	85.020
436.28	88.493
436.63	84.934
436.98	84.659
437.34	85.033
437.69	86.173
438.04	85.835
438.39	86.687
438.75	86.345
439.10	86.201
439.45	85.124
439.81	87.372
440.16	85.093
440.51	86.526
440.86	86.914
441.22	86.151
441.57	84.926
441.92	86.336
442.27	84.338
442.63	84.202
442.98	85.465
443.33	84.130
443.68	83.893
444.03	84.675
444.39	84.469
444.74	85.498
445.09	83.989
445.44	83.762
445.79	84.018
446.15	83.801
446.50	83.899
446.85	84.224
447.20	82.662
447.55	85.985
447.91	85.108
448.26	84.418
448.61	84.454
448.96	84.441
449.31	84.871
449.66	84.581
450.02	84.457
450.37	84.354
450.72	83.813
451.07	82.937
451.42	84.012
451.77	84.263
452.12	83.603
452.47	83.893
452.83	84.790
453.18	83.313
453.53	85.096
453.88	83.520
454.23	84.340
454.58	85.039
454.93	86.078
455.28	82.357
455.63	82.706
455.98	83.810
456.34	84.485
456.69	84.659
457.04	84.025
457.39	82.642
457.74	83.169
458.09	83.956
458.44	83.523
458.79	80.315
459.14	83.691
459.49	83.538
459.84	82.327
460.19	81.320
460.54	80.613
460.89	82.447
461.24	84.032
461.59	82.510
461.94	82.059
462.29	82.730
462.64	81.429
462.99	81.522
463.34	81.533
463.69	82.552
464.04	82.319
464.39	79.420
464.74	81.402
465.09	81.846
465.44	81.274
465.79	79.922
466.14	78.435
466.49	78.810
466.84	80.677
467.19	78.636
467.54	79.875
467.89	79.592
468.24	79.465
468.59	80.647
468.94	79.597
469.29	80.206
469.64	80.924
469.99	81.191
470.34	80.647
470.68	80.675
471.03	80.340
471.38	80.612
471.73	79.747
472.08	80.592
472.43	79.146
472.78	79.855
473.13	78.883
473.48	79.463
473.83	79.085
474.17	78.345
474.52	79.467
474.87	78.751
475.22	78.700
475.57	77.431
475.92	78.439
476.27	76.043
476.61	76.558
476.96	77.185
477.31	77.708
477.66	76.915
478.01	76.529
478.36	78.318
478.70	76.791
479.05	77.263
479.40	77.021
479.75	77.173
480.10	76.342
480.45	75.297
480.79	74.964
481.14	76.272
481.49	76.222
481.84	75.126
482.19	75.738
482.53	74.174
482.88	75.430
483.23	75.421
483.58	75.023
483.92	75.492
484.27	72.636
484.62	74.655
484.97	73.394
485.31	73.733
485.66	71.386
486.01	68.699
486.36	66.645
486.70	66.069
487.05	67.366
487.40	69.459
487.75	68.949
488.09	71.216
488.44	71.548
488.79	72.514
489.13	73.453
489.48	72.023
489.83	73.069
490.17	73.170
490.52	73.206
490.87	72.637
491.22	71.305
491.56	70.752
491.91	70.917
492.26	70.648
492.60	70.968
492.95	71.048
493.30	70.794
493.64	71.442
493.99	71.077
494.34	70.722
494.68	72.390
495.03	70.630
495.37	70.638
495.72	71.442
496.07	71.090
496.41	68.407
496.76	69.745
497.11	70.329
497.45	69.725
497.80	69.194
498.14	69.565
498.49	69.610
498.84	68.840
499.18	69.429
499.53	68.519
499.87	69.245
500.22	69.147
500.56	69.854
500.91	68.798
501.26	68.611
501.60	69.625
501.95	66.911
502.29	69.166
502.64	68.203
502.98	67.228
503.33	66.956
503.67	66.497
504.02	68.943
504.36	67.197
504.71	68.686
505.06	67.373
505.40	66.991
505.75	67.068
506.09	66.958
506.44	67.736
506.78	66.975
507.13	68.097
507.47	66.970
507.82	66.261
508.16	67.680
508.51	67.783
508.85	66.385
509.19	67.908
509.54	66.224
509.88	65.482
510.23	66.427
510.57	66.925
510.92	66.080
511.26	66.752
511.61	65.664
511.95	63.831
512.30	65.801
512.64	64.535
512.98	66.131
513.33	65.471
513.67	65.155
514.02	66.234
514.36	66.903
514.70	64.804
515.05	65.756
515.39	65.171
515.74	64.809
516.08	64.561
516.42	64.095
516.77	65.329
517.11	64.706
517.46	64.673
517.80	66.260
518.14	64.794
518.49	65.519
518.83	64.773
519.17	64.492
519.52	64.573
519.86	64.860
520.20	64.624
520.55	65.530
520.89	66.484
521.23	66.104
521.58	65.186
521.92	64.605
522.26	63.026
522.61	65.047
522.95	63.597
523.29	65.064
523.64	64.634
523.98	64.572
524.32	63.993
524.66	64.101
525.01	64.277
525.35	64.498
525.69	63.300
526.04	63.614
526.38	64.552
526.72	62.761
527.06	64.658
527.41	62.624
527.75	63.344
528.09	64.804
528.43	63.862
528.78	61.647
529.12	61.515
529.46	61.972
529.80	62.933
530.15	62.741
530.49	62.523
530.83	62.278
531.17	64.883
531.51	63.813
531.86	61.806
532.20	62.060
532.54	62.332
532.88	62.067
533.22	61.087
533.57	61.049
533.91	60.987
534.25	61.482
534.59	61.013
534.93	59.607
535.27	58.660
535.62	60.134
535.96	61.519
536.30	60.903
536.64	60.786
536.98	61.513
537.32	60.303
537.66	60.267
538.01	61.488
538.35	60.957
538.69	61.455
539.03	59.194
539.37	58.594
539.71	59.170
540.05	60.065
540.39	60.199
540.73	58.473
541.07	60.286
541.42	60.796
541.76	59.806
542.10	60.026
542.44	59.603
542.78	60.211
543.12	58.861
543.46	59.082
543.80	59.336
544.14	58.087
544.48	57.587
544.82	57.024
545.16	58.881
545.50	57.519
545.84	58.804
546.18	57.508
546.52	58.568
546.86	59.107
547.20	58.463
547.54	58.651
547.88	58.673
548.22	56.912
548.56	56.415
548.90	57.362
549.24	57.845
549.58	58.527
549.92	56.456
550.26	58.239
550.60	57.746
550.94	57.394
551.28	56.986
551.62	58.160
551.96	58.035
552.30	57.270
552.64	57.201
552.98	57.085
553.32	56.979
553.66	57.737
554.00	56.898
554.34	57.833
554.68	57.439
555.02	56.982
555.36	55.672
555.69	55.886
556.03	56.460
556.37	57.503
556.71	56.276
557.05	56.653
557.39	55.493
557.73	56.175
558.07	57.070
558.41	56.512
558.75	57.384
559.08	56.525
559.42	57.596
559.76	56.618
560.10	55.389
560.44	55.695
560.78	54.358
561.12	54.551
561.45	54.824
561.79	55.043
562.13	54.326
562.47	55.055
562.81	56.206
563.15	53.712
563.48	54.045
563.82	54.534
564.16	55.788
564.50	53.841
564.84	52.971
565.17	54.054
565.51	53.994
565.85	53.744
566.19	53.976
566.52	53.832
566.86	52.260
567.20	52.594
567.54	52.797
567.88	52.037
568.21	51.799
568.55	52.123
568.89	50.875
569.23	49.688
569.56	49.028
569.90	49.132
570.24	48.296
570.57	47.773
570.91	46.897
571.25	47.437
571.59	46.097
571.92	46.573
572.26	46.707
572.60	47.658
572.93	46.297
573.27	47.057
573.61	46.399
573.95	46.434
574.28	46.005
574.62	45.724
574.96	45.735
575.29	45.393
575.63	45.630
575.97	46.472
576.30	45.990
576.64	45.211
576.98	45.771
577.31	44.616
577.65	44.734
577.98	44.994
578.32	43.924
578.66	44.990
578.99	45.081
579.33	44.396
579.67	44.709
580.00	44.833
580.34	44.661
580.67	45.072
581.01	45.087
581.35	44.651
581.68	44.672
582.02	43.397
582.35	44.014
582.69	43.813
583.02	44.319
583.36	44.524
583.70	45.380
584.03	45.010
584.37	45.455
584.70	45.350
585.04	44.056
585.37	44.455
585.71	44.455
586.04	44.020
586.38	45.507
586.72	44.932
587.05	44.146
587.39	44.090
587.72	44.293
588.06	44.264
588.39	45.048
588.73	45.233
589.06	45.372
589.40	45.152
589.73	46.075
590.07	45.836
590.40	45.488
590.73	46.214
591.07	46.520
591.40	46.436
591.74	47.749
592.07	45.942
592.41	45.845
592.74	44.270
593.08	44.370
593.41	44.606
593.75	43.410
594.08	44.385
594.41	44.751
594.75	44.991
595.08	45.025
595.42	44.483
595.75	45.513
596.09	45.362
596.42	45.462
596.75	45.842
597.09	46.147
597.42	44.688
597.75	44.718
598.09	45.609
598.42	45.275
598.76	45.440
599.09	44.280
599.42	44.287
599.76	44.327
600.09	43.934
600.42	44.047
600.76	43.571
601.09	42.951
601.42	44.368
601.76	44.364
602.09	44.822
602.42	45.263
602.76	45.546
603.09	44.925
603.42	44.397
603.76	44.550
604.09	43.893
604.42	44.517
604.76	45.508
605.09	43.949
605.42	43.908
605.75	43.957
606.09	44.205
606.42	45.116
606.75	44.670
607.09	44.496
607.42	45.015
607.75	43.755
608.08	43.986
608.42	44.599
608.75	44.590
609.08	43.710
609.41	44.693
609.75	45.212
610.08	45.664
610.41	44.646
610.74	45.459
611.07	45.356
611.41	45.339
611.74	45.953
612.07	46.170
612.40	45.750
612.73	44.947
613.07	46.228
613.40	45.182
613.73	44.101
614.06	45.000
614.39	45.254
614.72	46.158
615.06	45.116
615.39	45.064
615.72	44.990
616.05	45.242
616.38	45.748
616.71	45.962
617.05	46.996
617.38	47.144
617.71	45.766
618.04	46.514
618.37	45.653
618.70	47.106
619.03	46.645
619.36	47.386
619.69	48.099
620.03	47.459
620.36	46.190
620.69	47.945
621.02	48.083
621.35	48.943
621.68	46.495
622.01	48.065
622.34	47.579
622.67	48.213
623.00	46.075
623.33	46.390
623.66	47.677
623.99	48.895
624.32	46.862
624.65	46.540
624.99	46.530
625.32	46.488
625.65	46.431
625.98	47.733
626.31	48.600
626.64	50.041
626.97	49.460
627.30	47.880
627.63	48.564
627.96	48.360
628.29	48.731
628.62	48.948
628.95	49.528
629.28	50.274
629.61	49.496
629.94	50.476
630.26	48.904
