SpectraSuite Data File
++++++++++++++++++++++++++++++++++++
Date: Wed May 13 19:58:41 PDT 2015
User: schluterlab
Dark Spectrum Present: Yes
Reference Spectrum Present: Yes
Number of Sampled Component Spectra: 1
Spectrometers: USB2E3373
Integration Time (usec): 3000 (USB2E3373)
Spectra Averaged: 3 (USB2E3373)
Boxcar Smoothing: 0 (USB2E3373)
Correct for Electrical Dark: No (USB2E3373)
Strobe/Lamp Enabled: No (USB2E3373)
Correct for Detector Non-linearity: No (USB2E3373)
Correct for Stray Light: No (USB2E3373)
Number of Pixels in Processed Spectrum: 2048
>>>>>Begin Processed Spectral Data<<<<<
178.53	0.000
178.91	-1300.000
179.29	-1425.000
179.67	-255.556
180.04	-1375.000
180.42	2300.000
180.80	1020.000
181.18	-950.000
181.56	800.000
181.94	0.000
182.31	-785.714
182.69	1733.333
183.07	-575.000
183.45	-522.222
183.83	500.000
184.20	-380.000
184.58	3000.000
184.96	5000.000
185.34	-900.000
185.72	-625.000
186.09	-2750.000
186.47	3100.000
186.85	2700.000
187.23	4000.000
187.61	-1866.667
187.98	1250.000
188.36	472.727
188.74	463.636
189.12	-860.000
189.49	610.000
189.87	-4500.000
190.25	-1300.000
190.63	442.857
191.00	407.692
191.38	950.000
191.76	-1375.000
192.14	1425.000
192.51	662.500
192.89	933.333
193.27	550.000
193.65	-1400.000
194.02	520.000
194.40	960.000
194.78	520.000
195.15	458.333
195.53	630.000
195.91	-2150.000
196.29	362.500
196.66	300.000
197.04	-390.000
197.42	0.000
197.79	630.000
198.17	-4300.000
198.55	557.143
198.92	712.500
199.30	780.000
199.68	0.000
200.05	322.222
200.43	685.714
200.81	4200.000
201.18	1900.000
201.56	-1633.333
201.94	588.889
202.31	555.556
202.69	416.667
203.07	470.000
203.44	0.000
203.82	1125.000
204.19	671.429
204.57	535.714
204.95	662.500
205.32	1900.000
205.70	490.909
206.08	385.714
206.45	2300.000
206.83	300.000
207.20	1050.000
207.58	720.000
207.96	355.556
208.33	637.500
208.71	-850.000
209.08	742.857
209.46	700.000
209.84	445.455
210.21	-1500.000
210.59	1275.000
210.96	-537.500
211.34	2000.000
211.71	570.000
212.09	883.333
212.46	0.000
212.84	1133.333
213.22	1350.000
213.59	-5100.000
213.97	900.000
214.34	828.571
214.72	581.818
215.09	1040.000
215.47	-2100.000
215.84	-2000.000
216.22	1700.000
216.59	385.714
216.97	1250.000
217.34	481.818
217.72	-716.667
218.09	0.000
218.47	-5000.000
218.84	677.778
219.22	842.857
219.59	1733.333
219.97	-542.857
220.34	980.000
220.72	-1700.000
221.09	407.143
221.47	1625.000
221.84	-1033.333
222.22	0.000
222.59	1325.000
222.97	-2750.000
223.34	1180.000
223.72	384.615
224.09	1100.000
224.46	2750.000
224.84	-5100.000
225.21	-1040.000
225.59	-5100.000
225.96	550.000
226.34	260.000
226.71	2350.000
227.08	737.500
227.46	540.000
227.83	-1050.000
228.21	-2350.000
228.58	522.222
228.95	-2250.000
229.33	-2450.000
229.70	1766.667
230.08	757.143
230.45	-940.000
230.82	433.333
231.20	816.667
231.57	700.000
231.95	475.000
232.32	227.273
232.69	436.364
233.07	757.143
233.44	407.692
233.81	-2000.000
234.19	310.526
234.56	508.333
234.93	358.333
235.31	490.909
235.68	430.769
236.05	378.571
236.43	193.939
236.80	252.632
237.17	5100.000
237.55	276.190
237.92	210.714
238.29	257.143
238.67	196.774
239.04	206.897
239.41	161.111
239.79	121.739
240.16	150.000
240.53	150.000
240.91	121.569
241.28	140.000
241.65	134.000
242.02	121.739
242.40	112.903
242.77	111.667
243.14	88.172
243.51	93.258
243.89	82.353
244.26	94.444
244.63	80.645
245.00	82.979
245.38	80.198
245.75	71.028
246.12	74.312
246.49	78.832
246.87	68.800
247.24	75.385
247.61	68.571
247.98	62.092
248.36	73.649
248.73	65.605
249.10	68.153
249.47	59.887
249.84	62.032
250.22	59.358
250.59	62.722
250.96	63.636
251.33	59.716
251.70	60.891
252.08	57.619
252.45	51.570
252.82	51.304
253.19	51.915
253.56	51.373
253.94	51.452
254.31	52.344
254.68	51.923
255.05	54.982
255.42	49.593
255.79	50.000
256.16	52.708
256.54	49.470
256.91	49.822
257.28	47.122
257.65	48.185
258.02	49.689
258.39	49.211
258.76	48.495
259.14	48.214
259.51	45.593
259.88	45.342
260.25	47.734
260.62	45.087
260.99	49.068
261.36	46.246
261.73	46.991
262.10	47.093
262.47	48.732
262.85	44.847
263.22	43.590
263.59	48.148
263.96	41.758
264.33	44.386
264.70	45.526
265.07	47.315
265.44	43.939
265.81	42.336
266.18	44.975
266.55	43.902
266.92	43.980
267.29	43.981
267.66	43.807
268.03	44.091
268.40	43.458
268.77	41.766
269.14	41.667
269.51	42.212
269.88	43.823
270.25	45.598
270.62	41.798
270.99	44.731
271.36	43.348
271.73	42.991
272.10	39.130
272.47	44.946
272.84	39.610
273.21	41.929
273.58	38.865
273.95	41.719
274.32	40.702
274.69	40.257
275.06	37.008
275.43	41.277
275.80	38.277
276.17	40.326
276.54	40.956
276.91	40.909
277.28	36.523
277.65	38.298
278.02	40.166
278.39	41.992
278.76	38.545
279.13	40.189
279.50	39.851
279.87	40.040
280.23	39.521
280.60	37.524
280.97	37.523
281.34	37.699
281.71	39.818
282.08	38.772
282.45	38.000
282.82	40.320
283.19	36.898
283.56	37.719
283.92	40.271
284.29	36.332
284.66	37.750
285.03	34.177
285.40	36.972
285.77	36.532
286.14	36.442
286.51	36.333
286.87	38.120
287.24	38.599
287.61	35.955
287.98	35.877
288.35	35.024
288.72	33.956
289.08	37.559
289.45	35.091
289.82	35.285
290.19	32.653
290.56	33.078
290.93	32.175
291.29	32.975
291.66	33.481
292.03	34.738
292.40	34.508
292.77	31.657
293.13	33.433
293.50	33.528
293.87	31.111
294.24	29.778
294.60	29.403
294.97	30.814
295.34	31.030
295.71	31.676
296.08	31.197
296.44	30.399
296.81	30.647
297.18	29.946
297.55	28.496
297.91	28.364
298.28	29.853
298.65	29.112
299.02	30.962
299.38	29.482
299.75	28.437
300.12	27.586
300.48	28.250
300.85	29.223
301.22	27.771
301.59	27.525
301.95	27.078
302.32	28.883
302.69	27.718
303.05	27.152
303.42	27.531
303.79	27.860
304.15	24.476
304.52	26.535
304.89	26.597
305.25	26.450
305.62	27.067
305.99	27.273
306.35	26.398
306.72	26.009
307.09	27.081
307.45	26.464
307.82	26.228
308.19	25.938
308.55	25.351
308.92	27.282
309.29	24.604
309.65	26.829
310.02	26.533
310.38	25.914
310.75	25.238
311.12	26.203
311.48	27.168
311.85	26.730
312.22	25.806
312.58	25.884
312.95	27.033
313.31	25.340
313.68	25.988
314.05	27.120
314.41	26.834
314.78	25.076
315.14	26.018
315.51	26.674
315.87	27.327
316.24	26.216
316.61	26.218
316.97	26.908
317.34	27.593
317.70	26.195
318.07	28.296
318.43	28.376
318.80	29.803
319.16	28.343
319.53	28.518
319.89	29.714
320.26	30.500
320.62	30.754
320.99	31.212
321.35	31.616
321.72	34.292
322.08	35.242
322.45	36.020
322.81	36.047
323.18	35.838
323.54	37.662
323.91	38.113
324.27	39.293
324.64	40.168
325.00	39.856
325.37	42.493
325.73	43.716
326.10	43.866
326.46	46.057
326.83	47.541
327.19	48.079
327.56	50.261
327.92	53.018
328.29	53.505
328.65	56.262
329.01	54.964
329.38	56.984
329.74	56.971
330.11	59.095
330.47	60.698
330.84	59.926
331.20	60.291
331.56	59.908
331.93	61.944
332.29	61.757
332.66	62.124
333.02	64.077
333.38	64.770
333.75	64.795
334.11	64.324
334.48	64.330
334.84	66.912
335.20	66.636
335.57	66.727
335.93	68.393
336.29	68.407
336.66	70.514
337.02	68.778
337.38	68.889
337.75	69.251
338.11	68.756
338.47	69.521
338.84	71.861
339.20	70.550
339.56	71.989
339.93	71.909
340.29	71.196
340.65	70.766
341.02	73.386
341.38	72.598
341.74	72.982
342.11	71.092
342.47	73.656
342.83	73.202
343.20	73.506
343.56	72.789
343.92	74.825
344.28	74.405
344.65	76.870
345.01	74.411
345.37	73.413
345.73	74.788
346.10	74.510
346.46	75.508
346.82	74.629
347.19	75.773
347.55	73.563
347.91	77.104
348.27	76.993
348.63	76.589
349.00	75.162
349.36	75.041
349.72	75.702
350.08	75.851
350.45	77.461
350.81	76.279
351.17	77.877
351.53	77.969
351.89	77.888
352.26	76.875
352.62	77.306
352.98	77.715
353.34	77.814
353.70	79.133
354.07	79.355
354.43	77.778
354.79	79.083
355.15	78.851
355.51	79.536
355.87	79.918
356.24	81.026
356.60	78.027
356.96	81.416
357.32	81.112
357.68	80.630
358.04	79.731
358.40	80.602
358.77	79.656
359.13	78.611
359.49	81.020
359.85	81.984
360.21	81.260
360.57	82.568
360.93	82.231
361.29	82.237
361.66	81.115
362.02	82.164
362.38	82.662
362.74	82.812
363.10	80.903
363.46	82.172
363.82	83.522
364.18	82.673
364.54	85.290
364.90	82.436
365.26	84.412
365.62	85.099
365.98	83.199
366.35	81.304
366.71	83.442
367.07	84.705
367.43	85.922
367.79	86.081
368.15	84.555
368.51	85.465
368.87	85.011
369.23	86.101
369.59	86.387
369.95	85.000
370.31	84.117
370.67	85.000
371.03	86.891
371.39	87.318
371.75	85.956
372.11	84.353
372.47	87.830
372.83	87.824
373.19	84.393
373.55	87.657
373.91	89.102
374.27	85.773
374.63	89.309
374.99	88.418
375.35	86.322
375.71	86.018
376.07	87.380
376.42	89.752
376.78	87.475
377.14	87.585
377.50	87.748
377.86	86.370
378.22	87.042
378.58	87.218
378.94	87.178
379.30	87.786
379.66	88.325
380.02	88.943
380.38	87.796
380.74	87.335
381.09	88.875
381.45	88.384
381.81	88.636
382.17	90.127
382.53	88.302
382.89	89.691
383.25	89.619
383.61	89.963
383.97	87.930
384.32	87.648
384.68	88.104
385.04	87.339
385.40	88.297
385.76	88.575
386.12	88.148
386.48	88.295
386.83	92.046
387.19	89.920
387.55	88.002
387.91	88.936
388.27	88.964
388.62	88.138
388.98	88.268
389.34	87.985
389.70	88.412
390.06	89.290
390.42	89.364
390.77	88.422
391.13	89.917
391.49	88.832
391.85	89.561
392.20	87.634
392.56	88.763
392.92	87.228
393.28	87.633
393.64	89.269
393.99	87.905
394.35	88.710
394.71	88.833
395.07	87.103
395.42	88.010
395.78	88.550
396.14	88.330
396.50	90.351
396.85	89.320
397.21	86.375
397.57	89.523
397.92	87.380
398.28	88.453
398.64	86.619
399.00	87.913
399.35	87.592
399.71	87.674
400.07	87.463
400.42	87.055
400.78	88.480
401.14	89.817
401.49	87.284
401.85	88.022
402.21	86.048
402.57	86.737
402.92	87.831
403.28	87.570
403.63	87.191
403.99	88.535
404.35	85.697
404.70	86.631
405.06	86.605
405.42	88.272
405.77	86.171
406.13	84.537
406.49	86.931
406.84	85.411
407.20	87.057
407.55	88.130
407.91	87.933
408.27	88.832
408.62	86.273
408.98	85.172
409.34	86.162
409.69	87.161
410.05	86.431
410.40	85.933
410.76	86.679
411.11	84.258
411.47	85.240
411.83	86.011
412.18	86.024
412.54	86.862
412.89	83.916
413.25	85.183
413.60	86.473
413.96	84.214
414.31	84.751
414.67	85.741
415.03	86.490
415.38	84.794
415.74	85.595
416.09	85.826
416.45	85.877
416.80	84.600
417.16	85.925
417.51	85.401
417.87	83.173
418.22	85.237
418.58	85.604
418.93	86.179
419.29	84.978
419.64	86.209
420.00	83.659
420.35	83.478
420.71	85.953
421.06	85.263
421.42	84.211
421.77	83.464
422.12	82.875
422.48	82.947
422.83	83.052
423.19	83.591
423.54	84.562
423.90	84.232
424.25	82.859
424.61	85.179
424.96	84.373
425.31	82.060
425.67	81.236
426.02	82.171
426.38	84.249
426.73	84.260
427.09	83.343
427.44	84.416
427.79	82.806
428.15	84.583
428.50	82.212
428.85	83.552
429.21	83.324
429.56	83.256
429.92	82.386
430.27	83.168
430.62	80.799
430.98	81.733
431.33	82.216
431.68	83.141
432.04	81.896
432.39	83.724
432.74	82.107
433.10	82.173
433.45	83.499
433.80	82.761
434.16	82.425
434.51	80.632
434.86	82.383
435.22	82.157
435.57	84.073
435.92	83.031
436.28	82.681
436.63	81.788
436.98	82.141
437.34	83.005
437.69	82.964
438.04	82.856
438.39	82.567
438.75	83.556
439.10	82.011
439.45	81.405
439.81	83.021
440.16	82.552
440.51	81.371
440.86	82.166
441.22	81.424
441.57	81.423
441.92	81.883
442.27	82.508
442.63	81.201
442.98	82.028
443.33	80.109
443.68	80.227
444.03	81.210
444.39	81.061
444.74	82.792
445.09	81.617
445.44	81.629
445.79	80.406
446.15	79.089
446.50	81.206
446.85	80.627
447.20	80.571
447.55	81.407
447.91	80.585
448.26	80.634
448.61	81.515
448.96	81.174
449.31	81.215
449.66	81.880
450.02	80.891
450.37	80.159
450.72	82.121
451.07	80.561
451.42	80.365
451.77	81.914
452.12	79.330
452.47	79.851
452.83	81.818
453.18	80.623
453.53	81.633
453.88	81.748
454.23	80.992
454.58	80.254
454.93	81.627
455.28	80.923
455.63	79.854
455.98	80.833
456.34	80.528
456.69	80.338
457.04	81.734
457.39	80.421
457.74	79.861
458.09	78.263
458.44	79.361
458.79	78.200
459.14	80.248
459.49	79.218
459.84	79.114
460.19	78.020
460.54	76.620
460.89	78.991
461.24	78.810
461.59	79.954
461.94	78.298
462.29	79.288
462.64	77.983
462.99	78.204
463.34	79.800
463.69	79.049
464.04	78.319
464.39	77.913
464.74	77.243
465.09	76.960
465.44	75.734
465.79	76.398
466.14	75.698
466.49	76.251
466.84	78.050
467.19	76.645
467.54	77.688
467.89	77.911
468.24	78.301
468.59	78.327
468.94	76.665
469.29	77.506
469.64	77.845
469.99	79.364
470.34	78.203
470.68	79.095
471.03	77.551
471.38	79.639
471.73	78.148
472.08	78.553
472.43	77.387
472.78	79.394
473.13	77.150
473.48	77.403
473.83	77.561
474.17	76.291
474.52	77.047
474.87	76.941
475.22	75.392
475.57	74.798
475.92	76.739
476.27	75.028
476.61	75.621
476.96	76.910
477.31	74.045
477.66	76.532
478.01	74.909
478.36	76.203
478.70	74.247
479.05	76.890
479.40	75.793
479.75	74.682
480.10	75.398
480.45	74.679
480.79	75.012
481.14	74.902
481.49	74.798
481.84	73.983
482.19	75.239
482.53	75.275
482.88	74.034
483.23	75.093
483.58	75.523
483.92	74.695
484.27	72.593
484.62	73.190
484.97	71.857
485.31	72.295
485.66	67.994
486.01	65.770
486.36	63.793
486.70	65.007
487.05	66.599
487.40	69.382
487.75	69.606
488.09	72.157
488.44	72.448
488.79	73.382
489.13	73.415
489.48	73.532
489.83	73.630
490.17	74.529
490.52	72.941
490.87	72.727
491.22	73.215
491.56	72.756
491.91	73.057
492.26	71.796
492.60	72.949
492.95	73.152
493.30	71.916
493.64	73.355
493.99	72.609
494.34	73.034
494.68	73.123
495.03	72.838
495.37	72.127
495.72	72.563
496.07	72.483
496.41	69.204
496.76	71.372
497.11	71.094
497.45	71.495
497.80	72.361
498.14	72.512
498.49	73.463
498.84	71.333
499.18	70.905
499.53	72.317
499.87	72.134
500.22	71.079
500.56	73.592
500.91	72.019
501.26	70.460
501.60	72.473
501.95	70.669
502.29	70.431
502.64	71.369
502.98	71.388
503.33	70.293
503.67	70.116
504.02	70.814
504.36	70.379
504.71	71.764
505.06	70.940
505.40	70.831
505.75	70.685
506.09	69.193
506.44	71.436
506.78	71.262
507.13	72.539
507.47	72.222
507.82	70.466
508.16	71.125
508.51	72.400
508.85	70.407
509.19	71.837
509.54	70.918
509.88	70.788
510.23	70.797
510.57	72.549
510.92	71.362
511.26	69.938
511.61	71.732
511.95	70.772
512.30	71.050
512.64	71.682
512.98	71.061
513.33	71.306
513.67	69.797
514.02	71.104
514.36	73.075
514.70	70.836
515.05	71.946
515.39	73.023
515.74	72.128
516.08	71.660
516.42	72.309
516.77	72.520
517.11	72.309
517.46	72.517
517.80	73.577
518.14	71.975
518.49	72.462
518.83	71.136
519.17	71.189
519.52	72.722
519.86	72.048
520.20	71.850
520.55	73.788
520.89	73.540
521.23	73.281
521.58	74.130
521.92	72.505
522.26	71.263
522.61	74.517
522.95	71.087
523.29	72.611
523.64	73.902
523.98	73.691
524.32	72.618
524.66	73.722
525.01	73.039
525.35	73.668
525.69	72.414
526.04	71.340
526.38	71.995
526.72	73.252
527.06	74.765
527.41	70.730
527.75	74.019
528.09	73.410
528.43	72.913
528.78	72.280
529.12	72.000
529.46	72.015
529.80	72.834
530.15	71.402
530.49	71.569
530.83	73.418
531.17	73.825
531.51	73.411
531.86	72.065
532.20	73.533
532.54	74.119
532.88	73.171
533.22	70.144
533.57	71.358
533.91	70.199
534.25	69.988
534.59	72.117
534.93	69.661
535.27	71.092
535.62	71.001
535.96	71.375
536.30	71.774
536.64	72.118
536.98	72.064
537.32	71.955
537.66	71.533
538.01	73.074
538.35	71.816
538.69	72.049
539.03	70.630
539.37	69.137
539.71	68.827
540.05	71.503
540.39	73.090
540.73	70.893
541.07	71.382
541.42	71.820
541.76	71.290
542.10	71.216
542.44	70.662
542.78	71.344
543.12	69.546
543.46	71.213
543.80	71.828
544.14	70.090
544.48	70.286
544.82	70.750
545.16	71.763
545.50	70.051
545.84	70.968
546.18	71.852
546.52	72.058
546.86	72.577
547.20	72.218
547.54	69.806
547.88	68.176
548.22	68.369
548.56	68.553
548.90	70.230
549.24	70.101
549.58	70.259
549.92	70.604
550.26	74.148
550.60	69.502
550.94	70.423
551.28	71.763
551.62	71.747
551.96	69.404
552.30	71.331
552.64	70.115
552.98	70.034
553.32	68.847
553.66	71.438
554.00	71.723
554.34	69.772
554.68	71.459
555.02	69.605
555.36	69.798
555.69	67.050
556.03	69.112
556.37	68.759
556.71	69.304
557.05	71.148
557.39	69.769
557.73	70.360
558.07	71.139
558.41	70.478
558.75	70.463
559.08	72.334
559.42	71.429
559.76	70.147
560.10	69.665
560.44	69.951
560.78	67.598
561.12	67.150
561.45	67.405
561.79	67.568
562.13	68.880
562.47	70.082
562.81	70.990
563.15	68.562
563.48	68.037
563.82	69.080
564.16	68.280
564.50	67.773
564.84	66.625
565.17	66.795
565.51	67.604
565.85	67.766
566.19	65.874
566.52	67.891
566.86	66.064
567.20	65.153
567.54	64.612
567.88	63.661
568.21	64.497
568.55	63.498
568.89	62.500
569.23	61.185
569.56	60.526
569.90	59.057
570.24	58.845
570.57	57.837
570.91	57.531
571.25	56.609
571.59	55.552
571.92	56.740
572.26	55.921
572.60	57.057
572.93	57.331
573.27	56.315
573.61	56.505
573.95	55.891
574.28	54.698
574.62	54.568
574.96	54.767
575.29	54.850
575.63	55.056
575.97	54.934
576.30	54.806
576.64	55.193
576.98	54.375
577.31	54.921
577.65	54.072
577.98	53.438
578.32	52.681
578.66	53.941
578.99	53.937
579.33	54.781
579.67	54.001
580.00	54.591
580.34	54.794
580.67	54.975
581.01	53.272
581.35	52.690
581.68	52.539
582.02	52.265
582.35	52.170
582.69	52.776
583.02	52.731
583.36	55.061
583.70	56.019
584.03	55.068
584.37	55.705
584.70	56.270
585.04	53.963
585.37	54.031
585.71	53.947
586.04	53.540
586.38	54.781
586.72	54.847
587.05	53.817
587.39	53.272
587.72	54.728
588.06	54.216
588.39	54.897
588.73	54.943
589.06	55.625
589.40	55.286
589.73	56.177
590.07	56.192
590.40	56.924
590.73	57.377
591.07	57.875
591.40	58.541
591.74	58.312
592.07	57.373
592.41	57.007
592.74	55.843
593.08	54.564
593.41	54.255
593.75	52.530
594.08	54.744
594.41	55.992
594.75	55.527
595.08	55.261
595.42	54.886
595.75	56.695
596.09	56.215
596.42	57.760
596.75	57.493
597.09	58.225
597.42	55.860
597.75	57.137
598.09	56.696
598.42	56.357
598.76	55.533
599.09	54.504
599.42	52.802
599.76	54.758
600.09	53.953
600.42	54.310
600.76	53.036
601.09	53.698
601.42	54.490
601.76	54.497
602.09	54.980
602.42	55.732
602.76	56.106
603.09	54.563
603.42	55.252
603.76	55.030
604.09	54.478
604.42	55.850
604.76	56.980
605.09	56.182
605.42	54.639
605.75	55.174
606.09	54.738
606.42	54.679
606.75	55.122
607.09	55.881
607.42	56.312
607.75	54.937
608.08	55.015
608.42	56.163
608.75	54.689
609.08	55.088
609.41	57.068
609.75	55.598
610.08	56.550
610.41	56.238
610.74	56.244
611.07	56.769
611.41	56.820
611.74	57.717
612.07	57.764
612.40	57.870
612.73	58.474
613.07	57.920
613.40	58.504
613.73	57.105
614.06	57.473
614.39	56.004
614.72	55.579
615.06	56.355
615.39	55.679
615.72	54.806
616.05	55.290
616.38	57.310
616.71	58.551
617.05	57.951
617.38	57.968
617.71	57.718
618.04	58.654
618.37	57.126
618.70	58.556
619.03	59.079
619.36	59.810
619.69	59.718
620.03	59.821
620.36	59.492
620.69	60.342
621.02	61.062
621.35	62.569
621.68	61.449
622.01	61.920
622.34	60.968
622.67	61.825
623.00	60.308
623.33	59.757
623.66	60.400
623.99	60.604
624.32	60.342
624.65	60.169
624.99	59.773
625.32	59.450
625.65	60.105
625.98	62.567
626.31	62.208
626.64	63.020
626.97	62.677
627.30	62.178
627.63	63.331
627.96	63.751
628.29	63.955
628.62	65.416
628.95	65.660
629.28	63.412
629.61	64.895
629.94	64.857
630.26	66.826
630.59	65.205
630.92	63.793
