SpectraSuite Data File
++++++++++++++++++++++++++++++++++++
Date: Tue May 12 19:36:03 PDT 2015
User: schluterlab
Dark Spectrum Present: Yes
Reference Spectrum Present: Yes
Number of Sampled Component Spectra: 1
Spectrometers: USB2E3373
Integration Time (usec): 3000 (USB2E3373)
Spectra Averaged: 3 (USB2E3373)
Boxcar Smoothing: 0 (USB2E3373)
Correct for Electrical Dark: No (USB2E3373)
Strobe/Lamp Enabled: No (USB2E3373)
Correct for Detector Non-linearity: No (USB2E3373)
Correct for Stray Light: No (USB2E3373)
Number of Pixels in Processed Spectrum: 2048
>>>>>Begin Processed Spectral Data<<<<<
178.53	0.000
178.91	60.000
179.29	-166.667
179.67	233.333
180.04	0.000
180.42	-60.000
180.80	-400.000
181.18	950.000
181.56	100.000
181.94	216.667
182.31	1000.000
182.69	71.429
183.07	0.000
183.45	175.000
183.83	220.000
184.20	66.667
184.58	650.000
184.96	300.000
185.34	-233.333
185.72	-35.714
186.09	-133.333
186.47	-500.000
186.85	20.000
187.23	166.667
187.61	-85.714
187.98	-240.000
188.36	750.000
188.74	-275.000
189.12	-22.222
189.49	-10.000
189.87	300.000
190.25	33.333
190.63	400.000
191.00	-20.000
191.38	-166.667
191.76	240.000
192.14	100.000
192.51	0.000
192.89	-20.000
193.27	-20.000
193.65	33.333
194.02	100.000
194.40	1100.000
194.78	-37.500
195.15	-85.714
195.53	-0.000
195.91	300.000
196.29	-175.000
196.66	-266.667
197.04	-71.429
197.42	20.000
197.79	-150.000
198.17	8.333
198.55	100.000
198.92	-88.889
199.30	500.000
199.68	-75.000
200.05	-450.000
200.43	-77.778
200.81	-50.000
201.18	133.333
201.56	0.000
201.94	-200.000
202.31	-58.333
202.69	33.333
203.07	0.000
203.44	-425.000
203.82	0.000
204.19	225.000
204.57	-166.667
204.95	90.909
205.32	20.000
205.70	350.000
206.08	300.000
206.45	0.000
206.83	1300.000
207.20	0.000
207.58	15.385
207.96	133.333
208.33	900.000
208.71	566.667
209.08	500.000
209.46	111.111
209.84	533.333
210.21	-266.667
210.59	50.000
210.96	100.000
211.34	-150.000
211.71	900.000
212.09	-120.000
212.46	-137.500
212.84	-62.500
213.22	85.714
213.59	25.000
213.97	0.000
214.34	-250.000
214.72	-800.000
215.09	400.000
215.47	0.000
215.84	0.000
216.22	400.000
216.59	-500.000
216.97	66.667
217.34	-83.333
217.72	22.222
218.09	300.000
218.47	-10.526
218.84	-150.000
219.22	35.714
219.59	-90.000
219.97	-90.000
220.34	150.000
220.72	72.727
221.09	-600.000
221.47	0.000
221.84	350.000
222.22	-275.000
222.59	-25.000
222.97	30.435
223.34	80.000
223.72	257.143
224.09	33.333
224.46	69.231
224.84	-33.333
225.21	150.000
225.59	-325.000
225.96	65.000
226.34	100.000
226.71	100.000
227.08	-15.385
227.46	-42.857
227.83	16.667
228.21	-400.000
228.58	266.667
228.95	-94.737
229.33	6.250
229.70	50.000
230.08	-66.667
230.45	-166.667
230.82	-900.000
231.20	0.000
231.57	-80.000
231.95	-200.000
232.32	66.667
232.69	-200.000
233.07	6.250
233.44	125.000
233.81	48.387
234.19	-340.000
234.56	-22.222
234.93	-216.667
235.31	7.407
235.68	22.222
236.05	26.923
236.43	42.105
236.80	18.182
237.17	-71.429
237.55	15.000
237.92	13.953
238.29	-9.677
238.67	-14.286
239.04	37.143
239.41	-7.843
239.79	34.000
240.16	35.000
240.53	5.172
240.91	24.658
241.28	11.268
241.65	28.125
242.02	3.509
242.40	4.000
242.77	17.895
243.14	18.824
243.51	29.032
243.89	9.524
244.26	11.111
244.63	14.286
245.00	6.250
245.38	10.084
245.75	18.644
246.12	17.969
246.49	0.800
246.87	12.295
247.24	6.338
247.61	13.245
247.98	20.225
248.36	16.352
248.73	13.068
249.10	15.556
249.47	14.062
249.84	3.046
250.22	14.062
250.59	13.483
250.96	15.909
251.33	21.698
251.70	14.679
252.08	16.017
252.45	13.878
252.82	12.236
253.19	17.510
253.56	17.255
253.94	18.699
254.31	20.504
254.68	19.097
255.05	18.212
255.42	15.273
255.79	22.848
256.16	17.708
256.54	19.394
256.91	19.551
257.28	21.104
257.65	14.098
258.02	21.622
258.39	15.710
258.76	20.795
259.14	15.294
259.51	20.563
259.88	20.461
260.25	19.886
260.62	17.135
260.99	14.206
261.36	15.230
261.73	17.867
262.10	18.801
262.47	19.008
262.85	20.823
263.22	17.742
263.59	17.158
263.96	16.449
264.33	16.173
264.70	18.182
265.07	22.660
265.44	17.564
265.81	21.446
266.18	22.482
266.55	17.857
266.92	22.991
267.29	16.000
267.66	18.182
268.03	21.720
268.40	20.366
268.77	14.699
269.14	18.067
269.51	19.005
269.88	16.667
270.25	19.198
270.62	19.118
270.99	18.105
271.36	19.647
271.73	18.958
272.10	19.502
272.47	17.600
272.84	15.499
273.21	15.449
273.58	16.939
273.95	21.713
274.32	19.729
274.69	18.787
275.06	18.386
275.43	17.400
275.80	19.503
276.17	17.391
276.54	20.532
276.91	19.962
277.28	19.342
277.65	17.958
278.02	18.939
278.39	20.690
278.76	21.415
279.13	21.646
279.50	18.953
279.87	20.000
280.23	18.033
280.60	16.431
280.97	19.332
281.34	17.966
281.71	16.163
282.08	17.710
282.45	17.989
282.82	17.172
283.19	18.350
283.56	20.819
283.92	17.852
284.29	18.613
284.66	16.814
285.03	15.609
285.40	17.667
285.77	19.212
286.14	18.542
286.51	16.881
286.87	18.963
287.24	16.667
287.61	18.056
287.98	18.936
288.35	17.984
288.72	19.113
289.08	14.937
289.45	18.565
289.82	17.081
290.19	16.212
290.56	17.077
290.93	17.578
291.29	17.305
291.66	17.697
292.03	16.212
292.40	17.122
292.77	15.306
293.13	15.565
293.50	15.427
293.87	15.118
294.24	15.309
294.60	16.393
294.97	14.404
295.34	14.795
295.71	13.176
296.08	15.027
296.44	15.547
296.81	14.230
297.18	15.395
297.55	15.452
297.91	13.071
298.28	13.683
298.65	14.489
299.02	15.413
299.38	14.541
299.75	15.830
300.12	14.388
300.48	14.671
300.85	11.736
301.22	14.062
301.59	13.625
301.95	14.390
302.32	14.581
302.69	14.388
303.05	13.341
303.42	14.734
303.79	12.584
304.15	13.250
304.52	14.078
304.89	13.641
305.25	13.761
305.62	12.955
305.99	13.774
306.35	12.752
306.72	13.072
307.09	12.405
307.45	12.837
307.82	13.554
308.19	15.072
308.55	12.764
308.92	14.513
309.29	12.657
309.65	14.757
310.02	12.683
310.38	13.646
310.75	14.139
311.12	13.225
311.48	15.930
311.85	13.273
312.22	13.120
312.58	14.602
312.95	13.244
313.31	14.061
313.68	13.505
314.05	14.995
314.41	13.458
314.78	13.266
315.14	13.516
315.51	13.009
315.87	15.137
316.24	13.155
316.61	13.786
316.97	13.725
317.34	14.641
317.70	14.099
318.07	13.404
318.43	14.556
318.80	14.299
319.16	13.793
319.53	14.717
319.89	14.583
320.26	14.651
320.62	16.085
320.99	14.796
321.35	15.613
321.72	16.566
322.08	16.832
322.45	16.469
322.81	17.044
323.18	16.779
323.54	16.967
323.91	16.414
324.27	16.490
324.64	16.307
325.00	17.379
325.37	17.896
325.73	17.701
326.10	18.476
326.46	18.676
326.83	18.118
327.19	18.079
327.56	19.717
327.92	18.142
328.29	19.803
328.65	18.738
329.01	18.624
329.38	19.559
329.74	19.870
330.11	18.919
330.47	20.577
330.84	19.831
331.20	18.946
331.56	20.377
331.93	20.220
332.29	20.537
332.66	20.976
333.02	21.170
333.38	21.875
333.75	21.134
334.11	20.524
334.48	19.767
334.84	19.624
335.20	20.233
335.57	22.343
335.93	21.767
336.29	21.024
336.66	21.038
337.02	22.937
337.38	20.472
337.75	22.273
338.11	21.513
338.47	21.263
338.84	22.099
339.20	21.632
339.56	21.622
339.93	20.811
340.29	22.575
340.65	21.735
341.02	20.461
341.38	21.094
341.74	22.331
342.11	23.254
342.47	20.979
342.83	22.116
343.20	21.485
343.56	22.290
343.92	21.872
344.28	20.154
344.65	22.089
345.01	21.864
345.37	22.308
345.73	22.050
346.10	22.731
346.46	20.104
346.82	23.280
347.19	22.624
347.55	22.364
347.91	21.048
348.27	22.157
348.63	22.126
349.00	23.289
349.36	22.506
349.72	22.742
350.08	22.095
350.45	22.213
350.81	20.974
351.17	21.582
351.53	22.464
351.89	22.539
352.26	21.545
352.62	21.913
352.98	22.929
353.34	22.222
353.70	21.399
354.07	23.229
354.43	21.369
354.79	21.475
355.15	22.518
355.51	23.146
355.87	22.065
356.24	23.366
356.60	21.285
356.96	22.907
357.32	22.716
357.68	22.514
358.04	22.528
358.40	23.404
358.77	22.329
359.13	23.052
359.49	21.840
359.85	23.901
360.21	21.491
360.57	22.488
360.93	23.832
361.29	22.586
361.66	23.028
362.02	23.312
362.38	22.455
362.74	23.520
363.10	22.549
363.46	24.078
363.82	23.660
364.18	23.240
364.54	23.817
364.90	22.889
365.26	22.802
365.62	22.559
365.98	22.939
366.35	23.979
366.71	24.272
367.07	23.100
367.43	23.032
367.79	22.529
368.15	23.795
368.51	24.120
368.87	23.789
369.23	23.164
369.59	23.162
369.95	22.876
370.31	23.788
370.67	23.835
371.03	22.291
371.39	23.338
371.75	22.511
372.11	23.556
372.47	23.311
372.83	24.324
373.19	23.645
373.55	24.027
373.91	22.955
374.27	23.841
374.63	23.859
374.99	22.987
375.35	23.222
375.71	24.749
376.07	23.604
376.42	24.550
376.78	23.763
377.14	24.092
377.50	24.897
377.86	23.538
378.22	23.316
378.58	24.276
378.94	23.969
379.30	23.681
379.66	24.072
380.02	23.586
380.38	24.046
380.74	24.674
381.09	22.999
381.45	24.698
381.81	23.916
382.17	24.300
382.53	24.721
382.89	23.284
383.25	24.096
383.61	23.967
383.97	24.561
384.32	24.710
384.68	24.840
385.04	22.852
385.40	23.450
385.76	23.782
386.12	24.158
386.48	24.331
386.83	25.016
387.19	24.840
387.55	24.093
387.91	24.299
388.27	24.568
388.62	24.417
388.98	24.618
389.34	23.748
389.70	25.000
390.06	24.686
390.42	23.935
390.77	25.889
391.13	24.333
391.49	24.394
391.85	24.418
392.20	24.686
392.56	24.558
392.92	25.170
393.28	24.476
393.64	24.193
393.99	24.545
394.35	24.400
394.71	24.305
395.07	24.204
395.42	24.063
395.78	24.126
396.14	24.384
396.50	24.774
396.85	24.124
397.21	23.868
397.57	24.951
397.92	23.601
398.28	24.341
398.64	24.254
399.00	24.202
399.35	24.091
399.71	24.970
400.07	23.595
400.42	24.487
400.78	24.696
401.14	24.306
401.49	24.235
401.85	24.825
402.21	24.746
402.57	22.666
402.92	24.303
403.28	23.797
403.63	24.487
403.99	23.448
404.35	23.439
404.70	23.369
405.06	23.807
405.42	23.813
405.77	23.960
406.13	23.417
406.49	23.407
406.84	24.595
407.20	23.420
407.55	24.516
407.91	23.566
408.27	23.404
408.62	23.859
408.98	24.324
409.34	23.688
409.69	23.612
410.05	23.251
410.40	23.057
410.76	24.097
411.11	23.271
411.47	23.333
411.83	23.245
412.18	22.120
412.54	23.351
412.89	22.863
413.25	23.636
413.60	24.171
413.96	23.107
414.31	22.881
414.67	22.215
415.03	23.651
415.38	22.772
415.74	23.304
416.09	23.019
416.45	23.921
416.80	22.114
417.16	23.766
417.51	23.664
417.87	23.324
418.22	22.928
418.58	22.806
418.93	22.566
419.29	22.456
419.64	24.107
420.00	22.462
420.35	23.352
420.71	22.151
421.06	23.686
421.42	23.839
421.77	22.473
422.12	22.209
422.48	22.559
422.83	22.553
423.19	22.353
423.54	22.419
423.90	22.188
424.25	23.142
424.61	23.355
424.96	23.833
425.31	22.403
425.67	22.182
426.02	23.168
426.38	21.493
426.73	21.807
427.09	22.390
427.44	23.704
427.79	23.577
428.15	22.448
428.50	22.613
428.85	23.348
429.21	23.192
429.56	22.376
429.92	22.282
430.27	20.853
430.62	22.390
430.98	22.407
431.33	22.414
431.68	22.757
432.04	21.807
432.39	21.925
432.74	21.379
433.10	21.286
433.45	22.483
433.80	21.905
434.16	22.037
434.51	21.906
434.86	22.054
435.22	21.769
435.57	22.361
435.92	20.681
436.28	22.540
436.63	22.242
436.98	22.716
437.34	22.649
437.69	21.975
438.04	21.214
438.39	21.932
438.75	21.169
439.10	22.738
439.45	22.208
439.81	21.587
440.16	21.769
440.51	21.252
440.86	22.980
441.22	21.203
441.57	21.880
441.92	22.032
442.27	21.771
442.63	21.614
442.98	21.760
443.33	22.327
443.68	21.187
444.03	21.804
444.39	20.822
444.74	21.523
445.09	21.133
445.44	20.525
445.79	21.683
446.15	21.983
446.50	21.110
446.85	21.067
447.20	21.335
447.55	21.175
447.91	21.399
448.26	22.315
448.61	21.088
448.96	21.348
449.31	20.494
449.66	20.581
450.02	21.124
450.37	21.689
450.72	21.245
451.07	20.369
451.42	21.542
451.77	20.366
452.12	21.303
452.47	20.799
452.83	21.793
453.18	20.324
453.53	22.338
453.88	21.889
454.23	21.406
454.58	21.149
454.93	20.300
455.28	21.996
455.63	21.183
455.98	21.256
456.34	20.429
456.69	21.192
457.04	20.801
457.39	20.911
457.74	20.164
458.09	20.784
458.44	21.459
458.79	20.554
459.14	20.513
459.49	20.764
459.84	20.809
460.19	21.076
460.54	20.644
460.89	20.000
461.24	20.974
461.59	20.757
461.94	20.907
462.29	20.113
462.64	20.891
462.99	20.885
463.34	21.612
463.69	21.399
464.04	20.398
464.39	21.608
464.74	20.571
465.09	21.029
465.44	20.516
465.79	20.277
466.14	20.048
466.49	19.869
466.84	20.209
467.19	21.118
467.54	19.629
467.89	20.248
468.24	19.823
468.59	21.204
468.94	20.646
469.29	20.623
469.64	21.225
469.99	20.548
470.34	20.014
470.68	21.692
471.03	19.489
471.38	21.017
471.73	20.712
472.08	22.064
472.43	21.508
472.78	20.232
473.13	21.474
473.48	20.954
473.83	21.202
474.17	19.880
474.52	20.764
474.87	20.581
475.22	20.775
475.57	20.447
475.92	19.670
476.27	20.374
476.61	20.449
476.96	21.755
477.31	20.833
477.66	20.860
478.01	20.659
478.36	20.573
478.70	20.958
479.05	20.546
479.40	21.006
479.75	21.873
480.10	20.563
480.45	20.890
480.79	20.498
481.14	20.875
481.49	20.668
481.84	20.960
482.19	20.341
482.53	21.078
482.88	20.031
483.23	20.905
483.58	20.644
483.92	19.849
484.27	19.990
484.62	20.321
484.97	20.694
485.31	19.644
485.66	18.521
486.01	18.176
486.36	17.493
486.70	18.140
487.05	18.529
487.40	18.601
487.75	19.009
488.09	18.954
488.44	19.059
488.79	19.381
489.13	19.327
489.48	20.318
489.83	20.481
490.17	19.925
490.52	20.076
490.87	20.277
491.22	20.513
491.56	20.356
491.91	20.733
492.26	20.857
492.60	20.510
492.95	19.969
493.30	20.544
493.64	20.487
493.99	20.277
494.34	20.882
494.68	20.168
495.03	20.385
495.37	20.324
495.72	20.728
496.07	20.233
496.41	20.208
496.76	19.723
497.11	20.532
497.45	20.944
497.80	21.236
498.14	21.014
498.49	20.555
498.84	20.021
499.18	19.875
499.53	20.197
499.87	20.789
500.22	20.675
500.56	21.612
500.91	20.241
501.26	20.735
501.60	21.662
501.95	20.266
502.29	21.036
502.64	19.811
502.98	19.788
503.33	20.070
503.67	20.112
504.02	19.969
504.36	19.260
504.71	20.053
505.06	20.728
505.40	21.180
505.75	20.011
506.09	20.477
506.44	20.976
506.78	20.503
507.13	21.553
507.47	20.720
507.82	20.089
508.16	20.824
508.51	21.335
508.85	21.374
509.19	20.351
509.54	21.303
509.88	20.426
510.23	20.674
510.57	20.954
510.92	20.748
511.26	20.276
511.61	21.062
511.95	20.706
512.30	21.739
512.64	21.290
512.98	22.032
513.33	20.809
513.67	20.419
514.02	21.394
514.36	21.708
514.70	21.797
515.05	22.378
515.39	23.149
515.74	21.992
516.08	21.532
516.42	22.126
516.77	22.857
517.11	20.856
517.46	21.487
517.80	21.570
518.14	22.834
518.49	21.928
518.83	22.309
519.17	22.815
519.52	21.986
519.86	22.673
520.20	22.102
520.55	22.715
520.89	23.144
521.23	22.912
521.58	23.214
521.92	22.830
522.26	23.162
522.61	23.276
522.95	22.534
523.29	22.807
523.64	22.727
523.98	22.177
524.32	22.424
524.66	23.453
525.01	22.474
525.35	22.845
525.69	23.813
526.04	23.679
526.38	23.372
526.72	23.403
527.06	24.051
527.41	23.175
527.75	23.044
528.09	23.762
528.43	22.679
528.78	22.711
529.12	21.986
529.46	22.392
529.80	21.988
530.15	23.072
530.49	22.734
530.83	22.343
531.17	22.599
531.51	23.769
531.86	23.459
532.20	23.088
532.54	23.885
532.88	23.636
533.22	22.917
533.57	21.310
533.91	22.987
534.25	23.218
534.59	23.521
534.93	23.170
535.27	23.232
535.62	21.742
535.96	22.749
536.30	21.573
536.64	23.319
536.98	22.861
537.32	22.545
537.66	23.167
538.01	22.975
538.35	22.545
538.69	21.656
539.03	23.648
539.37	22.111
539.71	22.391
540.05	21.925
540.39	22.295
540.73	23.004
541.07	22.132
541.42	21.882
541.76	22.806
542.10	22.310
542.44	23.410
542.78	22.214
543.12	21.661
543.46	22.355
543.80	22.731
544.14	23.441
544.48	22.526
544.82	22.995
545.16	22.754
545.50	22.999
545.84	23.775
546.18	22.622
546.52	22.444
546.86	23.259
547.20	23.485
547.54	22.290
547.88	22.650
548.22	21.238
548.56	23.044
548.90	22.526
549.24	23.173
549.58	21.610
549.92	23.008
550.26	22.317
550.60	21.967
550.94	22.778
551.28	23.333
551.62	23.997
551.96	21.725
552.30	22.636
552.64	23.140
552.98	23.105
553.32	21.742
553.66	22.079
554.00	22.317
554.34	23.281
554.68	22.807
555.02	22.143
555.36	22.399
555.69	21.752
556.03	23.060
556.37	22.656
556.71	23.680
557.05	22.109
557.39	21.928
557.73	23.035
558.07	22.848
558.41	22.346
558.75	22.739
559.08	22.213
559.42	23.411
559.76	22.157
560.10	24.042
560.44	22.249
560.78	22.464
561.12	21.412
561.45	21.503
561.79	21.806
562.13	22.609
562.47	22.554
562.81	22.138
563.15	21.369
563.48	20.674
563.82	22.780
564.16	21.843
564.50	21.991
564.84	22.395
565.17	22.246
565.51	22.519
565.85	22.324
566.19	22.269
566.52	22.724
566.86	22.131
567.20	21.291
567.54	20.868
567.88	20.813
568.21	20.926
568.55	20.543
568.89	20.165
569.23	19.679
569.56	19.816
569.90	19.872
570.24	19.267
570.57	19.413
570.91	19.360
571.25	19.249
571.59	19.836
571.92	18.512
572.26	18.636
572.60	18.473
572.93	18.075
573.27	18.235
573.61	18.106
573.95	18.274
574.28	18.097
574.62	17.527
574.96	18.123
575.29	17.708
575.63	17.267
575.97	18.154
576.30	18.363
576.64	17.999
576.98	18.058
577.31	17.323
577.65	17.805
577.98	17.565
578.32	17.228
578.66	17.089
578.99	18.090
579.33	17.694
579.67	17.475
580.00	17.549
580.34	17.819
580.67	17.396
581.01	17.908
581.35	17.325
581.68	17.572
582.02	17.121
582.35	17.404
582.69	17.431
583.02	16.962
583.36	17.625
583.70	18.175
584.03	17.863
584.37	17.756
584.70	17.730
585.04	17.362
585.37	17.480
585.71	17.523
586.04	18.229
586.38	17.815
586.72	17.751
587.05	17.924
587.39	17.686
587.72	18.311
588.06	18.251
588.39	17.762
588.73	17.770
589.06	17.858
589.40	18.479
589.73	18.399
590.07	18.196
590.40	18.149
590.73	18.742
591.07	19.307
591.40	18.593
591.74	18.890
592.07	19.198
592.41	19.025
592.74	18.492
593.08	17.844
593.41	18.169
593.75	18.672
594.08	18.091
594.41	18.124
594.75	18.990
595.08	18.738
595.42	18.025
595.75	17.727
596.09	18.135
596.42	18.266
596.75	19.909
597.09	18.610
597.42	19.287
597.75	18.809
598.09	18.867
598.42	19.167
598.76	19.035
599.09	19.076
599.42	17.781
599.76	17.929
600.09	18.940
600.42	17.852
600.76	18.245
601.09	18.392
601.42	17.754
601.76	18.344
602.09	18.852
602.42	18.541
602.76	17.452
603.09	18.842
603.42	18.782
603.76	18.590
604.09	18.713
604.42	18.806
604.76	17.937
605.09	18.800
605.42	19.100
605.75	18.365
606.09	18.622
606.42	18.154
606.75	18.472
607.09	18.563
607.42	19.183
607.75	18.641
608.08	18.849
608.42	18.623
608.75	18.409
609.08	18.072
609.41	19.129
609.75	19.905
610.08	18.553
610.41	18.473
610.74	18.402
611.07	18.456
611.41	18.201
611.74	19.151
612.07	19.029
612.40	19.109
612.73	19.097
613.07	19.436
613.40	18.861
613.73	18.385
614.06	18.326
614.39	19.859
614.72	18.182
615.06	19.346
615.39	19.342
615.72	18.925
616.05	18.493
616.38	18.743
616.71	19.279
617.05	19.535
617.38	19.742
617.71	19.464
618.04	19.908
618.37	20.144
618.70	20.720
619.03	20.377
619.36	20.398
619.69	19.596
620.03	19.832
620.36	20.937
620.69	19.660
621.02	20.665
621.35	22.043
621.68	20.162
622.01	21.390
622.34	20.352
622.67	20.658
623.00	20.966
623.33	21.102
623.66	21.514
623.99	19.537
624.32	20.572
624.65	20.625
624.99	19.687
625.32	20.774
625.65	20.336
625.98	21.667
626.31	20.866
626.64	21.351
626.97	21.967
627.30	21.296
627.63	23.442
627.96	21.881
628.29	21.511
628.62	21.134
628.95	22.281
629.28	22.417
629.61	22.048
629.94	23.237
630.26	20.921
630.59	21.361
630.92	22.234
631.25	23.687
631.58	23.256
631.91	23.576
632.24	22.604
632.57	23.900
632.90	23.124
633.23	23.226
633.56	23.145
633.89	24.934
