SpectraSuite Data File
++++++++++++++++++++++++++++++++++++
Date: Wed May 13 19:25:15 PDT 2015
User: schluterlab
Dark Spectrum Present: Yes
Reference Spectrum Present: Yes
Number of Sampled Component Spectra: 1
Spectrometers: USB2E3373
Integration Time (usec): 3000 (USB2E3373)
Spectra Averaged: 3 (USB2E3373)
Boxcar Smoothing: 0 (USB2E3373)
Correct for Electrical Dark: No (USB2E3373)
Strobe/Lamp Enabled: No (USB2E3373)
Correct for Detector Non-linearity: No (USB2E3373)
Correct for Stray Light: No (USB2E3373)
Number of Pixels in Processed Spectrum: 2048
>>>>>Begin Processed Spectral Data<<<<<
178.53	0.000
178.91	-1425.000
179.29	-1400.000
179.67	-283.333
180.04	-1475.000
180.42	2950.000
180.80	940.000
181.18	-1100.000
181.56	628.571
181.94	0.000
182.31	-657.143
182.69	1700.000
183.07	-587.500
183.45	-533.333
183.83	481.818
184.20	-510.000
184.58	2400.000
184.96	6100.000
185.34	-1060.000
185.72	-625.000
186.09	-2400.000
186.47	3000.000
186.85	2650.000
187.23	5800.000
187.61	-1766.667
187.98	1275.000
188.36	709.091
188.74	554.545
189.12	-860.000
189.49	560.000
189.87	-4600.000
190.25	-1275.000
190.63	400.000
191.00	469.231
191.38	850.000
191.76	-1100.000
192.14	1700.000
192.51	625.000
192.89	1000.000
193.27	662.500
193.65	-1125.000
194.02	610.000
194.40	1020.000
194.78	570.000
195.15	633.333
195.53	690.000
195.91	-2300.000
196.29	356.250
196.66	342.105
197.04	-370.000
197.42	0.000
197.79	700.000
198.17	-5600.000
198.55	800.000
198.92	725.000
199.30	1140.000
199.68	0.000
200.05	388.889
200.43	614.286
200.81	4900.000
201.18	1733.333
201.56	-1866.667
201.94	666.667
202.31	644.444
202.69	441.667
203.07	690.000
203.44	0.000
203.82	1375.000
204.19	814.286
204.57	514.286
204.95	687.500
205.32	1633.333
205.70	618.182
206.08	407.143
206.45	2700.000
206.83	400.000
207.20	1150.000
207.58	980.000
207.96	388.889
208.33	725.000
208.71	-833.333
209.08	714.286
209.46	611.111
209.84	472.727
210.21	-1866.667
210.59	1400.000
210.96	-550.000
211.34	2800.000
211.71	720.000
212.09	766.667
212.46	0.000
212.84	2000.000
213.22	1425.000
213.59	-5100.000
213.97	766.667
214.34	842.857
214.72	681.818
215.09	1180.000
215.47	-2200.000
215.84	-2700.000
216.22	1833.333
216.59	457.143
216.97	1550.000
217.34	572.727
217.72	-816.667
218.09	0.000
218.47	-5200.000
218.84	711.111
219.22	871.429
219.59	1733.333
219.97	-614.286
220.34	1080.000
220.72	-1766.667
221.09	407.143
221.47	1725.000
221.84	-866.667
222.22	0.000
222.59	1725.000
222.97	-2250.000
223.34	1260.000
223.72	461.538
224.09	1160.000
224.46	2400.000
224.84	-5600.000
225.21	-1080.000
225.59	-6100.000
225.96	610.000
226.34	375.000
226.71	3150.000
227.08	762.500
227.46	540.000
227.83	-1250.000
228.21	-2400.000
228.58	622.222
228.95	-2950.000
229.33	-2750.000
229.70	1933.333
230.08	871.429
230.45	-1100.000
230.82	558.333
231.20	800.000
231.57	714.286
231.95	533.333
232.32	286.364
232.69	536.364
233.07	785.714
233.44	400.000
233.81	-1866.667
234.19	378.947
234.56	575.000
234.93	466.667
235.31	563.636
235.68	384.615
236.05	414.286
236.43	212.121
236.80	352.632
237.17	5200.000
237.55	319.048
237.92	296.429
238.29	342.857
238.67	280.645
239.04	268.966
239.41	244.444
239.79	167.391
240.16	192.857
240.53	172.727
240.91	150.980
241.28	160.000
241.65	168.000
242.02	155.072
242.40	146.774
242.77	163.333
243.14	131.183
243.51	152.809
243.89	132.941
244.26	120.000
244.63	131.183
245.00	113.830
245.38	122.772
245.75	117.757
246.12	109.174
246.49	106.569
246.87	116.000
247.24	111.538
247.61	102.857
247.98	107.843
248.36	95.946
248.73	100.637
249.10	108.917
249.47	97.175
249.84	95.187
250.22	89.840
250.59	100.000
250.96	94.949
251.33	87.678
251.70	92.079
252.08	86.667
252.45	87.444
252.82	89.565
253.19	84.681
253.56	84.314
253.94	87.137
254.31	83.594
254.68	83.077
255.05	85.240
255.42	89.431
255.79	86.765
256.16	81.949
256.54	81.625
256.91	85.053
257.28	78.058
257.65	86.139
258.02	80.435
258.39	76.025
258.76	85.953
259.14	82.143
259.51	76.596
259.88	76.087
260.25	81.571
260.62	77.457
260.99	85.093
261.36	79.279
261.73	76.504
262.10	78.198
262.47	78.310
262.85	76.880
263.22	79.772
263.59	80.627
263.96	75.549
264.33	73.368
264.70	74.474
265.07	74.936
265.44	73.485
265.81	73.236
266.18	74.623
266.55	74.878
266.92	77.396
267.29	75.231
267.66	70.413
268.03	70.682
268.40	74.299
268.77	74.702
269.14	72.523
269.51	71.558
269.88	75.291
270.25	71.783
270.62	72.360
270.99	76.129
271.36	71.674
271.73	74.533
272.10	73.261
272.47	73.763
272.84	72.727
273.21	69.392
273.58	69.869
273.95	70.440
274.32	69.628
274.69	72.377
275.06	68.504
275.43	71.277
275.80	68.737
276.17	68.839
276.54	71.726
276.91	69.368
277.28	67.383
277.65	70.986
278.02	71.843
278.39	71.094
278.76	66.000
279.13	69.623
279.50	66.294
279.87	67.729
280.23	66.667
280.60	68.665
280.97	67.468
281.34	67.611
281.71	65.091
282.08	69.674
282.45	64.727
282.82	64.298
283.19	64.528
283.56	68.070
283.92	66.328
284.29	66.490
284.66	63.521
285.03	66.184
285.40	63.908
285.77	65.320
286.14	64.076
286.51	62.333
286.87	62.222
287.24	63.192
287.61	63.724
287.98	63.636
288.35	60.063
288.72	59.346
289.08	59.624
289.45	62.438
289.82	59.837
290.19	60.440
290.56	59.571
290.93	57.402
291.29	61.656
291.66	56.637
292.03	58.721
292.40	59.471
292.77	55.030
293.13	57.910
293.50	57.434
293.87	56.148
294.24	55.407
294.60	54.003
294.97	53.924
295.34	55.571
295.71	55.540
296.08	54.843
296.44	51.994
296.81	51.255
297.18	54.336
297.55	52.375
297.91	52.507
298.28	54.083
298.65	52.219
299.02	51.779
299.38	52.191
299.75	49.865
300.12	50.575
300.48	49.500
300.85	50.308
301.22	50.318
301.59	49.242
301.95	49.370
302.32	49.679
302.69	48.507
303.05	49.576
303.42	47.778
303.79	47.452
304.15	46.387
304.52	46.234
304.89	48.780
305.25	45.940
305.62	47.905
305.99	49.233
306.35	48.098
306.72	48.318
307.09	47.503
307.45	48.874
307.82	46.317
308.19	47.461
308.55	47.249
308.92	48.228
309.29	46.568
309.65	45.705
310.02	44.926
310.38	48.495
310.75	47.202
311.12	46.673
311.48	47.962
311.85	47.589
312.22	46.514
312.58	45.946
312.95	47.202
313.31	44.466
313.68	46.674
314.05	48.422
314.41	47.337
314.78	47.734
315.14	45.978
315.51	47.168
315.87	47.525
316.24	48.957
316.61	46.686
316.97	46.380
317.34	46.282
317.70	47.801
318.07	46.872
318.43	49.609
318.80	47.704
319.16	48.493
319.53	46.060
319.89	47.333
320.26	50.500
320.62	47.520
320.99	46.869
321.35	46.970
321.72	49.281
322.08	49.951
322.45	49.453
322.81	48.934
323.18	49.615
323.54	48.794
323.91	47.925
324.27	48.184
324.64	48.835
325.00	47.791
325.37	47.953
325.73	47.127
326.10	48.191
326.46	49.910
326.83	49.094
327.19	48.847
327.56	49.303
327.92	48.994
328.29	48.270
328.65	48.895
329.01	47.834
329.38	48.381
329.74	48.015
330.11	50.707
330.47	47.567
330.84	48.989
331.20	47.268
331.56	48.624
331.93	49.259
332.29	48.447
332.66	49.292
333.02	48.355
333.38	48.871
333.75	48.128
334.11	48.043
334.48	47.649
334.84	49.265
335.20	48.727
335.57	48.232
335.93	46.518
336.29	47.161
336.66	47.701
337.02	46.154
337.38	47.407
337.75	46.970
338.11	46.464
338.47	47.330
338.84	48.029
339.20	46.055
339.56	48.266
339.93	46.364
340.29	45.109
340.65	47.504
341.02	47.818
341.38	45.996
341.74	46.404
342.11	47.598
342.47	46.608
342.83	46.490
343.20	46.840
343.56	44.903
343.92	45.789
344.28	47.619
344.65	47.377
345.01	45.370
345.37	45.712
345.73	46.277
346.10	47.229
346.46	45.932
346.82	46.870
347.19	46.282
347.55	45.813
347.91	44.822
348.27	46.015
348.63	45.903
349.00	45.712
349.36	45.320
349.72	44.988
350.08	44.733
350.45	46.379
350.81	45.573
351.17	45.057
351.53	45.127
351.89	43.399
352.26	45.620
352.62	45.229
352.98	44.733
353.34	45.933
353.70	44.354
354.07	44.677
354.43	43.254
354.79	44.248
355.15	44.453
355.51	43.725
355.87	45.143
356.24	44.463
356.60	43.865
356.96	44.248
357.32	44.235
357.68	44.724
358.04	44.339
358.40	45.051
358.77	45.070
359.13	43.094
359.49	43.529
359.85	43.175
360.21	44.019
360.57	45.525
360.93	44.077
361.29	42.782
361.66	43.498
362.02	44.925
362.38	43.802
362.74	43.601
363.10	44.115
363.46	42.847
363.82	44.218
364.18	42.438
364.54	43.314
364.90	42.422
365.26	42.794
365.62	44.047
365.98	42.951
366.35	43.553
366.71	44.179
367.07	43.409
367.43	44.702
367.79	43.540
368.15	44.971
368.51	43.459
368.87	43.897
369.23	44.477
369.59	43.592
369.95	43.676
370.31	43.661
370.67	43.406
371.03	43.895
371.39	43.659
371.75	44.338
372.11	42.532
372.47	44.355
372.83	45.173
373.19	43.786
373.55	44.642
373.91	44.624
374.27	42.887
374.63	43.491
374.99	44.774
375.35	43.057
375.71	42.975
376.07	44.582
376.42	43.535
376.78	44.268
377.14	43.216
377.50	43.907
377.86	41.689
378.22	43.805
378.58	42.356
378.94	43.935
379.30	43.766
379.66	44.797
380.02	43.673
380.38	42.562
380.74	44.238
381.09	42.971
381.45	44.007
381.81	43.305
382.17	44.140
382.53	43.333
382.89	43.642
383.25	44.215
383.61	44.424
383.97	44.215
384.32	44.042
384.68	42.813
385.04	44.376
385.40	43.406
385.76	44.165
386.12	43.523
386.48	45.060
386.83	44.452
387.19	44.218
387.55	43.908
387.91	42.201
388.27	43.899
388.62	43.762
388.98	42.752
389.34	44.305
389.70	43.961
390.06	44.233
390.42	43.839
390.77	44.402
391.13	44.735
391.49	43.972
391.85	44.367
392.20	44.227
392.56	44.697
392.92	43.084
393.28	43.254
393.64	42.506
393.99	43.616
394.35	43.548
394.71	43.413
395.07	42.928
395.42	44.314
395.78	44.720
396.14	44.258
396.50	44.173
396.85	43.547
397.21	43.711
397.57	44.079
397.92	44.531
398.28	43.834
398.64	44.086
399.00	43.760
399.35	43.260
399.71	43.634
400.07	43.938
400.42	44.479
400.78	45.476
401.14	44.573
401.49	45.015
401.85	43.255
402.21	43.952
402.57	43.924
402.92	43.758
403.28	44.972
403.63	43.812
403.99	44.904
404.35	44.727
404.70	44.604
405.06	43.972
405.42	45.664
405.77	43.371
406.13	43.567
406.49	44.234
406.84	44.595
407.20	43.853
407.55	44.671
407.91	46.000
408.27	45.948
408.62	44.551
408.98	44.118
409.34	45.141
409.69	45.806
410.05	44.548
410.40	45.199
410.76	44.504
411.11	44.873
411.47	44.473
411.83	45.266
412.18	44.280
412.54	45.953
412.89	44.819
413.25	44.864
413.60	45.337
413.96	42.866
414.31	45.747
414.67	45.564
415.03	46.358
415.38	46.134
415.74	45.659
416.09	47.093
416.45	47.122
416.80	45.671
417.16	46.783
417.51	45.587
417.87	46.307
418.22	45.994
418.58	45.771
418.93	46.683
419.29	46.149
419.64	47.103
420.00	46.951
420.35	45.855
420.71	47.519
421.06	45.406
421.42	46.725
421.77	46.749
422.12	46.884
422.48	45.656
422.83	46.069
423.19	47.459
423.54	46.315
423.90	46.551
424.25	46.231
424.61	46.250
424.96	46.414
425.31	46.401
425.67	46.404
426.02	45.371
426.38	47.192
426.73	47.104
427.09	47.781
427.44	47.039
427.79	46.521
428.15	47.143
428.50	46.870
428.85	48.272
429.21	46.770
429.56	48.367
429.92	47.509
430.27	47.517
430.62	46.851
430.98	47.639
431.33	47.320
431.68	47.906
432.04	46.645
432.39	47.973
432.74	47.876
433.10	49.179
433.45	48.338
433.80	48.559
434.16	48.184
434.51	47.789
434.86	48.119
435.22	48.694
435.57	49.605
435.92	49.561
436.28	49.110
436.63	48.068
436.98	47.968
437.34	49.314
437.69	49.475
438.04	48.342
438.39	48.358
438.75	48.170
439.10	48.771
439.45	48.642
439.81	49.063
440.16	49.012
440.51	49.385
440.86	49.218
441.22	48.665
441.57	49.894
441.92	48.772
442.27	49.354
442.63	49.236
442.98	50.930
443.33	49.022
443.68	49.251
444.03	49.780
444.39	48.880
444.74	49.892
445.09	49.434
445.44	48.934
445.79	49.332
446.15	49.391
446.50	49.865
446.85	50.103
447.20	49.924
447.55	50.530
447.91	50.414
448.26	50.139
448.61	49.915
448.96	49.446
449.31	50.000
449.66	49.634
450.02	49.582
450.37	49.887
450.72	49.859
451.07	50.030
451.42	49.240
451.77	50.323
452.12	49.827
452.47	50.311
452.83	50.408
453.18	49.572
453.53	50.649
453.88	50.148
454.23	49.074
454.58	50.999
454.93	52.003
455.28	49.439
455.63	50.000
455.98	52.024
456.34	51.131
456.69	50.657
457.04	50.898
457.39	50.438
457.74	50.842
458.09	50.891
458.44	49.487
458.79	50.000
459.14	50.677
459.49	50.263
459.84	49.640
460.19	50.972
460.54	48.148
460.89	49.314
461.24	51.002
461.59	50.668
461.94	50.493
462.29	50.623
462.64	50.479
462.99	50.553
463.34	51.867
463.69	50.719
464.04	50.493
464.39	50.493
464.74	49.376
465.09	50.784
465.44	50.859
465.79	48.881
466.14	50.629
466.49	49.444
466.84	49.854
467.19	49.065
467.54	51.562
467.89	49.820
468.24	50.262
468.59	51.221
468.94	49.481
469.29	50.707
469.64	51.874
469.99	52.503
470.34	51.255
470.68	50.790
471.03	50.408
471.38	50.799
471.73	50.633
472.08	51.908
472.43	50.565
472.78	50.494
473.13	49.936
473.48	51.436
473.83	51.402
474.17	50.342
474.52	50.993
474.87	50.613
475.22	49.913
475.57	49.704
475.92	50.080
476.27	50.056
476.61	49.752
476.96	49.588
477.31	49.294
477.66	50.766
478.01	48.876
478.36	50.555
478.70	49.013
479.05	50.692
479.40	49.898
479.75	50.534
480.10	50.596
480.45	49.595
480.79	49.546
481.14	49.853
481.49	50.356
481.84	50.069
482.19	50.522
482.53	49.633
482.88	49.744
483.23	49.533
483.58	48.908
483.92	50.469
484.27	48.889
484.62	48.491
484.97	48.837
485.31	50.171
485.66	48.500
486.01	48.287
486.36	47.277
486.70	46.907
487.05	47.384
487.40	48.085
487.75	48.576
488.09	49.651
488.44	49.400
488.79	49.548
489.13	49.962
489.48	49.062
489.83	49.288
490.17	50.022
490.52	48.406
490.87	48.530
491.22	49.295
491.56	49.112
491.91	49.232
492.26	49.058
492.60	48.756
492.95	48.457
493.30	49.112
493.64	49.790
493.99	48.004
494.34	49.260
494.68	49.038
495.03	48.543
495.37	48.488
495.72	49.610
496.07	50.070
496.41	47.389
496.76	48.329
497.11	48.537
497.45	48.859
497.80	48.992
498.14	47.874
498.49	49.463
498.84	49.616
499.18	49.048
499.53	48.433
499.87	48.975
500.22	48.375
500.56	50.437
500.91	47.885
501.26	48.696
501.60	48.885
501.95	49.267
502.29	49.719
502.64	49.069
502.98	49.790
503.33	48.172
503.67	48.492
504.02	48.410
504.36	48.292
504.71	49.731
505.06	49.446
505.40	47.982
505.75	48.505
506.09	48.494
506.44	49.038
506.78	48.807
507.13	50.782
507.47	48.788
507.82	50.608
508.16	48.784
508.51	49.569
508.85	49.503
509.19	50.051
509.54	48.673
509.88	49.665
510.23	50.437
510.57	51.754
510.92	50.388
511.26	50.925
511.61	50.259
511.95	48.800
512.30	50.212
512.64	49.113
512.98	50.107
513.33	50.428
513.67	48.986
514.02	50.108
514.36	50.137
514.70	49.640
515.05	50.530
515.39	51.150
515.74	50.282
516.08	50.755
516.42	50.499
516.77	50.390
517.11	50.277
517.46	50.564
517.80	52.323
518.14	51.071
518.49	51.284
518.83	51.477
519.17	52.194
519.52	50.424
519.86	51.284
520.20	51.503
520.55	52.783
520.89	51.703
521.23	52.352
521.58	51.981
521.92	52.664
522.26	51.556
522.61	52.648
522.95	50.952
523.29	51.917
523.64	53.354
523.98	52.680
524.32	52.051
524.66	51.052
525.01	53.064
525.35	52.602
525.69	50.924
526.04	52.773
526.38	52.654
526.72	51.595
527.06	53.986
527.41	51.300
527.75	53.762
528.09	52.922
528.43	52.390
528.78	53.042
529.12	52.061
529.46	52.725
529.80	53.032
530.15	53.832
530.49	52.185
530.83	53.797
531.17	53.655
531.51	54.994
531.86	52.839
532.20	53.781
532.54	53.619
532.88	53.659
533.22	52.217
533.57	53.765
533.91	53.040
534.25	53.888
534.59	52.532
534.93	53.004
535.27	54.134
535.62	53.114
535.96	53.986
536.30	54.736
536.64	54.733
536.98	54.214
537.32	52.008
537.66	55.733
538.01	53.259
538.35	53.846
538.69	55.456
539.03	53.346
539.37	52.588
539.71	53.078
540.05	53.007
540.39	54.153
540.73	52.393
541.07	54.770
541.42	54.795
541.76	55.290
542.10	55.110
542.44	53.841
542.78	55.797
543.12	53.999
543.46	53.049
543.80	54.847
544.14	53.787
544.48	53.397
544.82	53.239
545.16	53.155
545.50	53.149
545.84	53.360
546.18	54.411
546.52	54.577
546.86	55.464
547.20	55.293
547.54	54.910
547.88	54.847
548.22	52.428
548.56	54.025
548.90	53.649
549.24	53.939
549.58	53.820
549.92	52.404
550.26	55.185
550.60	53.873
550.94	53.592
551.28	52.524
551.62	54.925
551.96	54.386
552.30	54.061
552.64	54.429
552.98	53.492
553.32	53.405
553.66	54.601
554.00	55.525
554.34	53.416
554.68	55.007
555.02	54.020
555.36	53.445
555.69	52.639
556.03	53.028
556.37	54.025
556.71	52.660
557.05	53.852
557.39	52.694
557.73	52.717
558.07	54.387
558.41	53.401
558.75	53.564
559.08	54.959
559.42	54.044
559.76	54.338
560.10	52.819
560.44	54.018
560.78	51.896
561.12	52.770
561.45	53.129
561.79	53.527
562.13	52.649
562.47	53.347
562.81	52.789
563.15	51.639
563.48	52.255
563.82	54.142
564.16	54.153
564.50	52.148
564.84	52.149
565.17	52.638
565.51	52.332
565.85	52.665
566.19	52.411
566.52	52.755
566.86	51.537
567.20	51.710
567.54	52.226
567.88	51.005
568.21	52.063
568.55	51.769
568.89	51.605
569.23	51.783
569.56	50.121
569.90	50.755
570.24	50.484
570.57	49.881
570.91	49.806
571.25	49.506
571.59	49.485
571.92	49.770
572.26	49.740
572.60	49.489
572.93	49.355
573.27	50.133
573.61	49.386
573.95	49.664
574.28	49.070
574.62	49.417
574.96	48.698
575.29	48.982
575.63	49.466
575.97	49.336
576.30	48.911
576.64	48.875
576.98	49.344
577.31	49.653
577.65	49.294
577.98	48.794
578.32	47.935
578.66	49.036
578.99	49.235
579.33	48.656
579.67	48.431
580.00	49.317
580.34	49.027
580.67	49.114
581.01	49.247
581.35	49.090
581.68	48.521
582.02	48.277
582.35	48.590
582.69	48.797
583.02	48.169
583.36	49.112
583.70	49.675
584.03	48.511
584.37	49.934
584.70	49.269
585.04	48.728
585.37	48.742
585.71	48.520
586.04	48.852
586.38	49.451
586.72	49.351
587.05	48.221
587.39	47.599
587.72	47.797
588.06	48.559
588.39	48.532
588.73	49.193
589.06	49.299
589.40	49.798
589.73	49.771
590.07	49.359
590.40	48.593
590.73	49.375
591.07	50.265
591.40	49.135
591.74	50.216
592.07	49.695
592.41	48.574
592.74	48.202
593.08	47.968
593.41	47.548
593.75	47.564
594.08	47.905
594.41	47.614
594.75	47.948
595.08	48.425
595.42	47.951
595.75	48.789
596.09	48.817
596.42	48.094
596.75	48.290
597.09	49.264
597.42	47.850
597.75	48.642
598.09	48.696
598.42	47.981
598.76	47.791
599.09	47.396
599.42	46.579
599.76	47.438
600.09	47.577
600.42	46.932
600.76	46.321
601.09	46.995
601.42	46.651
601.76	47.400
602.09	47.668
602.42	47.373
602.76	48.166
603.09	47.640
603.42	47.481
603.76	47.027
604.09	47.034
604.42	47.493
604.76	47.659
605.09	47.138
605.42	46.900
605.75	47.144
606.09	47.418
606.42	48.141
606.75	47.408
607.09	46.421
607.42	46.299
607.75	45.907
608.08	46.809
608.42	47.736
608.75	46.573
609.08	46.947
609.41	47.216
609.75	46.212
610.08	47.549
610.41	46.229
610.74	48.013
611.07	46.789
611.41	47.301
611.74	47.914
612.07	47.050
612.40	47.429
612.73	47.053
613.07	46.767
613.40	47.235
613.73	44.730
614.06	47.258
614.39	46.093
614.72	46.263
615.06	46.271
615.39	45.913
615.72	45.808
616.05	46.358
616.38	47.916
616.71	47.565
617.05	47.998
617.38	47.084
617.71	46.426
618.04	47.776
618.37	45.890
618.70	47.418
619.03	46.579
619.36	46.232
619.69	47.254
620.03	46.978
620.36	46.524
620.69	47.055
621.02	46.829
621.35	47.142
621.68	46.807
622.01	46.594
622.34	47.806
622.67	47.757
623.00	46.955
623.33	45.032
623.66	47.177
623.99	47.202
624.32	45.934
624.65	45.763
624.99	44.972
625.32	45.185
625.65	46.582
625.98	46.656
626.31	47.434
626.64	47.592
626.97	48.462
627.30	45.968
627.63	46.267
627.96	46.594
628.29	46.982
628.62	46.661
628.95	48.774
629.28	46.442
629.61	46.838
629.94	48.000
630.26	46.235
