SpectraSuite Data File
++++++++++++++++++++++++++++++++++++
Date: Wed May 13 19:25:26 PDT 2015
User: schluterlab
Dark Spectrum Present: Yes
Reference Spectrum Present: Yes
Number of Sampled Component Spectra: 1
Spectrometers: USB2E3373
Integration Time (usec): 3000 (USB2E3373)
Spectra Averaged: 3 (USB2E3373)
Boxcar Smoothing: 0 (USB2E3373)
Correct for Electrical Dark: No (USB2E3373)
Strobe/Lamp Enabled: No (USB2E3373)
Correct for Detector Non-linearity: No (USB2E3373)
Correct for Stray Light: No (USB2E3373)
Number of Pixels in Processed Spectrum: 2048
>>>>>Begin Processed Spectral Data<<<<<
178.53	0.000
178.91	-1625.000
179.29	-1300.000
179.67	-294.444
180.04	-1375.000
180.42	3050.000
180.80	1100.000
181.18	-1150.000
181.56	800.000
181.94	0.000
182.31	-814.286
182.69	1900.000
183.07	-537.500
183.45	-511.111
183.83	590.909
184.20	-390.000
184.58	2250.000
184.96	5200.000
185.34	-880.000
185.72	-650.000
186.09	-2450.000
186.47	2900.000
186.85	2500.000
187.23	5400.000
187.61	-2100.000
187.98	1400.000
188.36	554.545
188.74	427.273
189.12	-1260.000
189.49	580.000
189.87	-6100.000
190.25	-1325.000
190.63	407.143
191.00	392.308
191.38	866.667
191.76	-1200.000
192.14	1525.000
192.51	775.000
192.89	1000.000
193.27	700.000
193.65	-1275.000
194.02	540.000
194.40	1220.000
194.78	530.000
195.15	525.000
195.53	630.000
195.91	-2200.000
196.29	387.500
196.66	294.737
197.04	-390.000
197.42	0.000
197.79	640.000
198.17	-4900.000
198.55	771.429
198.92	750.000
199.30	1140.000
199.68	0.000
200.05	377.778
200.43	971.429
200.81	5500.000
201.18	1866.667
201.56	-1600.000
201.94	611.111
202.31	555.556
202.69	483.333
203.07	610.000
203.44	0.000
203.82	1425.000
204.19	728.571
204.57	442.857
204.95	762.500
205.32	1633.333
205.70	536.364
206.08	435.714
206.45	2750.000
206.83	418.750
207.20	983.333
207.58	700.000
207.96	344.444
208.33	725.000
208.71	-950.000
209.08	828.571
209.46	711.111
209.84	472.727
210.21	-1800.000
210.59	1375.000
210.96	-612.500
211.34	2950.000
211.71	660.000
212.09	800.000
212.46	0.000
212.84	1866.667
213.22	1650.000
213.59	-5100.000
213.97	883.333
214.34	942.857
214.72	609.091
215.09	1280.000
215.47	-2600.000
215.84	-2600.000
216.22	1700.000
216.59	421.429
216.97	1375.000
217.34	518.182
217.72	-866.667
218.09	0.000
218.47	-6100.000
218.84	866.667
219.22	857.143
219.59	1733.333
219.97	-557.143
220.34	1200.000
220.72	-2066.667
221.09	528.571
221.47	1625.000
221.84	-850.000
222.22	0.000
222.59	1525.000
222.97	-3050.000
223.34	1200.000
223.72	423.077
224.09	980.000
224.46	2100.000
224.84	-5900.000
225.21	-1300.000
225.59	-5200.000
225.96	720.000
226.34	385.000
226.71	2800.000
227.08	775.000
227.46	590.000
227.83	-1350.000
228.21	-2500.000
228.58	577.778
228.95	-2200.000
229.33	-2800.000
229.70	1766.667
230.08	800.000
230.45	-980.000
230.82	458.333
231.20	1033.333
231.57	771.429
231.95	441.667
232.32	236.364
232.69	418.182
233.07	771.429
233.44	376.923
233.81	-2033.333
234.19	373.684
234.56	508.333
234.93	491.667
235.31	454.545
235.68	453.846
236.05	421.429
236.43	236.364
236.80	326.316
237.17	5800.000
237.55	276.190
237.92	225.000
238.29	261.905
238.67	200.000
239.04	237.931
239.41	163.889
239.79	139.130
240.16	154.762
240.53	161.364
240.91	125.490
241.28	126.000
241.65	118.000
242.02	121.739
242.40	100.000
242.77	125.000
243.14	89.247
243.51	112.360
243.89	102.353
244.26	91.111
244.63	76.344
245.00	82.979
245.38	87.129
245.75	80.374
246.12	92.661
246.49	78.102
246.87	80.000
247.24	80.000
247.61	65.714
247.98	72.549
248.36	60.811
248.73	63.057
249.10	64.968
249.47	55.932
249.84	57.754
250.22	56.684
250.59	66.272
250.96	56.566
251.33	60.664
251.70	61.881
252.08	59.524
252.45	49.327
252.82	53.478
253.19	54.043
253.56	51.373
253.94	49.793
254.31	55.078
254.68	56.538
255.05	49.446
255.42	50.000
255.79	52.941
256.16	50.903
256.54	48.410
256.91	49.466
257.28	46.763
257.65	48.515
258.02	47.826
258.39	46.372
258.76	46.154
259.14	44.643
259.51	46.201
259.88	44.099
260.25	45.921
260.62	41.908
260.99	44.410
261.36	43.844
261.73	45.559
262.10	43.605
262.47	46.761
262.85	44.568
263.22	44.160
263.59	46.154
263.96	40.659
264.33	43.342
264.70	46.316
265.07	43.734
265.44	42.424
265.81	40.389
266.18	44.975
266.55	40.244
266.92	41.278
267.29	43.750
267.66	41.055
268.03	42.727
268.40	44.860
268.77	44.630
269.14	37.838
269.51	42.438
269.88	40.559
270.25	42.664
270.62	40.000
270.99	40.860
271.36	37.983
271.73	40.654
272.10	41.957
272.47	41.075
272.84	41.342
273.21	41.719
273.58	37.773
273.95	37.107
274.32	37.810
274.69	40.471
275.06	38.386
275.43	39.574
275.80	38.076
276.17	40.937
276.54	38.877
276.91	40.909
277.28	37.500
277.65	37.718
278.02	39.752
278.39	38.672
278.76	35.455
279.13	38.679
279.50	37.803
279.87	38.247
280.23	41.317
280.60	37.331
280.97	37.893
281.34	38.407
281.71	37.455
282.08	39.731
282.45	37.455
282.82	37.478
283.19	36.185
283.56	35.439
283.92	37.902
284.29	37.566
284.66	36.116
285.03	34.901
285.40	35.739
285.77	36.027
286.14	35.406
286.51	35.333
286.87	34.872
287.24	36.645
287.61	34.992
287.98	33.117
288.35	32.805
288.72	33.178
289.08	34.272
289.45	34.596
289.82	33.984
290.19	31.554
290.56	32.925
290.93	31.118
291.29	32.669
291.66	33.776
292.03	33.285
292.40	32.452
292.77	31.361
293.13	30.299
293.50	31.778
293.87	32.000
294.24	30.519
294.60	29.112
294.97	31.395
295.34	30.889
295.71	30.682
296.08	29.060
296.44	29.436
296.81	29.326
297.18	28.726
297.55	27.573
297.91	27.045
298.28	29.719
298.65	29.243
299.02	29.117
299.38	28.420
299.75	27.089
300.12	27.203
300.48	26.625
300.85	26.387
301.22	27.771
301.59	27.146
301.95	27.456
302.32	26.573
302.69	27.838
303.05	25.697
303.42	26.790
303.79	26.048
304.15	25.991
304.52	26.188
304.89	27.062
305.25	25.638
305.62	26.387
305.99	27.391
306.35	25.280
306.72	26.682
307.09	25.860
307.45	26.802
307.82	24.107
308.19	26.600
308.55	26.537
308.92	25.994
309.29	24.710
309.65	24.602
310.02	26.110
310.38	25.806
310.75	25.449
311.12	25.691
311.48	26.750
311.85	26.205
312.22	25.806
312.58	26.195
312.95	27.561
313.31	26.117
313.68	26.507
314.05	28.304
314.41	27.236
314.78	26.888
315.14	28.699
315.51	28.218
315.87	29.109
316.24	28.898
316.61	28.168
316.97	28.865
317.34	29.256
317.70	29.446
318.07	30.318
318.43	30.724
318.80	31.584
319.16	32.674
319.53	33.302
319.89	33.714
320.26	35.900
320.62	35.913
320.99	34.545
321.35	35.354
321.72	37.680
322.08	37.907
322.45	40.896
322.81	39.438
323.18	40.559
323.54	40.724
323.91	42.830
324.27	42.161
324.64	43.150
325.00	44.094
325.37	46.679
325.73	47.307
326.10	49.691
326.46	49.731
326.83	51.079
327.19	51.494
327.56	53.659
327.92	54.331
328.29	54.303
328.65	56.630
329.01	56.408
329.38	56.984
329.74	58.541
330.11	60.226
330.47	59.963
330.84	61.765
331.20	60.747
331.56	60.642
331.93	64.722
332.29	61.579
332.66	63.628
333.02	64.077
333.38	66.486
333.75	64.706
334.11	64.947
334.48	65.572
334.84	67.096
335.20	66.727
335.57	66.183
335.93	65.446
336.29	68.773
336.66	69.252
337.02	67.240
337.38	70.648
337.75	68.717
338.11	70.636
338.47	69.982
338.84	70.852
339.20	70.183
339.56	73.540
339.93	72.727
340.29	72.101
340.65	72.460
341.02	70.942
341.38	74.021
341.74	70.526
342.11	71.878
342.47	73.040
342.83	74.229
343.20	72.641
343.56	73.378
343.92	73.421
344.28	75.085
344.65	74.205
345.01	74.327
345.37	72.470
345.73	74.535
346.10	74.766
346.46	74.661
346.82	73.311
347.19	76.441
347.55	73.892
347.91	74.757
348.27	75.678
348.63	74.916
349.00	73.544
349.36	76.190
349.72	75.942
350.08	75.284
350.45	75.183
350.81	74.492
351.17	74.554
351.53	75.184
351.89	74.917
352.26	74.901
352.62	75.381
352.98	75.365
353.34	77.650
353.70	77.087
354.07	75.887
354.43	76.508
354.79	74.899
355.15	76.137
355.51	78.098
355.87	76.245
356.24	77.769
356.60	76.183
356.96	77.072
357.32	78.577
357.68	78.661
358.04	75.614
358.40	77.356
358.77	76.526
359.13	76.401
359.49	77.333
359.85	77.063
360.21	76.954
360.57	77.510
360.93	77.000
361.29	77.173
361.66	76.161
362.02	76.866
362.38	76.350
362.74	76.339
363.10	76.388
363.46	75.422
363.82	76.946
364.18	76.946
364.54	78.752
364.90	77.479
365.26	77.868
365.62	77.575
365.98	75.749
366.35	76.934
366.71	78.670
367.07	77.495
367.43	79.318
367.79	76.945
368.15	78.592
368.51	76.235
368.87	77.730
369.23	78.054
369.59	76.756
369.95	77.279
370.31	77.350
370.67	76.812
371.03	78.127
371.39	76.239
371.75	77.206
372.11	76.031
372.47	77.713
372.83	77.378
373.19	77.240
373.55	77.975
373.91	79.381
374.27	76.014
374.63	77.600
374.99	78.037
375.35	76.762
375.71	75.051
376.07	76.955
376.42	76.960
376.78	78.197
377.14	77.137
377.50	77.550
377.86	76.130
378.22	75.790
378.58	75.752
378.94	75.550
379.30	76.145
379.66	78.109
380.02	76.720
380.38	75.288
380.74	77.791
381.09	77.200
381.45	76.890
381.81	76.351
382.17	74.459
382.53	75.660
382.89	76.481
383.25	76.798
383.61	77.757
383.97	76.423
384.32	73.986
384.68	76.146
385.04	74.923
385.40	75.851
385.76	75.246
386.12	76.813
386.48	76.086
386.83	77.229
387.19	78.231
387.55	75.139
387.91	76.602
388.27	74.801
388.62	76.091
388.98	75.123
389.34	75.282
389.70	75.169
390.06	75.856
390.42	76.135
390.77	75.191
391.13	76.452
391.49	75.825
391.85	74.220
392.20	75.079
392.56	74.495
392.92	73.573
393.28	74.734
393.64	74.880
393.99	72.877
394.35	74.318
394.71	73.087
395.07	72.835
395.42	75.031
395.78	72.710
396.14	73.246
396.50	75.940
396.85	75.906
397.21	73.366
397.57	73.900
397.92	73.197
398.28	73.991
398.64	72.282
399.00	74.818
399.35	73.660
399.71	73.032
400.07	72.620
400.42	73.742
400.78	73.884
401.14	73.841
401.49	73.075
401.85	72.595
402.21	71.856
402.57	72.795
402.92	72.699
403.28	74.391
403.63	73.391
403.99	72.420
404.35	71.818
404.70	71.643
405.06	71.462
405.42	72.739
405.77	72.057
406.13	70.090
406.49	71.733
406.84	71.234
407.20	71.572
407.55	73.070
407.91	73.800
408.27	71.921
408.62	72.185
408.98	71.875
409.34	72.509
409.69	71.677
410.05	71.252
410.40	70.703
410.76	70.251
411.11	70.084
411.47	70.735
411.83	71.350
412.18	70.810
412.54	72.354
412.89	70.542
413.25	69.894
413.60	71.587
413.96	69.338
414.31	69.988
414.67	69.899
415.03	71.258
415.38	70.619
415.74	70.482
416.09	71.391
416.45	69.210
416.80	69.927
417.16	70.643
417.51	69.808
417.87	69.107
418.22	70.662
418.58	69.722
418.93	70.332
419.29	68.810
419.64	69.836
420.00	68.963
420.35	68.638
420.71	70.114
421.06	68.198
421.42	67.076
421.77	66.984
422.12	68.052
422.48	66.703
422.83	68.433
423.19	67.956
423.54	66.976
423.90	68.000
424.25	67.337
424.61	67.500
424.96	68.746
425.31	66.667
425.67	65.225
426.02	66.171
426.38	66.850
426.73	66.121
427.09	67.052
427.44	66.763
427.79	66.820
428.15	66.726
428.50	66.881
428.85	66.806
429.21	66.759
429.56	66.096
429.92	65.677
430.27	64.350
430.62	64.516
430.98	64.868
431.33	64.381
431.68	64.346
432.04	63.525
432.39	66.990
432.74	65.769
433.10	65.931
433.45	65.598
433.80	65.022
434.16	64.797
434.51	63.579
434.86	64.481
435.22	64.369
435.57	65.714
435.92	64.833
436.28	65.362
436.63	64.018
436.98	64.797
437.34	64.878
437.69	65.519
438.04	64.755
438.39	65.194
438.75	65.369
439.10	63.911
439.45	63.754
439.81	65.498
440.16	63.185
440.51	64.030
440.86	62.999
441.22	63.849
441.57	63.270
441.92	63.869
442.27	63.509
442.63	61.717
442.98	63.662
443.33	63.098
443.68	62.881
444.03	62.665
444.39	62.220
444.74	62.825
445.09	63.396
445.44	62.274
445.79	62.593
446.15	61.990
446.50	62.951
446.85	61.819
447.20	61.856
447.55	63.261
447.91	63.210
448.26	62.270
448.61	62.917
448.96	62.237
449.31	63.611
449.66	61.790
450.02	60.613
450.37	61.508
450.72	61.591
451.07	62.096
451.42	60.547
451.77	62.595
452.12	60.970
452.47	62.562
452.83	63.228
453.18	60.880
453.53	61.286
453.88	61.548
454.23	61.566
454.58	62.992
454.93	63.382
455.28	62.095
455.63	61.650
455.98	62.024
456.34	61.307
456.69	61.803
457.04	61.796
457.39	61.309
457.74	61.985
458.09	59.344
458.44	61.117
458.79	58.677
459.14	60.553
459.49	59.895
459.84	59.778
460.19	60.047
460.54	58.623
460.89	59.846
461.24	60.474
461.59	61.418
461.94	59.494
462.29	59.228
462.64	59.477
462.99	58.816
463.34	59.733
463.69	59.287
464.04	59.072
464.39	59.246
464.74	61.022
465.09	59.288
465.44	57.507
465.79	58.613
466.14	57.417
466.49	57.341
466.84	58.377
467.19	56.669
467.54	59.812
467.89	57.983
468.24	58.173
468.59	59.646
468.94	58.216
469.29	59.833
469.64	59.906
469.99	60.284
470.34	59.577
470.68	60.489
471.03	59.796
471.38	60.737
471.73	59.827
472.08	60.329
472.43	58.480
472.78	59.250
473.13	57.638
473.48	57.054
473.83	58.598
474.17	57.001
474.52	57.878
474.87	58.961
475.22	58.677
475.57	56.206
475.92	56.877
476.27	56.032
476.61	57.143
476.96	56.625
477.31	57.195
477.66	58.698
478.01	56.194
478.36	57.641
478.70	56.023
479.05	56.177
479.40	56.397
479.75	56.279
480.10	55.666
480.45	55.117
480.79	54.993
481.14	55.577
481.49	56.099
481.84	55.601
482.19	55.747
482.53	55.229
482.88	54.956
483.23	54.486
483.58	54.641
483.92	55.108
484.27	53.072
484.62	53.879
484.97	53.291
485.31	53.151
485.66	50.320
486.01	47.863
486.36	46.358
486.70	46.449
487.05	48.106
487.40	49.872
487.75	49.945
488.09	51.319
488.44	50.734
488.79	53.960
489.13	53.629
489.48	53.630
489.83	53.906
490.17	55.546
490.52	54.207
490.87	53.143
491.22	54.025
491.56	53.895
491.91	54.165
492.26	54.754
492.60	53.318
492.95	53.508
493.30	54.206
493.64	54.503
493.99	53.621
494.34	53.377
494.68	54.487
495.03	53.806
495.37	53.560
495.72	54.240
496.07	53.921
496.41	52.301
496.76	52.463
497.11	51.148
497.45	53.097
497.80	53.695
498.14	54.396
498.49	53.415
498.84	53.931
499.18	52.571
499.53	52.612
499.87	51.911
500.22	52.897
500.56	54.417
500.91	52.644
501.26	52.916
501.60	54.105
501.95	51.558
502.29	52.905
502.64	53.212
502.98	52.314
503.33	51.143
503.67	53.039
504.02	51.076
504.36	52.270
504.71	53.639
505.06	52.964
505.40	52.261
505.75	52.652
506.09	51.944
506.44	53.725
506.78	52.655
507.13	54.619
507.47	53.333
507.82	53.040
508.16	52.330
508.51	54.186
508.85	53.426
509.19	53.163
509.54	52.041
509.88	52.499
510.23	52.288
510.57	53.509
510.92	52.771
511.26	52.724
511.61	53.683
511.95	53.079
512.30	52.651
512.64	53.466
512.98	53.751
513.33	53.319
513.67	52.028
514.02	53.301
514.36	53.577
514.70	53.348
515.05	54.211
515.39	53.786
515.74	53.266
516.08	54.108
516.42	52.775
516.77	54.013
517.11	54.051
517.46	53.837
517.80	54.994
518.14	54.256
518.49	55.251
518.83	54.148
519.17	54.677
519.52	52.915
519.86	54.877
520.20	54.104
520.55	55.715
520.89	55.900
521.23	54.644
521.58	54.022
521.92	54.685
522.26	53.447
522.61	54.953
522.95	55.924
523.29	54.291
523.64	55.366
523.98	55.514
524.32	53.257
524.66	54.540
525.01	54.963
525.35	55.452
525.69	53.325
526.04	54.143
526.38	53.935
526.72	53.988
527.06	53.923
527.41	52.661
527.75	55.434
528.09	54.978
528.43	55.704
528.78	54.087
529.12	53.758
529.46	54.623
529.80	55.322
530.15	53.333
530.49	51.754
530.83	54.051
531.17	55.222
531.51	55.837
531.86	54.387
532.20	55.606
532.54	54.965
532.88	53.851
533.22	52.467
533.57	53.580
533.91	51.716
534.25	52.309
534.59	52.715
534.93	51.338
535.27	51.298
535.62	51.038
535.96	53.296
536.30	52.448
536.64	52.608
536.98	52.422
537.32	52.008
537.66	53.400
538.01	53.785
538.35	52.359
538.69	52.840
539.03	51.527
539.37	51.118
539.71	51.264
540.05	52.418
540.39	52.824
540.73	50.970
541.07	52.498
541.42	53.490
541.76	51.871
542.10	53.428
542.44	52.252
542.78	52.569
543.12	50.288
543.46	51.016
543.80	51.269
544.14	50.834
544.48	52.000
544.82	51.443
545.16	51.139
545.50	50.643
545.84	52.285
546.18	51.852
546.52	52.168
546.86	51.340
547.20	53.068
547.54	51.102
547.88	51.403
548.22	50.685
548.56	50.440
548.90	50.384
549.24	51.044
549.58	52.251
549.92	52.473
550.26	52.415
550.60	50.415
550.94	51.831
551.28	51.353
551.62	52.049
551.96	51.228
552.30	51.126
552.64	52.400
552.98	51.119
553.32	51.180
553.66	51.193
554.00	51.407
554.34	50.449
554.68	51.288
555.02	52.045
555.36	50.870
555.69	50.068
556.03	50.942
556.37	50.341
556.71	50.409
557.05	50.910
557.39	51.365
557.73	50.459
558.07	52.357
558.41	51.447
558.75	51.874
559.08	53.020
559.42	51.776
559.76	50.588
560.10	49.964
560.44	50.804
560.78	49.834
561.12	49.340
561.45	49.935
561.79	48.715
562.13	50.034
562.47	50.615
562.81	50.837
563.15	49.833
563.48	49.271
563.82	49.641
564.16	49.967
564.50	48.437
564.84	48.040
565.17	49.163
565.51	48.626
565.85	48.287
566.19	47.777
566.52	48.258
566.86	46.835
567.20	47.347
567.54	47.089
567.88	46.116
568.21	46.190
568.55	44.692
568.89	44.747
569.23	43.405
569.56	42.389
569.90	41.321
570.24	40.868
570.57	40.190
570.91	39.011
571.25	39.623
571.59	38.999
571.92	38.738
572.26	39.399
572.60	39.309
572.93	38.141
573.27	39.456
573.61	38.051
573.95	38.191
574.28	37.814
574.62	37.099
574.96	37.180
575.29	36.591
575.63	37.551
575.97	37.516
576.30	37.493
576.64	37.554
576.98	37.409
577.31	37.246
577.65	36.634
577.98	36.068
578.32	35.604
578.66	35.577
578.99	36.544
579.33	36.601
579.67	36.463
580.00	36.826
580.34	37.257
580.67	36.209
581.01	36.407
581.35	35.733
581.68	35.559
582.02	34.704
582.35	34.919
582.69	35.096
583.02	34.965
583.36	36.500
583.70	36.688
584.03	36.834
584.37	36.943
584.70	37.330
585.04	36.106
585.37	35.788
585.71	36.043
586.04	36.361
586.38	37.121
586.72	37.200
587.05	36.702
587.39	35.989
587.72	36.692
588.06	36.713
588.39	37.531
588.73	38.017
589.06	38.454
589.40	38.013
589.73	39.810
590.07	38.470
590.40	38.582
590.73	40.008
591.07	40.171
591.40	41.122
591.74	40.476
592.07	40.227
592.41	40.389
592.74	38.427
593.08	37.508
593.41	37.678
593.75	36.852
594.08	37.110
594.41	38.388
594.75	38.484
595.08	37.831
595.42	37.723
595.75	37.536
596.09	38.603
596.42	39.411
596.75	39.004
597.09	39.957
597.42	38.786
597.75	39.500
598.09	39.652
598.42	39.519
598.76	38.427
599.09	37.590
599.42	37.227
599.76	37.482
600.09	37.231
600.42	37.363
600.76	36.857
601.09	36.430
601.42	37.595
601.76	36.698
602.09	38.340
602.42	37.978
602.76	38.533
603.09	38.434
603.42	38.266
603.76	38.224
604.09	37.922
604.42	38.443
604.76	38.844
605.09	39.013
605.42	38.991
605.75	37.997
606.09	37.617
606.42	38.087
606.75	37.910
607.09	37.756
607.42	38.126
607.75	37.848
608.08	37.690
608.42	39.086
608.75	39.089
609.08	38.668
609.41	39.172
609.75	38.495
610.08	39.868
610.41	38.966
610.74	39.877
611.07	40.069
611.41	39.794
611.74	40.070
612.07	41.097
612.40	41.291
612.73	39.526
613.07	41.272
613.40	40.916
613.73	40.063
614.06	40.000
614.39	40.745
614.72	40.579
615.06	40.074
615.39	40.180
615.72	39.928
616.05	39.766
616.38	40.411
616.71	41.865
617.05	42.108
617.38	41.972
617.71	40.841
618.04	41.827
618.37	41.396
618.70	41.257
619.03	43.553
619.36	43.245
619.69	44.155
620.03	44.025
620.36	43.717
620.69	43.151
621.02	44.912
621.35	43.305
621.68	46.885
622.01	44.505
622.34	44.251
622.67	44.867
623.00	44.754
623.33	42.530
623.66	43.888
623.99	45.140
624.32	44.508
624.65	43.291
624.99	42.918
625.32	43.302
625.65	43.802
625.98	45.427
626.31	46.112
626.64	48.490
626.97	46.467
627.30	45.553
627.63	45.611
627.96	47.519
628.29	47.507
628.62	47.392
628.95	48.679
629.28	47.354
629.61	48.763
629.94	49.810
630.26	49.476
630.59	47.474
