SpectraSuite Data File
++++++++++++++++++++++++++++++++++++
Date: Wed May 13 19:54:26 PDT 2015
User: schluterlab
Dark Spectrum Present: Yes
Reference Spectrum Present: Yes
Number of Sampled Component Spectra: 1
Spectrometers: USB2E3373
Integration Time (usec): 3000 (USB2E3373)
Spectra Averaged: 3 (USB2E3373)
Boxcar Smoothing: 0 (USB2E3373)
Correct for Electrical Dark: No (USB2E3373)
Strobe/Lamp Enabled: No (USB2E3373)
Correct for Detector Non-linearity: No (USB2E3373)
Correct for Stray Light: No (USB2E3373)
Number of Pixels in Processed Spectrum: 2048
>>>>>Begin Processed Spectral Data<<<<<
178.53	0.000
178.91	-1450.000
179.29	-1300.000
179.67	-238.889
180.04	-1425.000
180.42	2400.000
180.80	1160.000
181.18	-1250.000
181.56	671.429
181.94	0.000
182.31	-671.429
182.69	1833.333
183.07	-662.500
183.45	-566.667
183.83	554.545
184.20	-590.000
184.58	2550.000
184.96	5700.000
185.34	-920.000
185.72	-675.000
186.09	-2350.000
186.47	2650.000
186.85	2600.000
187.23	4100.000
187.61	-1566.667
187.98	1400.000
188.36	527.273
188.74	572.727
189.12	-780.000
189.49	600.000
189.87	-4700.000
190.25	-1100.000
190.63	442.857
191.00	423.077
191.38	850.000
191.76	-1300.000
192.14	1275.000
192.51	725.000
192.89	866.667
193.27	687.500
193.65	-1150.000
194.02	520.000
194.40	1100.000
194.78	530.000
195.15	550.000
195.53	640.000
195.91	-2300.000
196.29	362.500
196.66	331.579
197.04	-380.000
197.42	0.000
197.79	590.000
198.17	-4600.000
198.55	714.286
198.92	625.000
199.30	980.000
199.68	0.000
200.05	327.778
200.43	785.714
200.81	4900.000
201.18	1733.333
201.56	-1766.667
201.94	622.222
202.31	700.000
202.69	500.000
203.07	500.000
203.44	0.000
203.82	1175.000
204.19	771.429
204.57	428.571
204.95	737.500
205.32	2000.000
205.70	545.455
206.08	392.857
206.45	2650.000
206.83	356.250
207.20	1066.667
207.58	900.000
207.96	300.000
208.33	712.500
208.71	-833.333
209.08	871.429
209.46	644.444
209.84	500.000
210.21	-1433.333
210.59	1425.000
210.96	-512.500
211.34	2600.000
211.71	600.000
212.09	900.000
212.46	0.000
212.84	2100.000
213.22	1450.000
213.59	-4800.000
213.97	900.000
214.34	714.286
214.72	636.364
215.09	820.000
215.47	-2350.000
215.84	-2750.000
216.22	2100.000
216.59	400.000
216.97	1400.000
217.34	436.364
217.72	-766.667
218.09	0.000
218.47	-4900.000
218.84	611.111
219.22	657.143
219.59	1766.667
219.97	-671.429
220.34	900.000
220.72	-1700.000
221.09	428.571
221.47	1425.000
221.84	-950.000
222.22	0.000
222.59	1275.000
222.97	-2750.000
223.34	1100.000
223.72	407.692
224.09	1120.000
224.46	1850.000
224.84	-5500.000
225.21	-1040.000
225.59	-4900.000
225.96	630.000
226.34	355.000
226.71	2650.000
227.08	775.000
227.46	600.000
227.83	-1075.000
228.21	-2700.000
228.58	688.889
228.95	-2800.000
229.33	-2350.000
229.70	1933.333
230.08	800.000
230.45	-840.000
230.82	466.667
231.20	933.333
231.57	685.714
231.95	466.667
232.32	272.727
232.69	363.636
233.07	728.571
233.44	400.000
233.81	-1666.667
234.19	352.632
234.56	450.000
234.93	400.000
235.31	545.455
235.68	415.385
236.05	371.429
236.43	203.030
236.80	278.947
237.17	5000.000
237.55	261.905
237.92	232.143
238.29	252.381
238.67	193.548
239.04	186.207
239.41	155.556
239.79	136.957
240.16	157.143
240.53	163.636
240.91	123.529
241.28	122.000
241.65	130.000
242.02	115.942
242.40	106.452
242.77	101.667
243.14	76.344
243.51	88.764
243.89	85.882
244.26	77.778
244.63	70.968
245.00	71.277
245.38	75.248
245.75	61.682
246.12	65.138
246.49	70.073
246.87	78.400
247.24	70.000
247.61	62.143
247.98	62.092
248.36	56.081
248.73	54.140
249.10	58.599
249.47	51.412
249.84	54.545
250.22	52.406
250.59	53.846
250.96	48.990
251.33	53.555
251.70	49.010
252.08	49.524
252.45	44.395
252.82	46.957
253.19	48.511
253.56	46.275
253.94	46.473
254.31	42.187
254.68	46.154
255.05	45.018
255.42	44.715
255.79	43.750
256.16	44.404
256.54	40.283
256.91	45.196
257.28	43.885
257.65	41.914
258.02	38.199
258.39	40.063
258.76	41.806
259.14	39.881
259.51	40.426
259.88	37.267
260.25	42.296
260.62	39.884
260.99	40.062
261.36	41.141
261.73	37.536
262.10	37.209
262.47	39.718
262.85	36.212
263.22	36.467
263.59	40.171
263.96	37.363
264.33	35.509
264.70	37.105
265.07	37.596
265.44	35.354
265.81	34.307
266.18	38.442
266.55	33.659
266.92	36.855
267.29	37.269
267.66	36.697
268.03	35.455
268.40	35.514
268.77	32.936
269.14	34.459
269.51	37.246
269.88	36.830
270.25	35.214
270.62	35.281
270.99	34.624
271.36	35.837
271.73	33.178
272.10	33.043
272.47	34.409
272.84	34.848
273.21	34.172
273.58	32.314
273.95	32.495
274.32	33.678
274.69	35.546
275.06	33.661
275.43	33.830
275.80	33.868
276.17	34.420
276.54	31.809
276.91	33.202
277.28	32.617
277.65	34.043
278.02	32.505
278.39	31.641
278.76	29.636
279.13	31.509
279.50	30.540
279.87	30.876
280.23	31.337
280.60	30.368
280.97	31.608
281.34	29.558
281.71	32.727
282.08	32.438
282.45	31.636
282.82	31.794
283.19	27.986
283.56	31.053
283.92	30.964
284.29	30.864
284.66	29.220
285.03	30.922
285.40	30.634
285.77	31.818
286.14	28.497
286.51	31.833
286.87	28.889
287.24	32.248
287.61	26.806
287.98	30.032
288.35	29.477
288.72	28.816
289.08	27.543
289.45	28.171
289.82	28.780
290.19	26.688
290.56	29.250
290.93	24.924
291.29	28.221
291.66	28.024
292.03	27.907
292.40	28.341
292.77	26.036
293.13	26.716
293.50	25.802
293.87	27.852
294.24	25.333
294.60	26.346
294.97	26.017
295.34	26.798
295.71	26.278
296.08	26.496
296.44	25.447
296.81	24.439
297.18	26.829
297.55	21.240
297.91	24.802
298.28	24.498
298.65	23.629
299.02	22.530
299.38	24.834
299.75	21.833
300.12	22.222
300.48	22.750
300.85	23.428
301.22	23.312
301.59	20.581
301.95	23.048
302.32	23.620
302.69	22.820
303.05	21.818
303.42	20.494
303.79	21.631
304.15	19.930
304.52	22.364
304.89	22.648
305.25	20.534
305.62	22.197
305.99	22.668
306.35	21.253
306.72	21.300
307.09	21.421
307.45	22.410
307.82	20.647
308.19	21.523
308.55	21.359
308.92	21.482
309.29	20.380
309.65	20.679
310.02	21.036
310.38	21.505
310.75	19.958
311.12	21.290
311.48	21.421
311.85	22.117
312.22	21.852
312.58	19.958
312.95	21.647
313.31	20.583
313.68	22.245
314.05	23.471
314.41	21.608
314.78	20.443
315.14	21.152
315.51	21.936
315.87	23.663
316.24	22.244
316.61	21.540
316.97	22.309
317.34	22.603
317.70	22.562
318.07	22.907
318.43	22.896
318.80	23.805
319.16	24.388
319.53	24.296
319.89	24.190
320.26	26.200
320.62	24.901
320.99	25.152
321.35	25.758
321.72	26.899
322.08	27.739
322.45	27.065
322.81	28.295
323.18	29.961
323.54	28.571
323.91	31.038
324.27	30.688
324.64	31.594
325.00	30.568
325.37	33.212
325.73	33.483
326.10	33.451
326.46	33.513
326.83	35.289
327.19	35.867
327.56	35.714
327.92	37.620
328.29	38.066
328.65	40.055
329.01	38.989
329.38	39.593
329.74	40.166
330.11	41.093
330.47	42.608
330.84	42.371
331.20	41.712
331.56	41.284
331.93	43.704
332.29	42.147
332.66	43.805
333.02	44.973
333.38	43.722
333.75	44.742
334.11	43.683
334.48	43.478
334.84	46.140
335.20	46.364
335.57	44.152
335.93	43.482
336.29	45.696
336.66	46.348
337.02	44.615
337.38	47.222
337.75	45.455
338.11	46.285
338.47	47.330
338.84	46.288
339.20	44.771
339.56	47.263
339.93	45.909
340.29	45.562
340.65	45.722
341.02	46.510
341.38	47.954
341.74	45.789
342.11	46.288
342.47	47.225
342.83	46.918
343.20	47.532
343.56	47.515
343.92	46.491
344.28	47.024
344.65	46.862
345.01	44.865
345.37	46.312
345.73	47.124
346.10	47.656
346.46	47.288
346.82	47.529
347.19	46.867
347.55	45.074
347.91	47.977
348.27	47.658
348.63	46.990
349.00	46.926
349.36	46.470
349.72	46.913
350.08	46.677
350.45	47.030
350.81	45.979
351.17	46.921
351.53	48.403
351.89	47.277
352.26	46.172
352.62	48.196
352.98	47.812
353.34	47.823
353.70	46.154
354.07	46.935
354.43	46.032
354.79	46.098
355.15	47.087
355.51	48.042
355.87	47.265
356.24	46.254
356.60	46.030
356.96	46.983
357.32	47.424
357.68	47.323
358.04	45.922
358.40	47.031
358.77	47.261
359.13	47.040
359.49	46.353
359.85	46.587
360.21	46.491
360.57	46.848
360.93	47.000
361.29	46.485
361.66	46.207
362.02	46.343
362.38	47.148
362.74	46.801
363.10	45.670
363.46	46.368
363.82	46.788
364.18	45.448
364.54	48.217
364.90	46.459
365.26	47.059
365.62	47.480
365.98	46.530
366.35	45.702
366.71	45.915
367.07	46.468
367.43	47.025
367.79	47.038
368.15	46.336
368.51	46.730
368.87	47.181
369.23	47.915
369.59	45.836
369.95	45.735
370.31	46.439
370.67	46.522
371.03	46.592
371.39	46.574
371.75	46.985
372.11	45.519
372.47	46.481
372.83	47.406
373.19	46.532
373.55	47.154
373.91	47.570
374.27	44.605
374.63	46.836
374.99	46.116
375.35	46.057
375.71	46.059
376.07	47.119
376.42	46.286
376.78	46.057
377.14	45.794
377.50	49.139
377.86	45.745
378.22	45.765
378.58	44.925
378.94	45.695
379.30	45.865
379.66	46.574
380.02	45.455
380.38	44.991
380.74	46.459
381.09	45.966
381.45	46.958
381.81	46.683
382.17	46.051
382.53	44.969
382.89	46.543
383.25	46.967
383.61	46.283
383.97	45.591
384.32	44.604
384.68	45.539
385.04	45.974
385.40	44.830
385.76	45.270
386.12	46.697
386.48	45.941
386.83	46.632
387.19	47.619
387.55	45.269
387.91	46.010
388.27	46.352
388.62	45.605
388.98	45.332
389.34	45.620
389.70	44.758
390.06	46.198
390.42	45.979
390.77	44.529
391.13	46.331
391.49	45.431
391.85	46.213
392.20	44.858
392.56	45.391
392.92	44.614
393.28	44.793
393.64	45.324
393.99	44.349
394.35	46.216
394.71	44.981
395.07	43.925
395.42	45.735
395.78	45.674
396.14	45.748
396.50	47.055
396.85	45.327
397.21	44.451
397.57	44.575
397.92	45.433
398.28	44.226
398.64	44.803
399.00	44.600
399.35	44.162
399.71	44.965
400.07	44.589
400.42	44.724
400.78	44.692
401.14	44.390
401.49	45.313
401.85	43.860
402.21	43.952
402.57	44.109
402.92	44.767
403.28	44.597
403.63	45.235
403.99	44.459
404.35	43.697
404.70	44.724
405.06	43.564
405.42	45.290
405.77	43.486
406.13	44.187
406.49	44.352
406.84	43.946
407.20	43.203
407.55	43.395
407.91	45.000
408.27	44.288
408.62	43.829
408.98	43.566
409.34	43.173
409.69	43.935
410.05	43.990
410.40	43.180
410.76	42.891
411.11	44.029
411.47	44.217
411.83	44.288
412.18	43.166
412.54	44.458
412.89	42.590
413.25	42.916
413.60	43.916
413.96	43.291
414.31	43.135
414.67	42.522
415.03	44.437
415.38	43.041
415.74	43.087
416.09	44.415
416.45	43.373
416.80	43.622
417.16	45.710
417.51	43.663
417.87	42.839
418.22	43.659
418.58	43.899
418.93	43.366
419.29	43.539
419.64	44.458
420.00	43.720
420.35	43.072
420.71	43.156
421.06	43.496
421.42	42.281
421.77	43.498
422.12	41.943
422.48	42.364
422.83	43.273
423.19	42.044
423.54	43.006
423.90	43.304
424.25	41.709
424.61	42.500
424.96	43.032
425.31	42.691
425.67	40.899
426.02	40.800
426.38	43.529
426.73	41.837
427.09	42.553
427.44	41.806
427.79	42.381
428.15	43.333
428.50	43.125
428.85	43.027
429.21	42.076
429.56	41.680
429.92	41.419
430.27	41.758
430.62	40.809
430.98	42.138
431.33	41.392
431.68	41.885
432.04	40.948
432.39	42.604
432.74	42.849
433.10	42.218
433.45	42.041
433.80	41.630
434.16	41.560
434.51	41.000
434.86	40.878
435.22	41.523
435.57	42.553
435.92	41.954
436.28	42.823
436.63	41.887
436.98	41.099
437.34	42.099
437.69	42.007
438.04	41.315
438.39	42.209
438.75	42.650
439.10	42.235
439.45	42.385
439.81	40.544
440.16	41.502
440.51	41.066
440.86	41.633
441.22	41.046
441.57	40.924
441.92	42.170
442.27	41.173
442.63	40.126
442.98	41.070
443.33	39.946
443.68	40.836
444.03	40.996
444.39	40.263
444.74	40.639
445.09	42.102
445.44	41.115
445.79	41.762
446.15	41.186
446.50	40.549
446.85	41.932
447.20	41.560
447.55	41.150
447.91	40.816
448.26	40.846
448.61	41.210
448.96	41.196
449.31	40.889
449.66	40.349
450.02	40.780
450.37	41.043
450.72	40.666
451.07	40.402
451.42	40.243
451.77	40.164
452.12	41.051
452.47	41.169
452.83	41.084
453.18	39.914
453.53	41.682
453.88	40.343
454.23	40.287
454.58	40.097
454.93	41.831
455.28	41.646
455.63	40.898
455.98	42.381
456.34	40.515
456.69	40.952
457.04	40.743
457.39	40.094
457.74	40.337
458.09	40.656
458.44	41.505
458.79	38.937
459.14	41.140
459.49	40.514
459.84	40.055
460.19	38.539
460.54	39.757
460.89	40.044
461.24	40.376
461.59	40.442
461.94	39.457
462.29	40.475
462.64	39.630
462.99	39.883
463.34	39.867
463.69	40.213
464.04	39.768
464.39	38.899
464.74	39.453
465.09	39.747
465.44	38.504
465.79	38.870
466.14	38.205
466.49	38.932
466.84	39.521
467.19	39.710
467.54	39.812
467.89	38.535
468.24	38.627
468.59	39.683
468.94	38.363
469.29	39.267
469.64	39.157
469.99	39.513
470.34	39.168
470.68	38.578
471.03	39.252
471.38	39.819
471.73	39.507
472.08	39.803
472.43	38.065
472.78	38.973
473.13	39.153
473.48	38.514
473.83	38.780
474.17	38.270
474.52	37.841
474.87	37.770
475.22	38.479
475.57	37.560
475.92	37.122
476.27	37.599
476.61	38.114
476.96	36.998
477.31	37.310
477.66	37.309
478.01	36.905
478.36	38.075
478.70	37.643
479.05	37.913
479.40	36.950
479.75	37.519
480.10	37.028
480.45	36.602
480.79	36.455
481.14	36.644
481.49	36.355
481.84	37.083
482.19	37.392
482.53	36.972
482.88	36.389
483.23	37.290
483.58	37.216
483.92	35.895
484.27	35.120
484.62	35.647
484.97	35.909
485.31	35.411
485.66	34.095
486.01	32.959
486.36	31.711
486.70	31.881
487.05	32.792
487.40	33.504
487.75	33.598
488.09	34.122
488.44	34.456
488.79	35.407
489.13	35.791
489.48	35.685
489.83	35.995
490.17	36.738
490.52	35.917
490.87	36.454
491.22	35.834
491.56	35.353
491.91	35.226
492.26	34.497
492.60	35.253
492.95	34.425
493.30	35.047
493.64	34.998
493.99	34.865
494.34	35.615
494.68	35.302
495.03	35.338
495.37	35.831
495.72	35.234
496.07	36.056
496.41	34.602
496.76	34.521
497.11	33.904
497.45	35.072
497.80	35.509
498.14	34.686
498.49	34.000
498.84	35.139
499.18	34.381
499.53	34.663
499.87	35.648
500.22	34.291
500.56	35.291
500.91	34.663
501.26	34.519
501.60	34.504
501.95	33.731
502.29	34.255
502.64	34.451
502.98	34.128
503.33	34.644
503.67	34.524
504.02	34.191
504.36	33.692
504.71	34.001
505.06	32.867
505.40	33.738
505.75	32.883
506.09	33.965
506.44	33.843
506.78	34.535
507.13	34.326
507.47	34.747
507.82	34.347
508.16	34.600
508.51	34.297
508.85	34.508
509.19	34.286
509.54	33.061
509.88	33.385
510.23	34.190
510.57	35.036
510.92	34.386
511.26	33.556
511.61	34.284
511.95	33.142
512.30	33.404
512.64	33.530
512.98	34.780
513.33	33.833
513.67	33.778
514.02	32.630
514.36	35.718
514.70	34.920
515.05	34.189
515.39	34.436
515.74	34.347
516.08	34.433
516.42	34.406
516.77	34.225
517.11	34.129
517.46	34.029
517.80	34.146
518.14	33.237
518.49	34.014
518.83	33.580
519.17	34.411
519.52	33.503
519.86	33.885
520.20	35.202
520.55	34.231
520.89	34.489
521.23	35.706
521.58	34.214
521.92	33.374
522.26	32.825
522.61	34.206
522.95	33.456
523.29	33.962
523.64	34.329
523.98	34.627
524.32	33.595
524.66	33.434
525.01	33.578
525.35	34.077
525.69	33.559
526.04	34.393
526.38	34.106
526.72	33.497
527.06	34.087
527.41	32.116
527.75	33.055
528.09	34.232
528.43	34.289
528.78	33.313
529.12	33.636
529.46	33.252
529.80	33.230
530.15	34.081
530.49	33.108
530.83	33.228
531.17	34.530
531.51	34.306
531.86	33.548
532.20	33.638
532.54	34.209
532.88	33.825
533.22	32.542
533.57	33.210
533.91	32.631
534.25	32.199
534.59	33.679
534.93	32.838
535.27	32.830
535.62	32.967
535.96	32.831
536.30	32.867
536.64	33.355
536.98	31.984
537.32	33.509
537.66	34.533
538.01	33.641
538.35	33.290
538.69	33.567
539.03	33.138
539.37	31.885
539.71	31.497
540.05	32.222
540.39	32.558
540.73	31.565
541.07	33.809
541.42	32.877
541.76	33.419
542.10	33.247
542.44	32.649
542.78	32.872
543.12	32.054
543.46	32.721
543.80	32.206
544.14	31.643
544.48	31.683
544.82	32.328
545.16	32.010
545.50	31.941
545.84	32.594
546.18	33.468
546.52	32.209
546.86	32.165
547.20	33.243
547.54	32.732
547.88	32.398
548.22	31.445
548.56	31.132
548.90	32.010
549.24	32.121
549.58	32.196
549.92	33.310
550.26	33.097
550.60	32.227
550.94	32.887
551.28	33.577
551.62	32.782
551.96	32.421
552.30	33.447
552.64	32.252
552.98	32.542
553.32	32.299
553.66	33.129
554.00	32.052
554.34	31.608
554.68	33.476
555.02	31.523
555.36	31.176
555.69	31.867
556.03	31.629
556.37	31.310
556.71	31.310
557.05	32.353
557.39	31.071
557.73	32.534
558.07	32.052
558.41	32.127
558.75	31.741
559.08	33.035
559.42	31.822
559.76	33.015
560.10	32.620
560.44	32.006
560.78	31.337
561.12	31.596
561.45	32.138
561.79	31.246
562.13	31.925
562.47	33.607
562.81	33.333
563.15	31.371
563.48	31.432
563.82	32.485
564.16	31.393
564.50	30.794
564.84	31.795
565.17	31.532
565.51	32.013
565.85	30.774
566.19	30.745
566.52	31.222
566.86	30.621
567.20	31.722
567.54	31.450
567.88	30.147
568.21	29.683
568.55	30.233
568.89	29.280
569.23	29.011
569.56	28.664
569.90	28.415
570.24	28.418
570.57	27.950
570.91	26.600
571.25	27.208
571.59	27.305
571.92	26.901
572.26	26.863
572.60	27.447
572.93	27.076
573.27	27.181
573.61	26.884
573.95	27.080
574.28	26.256
574.62	26.774
574.96	25.854
575.29	26.018
575.63	26.143
575.97	26.764
576.30	26.102
576.64	26.156
576.98	26.300
577.31	26.525
577.65	26.211
577.98	26.035
578.32	25.119
578.66	25.912
578.99	25.907
579.33	26.337
579.67	26.174
580.00	26.468
580.34	26.578
580.67	25.928
581.01	26.737
581.35	25.977
581.68	25.535
582.02	25.188
582.35	25.570
582.69	25.090
583.02	25.528
583.36	26.216
583.70	26.623
584.03	26.698
584.37	26.930
584.70	26.254
585.04	26.223
585.37	25.862
585.71	26.457
586.04	26.287
586.38	26.385
586.72	26.899
587.05	26.053
587.39	25.567
587.72	26.282
588.06	26.334
588.39	26.557
588.73	26.870
589.06	27.111
589.40	27.037
589.73	27.209
590.07	27.189
590.40	26.489
590.73	27.127
591.07	28.449
591.40	27.752
591.74	28.312
592.07	27.574
592.41	27.987
592.74	26.816
593.08	26.183
593.41	26.163
593.75	26.234
594.08	26.919
594.41	27.041
594.75	26.876
595.08	26.628
595.42	26.935
595.75	26.425
596.09	27.413
596.42	27.308
596.75	27.564
597.09	28.615
597.42	27.192
597.75	27.814
598.09	27.217
598.42	26.847
598.76	26.510
599.09	26.340
599.42	26.092
599.76	26.281
600.09	25.683
600.42	26.224
600.76	25.964
601.09	26.485
601.42	26.370
601.76	26.717
602.09	26.877
602.42	26.393
602.76	27.126
603.09	26.633
603.42	27.333
603.76	26.258
604.09	26.483
604.42	27.069
604.76	27.625
605.09	26.693
605.42	26.122
605.75	26.904
606.09	26.027
606.42	26.359
606.75	26.213
607.09	26.329
607.42	26.615
607.75	25.865
608.08	25.532
608.42	27.073
608.75	25.969
609.08	26.503
609.41	27.653
609.75	26.632
610.08	27.003
610.41	26.536
610.74	27.010
611.07	27.866
611.41	27.331
611.74	27.501
612.07	27.847
612.40	28.541
612.73	27.158
613.07	27.371
613.40	28.120
613.73	26.691
614.06	28.226
614.39	27.635
614.72	27.526
615.06	27.889
615.39	26.433
615.72	26.687
616.05	25.997
616.38	26.515
616.71	28.563
617.05	27.562
617.38	28.803
617.71	28.649
618.04	27.885
618.37	27.203
618.70	27.007
619.03	29.145
619.36	28.921
619.69	29.648
620.03	29.327
620.36	29.144
620.69	30.000
621.02	28.614
621.35	28.661
621.68	29.050
622.01	28.406
622.34	28.744
622.67	30.494
623.00	28.467
623.33	29.092
623.66	30.021
623.99	28.940
624.32	27.675
624.65	27.895
624.99	27.762
625.32	28.675
625.65	29.076
625.98	28.440
626.31	29.316
626.64	29.551
626.97	30.008
627.30	29.094
627.63	30.107
627.96	30.109
628.29	29.746
628.62	30.650
628.95	31.226
629.28	30.292
629.61	30.706
629.94	32.286
630.26	28.980
630.59	29.457
630.92	29.215
