SpectraSuite Data File
++++++++++++++++++++++++++++++++++++
Date: Wed May 13 19:30:53 PDT 2015
User: schluterlab
Dark Spectrum Present: Yes
Reference Spectrum Present: Yes
Number of Sampled Component Spectra: 1
Spectrometers: USB2E3373
Integration Time (usec): 3000 (USB2E3373)
Spectra Averaged: 3 (USB2E3373)
Boxcar Smoothing: 0 (USB2E3373)
Correct for Electrical Dark: No (USB2E3373)
Strobe/Lamp Enabled: No (USB2E3373)
Correct for Detector Non-linearity: No (USB2E3373)
Correct for Stray Light: No (USB2E3373)
Number of Pixels in Processed Spectrum: 2048
>>>>>Begin Processed Spectral Data<<<<<
178.53	0.000
178.91	-1250.000
179.29	-1475.000
179.67	-294.444
180.04	-1500.000
180.42	3300.000
180.80	1320.000
181.18	-1125.000
181.56	742.857
181.94	0.000
182.31	-685.714
182.69	1766.667
183.07	-662.500
183.45	-566.667
183.83	600.000
184.20	-440.000
184.58	2850.000
184.96	5600.000
185.34	-820.000
185.72	-625.000
186.09	-2600.000
186.47	3200.000
186.85	2150.000
187.23	5400.000
187.61	-1800.000
187.98	1200.000
188.36	663.636
188.74	545.455
189.12	-980.000
189.49	570.000
189.87	-4900.000
190.25	-1325.000
190.63	464.286
191.00	453.846
191.38	816.667
191.76	-1375.000
192.14	1525.000
192.51	612.500
192.89	1033.333
193.27	625.000
193.65	-1175.000
194.02	570.000
194.40	960.000
194.78	610.000
195.15	475.000
195.53	680.000
195.91	-2700.000
196.29	362.500
196.66	326.316
197.04	-430.000
197.42	0.000
197.79	650.000
198.17	-5000.000
198.55	757.143
198.92	837.500
199.30	1040.000
199.68	0.000
200.05	322.222
200.43	714.286
200.81	5100.000
201.18	1966.667
201.56	-1666.667
201.94	611.111
202.31	622.222
202.69	450.000
203.07	530.000
203.44	0.000
203.82	1350.000
204.19	685.714
204.57	421.429
204.95	662.500
205.32	1633.333
205.70	609.091
206.08	407.143
206.45	2750.000
206.83	387.500
207.20	1016.667
207.58	900.000
207.96	405.556
208.33	812.500
208.71	-833.333
209.08	971.429
209.46	644.444
209.84	563.636
210.21	-1733.333
210.59	1500.000
210.96	-525.000
211.34	2350.000
211.71	650.000
212.09	950.000
212.46	0.000
212.84	1800.000
213.22	1425.000
213.59	-5200.000
213.97	883.333
214.34	785.714
214.72	609.091
215.09	1140.000
215.47	-2850.000
215.84	-2900.000
216.22	1800.000
216.59	350.000
216.97	1600.000
217.34	536.364
217.72	-950.000
218.09	0.000
218.47	-5000.000
218.84	722.222
219.22	814.286
219.59	1700.000
219.97	-785.714
220.34	1000.000
220.72	-1933.333
221.09	457.143
221.47	1375.000
221.84	-1100.000
222.22	0.000
222.59	1500.000
222.97	-3050.000
223.34	1100.000
223.72	507.692
224.09	1080.000
224.46	2400.000
224.84	-4500.000
225.21	-1100.000
225.59	-4300.000
225.96	580.000
226.34	275.000
226.71	3650.000
227.08	662.500
227.46	610.000
227.83	-1150.000
228.21	-2750.000
228.58	755.556
228.95	-2900.000
229.33	-2700.000
229.70	1966.667
230.08	885.714
230.45	-1020.000
230.82	475.000
231.20	866.667
231.57	800.000
231.95	516.667
232.32	286.364
232.69	490.909
233.07	871.429
233.44	438.462
233.81	-1900.000
234.19	331.579
234.56	441.667
234.93	491.667
235.31	518.182
235.68	453.846
236.05	442.857
236.43	206.061
236.80	315.789
237.17	6000.000
237.55	285.714
237.92	264.286
238.29	314.286
238.67	232.258
239.04	262.069
239.41	194.444
239.79	143.478
240.16	164.286
240.53	188.636
240.91	150.980
241.28	144.000
241.65	164.000
242.02	149.275
242.40	133.871
242.77	153.333
243.14	106.452
243.51	123.596
243.89	118.824
244.26	114.444
244.63	116.129
245.00	113.830
245.38	113.861
245.75	107.477
246.12	103.670
246.49	94.161
246.87	103.200
247.24	96.923
247.61	95.714
247.98	93.464
248.36	89.865
248.73	84.713
249.10	93.631
249.47	88.136
249.84	80.749
250.22	80.749
250.59	85.207
250.96	83.838
251.33	79.621
251.70	84.158
252.08	82.857
252.45	70.404
252.82	76.522
253.19	75.745
253.56	70.588
253.94	75.519
254.31	74.609
254.68	76.538
255.05	74.170
255.42	75.610
255.79	73.162
256.16	79.061
256.54	67.138
256.91	72.598
257.28	69.784
257.65	67.987
258.02	72.050
258.39	69.401
258.76	69.565
259.14	68.452
259.51	69.301
259.88	70.186
260.25	68.580
260.62	67.341
260.99	74.224
261.36	72.673
261.73	72.493
262.10	68.895
262.47	69.014
262.85	68.524
263.22	65.242
263.59	71.510
263.96	65.385
264.33	66.057
264.70	65.526
265.07	69.309
265.44	66.667
265.81	63.260
266.18	71.608
266.55	64.146
266.92	69.533
267.29	64.352
267.66	63.991
268.03	63.409
268.40	64.720
268.77	63.246
269.14	62.387
269.51	64.560
269.88	63.403
270.25	63.205
270.62	64.045
270.99	64.731
271.36	61.588
271.73	66.589
272.10	64.348
272.47	61.720
272.84	62.771
273.21	58.910
273.58	58.297
273.95	62.264
274.32	59.917
274.69	64.454
275.06	59.646
275.43	63.191
275.80	61.723
276.17	61.100
276.54	64.033
276.91	63.043
277.28	60.352
277.65	59.961
278.02	59.627
278.39	62.500
278.76	56.909
279.13	59.811
279.50	61.453
279.87	61.753
280.23	59.481
280.60	59.574
280.97	59.150
281.34	59.115
281.71	56.909
282.08	62.380
282.45	58.909
282.82	58.615
283.19	57.576
283.56	56.140
283.92	61.591
284.29	58.907
284.66	58.621
285.03	56.962
285.40	57.394
285.77	58.418
286.14	57.168
286.51	57.167
286.87	55.214
287.24	56.352
287.61	55.698
287.98	55.844
288.35	54.517
288.72	52.492
289.08	52.269
289.45	53.213
289.82	55.772
290.19	49.608
290.56	50.689
290.93	49.094
291.29	52.761
291.66	50.000
292.03	51.308
292.40	50.073
292.77	48.817
293.13	49.104
293.50	49.563
293.87	51.704
294.24	47.407
294.60	47.016
294.97	48.837
295.34	49.788
295.71	48.011
296.08	44.729
296.44	46.905
296.81	45.575
297.18	47.154
297.55	44.195
297.91	44.987
298.28	45.515
298.65	45.692
299.02	44.664
299.38	44.622
299.75	43.396
300.12	43.678
300.48	42.875
300.85	42.787
301.22	44.459
301.59	41.919
301.95	43.451
302.32	43.261
302.69	42.652
303.05	41.333
303.42	42.346
303.79	40.997
304.15	40.676
304.52	40.788
304.89	40.070
305.25	41.879
305.62	41.450
305.99	42.385
306.35	41.723
306.72	41.592
307.09	39.734
307.45	40.428
307.82	40.737
308.19	40.949
308.55	41.316
308.92	39.527
309.29	39.493
309.65	40.721
310.02	40.169
310.38	39.677
310.75	41.499
311.12	39.713
311.48	40.125
311.85	40.671
312.22	40.583
312.58	38.462
312.95	39.493
313.31	39.320
313.68	39.189
314.05	40.434
314.41	39.095
314.78	40.685
315.14	41.609
315.51	40.680
315.87	41.881
316.24	41.907
316.61	41.423
316.97	39.824
317.34	40.705
317.70	42.734
318.07	41.001
318.43	44.031
318.80	41.331
319.16	40.772
319.53	41.088
319.89	42.571
320.26	44.400
320.62	42.956
320.99	43.535
321.35	43.434
321.72	43.943
322.08	43.731
322.45	45.473
322.81	44.671
323.18	45.665
323.54	46.568
323.91	46.321
324.27	46.845
324.64	45.666
325.00	45.987
325.37	48.044
325.73	47.576
326.10	47.485
326.46	47.670
326.83	47.455
327.19	48.847
327.56	50.436
327.92	48.294
328.29	49.246
328.65	49.632
329.01	50.451
329.38	50.416
329.74	50.416
330.11	52.026
330.47	51.240
330.84	52.298
331.20	50.455
331.56	51.009
331.93	51.389
332.29	51.198
332.66	50.885
333.02	50.366
333.38	51.310
333.75	50.000
334.11	51.068
334.48	49.867
334.84	51.287
335.20	52.273
335.57	52.312
335.93	50.089
336.29	50.366
336.66	52.480
337.02	50.769
337.38	52.315
337.75	50.713
338.11	52.104
338.47	53.223
338.84	52.429
339.20	52.018
339.56	51.734
339.93	52.636
340.29	51.359
340.65	51.337
341.02	52.792
341.38	52.580
341.74	52.018
342.11	53.450
342.47	52.687
342.83	53.253
343.20	53.420
343.56	51.980
343.92	54.123
344.28	52.296
344.65	54.342
345.01	51.431
345.37	51.286
345.73	53.469
346.10	53.879
346.46	53.983
346.82	53.707
347.19	51.880
347.55	52.791
347.91	54.450
348.27	54.150
348.63	53.177
349.00	53.883
349.36	53.038
349.72	53.007
350.08	53.160
350.45	53.295
350.81	53.452
351.17	55.267
351.53	54.218
351.89	54.290
352.26	54.538
352.62	53.168
352.98	54.943
353.34	54.478
353.70	53.846
354.07	54.516
354.43	53.889
354.79	53.258
355.15	54.429
355.51	55.556
355.87	57.633
356.24	55.945
356.60	54.451
356.96	56.315
357.32	57.645
357.68	57.165
358.04	55.978
358.40	56.453
358.77	56.182
359.13	55.564
359.49	55.529
359.85	55.714
360.21	56.539
360.57	58.288
360.93	57.385
361.29	56.085
361.66	56.347
362.02	55.970
362.38	57.795
362.74	56.920
363.10	56.699
363.46	57.520
363.82	59.410
364.18	58.443
364.54	59.212
364.90	58.569
365.26	58.971
365.62	59.679
365.98	58.510
366.35	58.596
366.71	59.436
367.07	58.776
367.43	61.321
367.79	59.814
368.15	60.560
368.51	61.119
368.87	60.171
369.23	60.571
369.59	61.912
369.95	60.147
370.31	61.396
370.67	61.667
371.03	62.022
371.39	63.265
371.75	63.309
372.11	62.020
372.47	63.856
372.83	63.689
373.19	63.439
373.55	64.671
373.91	64.875
374.27	63.368
374.63	64.655
374.99	66.031
375.35	65.666
375.71	64.222
376.07	64.746
376.42	67.331
376.78	66.932
377.14	66.621
377.50	68.344
377.86	64.827
378.22	67.383
378.58	66.416
378.94	66.436
379.30	67.621
379.66	69.987
380.02	69.103
380.38	67.699
380.74	68.788
381.09	68.888
381.45	71.973
381.81	69.410
382.17	70.191
382.53	69.811
382.89	70.494
383.25	72.858
383.61	72.862
383.97	71.732
384.32	70.992
384.68	72.057
385.04	72.588
385.40	73.808
385.76	72.236
386.12	74.158
386.48	74.827
386.83	75.690
387.19	76.623
387.55	74.583
387.91	76.602
388.27	76.211
388.62	76.275
388.98	75.123
389.34	76.846
389.70	76.579
390.06	79.087
390.42	79.183
390.77	78.944
391.13	79.579
391.49	79.822
391.85	78.931
392.20	78.044
392.56	79.987
392.92	79.753
393.28	79.586
393.64	80.156
393.99	80.024
394.35	82.692
394.71	81.744
395.07	80.374
395.42	83.993
395.78	82.125
396.14	81.068
396.50	82.832
396.85	83.789
397.21	81.628
397.57	83.137
397.92	84.856
398.28	83.072
398.64	82.616
399.00	83.828
399.35	82.516
399.71	83.854
400.07	84.211
400.42	84.540
400.78	82.750
401.14	85.488
401.49	85.194
401.85	85.420
402.21	84.731
402.57	84.207
402.92	86.444
403.28	87.508
403.63	86.386
403.99	88.025
404.35	86.970
404.70	87.950
405.06	86.139
405.42	87.149
405.77	87.257
406.13	84.707
406.49	86.872
406.84	87.301
407.20	87.766
407.55	87.428
407.91	88.400
408.27	89.598
408.62	86.514
408.98	88.909
409.34	87.577
409.69	90.323
410.05	88.290
410.40	89.174
410.76	89.307
411.11	89.083
411.47	87.923
411.83	88.210
412.18	88.621
412.54	89.539
412.89	88.976
413.25	89.551
413.60	90.179
413.96	87.735
414.31	88.092
414.67	89.987
415.03	90.066
415.38	89.626
415.74	90.740
416.09	91.509
416.45	90.228
416.80	93.060
417.16	90.550
417.51	91.108
417.87	88.054
418.22	92.618
418.58	91.478
418.93	90.602
419.29	92.171
419.64	90.428
420.00	90.976
420.35	90.435
420.71	92.110
421.06	90.334
421.42	90.877
421.77	89.518
422.12	90.118
422.48	90.394
422.83	91.497
423.19	90.331
423.54	91.236
423.90	90.841
424.25	90.731
424.61	90.476
424.96	91.895
425.31	89.701
425.67	88.202
426.02	90.000
426.38	93.101
426.73	90.813
427.09	91.672
427.44	90.454
427.79	90.282
428.15	90.060
428.50	90.053
428.85	91.359
429.21	90.006
429.56	91.861
429.92	89.331
430.27	90.318
430.62	89.196
430.98	89.206
431.33	88.196
431.68	89.476
432.04	87.167
432.39	91.034
432.74	90.604
433.10	91.058
433.45	92.187
433.80	89.856
434.16	89.690
434.51	88.947
434.86	90.137
435.22	90.217
435.57	90.274
435.92	90.696
436.28	91.518
436.63	89.459
436.98	89.926
437.34	90.698
437.69	92.065
438.04	91.343
438.39	88.955
438.75	89.890
439.10	90.112
439.45	90.732
439.81	91.118
440.16	90.401
440.51	91.740
440.86	89.577
441.22	88.821
441.57	88.747
441.92	90.020
442.27	90.527
442.63	88.678
442.98	90.310
443.33	89.239
443.68	87.661
444.03	88.482
444.39	88.559
444.74	88.582
445.09	87.925
445.44	87.808
445.79	87.481
446.15	87.824
446.50	88.314
446.85	88.284
447.20	88.985
447.55	88.945
447.91	89.300
448.26	89.037
448.61	89.373
448.96	88.317
449.31	88.583
449.66	87.057
450.02	88.468
450.37	88.209
450.72	87.704
451.07	86.837
451.42	86.444
451.77	86.377
452.12	84.642
452.47	86.940
452.83	88.986
453.18	87.286
453.53	87.941
453.88	87.655
454.23	87.149
454.58	86.493
454.93	89.193
455.28	88.092
455.63	87.682
455.98	88.512
456.34	88.128
456.69	87.289
457.04	87.678
457.39	86.733
457.74	86.013
458.09	84.934
458.44	87.229
458.79	84.816
459.14	86.343
459.49	85.406
459.84	84.875
460.19	85.209
460.54	82.581
460.89	84.312
461.24	85.367
461.59	85.009
461.94	85.512
462.29	84.866
462.64	84.110
462.99	86.077
463.34	85.667
463.69	85.178
464.04	84.232
464.39	83.246
464.74	83.422
465.09	85.042
465.44	81.828
465.79	83.166
466.14	81.445
466.49	80.979
466.84	81.494
467.19	82.378
467.54	82.938
467.89	81.333
468.24	82.199
468.59	82.723
468.94	81.735
469.29	82.969
469.64	82.396
469.99	83.965
470.34	83.355
470.68	85.417
471.03	81.769
471.38	83.808
471.73	82.012
472.08	81.250
472.43	81.156
472.78	82.159
473.13	82.221
473.48	82.210
473.83	81.951
474.17	79.652
474.52	81.514
474.87	80.502
475.22	80.731
475.57	78.882
475.92	79.660
476.27	78.467
476.61	79.978
476.96	77.790
477.31	79.540
477.66	78.665
478.01	75.745
478.36	79.376
478.70	78.141
479.05	77.902
479.40	78.403
479.75	77.377
480.10	77.336
480.45	75.345
480.79	76.493
481.14	77.691
481.49	76.792
481.84	76.406
482.19	77.465
482.53	76.193
482.88	75.756
483.23	76.776
483.58	75.705
483.92	75.867
484.27	73.290
484.62	74.655
484.97	73.118
485.31	74.212
485.66	71.731
486.01	69.086
486.36	67.451
486.70	66.380
487.05	67.975
487.40	69.459
487.75	70.235
488.09	70.974
488.44	70.914
488.79	73.020
489.13	73.033
489.48	73.165
489.83	72.119
490.17	74.266
490.52	72.409
490.87	71.868
491.22	72.715
491.56	71.708
491.91	71.661
492.26	71.337
492.60	70.737
492.95	71.048
493.30	70.327
493.64	72.282
493.99	70.520
494.34	71.462
494.68	72.299
495.03	69.831
495.37	70.358
495.72	70.175
496.07	71.555
496.41	68.673
496.76	69.129
497.11	68.708
497.45	69.725
497.80	69.866
498.14	69.082
498.49	70.244
498.84	69.223
499.18	68.810
499.53	69.801
499.87	68.779
500.22	68.252
500.56	68.350
500.91	68.510
501.26	67.899
501.60	68.533
501.95	66.865
502.29	68.557
502.64	68.436
502.98	67.695
503.33	66.225
503.67	67.239
504.02	67.166
504.36	65.653
504.71	68.490
505.06	66.024
505.40	67.039
505.75	66.779
506.09	66.035
506.44	67.242
506.78	65.660
507.13	67.138
507.47	66.616
507.82	66.717
508.16	65.552
508.51	67.073
508.85	65.045
509.19	67.500
509.54	66.684
509.88	65.585
510.23	65.604
510.57	66.460
510.92	64.371
511.26	63.977
511.61	64.678
511.95	62.787
512.30	64.634
512.64	65.180
512.98	65.702
513.33	65.632
513.67	64.301
514.02	64.177
514.36	64.118
514.70	64.305
515.05	63.469
515.39	64.218
515.74	63.851
516.08	64.617
516.42	64.595
516.77	64.883
517.11	64.040
517.46	64.221
517.80	64.866
518.14	63.984
518.49	64.177
518.83	63.977
519.17	64.319
519.52	62.196
519.86	64.233
520.20	64.566
520.55	64.931
520.89	64.355
521.23	64.596
521.58	63.385
521.92	64.360
522.26	63.087
522.61	64.299
522.95	63.536
523.29	63.664
523.64	63.720
523.98	63.524
524.32	63.932
524.66	62.658
525.01	62.684
525.35	63.817
525.69	61.515
526.04	61.371
526.38	62.843
526.72	60.552
527.06	63.026
527.41	59.839
527.75	63.408
528.09	62.556
528.43	61.759
528.78	61.094
529.12	59.758
529.46	60.625
529.80	61.015
530.15	60.498
530.49	58.954
530.83	60.063
531.17	61.945
531.51	62.257
531.86	60.581
532.20	61.669
532.54	60.794
532.88	61.232
533.22	59.275
533.57	59.753
533.91	59.001
534.25	59.356
534.59	58.938
534.93	57.347
535.27	58.781
535.62	58.303
535.96	58.318
536.30	58.932
536.64	58.210
536.98	57.863
537.32	58.262
537.66	60.400
538.01	59.776
538.35	58.565
538.69	58.392
539.03	58.285
539.37	57.891
539.71	56.254
540.05	57.582
540.39	56.811
540.73	55.692
541.07	56.911
541.42	57.926
541.76	56.194
542.10	57.180
542.44	57.152
542.78	56.917
543.12	56.046
543.46	56.852
543.80	56.669
544.14	55.263
544.48	56.190
544.82	54.907
545.16	56.539
545.50	54.242
545.84	56.720
546.18	55.892
546.52	56.641
546.86	55.739
547.20	56.642
547.54	55.311
547.88	55.804
548.22	54.047
548.56	54.214
548.90	53.265
549.24	55.758
549.58	54.366
549.92	54.533
550.26	56.534
550.60	53.873
550.94	54.930
551.28	55.377
551.62	55.859
551.96	54.175
552.30	55.222
552.64	54.158
552.98	54.169
553.32	53.405
553.66	53.442
554.00	54.221
554.34	53.416
554.68	54.363
555.02	52.821
555.36	53.584
555.69	53.315
556.03	53.701
556.37	53.274
556.71	52.183
557.05	52.941
557.39	53.254
557.73	53.140
558.07	53.662
558.41	53.690
558.75	53.637
559.08	53.020
559.42	52.910
559.76	52.941
560.10	51.963
560.44	53.389
560.78	51.098
561.12	52.045
561.45	51.173
561.79	50.890
562.13	52.582
562.47	52.527
562.81	53.208
563.15	51.505
563.48	51.525
563.82	51.207
564.16	51.341
564.50	50.911
564.84	49.368
565.17	50.837
565.51	51.182
565.85	51.269
566.19	49.530
566.52	49.968
566.86	49.186
567.20	50.590
567.54	49.772
567.88	48.778
568.21	49.365
568.55	47.877
568.89	47.957
569.23	46.747
569.56	45.789
569.90	46.491
570.24	45.246
570.57	44.883
570.91	43.665
571.25	43.329
571.59	43.829
571.92	43.404
572.26	43.963
572.60	43.814
572.93	43.658
573.27	43.922
573.61	43.830
573.95	43.333
574.28	42.839
574.62	43.197
574.96	42.628
575.29	42.095
575.63	43.166
575.97	42.801
576.30	42.539
576.64	42.760
576.98	42.562
577.31	42.237
577.65	41.824
577.98	41.757
578.32	41.243
578.66	42.096
578.99	42.205
579.33	41.757
579.67	41.061
580.00	41.717
580.34	41.813
580.67	41.645
581.01	41.511
581.35	41.133
581.68	41.436
582.02	40.196
582.35	40.796
582.69	40.705
583.02	41.138
583.36	41.596
583.70	41.683
584.03	42.529
584.37	41.871
584.70	42.241
585.04	41.438
585.37	41.146
585.71	41.306
586.04	41.483
586.38	42.059
586.72	42.143
587.05	40.723
587.39	41.082
587.72	41.330
588.06	41.649
588.39	42.277
588.73	41.596
589.06	41.976
589.40	42.896
589.73	42.802
590.07	42.135
590.40	41.396
590.73	43.091
591.07	43.386
591.40	43.737
591.74	44.113
592.07	43.063
592.41	42.373
592.74	41.573
593.08	41.106
593.41	41.189
593.75	40.131
594.08	39.960
594.41	41.711
594.75	41.220
595.08	41.589
595.42	42.067
595.75	40.954
596.09	41.757
596.42	42.318
596.75	42.085
597.09	42.944
597.42	41.315
597.75	41.915
598.09	41.870
598.42	40.679
598.76	41.305
599.09	40.935
599.42	40.211
599.76	40.630
600.09	40.109
600.42	41.271
600.76	40.143
601.09	40.364
601.42	40.449
601.76	41.176
602.09	41.146
602.42	40.645
602.76	42.443
603.09	41.267
603.42	41.156
603.76	40.434
604.09	40.791
604.42	40.726
604.76	41.333
605.09	41.110
605.42	39.675
605.75	40.853
606.09	40.423
606.42	40.539
606.75	40.066
607.09	40.435
607.42	40.436
607.75	39.747
608.08	40.382
608.42	41.506
608.75	40.893
609.08	40.333
609.41	41.314
609.75	40.257
610.08	40.999
610.41	40.317
610.74	41.296
611.07	41.650
611.41	41.021
611.74	40.825
612.07	41.408
612.40	42.760
612.73	40.947
613.07	41.433
613.40	42.127
613.73	39.906
614.06	41.505
614.39	40.482
614.72	41.105
615.06	42.122
615.39	39.915
615.72	39.519
616.05	40.564
616.38	41.412
616.71	41.449
617.05	41.107
617.38	41.732
617.71	42.162
618.04	42.368
618.37	42.401
618.70	42.190
619.03	43.355
619.36	41.752
619.69	41.549
620.03	42.788
620.36	42.112
620.69	42.123
621.02	43.142
621.35	43.070
621.68	43.536
622.01	42.415
622.34	43.797
622.67	43.042
623.00	41.599
623.33	41.744
623.66	42.102
623.99	43.078
624.32	42.083
624.65	40.678
624.99	42.210
625.32	42.650
625.65	42.975
625.98	42.736
626.31	43.157
626.64	42.612
626.97	43.142
627.30	43.142
627.63	43.888
627.96	43.734
628.29	43.657
628.62	44.373
628.95	43.208
629.28	44.343
629.61	44.730
629.94	45.143
630.26	42.898
630.59	43.565
