SpectraSuite Data File
++++++++++++++++++++++++++++++++++++
Date: Tue May 12 20:00:00 PDT 2015
User: schluterlab
Dark Spectrum Present: Yes
Reference Spectrum Present: Yes
Number of Sampled Component Spectra: 1
Spectrometers: USB2E3373
Integration Time (usec): 3000 (USB2E3373)
Spectra Averaged: 3 (USB2E3373)
Boxcar Smoothing: 0 (USB2E3373)
Correct for Electrical Dark: No (USB2E3373)
Strobe/Lamp Enabled: No (USB2E3373)
Correct for Detector Non-linearity: No (USB2E3373)
Correct for Stray Light: No (USB2E3373)
Number of Pixels in Processed Spectrum: 2048
>>>>>Begin Processed Spectral Data<<<<<
178.53	0.000
178.91	-180.000
179.29	-366.667
179.67	600.000
180.04	0.000
180.42	-300.000
180.80	-600.000
181.18	1350.000
181.56	-850.000
181.94	433.333
182.31	2600.000
182.69	-14.286
183.07	0.000
183.45	291.667
183.83	540.000
184.20	400.000
184.58	1000.000
184.96	350.000
185.34	-700.000
185.72	-164.286
186.09	-283.333
186.47	-2100.000
186.85	-300.000
187.23	216.667
187.61	-285.714
187.98	-400.000
188.36	1150.000
188.74	-100.000
189.12	-88.889
189.49	-150.000
189.87	500.000
190.25	266.667
190.63	900.000
191.00	440.000
191.38	-600.000
191.76	480.000
192.14	-257.143
192.51	-70.000
192.89	-320.000
193.27	-400.000
193.65	-900.000
194.02	-250.000
194.40	1900.000
194.78	-275.000
195.15	-357.143
195.53	300.000
195.91	360.000
196.29	-700.000
196.66	-300.000
197.04	-357.143
197.42	200.000
197.79	-225.000
198.17	-141.667
198.55	-1600.000
198.92	-188.889
199.30	1300.000
199.68	-400.000
200.05	-1000.000
200.43	-77.778
200.81	-241.667
201.18	450.000
201.56	-1100.000
201.94	-1800.000
202.31	-116.667
202.69	-88.889
203.07	-91.667
203.44	-600.000
203.82	0.000
204.19	187.500
204.57	-733.333
204.95	300.000
205.32	280.000
205.70	650.000
206.08	-1400.000
206.45	-160.000
206.83	2500.000
207.20	-200.000
207.58	-69.231
207.96	566.667
208.33	966.667
208.71	500.000
209.08	950.000
209.46	-211.111
209.84	600.000
210.21	-633.333
210.59	1000.000
210.96	255.556
211.34	-475.000
211.71	1750.000
212.09	-280.000
212.46	-300.000
212.84	-275.000
213.22	214.286
213.59	-162.500
213.97	0.000
214.34	-1100.000
214.72	-2700.000
215.09	750.000
215.47	-100.000
215.84	-212.500
216.22	-2500.000
216.59	1500.000
216.97	-83.333
217.34	-216.667
217.72	-44.444
218.09	625.000
218.47	-63.158
218.84	-300.000
219.22	-28.571
219.59	-190.000
219.97	-150.000
220.34	500.000
220.72	218.182
221.09	-900.000
221.47	0.000
221.84	800.000
222.22	-400.000
222.59	-550.000
222.97	-39.130
223.34	140.000
223.72	400.000
224.09	-350.000
224.46	253.846
224.84	-60.000
225.21	-1150.000
225.59	-475.000
225.96	-15.000
226.34	383.333
226.71	330.000
227.08	-130.769
227.46	-100.000
227.83	-100.000
228.21	-1400.000
228.58	266.667
228.95	-47.368
229.33	-43.750
229.70	-400.000
230.08	-255.556
230.45	-933.333
230.82	-2700.000
231.20	-28.571
231.57	-440.000
231.95	-766.667
232.32	188.889
232.69	-800.000
233.07	-31.250
233.44	-212.500
233.81	-32.258
234.19	-620.000
234.56	-100.000
234.93	-316.667
235.31	-22.222
235.68	-40.741
236.05	-19.231
236.43	-42.105
236.80	-50.000
237.17	-192.857
237.55	-60.000
237.92	-27.907
238.29	-16.129
238.67	0.000
239.04	11.429
239.41	13.725
239.79	-8.000
240.16	-30.000
240.53	-13.793
240.91	-1.370
241.28	-1.408
241.65	7.812
242.02	-5.263
242.40	2.667
242.77	11.579
243.14	18.824
243.51	2.151
243.89	1.905
244.26	20.370
244.63	6.122
245.00	-2.679
245.38	4.202
245.75	8.475
246.12	12.500
246.49	10.400
246.87	8.197
247.24	10.563
247.61	11.921
247.98	20.225
248.36	15.094
248.73	12.500
249.10	6.667
249.47	18.750
249.84	17.766
250.22	10.938
250.59	24.157
250.96	18.182
251.33	18.868
251.70	22.477
252.08	19.913
252.45	14.694
252.82	17.300
253.19	20.233
253.56	20.000
253.94	21.951
254.31	25.180
254.68	21.528
255.05	19.868
255.42	22.909
255.79	23.179
256.16	22.569
256.54	22.727
256.91	23.397
257.28	21.104
257.65	20.984
258.02	24.625
258.39	22.356
258.76	22.630
259.14	22.059
259.51	22.817
259.88	25.937
260.25	19.602
260.62	22.191
260.99	25.348
261.36	26.149
261.73	24.533
262.10	25.341
262.47	24.518
262.85	23.907
263.22	21.774
263.59	22.252
263.96	25.326
264.33	21.294
264.70	24.324
265.07	22.906
265.44	24.122
265.81	24.096
266.18	23.653
266.55	25.714
266.92	26.786
267.29	23.111
267.66	22.045
268.03	23.871
268.40	25.858
268.77	25.612
269.14	26.261
269.51	24.661
269.88	27.991
270.25	23.207
270.62	26.891
270.99	23.158
271.36	22.958
271.73	25.833
272.10	25.934
272.47	21.800
272.84	23.992
273.21	24.635
273.58	23.265
273.95	23.705
274.32	24.952
274.69	26.419
275.06	24.203
275.43	19.400
275.80	25.621
276.17	23.320
276.54	24.905
276.91	25.528
277.28	28.046
277.65	22.495
278.02	24.242
278.39	27.768
278.76	24.022
279.13	27.907
279.50	26.173
279.87	25.660
280.23	24.226
280.60	23.498
280.97	23.550
281.34	23.559
281.71	25.755
282.08	24.508
282.45	25.397
282.82	24.579
283.19	24.916
283.56	25.427
283.92	24.803
284.29	25.888
284.66	25.664
285.03	22.642
285.40	25.500
285.77	24.466
286.14	22.979
286.51	23.473
286.87	21.556
287.24	22.115
287.61	22.994
287.98	25.352
288.35	25.116
288.72	23.853
289.08	20.912
289.45	22.621
289.82	22.671
290.19	20.909
290.56	25.036
290.93	23.634
291.29	21.986
291.66	23.315
292.03	24.821
292.40	22.590
292.77	21.866
293.13	21.292
293.50	22.314
293.87	19.001
294.24	21.489
294.60	21.311
294.97	21.053
295.34	19.863
295.71	20.804
296.08	19.672
296.44	21.607
296.81	19.276
297.18	20.828
297.55	20.226
297.91	19.670
298.28	19.949
298.65	20.569
299.02	19.729
299.38	19.770
299.75	19.305
300.12	19.784
300.48	19.953
300.85	19.315
301.22	20.313
301.59	18.856
301.95	20.122
302.32	20.413
302.69	19.501
303.05	18.064
303.42	19.082
303.79	17.865
304.15	19.479
304.52	19.218
304.89	18.264
305.25	19.381
305.62	18.636
305.99	18.253
306.35	19.799
306.72	19.390
307.09	17.628
307.45	18.878
307.82	18.036
308.19	19.032
308.55	19.304
308.92	16.843
309.29	18.410
309.65	17.647
310.02	18.973
310.38	18.337
310.75	17.930
311.12	19.023
311.48	18.499
311.85	17.832
312.22	19.628
312.58	19.335
312.95	17.864
313.31	18.191
313.68	19.265
314.05	19.960
314.41	19.352
314.78	18.492
315.14	18.707
315.51	18.967
315.87	20.215
316.24	19.486
316.61	19.417
316.97	20.980
317.34	19.713
317.70	20.261
318.07	19.383
318.43	20.983
318.80	21.676
319.16	20.876
319.53	22.170
319.89	21.496
320.26	22.419
320.62	22.868
320.99	23.878
321.35	23.814
321.72	23.939
322.08	24.950
322.45	25.049
322.81	27.389
323.18	26.558
323.54	26.351
323.91	26.850
324.27	28.930
324.64	27.366
325.00	28.298
325.37	29.766
325.73	28.558
326.10	28.546
326.46	30.916
326.83	32.014
327.19	31.266
327.56	33.687
327.92	33.333
328.29	33.961
328.65	36.064
329.01	33.945
329.38	34.711
329.74	35.933
330.11	35.135
330.47	37.244
330.84	34.868
331.20	36.599
331.56	35.283
331.93	36.871
332.29	37.003
332.66	36.890
333.02	37.140
333.38	38.143
333.75	36.597
334.11	36.709
334.48	37.835
334.84	37.089
335.20	35.631
335.57	38.238
335.93	39.163
336.29	38.665
336.66	38.889
337.02	39.438
337.38	37.830
337.75	39.000
338.11	38.560
338.47	38.997
338.84	38.398
339.20	37.764
339.56	39.049
339.93	37.838
340.29	38.803
340.65	38.447
341.02	37.112
341.38	38.041
341.74	40.036
342.11	40.407
342.47	36.801
342.83	38.248
343.20	39.699
343.56	38.724
343.92	38.058
344.28	37.307
344.65	39.384
345.01	39.460
345.37	38.974
345.73	38.674
346.10	38.894
346.46	39.172
346.82	39.847
347.19	38.688
347.55	39.031
347.91	38.903
348.27	38.837
348.63	40.449
349.00	39.482
349.36	38.912
349.72	38.916
350.08	39.771
350.45	39.056
350.81	39.306
351.17	38.880
351.53	38.486
351.89	39.465
352.26	38.293
352.62	39.248
352.98	38.661
353.34	38.931
353.70	38.930
354.07	38.715
354.43	39.399
354.79	39.098
355.15	37.450
355.51	39.772
355.87	39.217
356.24	38.889
356.60	39.649
356.96	39.100
357.32	40.329
357.68	38.663
358.04	39.222
358.40	39.116
358.77	39.197
359.13	40.321
359.49	39.280
359.85	40.767
360.21	39.572
360.57	39.314
360.93	39.984
361.29	40.421
361.66	39.826
362.02	40.424
362.38	39.627
362.74	40.430
363.10	41.252
363.46	40.858
363.82	40.658
364.18	40.197
364.54	40.611
364.90	39.926
365.26	39.270
365.62	41.105
365.98	42.054
366.35	42.284
366.71	41.972
367.07	42.066
367.43	41.011
367.79	41.424
368.15	41.660
368.51	41.348
368.87	40.822
369.23	42.316
369.59	40.588
369.95	41.952
370.31	42.273
370.67	41.805
371.03	43.111
371.39	43.202
371.75	40.193
372.11	42.519
372.47	41.797
372.83	42.659
373.19	42.997
373.55	42.814
373.91	42.121
374.27	44.077
374.63	43.594
374.99	42.387
375.35	42.888
375.71	42.898
376.07	42.403
376.42	42.462
376.78	42.787
377.14	43.785
377.50	43.707
377.86	44.638
378.22	43.131
378.58	43.882
378.94	44.335
379.30	44.080
379.66	45.967
380.02	44.437
380.38	45.102
380.74	45.370
381.09	43.964
381.45	45.714
381.81	44.133
382.17	44.756
382.53	45.759
382.89	43.938
383.25	44.515
383.61	45.900
383.97	45.744
384.32	45.806
384.68	45.530
385.04	45.767
385.40	45.176
385.76	45.604
386.12	46.667
386.48	46.771
386.83	46.807
387.19	46.807
387.55	46.632
387.91	45.234
388.27	46.769
388.62	47.798
388.98	47.710
389.34	47.365
389.70	47.436
390.06	47.921
390.42	48.005
390.77	47.954
391.13	48.146
391.49	48.854
391.85	46.507
392.20	48.713
392.56	47.675
392.92	49.103
393.28	48.055
393.64	49.082
393.99	47.922
394.35	47.956
394.71	49.669
395.07	48.210
395.42	48.762
395.78	48.522
396.14	48.434
396.50	48.771
396.85	49.042
397.21	48.642
397.57	49.572
397.92	50.127
398.28	50.659
398.64	49.905
399.00	49.158
399.35	49.297
399.71	49.521
400.07	50.710
400.42	49.615
400.78	51.376
401.14	49.558
401.49	51.093
401.85	51.048
402.21	50.381
402.57	50.354
402.92	51.859
403.28	51.235
403.63	50.513
403.99	50.859
404.35	50.764
404.70	50.728
405.06	52.077
405.42	51.529
405.77	51.546
406.13	50.777
406.49	51.420
406.84	52.491
407.20	51.549
407.55	52.305
407.91	51.469
408.27	52.992
408.62	50.418
408.98	52.445
409.34	53.457
409.69	52.107
410.05	52.202
410.40	52.408
410.76	52.740
411.11	52.618
411.47	52.993
411.83	52.350
412.18	53.469
412.54	52.393
412.89	53.756
413.25	53.981
413.60	53.635
413.96	54.175
414.31	52.772
414.67	55.706
415.03	54.357
415.38	55.223
415.74	54.063
416.09	54.445
416.45	52.937
416.80	54.033
417.16	54.443
417.51	54.684
417.87	55.951
418.22	54.813
418.58	56.393
418.93	56.093
419.29	55.224
419.64	56.662
420.00	55.730
420.35	56.748
420.71	57.298
421.06	57.041
421.42	56.524
421.77	56.760
422.12	56.054
422.48	57.853
422.83	56.049
423.19	58.000
423.54	57.422
423.90	56.242
424.25	58.006
424.61	56.903
424.96	57.371
425.31	58.394
425.67	58.000
426.02	58.820
426.38	58.366
426.73	58.193
427.09	58.437
427.44	59.074
427.79	59.344
428.15	58.402
428.50	59.359
428.85	59.333
429.21	61.028
429.56	59.724
429.92	58.085
430.27	59.040
430.62	59.167
430.98	58.678
431.33	60.122
431.68	60.230
432.04	60.529
432.39	59.121
432.74	59.899
433.10	60.218
433.45	60.988
433.80	60.298
434.16	60.127
434.51	59.922
434.86	61.088
435.22	61.700
435.57	63.127
435.92	58.885
436.28	60.834
436.63	62.075
436.98	62.284
437.34	62.572
437.69	62.716
438.04	61.839
438.39	63.446
438.75	61.415
439.10	63.869
439.45	64.185
439.81	63.048
440.16	64.255
440.51	61.152
440.86	63.321
441.22	63.311
441.57	62.963
441.92	63.998
442.27	64.229
442.63	64.108
442.98	65.220
443.33	65.629
443.68	62.840
444.03	62.732
444.39	64.394
444.74	63.938
445.09	65.939
445.44	63.673
445.79	66.127
446.15	64.723
446.50	64.604
446.85	64.906
447.20	64.223
447.55	63.583
447.91	64.844
448.26	65.282
448.61	65.076
448.96	64.163
449.31	65.582
449.66	64.649
450.02	66.036
450.37	66.221
450.72	66.667
451.07	66.051
451.42	66.074
451.77	65.700
452.12	66.228
452.47	66.192
452.83	66.625
453.18	66.172
453.53	67.276
453.88	68.092
454.23	66.390
454.58	67.559
454.93	66.689
455.28	67.821
455.63	68.486
455.98	68.084
456.34	66.577
456.69	69.127
457.04	68.045
457.39	67.291
457.74	66.877
458.09	67.704
458.44	68.731
458.79	66.784
459.14	67.024
459.49	67.834
459.84	68.668
460.19	66.417
460.54	67.677
460.89	67.059
461.24	67.208
461.59	68.833
461.94	67.916
462.29	67.544
462.64	69.708
462.99	69.833
463.34	70.256
463.69	68.587
464.04	68.505
464.39	69.582
464.74	67.294
465.09	67.074
465.44	69.286
465.79	67.870
466.14	68.675
466.49	68.114
466.84	68.120
467.19	68.291
467.54	67.838
467.89	67.668
468.24	68.497
468.59	68.521
468.94	69.065
469.29	71.280
469.64	70.387
469.99	69.791
470.34	69.661
470.68	69.462
471.03	69.124
471.38	69.634
471.73	70.349
472.08	69.537
472.43	71.577
472.78	70.196
473.13	70.246
473.48	71.093
473.83	71.334
474.17	70.647
474.52	71.333
474.87	70.202
475.22	70.140
475.57	69.741
475.92	69.869
476.27	70.464
476.61	71.099
476.96	71.310
477.31	70.833
477.66	69.843
478.01	71.042
478.36	70.774
478.70	72.056
479.05	72.200
479.40	71.200
479.75	71.060
480.10	72.294
480.45	72.094
480.79	71.458
481.14	71.481
481.49	72.031
481.84	72.222
482.19	72.293
482.53	71.422
482.88	72.750
483.23	71.759
483.58	70.396
483.92	70.302
484.27	71.733
484.62	71.099
484.97	70.782
485.31	71.114
485.66	70.266
486.01	67.785
486.36	69.817
486.70	71.028
487.05	71.322
487.40	70.588
487.75	70.112
488.09	68.515
488.44	69.484
488.79	69.228
489.13	69.909
489.48	70.406
489.83	70.042
490.17	72.011
490.52	71.845
490.87	73.046
491.22	72.732
491.56	72.777
491.91	71.988
492.26	74.044
492.60	73.571
492.95	72.639
493.30	72.974
493.64	73.834
493.99	74.025
494.34	73.999
494.68	71.259
495.03	73.073
495.37	73.087
495.72	74.103
496.07	72.312
496.41	71.344
496.76	72.827
497.11	72.575
497.45	73.732
497.80	73.572
498.14	74.551
498.49	73.412
498.84	72.013
499.18	73.897
499.53	74.247
499.87	73.221
500.22	73.610
500.56	74.202
500.91	73.886
501.26	74.121
501.60	72.171
501.95	73.644
502.29	74.500
502.64	72.175
502.98	72.792
503.33	72.891
503.67	73.711
504.02	72.932
504.36	74.217
504.71	72.872
505.06	74.772
505.40	74.263
505.75	73.723
506.09	74.323
506.44	75.429
506.78	74.893
507.13	75.027
507.47	75.014
507.82	74.609
508.16	74.109
508.51	75.875
508.85	74.451
509.19	73.889
509.54	76.487
509.88	74.856
510.23	74.888
510.57	75.468
510.92	74.887
511.26	75.129
511.61	74.543
511.95	75.651
512.30	73.797
512.64	75.191
512.98	75.369
513.33	74.502
513.67	73.533
514.02	75.962
514.36	75.148
514.70	77.474
515.05	75.366
515.39	77.666
515.74	76.441
516.08	76.271
516.42	76.445
516.77	76.087
517.11	78.043
517.46	78.326
517.80	77.218
518.14	75.965
518.49	77.814
518.83	78.988
519.17	76.093
519.52	76.765
519.86	79.037
520.20	77.134
520.55	77.350
520.89	79.960
521.23	78.891
521.58	76.455
521.92	79.239
522.26	78.144
522.61	78.567
522.95	79.110
523.29	77.395
523.64	79.579
523.98	79.099
524.32	77.576
524.66	79.878
525.01	81.168
525.35	77.497
525.69	77.977
526.04	79.915
526.38	77.930
526.72	79.375
527.06	80.661
527.41	80.156
527.75	80.187
528.09	78.996
528.43	78.526
528.78	79.734
529.12	78.836
529.46	77.674
529.80	78.965
530.15	79.500
530.49	78.731
530.83	81.417
531.17	79.308
531.51	78.587
531.86	76.891
532.20	78.499
532.54	79.353
532.88	79.855
533.22	79.382
533.57	78.759
533.91	80.179
534.25	79.837
534.59	80.261
534.93	76.830
535.27	78.519
535.62	78.528
535.96	80.042
536.30	79.123
536.64	80.615
536.98	78.024
537.32	79.539
537.66	79.912
538.01	80.339
538.35	79.273
538.69	78.415
539.03	78.803
539.37	78.966
539.71	78.841
540.05	79.595
540.39	78.286
540.73	78.388
541.07	80.000
541.42	79.259
541.76	78.273
542.10	77.403
542.44	78.324
542.78	78.079
543.12	78.773
543.46	79.061
543.80	78.485
544.14	78.781
544.48	77.544
544.82	76.934
545.16	79.130
545.50	79.549
545.84	78.859
546.18	78.202
546.52	79.939
546.86	78.500
547.20	78.788
547.54	77.710
547.88	76.709
548.22	77.567
548.56	78.436
548.90	78.316
549.24	77.997
549.58	78.614
549.92	78.947
550.26	78.301
550.60	79.381
550.94	80.000
551.28	80.081
551.62	80.753
551.96	80.431
552.30	80.465
552.64	77.986
552.98	78.603
553.32	77.197
553.66	77.921
554.00	79.614
554.34	78.672
554.68	79.027
555.02	79.683
555.36	78.237
555.69	78.324
556.03	78.271
556.37	77.044
556.71	76.848
557.05	78.594
557.39	79.197
557.73	77.044
558.07	78.169
558.41	78.292
558.75	79.668
559.08	79.404
559.42	79.431
559.76	80.371
560.10	79.136
560.44	79.652
560.78	77.385
561.12	78.738
561.45	80.208
561.79	76.285
562.13	77.835
562.47	78.058
562.81	77.862
563.15	77.338
563.48	76.105
563.82	76.856
564.16	76.851
564.50	76.648
564.84	76.116
565.17	77.468
565.51	77.973
565.85	76.268
566.19	78.845
566.52	76.631
566.86	77.254
567.20	76.780
567.54	76.579
567.88	74.818
568.21	75.440
568.55	74.477
568.89	75.824
569.23	74.096
569.56	72.138
569.90	73.319
570.24	72.459
570.57	72.235
570.91	72.999
571.25	71.660
571.59	71.148
571.92	70.047
572.26	69.948
572.60	70.430
572.93	69.745
573.27	69.533
573.61	69.390
573.95	68.996
574.28	69.269
574.62	67.267
574.96	68.683
575.29	67.785
575.63	67.040
575.97	67.947
576.30	68.855
576.64	67.310
576.98	68.045
577.31	68.580
577.65	68.200
577.98	67.358
578.32	67.067
578.66	67.519
578.99	68.498
579.33	67.451
579.67	67.345
580.00	67.497
580.34	67.285
580.67	67.243
581.01	66.949
581.35	66.607
581.68	65.679
582.02	66.439
582.35	67.139
582.69	66.601
583.02	66.703
583.36	66.682
583.70	67.338
584.03	67.390
584.37	67.514
584.70	66.752
585.04	65.868
585.37	66.803
585.71	66.465
586.04	67.349
586.38	67.393
586.72	67.236
587.05	67.258
587.39	67.011
587.72	67.352
588.06	67.424
588.39	68.098
588.73	67.989
589.06	67.282
589.40	67.230
589.73	67.091
590.07	68.099
590.40	67.141
590.73	68.680
591.07	68.831
591.40	68.524
591.74	68.843
592.07	69.102
592.41	70.056
592.74	69.024
593.08	67.656
593.41	67.467
593.75	67.273
594.08	67.501
594.41	67.521
594.75	68.207
595.08	67.160
595.42	66.879
595.75	67.462
596.09	67.734
596.42	67.357
596.75	68.227
597.09	66.325
597.42	67.621
597.75	68.058
598.09	66.526
598.42	67.771
598.76	67.532
599.09	66.429
599.42	66.011
599.76	65.594
600.09	67.616
600.42	64.219
600.76	65.666
601.09	66.078
601.42	65.258
601.76	65.828
602.09	66.443
602.42	66.956
602.76	66.012
603.09	67.058
603.42	67.888
603.76	65.925
604.09	67.001
604.42	66.853
604.76	67.595
605.09	65.895
605.42	66.825
605.75	66.058
606.09	66.978
606.42	66.098
606.75	64.920
607.09	66.884
607.42	65.764
607.75	65.381
608.08	65.762
608.42	66.683
608.75	66.433
609.08	65.321
609.41	66.978
609.75	66.877
610.08	66.357
610.41	66.260
610.74	67.037
611.07	67.160
611.41	66.649
611.74	65.615
612.07	66.016
612.40	66.128
612.73	66.898
613.07	66.706
613.40	65.497
613.73	66.380
614.06	64.813
614.39	65.847
614.72	67.119
615.06	66.361
615.39	64.376
615.72	64.334
616.05	66.029
616.38	66.074
616.71	63.993
617.05	66.269
617.38	65.484
617.71	66.884
618.04	66.491
618.37	67.103
618.70	67.867
619.03	68.673
619.36	67.526
619.69	68.040
620.03	67.353
620.36	68.405
620.69	65.410
621.02	68.092
621.35	68.851
621.68	70.657
622.01	69.519
622.34	67.002
622.67	69.056
623.00	68.960
623.33	68.268
623.66	68.924
623.99	68.740
624.32	67.355
624.65	65.859
624.99	66.719
625.32	66.825
625.65	67.014
625.98	67.583
626.31	66.926
626.64	68.739
626.97	69.577
627.30	69.907
627.63	69.302
627.96	69.460
628.29	68.069
628.62	69.175
628.95	71.067
629.28	69.215
629.61	70.115
629.94	70.954
630.26	69.665
630.59	69.843
630.92	67.966
631.25	69.944
