SpectraSuite Data File
++++++++++++++++++++++++++++++++++++
Date: Tue May 12 19:53:15 PDT 2015
User: schluterlab
Dark Spectrum Present: Yes
Reference Spectrum Present: Yes
Number of Sampled Component Spectra: 1
Spectrometers: USB2E3373
Integration Time (usec): 3000 (USB2E3373)
Spectra Averaged: 3 (USB2E3373)
Boxcar Smoothing: 0 (USB2E3373)
Correct for Electrical Dark: No (USB2E3373)
Strobe/Lamp Enabled: No (USB2E3373)
Correct for Detector Non-linearity: No (USB2E3373)
Correct for Stray Light: No (USB2E3373)
Number of Pixels in Processed Spectrum: 2048
>>>>>Begin Processed Spectral Data<<<<<
178.53	0.000
178.91	-120.000
179.29	-283.333
179.67	666.667
180.04	0.000
180.42	-380.000
180.80	-433.333
181.18	650.000
181.56	-750.000
181.94	433.333
182.31	3900.000
182.69	-242.857
183.07	0.000
183.45	241.667
183.83	440.000
184.20	433.333
184.58	1050.000
184.96	416.667
185.34	-633.333
185.72	-107.143
186.09	-283.333
186.47	-2100.000
186.85	-260.000
187.23	233.333
187.61	-228.571
187.98	-240.000
188.36	850.000
188.74	-250.000
189.12	-211.111
189.49	-200.000
189.87	350.000
190.25	244.444
190.63	900.000
191.00	480.000
191.38	-766.667
191.76	340.000
192.14	-114.286
192.51	-210.000
192.89	-240.000
193.27	-260.000
193.65	-400.000
194.02	-283.333
194.40	1500.000
194.78	-75.000
195.15	-385.714
195.53	333.333
195.91	400.000
196.29	-675.000
196.66	-500.000
197.04	-128.571
197.42	240.000
197.79	-150.000
198.17	-75.000
198.55	-1400.000
198.92	-188.889
199.30	1300.000
199.68	-500.000
200.05	-1250.000
200.43	-55.556
200.81	-175.000
201.18	316.667
201.56	-500.000
201.94	-2500.000
202.31	-125.000
202.69	-122.222
203.07	-141.667
203.44	-325.000
203.82	0.000
204.19	325.000
204.57	-500.000
204.95	245.455
205.32	520.000
205.70	550.000
206.08	-1600.000
206.45	-180.000
206.83	1700.000
207.20	-55.556
207.58	-61.538
207.96	600.000
208.33	1233.333
208.71	1000.000
209.08	500.000
209.46	-88.889
209.84	866.667
210.21	-800.000
210.59	850.000
210.96	344.444
211.34	-525.000
211.71	650.000
212.09	-420.000
212.46	-300.000
212.84	-287.500
213.22	328.571
213.59	-262.500
213.97	0.000
214.34	-550.000
214.72	-1700.000
215.09	1250.000
215.47	-46.667
215.84	-87.500
216.22	-1300.000
216.59	2500.000
216.97	-133.333
217.34	-250.000
217.72	-27.778
218.09	700.000
218.47	-121.053
218.84	-250.000
219.22	-128.571
219.59	-170.000
219.97	-140.000
220.34	450.000
220.72	190.909
221.09	-1050.000
221.47	0.000
221.84	400.000
222.22	-575.000
222.59	-500.000
222.97	-65.217
223.34	246.667
223.72	428.571
224.09	-400.000
224.46	176.923
224.84	-93.333
225.21	-750.000
225.59	-550.000
225.96	-20.000
226.34	466.667
226.71	270.000
227.08	-192.308
227.46	-271.429
227.83	-91.667
228.21	-1700.000
228.58	366.667
228.95	-68.421
229.33	-62.500
229.70	-233.333
230.08	-233.333
230.45	-633.333
230.82	-2200.000
231.20	-57.143
231.57	-280.000
231.95	-1000.000
232.32	233.333
232.69	-1500.000
233.07	-37.500
233.44	-12.500
233.81	-12.903
234.19	-460.000
234.56	-66.667
234.93	-366.667
235.31	-14.815
235.68	-11.111
236.05	-50.000
236.43	-31.579
236.80	-63.636
237.17	-128.571
237.55	-130.000
237.92	9.302
238.29	-16.129
238.67	-10.714
239.04	0.000
239.41	-9.804
239.79	0.000
240.16	-20.000
240.53	0.000
240.91	-1.370
241.28	1.408
241.65	15.625
242.02	0.000
242.40	5.333
242.77	22.105
243.14	32.941
243.51	23.656
243.89	25.714
244.26	16.667
244.63	16.327
245.00	17.857
245.38	15.126
245.75	25.424
246.12	21.094
246.49	11.200
246.87	23.770
247.24	17.606
247.61	21.854
247.98	23.034
248.36	22.642
248.73	23.864
249.10	16.111
249.47	15.625
249.84	13.198
250.22	22.396
250.59	21.910
250.96	20.909
251.33	26.415
251.70	23.853
252.08	26.840
252.45	21.224
252.82	22.363
253.19	26.070
253.56	27.451
253.94	29.268
254.31	26.619
254.68	24.306
255.05	26.490
255.42	25.455
255.79	25.828
256.16	28.472
256.54	27.273
256.91	30.769
257.28	25.649
257.65	24.590
258.02	25.826
258.39	31.118
258.76	25.382
259.14	25.882
259.51	28.451
259.88	28.242
260.25	26.420
260.62	23.315
260.99	25.905
261.36	22.126
261.73	25.067
262.10	31.880
262.47	26.171
262.85	26.992
263.22	25.538
263.59	27.078
263.96	26.632
264.33	22.372
264.70	26.290
265.07	24.384
265.44	28.571
265.81	29.398
266.18	25.527
266.55	27.619
266.92	29.241
267.29	30.000
267.66	24.545
268.03	26.667
268.40	27.460
268.77	25.390
269.14	28.151
269.51	23.982
269.88	26.282
270.25	26.160
270.62	30.252
270.99	24.632
271.36	27.594
271.73	28.125
272.10	27.386
272.47	24.200
272.84	23.142
273.21	24.217
273.58	24.286
273.95	25.896
274.32	26.886
274.69	25.049
275.06	25.141
275.43	24.200
275.80	27.725
276.17	24.308
276.54	27.567
276.91	26.104
277.28	29.014
277.65	25.142
278.02	25.000
278.39	26.679
278.76	26.816
279.13	28.265
279.50	27.256
279.87	26.038
280.23	25.137
280.60	23.852
280.97	26.714
281.34	26.441
281.71	23.623
282.08	27.728
282.45	26.102
282.82	25.589
283.19	25.758
283.56	27.304
283.92	24.171
284.29	26.904
284.66	26.018
285.03	22.127
285.40	25.667
285.77	25.944
286.14	24.089
286.51	24.116
286.87	26.418
287.24	25.801
287.61	23.765
287.98	27.543
288.35	24.961
288.72	25.229
289.08	24.686
289.45	24.337
289.82	21.894
290.19	21.364
290.56	24.891
290.93	23.486
291.29	23.404
291.66	23.736
292.03	24.390
292.40	25.612
292.77	23.178
293.13	22.173
293.50	22.727
293.87	23.578
294.24	22.753
294.60	22.678
294.97	21.607
295.34	20.959
295.71	19.279
296.08	20.628
296.44	22.925
296.81	19.276
297.18	23.286
297.55	21.231
297.91	20.178
298.28	18.542
298.65	20.181
299.02	20.099
299.38	20.026
299.75	20.721
300.12	20.144
300.48	21.479
300.85	19.927
301.22	21.875
301.59	20.681
301.95	20.244
302.32	19.563
302.69	19.144
303.05	21.842
303.42	21.135
303.79	18.876
304.15	19.932
304.52	19.553
304.89	19.842
305.25	20.413
305.62	20.114
305.99	19.597
306.35	19.799
306.72	21.786
307.09	20.566
307.45	19.849
307.82	20.064
308.19	21.232
308.55	20.464
308.92	18.962
309.29	20.084
309.65	21.156
310.02	20.231
310.38	21.642
310.75	21.209
311.12	20.753
311.48	23.124
311.85	19.352
312.22	22.004
312.58	20.443
312.95	20.534
313.31	21.042
313.68	19.861
314.05	23.138
314.41	22.299
314.78	21.307
315.14	23.702
315.51	23.932
315.87	25.098
316.24	24.728
316.61	24.175
316.97	23.922
317.34	25.263
317.70	23.996
318.07	25.072
318.43	25.425
318.80	25.410
319.16	25.163
319.53	26.604
319.89	27.557
320.26	27.630
320.62	27.810
320.99	29.592
321.35	29.249
321.72	29.394
322.08	28.812
322.45	29.586
322.81	30.837
323.18	30.681
323.54	31.090
323.91	31.594
324.27	31.437
324.64	32.052
325.00	32.666
325.37	35.072
325.73	34.398
326.10	33.275
326.46	34.633
326.83	35.444
327.19	36.332
327.56	38.019
327.92	37.066
328.29	36.470
328.65	38.136
329.01	38.532
329.38	37.833
329.74	40.019
330.11	39.795
330.47	39.479
330.84	40.226
331.20	39.834
331.56	41.698
331.93	40.988
332.29	41.906
332.66	40.958
333.02	41.968
333.38	42.555
333.75	41.080
334.11	41.591
334.48	41.055
334.84	41.596
335.20	42.167
335.57	43.324
335.93	41.581
336.29	41.682
336.66	41.712
337.02	41.251
337.38	43.113
337.75	43.364
338.11	44.303
338.47	43.361
338.84	42.173
339.20	43.721
339.56	42.498
339.93	43.604
340.29	44.243
340.65	43.562
341.02	45.084
341.38	44.131
341.74	45.463
342.11	44.562
342.47	43.794
342.83	43.105
343.20	44.739
343.56	45.455
343.92	46.282
344.28	44.854
344.65	46.575
345.01	44.861
345.37	44.359
345.73	45.134
346.10	47.191
346.46	45.384
346.82	45.709
347.19	45.332
347.55	47.024
347.91	45.291
348.27	46.083
348.63	46.845
349.00	47.329
349.36	45.672
349.72	45.895
350.08	46.318
350.45	47.518
350.81	47.399
351.17	46.046
351.53	45.894
351.89	48.014
352.26	46.829
352.62	47.506
352.98	47.699
353.34	48.204
353.70	46.255
354.07	48.353
354.43	48.581
354.79	48.852
355.15	48.103
355.51	48.818
355.87	49.292
356.24	48.203
356.60	47.913
356.96	48.736
357.32	48.889
357.68	51.074
358.04	49.838
358.40	49.264
358.77	49.478
359.13	50.361
359.49	48.960
359.85	50.520
360.21	50.278
360.57	49.761
360.93	51.069
361.29	51.402
361.66	50.315
362.02	52.276
362.38	51.360
362.74	52.114
363.10	51.207
363.46	52.746
363.82	52.374
364.18	52.839
364.54	53.282
364.90	53.926
365.26	53.130
365.62	54.580
365.98	54.573
366.35	54.387
366.71	54.593
367.07	54.170
367.43	53.069
367.79	54.942
368.15	53.521
368.51	55.506
368.87	56.975
369.23	56.851
369.59	57.059
369.95	55.440
370.31	57.045
370.67	56.015
371.03	57.663
371.39	59.139
371.75	56.241
372.11	55.481
372.47	57.832
372.83	57.560
373.19	59.789
373.55	58.683
373.91	59.015
374.27	60.338
374.63	58.174
374.99	58.346
375.35	58.636
375.71	59.541
376.07	59.505
376.42	59.405
376.78	60.000
377.14	59.986
377.50	60.192
377.86	61.769
378.22	59.974
378.58	61.842
378.94	62.803
379.30	60.811
379.66	60.499
380.02	61.856
380.38	62.023
380.74	62.213
381.09	62.516
381.45	61.968
381.81	61.735
382.17	62.215
382.53	63.840
382.89	64.400
383.25	63.602
383.61	63.636
383.97	63.873
384.32	63.935
384.68	63.985
385.04	64.227
385.40	64.217
385.76	65.971
386.12	64.950
386.48	65.362
386.83	66.228
387.19	66.284
387.55	64.961
387.91	65.358
388.27	65.131
388.62	65.544
388.98	67.048
389.34	66.493
389.70	67.564
390.06	66.601
390.42	67.748
390.77	68.209
391.13	68.315
391.49	68.464
391.85	67.731
392.20	68.383
392.56	67.453
392.92	70.130
393.28	67.325
393.64	68.651
393.99	69.026
394.35	68.397
394.71	68.146
395.07	67.507
395.42	68.444
395.78	68.347
396.14	71.019
396.50	69.146
396.85	69.399
397.21	67.464
397.57	69.190
397.92	70.229
398.28	70.204
398.64	68.762
399.00	69.936
399.35	69.578
399.71	69.940
400.07	69.920
400.42	70.705
400.78	70.122
401.14	70.644
401.49	69.519
401.85	69.397
402.21	72.018
402.57	68.384
402.92	71.315
403.28	68.596
403.63	70.577
403.99	70.079
404.35	69.108
404.70	69.791
405.06	71.482
405.42	70.202
405.77	69.144
406.13	69.295
406.49	70.789
406.84	70.735
407.20	69.765
407.55	71.075
407.91	70.000
408.27	71.011
408.62	70.675
408.98	70.399
409.34	69.206
409.69	68.495
410.05	70.402
410.40	69.621
410.76	71.482
411.11	69.748
411.47	71.429
411.83	70.895
412.18	71.401
412.54	70.375
412.89	70.272
413.25	71.599
413.60	70.855
413.96	70.356
414.31	69.152
414.67	71.438
415.03	70.263
415.38	71.588
415.74	70.517
416.09	71.813
416.45	71.621
416.80	70.515
417.16	72.567
417.51	71.062
417.87	71.409
418.22	72.794
418.58	72.357
418.93	72.534
419.29	72.727
419.64	74.245
420.00	72.888
420.35	74.953
420.71	73.944
421.06	74.757
421.42	72.585
421.77	73.508
422.12	72.947
422.48	74.586
422.83	72.766
423.19	74.294
423.54	72.816
423.90	73.362
424.25	77.281
424.61	75.355
424.96	75.553
425.31	75.121
425.67	76.364
426.02	76.460
426.38	73.874
426.73	75.514
427.09	77.873
427.44	76.420
427.79	76.856
428.15	75.777
428.50	76.570
428.85	75.946
429.21	76.270
429.56	75.801
429.92	75.933
430.27	75.893
430.62	77.501
430.98	75.981
431.33	77.697
431.68	77.243
432.04	77.100
432.39	77.243
432.74	76.787
433.10	78.411
433.45	79.734
433.80	77.143
434.16	77.043
434.51	77.425
434.86	79.637
435.22	77.823
435.57	81.135
435.92	77.833
436.28	78.144
436.63	79.368
436.98	80.679
437.34	81.382
437.69	80.309
438.04	79.387
438.39	81.136
438.75	80.554
439.10	81.012
439.45	81.579
439.81	80.889
440.16	81.571
440.51	79.616
440.86	81.439
441.22	80.881
441.57	80.456
441.92	83.324
442.27	83.886
442.63	82.957
442.98	84.169
443.33	81.434
443.68	81.864
444.03	82.113
444.39	83.342
444.74	84.144
445.09	85.124
445.44	82.915
445.79	85.491
446.15	84.898
446.50	83.343
446.85	84.103
447.20	83.698
447.55	84.119
447.91	84.362
448.26	85.579
448.61	85.982
448.96	84.270
449.31	85.413
449.66	85.472
450.02	83.609
450.37	85.905
450.72	85.278
451.07	87.146
451.42	87.220
451.77	83.607
452.12	85.401
452.47	84.756
452.83	86.426
453.18	88.724
453.53	88.896
453.88	88.641
454.23	86.773
454.58	86.031
454.93	85.899
455.28	87.169
455.63	87.264
455.98	87.500
456.34	87.073
456.69	88.558
457.04	87.730
457.39	86.205
457.74	87.674
458.09	86.434
458.44	87.370
458.79	86.219
459.14	87.001
459.49	87.134
459.84	86.266
460.19	85.553
460.54	85.417
460.89	86.353
461.24	88.052
461.59	87.634
461.94	86.851
462.29	86.278
462.64	88.162
462.99	89.123
463.34	85.568
463.69	88.066
464.04	87.556
464.39	88.682
464.74	86.957
465.09	85.402
465.44	86.563
465.79	86.101
466.14	85.322
466.49	86.734
466.84	86.978
467.19	85.770
467.54	85.013
467.89	86.218
468.24	85.732
468.59	87.042
468.94	87.223
469.29	89.343
469.64	88.621
469.99	86.446
470.34	86.846
470.68	87.385
471.03	86.715
471.38	88.407
471.73	87.064
472.08	88.968
472.43	89.696
472.78	88.252
473.13	88.211
473.48	88.243
473.83	89.300
474.17	86.858
474.52	88.279
474.87	86.553
475.22	87.103
475.57	86.486
475.92	85.446
476.27	85.051
476.61	88.002
476.96	87.374
477.31	88.756
477.66	86.229
478.01	88.935
478.36	88.195
478.70	88.845
479.05	88.915
479.40	87.562
479.75	87.773
480.10	87.933
480.45	87.173
480.79	86.300
481.14	87.454
481.49	88.021
481.84	88.788
482.19	87.220
482.53	87.451
482.88	88.460
483.23	87.538
483.58	87.574
483.92	85.678
484.27	87.851
484.62	88.166
484.97	85.896
485.31	84.648
485.66	81.095
486.01	79.786
486.36	80.052
486.70	82.635
487.05	84.128
487.40	82.644
487.75	82.851
488.09	82.926
488.44	84.194
488.79	83.295
489.13	84.456
489.48	85.027
489.83	86.315
490.17	86.826
490.52	86.042
490.87	87.488
491.22	88.018
491.56	86.709
491.91	86.847
492.26	87.710
492.60	87.602
492.95	86.807
493.30	87.768
493.64	87.069
493.99	87.577
494.34	87.430
494.68	87.909
495.03	86.308
495.37	86.721
495.72	87.395
496.07	86.308
496.41	85.721
496.76	85.960
497.11	86.952
497.45	88.247
497.80	87.695
498.14	87.064
498.49	87.453
498.84	85.482
499.18	86.663
499.53	87.747
499.87	87.148
500.22	87.273
500.56	87.441
500.91	86.890
501.26	88.294
501.60	87.309
501.95	87.257
502.29	87.481
502.64	84.470
502.98	85.563
503.33	86.920
503.67	86.932
504.02	86.466
504.36	85.413
504.71	87.287
505.06	86.610
505.40	87.775
505.75	86.519
506.09	87.866
506.44	87.607
506.78	87.741
507.13	87.188
507.47	89.363
507.82	89.509
508.16	87.584
508.51	88.512
508.85	88.462
509.19	86.835
509.54	89.235
509.88	88.608
510.23	88.427
510.57	89.097
510.92	90.193
511.26	88.455
511.61	89.384
511.95	89.184
512.30	89.275
512.64	88.328
512.98	89.486
513.33	88.921
513.67	88.323
514.02	91.406
514.36	90.095
514.70	91.196
515.05	90.183
515.39	93.664
515.74	91.479
516.08	91.463
516.42	92.977
516.77	92.919
517.11	91.804
517.46	92.130
517.80	92.853
518.14	92.030
518.49	94.179
518.83	95.655
519.17	91.902
519.52	92.130
519.86	93.540
520.20	94.204
520.55	93.016
520.89	95.344
521.23	93.854
521.58	93.122
521.92	92.123
522.26	93.471
522.61	94.061
522.95	94.384
523.29	92.645
523.64	94.301
523.98	93.548
524.32	94.815
524.66	96.125
525.01	96.014
525.35	93.434
525.69	93.462
526.04	96.899
526.38	96.367
526.72	95.972
527.06	97.679
527.41	95.606
527.75	96.554
528.09	97.454
528.43	94.259
528.78	95.318
529.12	94.658
529.46	92.890
529.80	94.010
530.15	96.317
530.49	96.165
530.83	97.903
531.17	95.056
531.51	98.073
531.86	94.538
532.20	94.156
532.54	94.245
532.88	95.564
533.22	95.330
533.57	92.690
533.91	94.838
534.25	93.754
534.59	96.355
534.93	94.426
535.27	93.199
535.62	92.708
535.96	96.581
536.30	93.737
536.64	96.352
536.98	95.206
537.32	96.949
537.66	93.475
538.01	95.582
538.35	93.164
538.69	90.658
539.03	93.944
539.37	93.826
539.71	95.507
540.05	94.211
540.39	93.391
540.73	94.212
541.07	93.824
541.42	94.084
541.76	93.957
542.10	92.037
542.44	91.980
542.78	93.035
543.12	92.347
543.46	94.039
543.80	92.495
544.14	93.118
544.48	89.895
544.82	91.199
545.16	93.768
545.50	93.668
545.84	92.392
546.18	93.034
546.52	94.389
546.86	92.808
547.20	93.333
547.54	91.736
547.88	90.598
548.22	90.788
548.56	92.107
548.90	91.018
549.24	92.763
549.58	92.325
549.92	92.782
550.26	94.208
550.60	95.242
550.94	95.159
551.28	94.797
551.62	95.659
551.96	94.489
552.30	93.256
552.64	92.487
552.98	92.496
553.32	92.197
553.66	91.806
554.00	93.977
554.34	93.750
554.68	93.062
555.02	95.317
555.36	92.137
555.69	92.852
556.03	90.466
556.37	89.497
556.71	89.517
557.05	92.109
557.39	91.888
557.73	90.802
558.07	92.723
558.41	92.338
558.75	95.021
559.08	96.255
559.42	92.809
559.76	96.377
560.10	92.258
560.44	91.211
560.78	90.383
561.12	93.764
561.45	92.857
561.79	89.648
562.13	90.215
562.47	92.431
562.81	91.433
563.15	90.722
563.48	90.412
563.82	89.811
564.16	89.042
564.50	90.544
564.84	88.306
565.17	90.558
565.51	89.444
565.85	89.507
566.19	89.910
566.52	90.681
566.86	87.773
567.20	87.092
567.54	88.003
567.88	86.044
568.21	86.870
568.55	84.890
568.89	84.835
569.23	82.731
569.56	81.701
569.90	81.884
570.24	79.196
570.57	79.458
570.91	79.585
571.25	77.893
571.59	77.672
571.92	76.248
572.26	76.088
572.60	77.101
572.93	76.850
573.27	75.860
573.61	76.137
573.95	75.417
574.28	74.814
574.62	73.865
574.96	74.472
575.29	73.258
575.63	73.365
575.97	73.556
576.30	75.043
576.64	73.594
576.98	73.460
577.31	73.508
577.65	73.329
577.98	71.591
578.32	72.281
578.66	72.172
578.99	74.112
579.33	72.718
579.67	71.831
580.00	73.027
580.34	72.420
580.67	72.126
581.01	71.806
581.35	70.871
581.68	71.008
582.02	71.534
582.35	70.767
582.69	71.344
583.02	71.644
583.36	71.866
583.70	73.457
584.03	72.732
584.37	72.566
584.70	72.738
585.04	72.221
585.37	71.633
585.71	71.349
586.04	72.450
586.38	73.359
586.72	73.271
587.05	73.499
587.39	71.949
587.72	72.687
588.06	72.918
588.39	72.860
588.73	72.705
589.06	73.904
589.40	74.340
589.73	74.458
590.07	74.216
590.40	74.812
590.73	76.593
591.07	74.762
591.40	76.610
591.74	76.912
592.07	76.934
592.41	77.085
592.74	76.182
593.08	74.155
593.41	73.466
593.75	72.969
594.08	74.651
594.41	74.265
594.75	74.432
595.08	75.458
595.42	73.676
595.75	73.523
596.09	75.060
596.42	75.856
596.75	76.364
597.09	74.813
597.42	75.082
597.75	75.844
598.09	74.953
598.42	74.870
598.76	74.089
599.09	74.874
599.42	71.794
599.76	72.381
600.09	72.558
600.42	72.070
600.76	72.248
601.09	73.255
601.42	73.430
601.76	72.484
602.09	73.523
602.42	74.729
602.76	74.433
603.09	74.891
603.42	74.404
603.76	73.815
604.09	73.977
604.42	72.778
604.76	74.213
605.09	74.209
605.42	74.976
605.75	72.864
606.09	74.133
606.42	73.141
606.75	73.224
607.09	75.093
607.42	73.704
607.75	72.819
608.08	73.761
608.42	74.927
608.75	73.437
609.08	72.943
609.41	74.443
609.75	75.039
610.08	73.540
610.41	74.148
610.74	72.599
611.07	75.198
611.41	75.428
611.74	74.157
612.07	74.888
612.40	74.485
612.73	76.215
613.07	75.925
613.40	75.273
613.73	74.227
614.06	74.356
614.39	76.333
614.72	75.502
615.06	75.775
615.39	74.134
615.72	75.028
616.05	74.145
616.38	74.970
616.71	75.684
617.05	74.686
617.38	75.613
617.71	77.466
618.04	79.238
618.37	76.390
618.70	77.378
619.03	79.768
619.36	79.234
619.69	77.527
620.03	78.490
620.36	80.423
620.69	78.197
621.02	79.414
621.35	81.021
621.68	82.358
622.01	82.086
622.34	79.564
622.67	80.270
623.00	79.279
623.33	80.709
623.66	81.036
623.99	79.506
624.32	78.713
624.65	79.141
624.99	76.562
625.32	78.752
625.65	77.902
625.98	80.250
626.31	80.519
626.64	81.441
626.97	82.445
627.30	82.870
627.63	82.698
627.96	84.078
628.29	82.218
628.62	84.845
628.95	85.850
629.28	84.091
629.61	84.326
629.94	85.062
630.26	85.565
630.59	84.607
630.92	83.035
631.25	87.598
