SpectraSuite Data File
++++++++++++++++++++++++++++++++++++
Date: Wed May 13 19:58:29 PDT 2015
User: schluterlab
Dark Spectrum Present: Yes
Reference Spectrum Present: Yes
Number of Sampled Component Spectra: 1
Spectrometers: USB2E3373
Integration Time (usec): 3000 (USB2E3373)
Spectra Averaged: 3 (USB2E3373)
Boxcar Smoothing: 0 (USB2E3373)
Correct for Electrical Dark: No (USB2E3373)
Strobe/Lamp Enabled: No (USB2E3373)
Correct for Detector Non-linearity: No (USB2E3373)
Correct for Stray Light: No (USB2E3373)
Number of Pixels in Processed Spectrum: 2048
>>>>>Begin Processed Spectral Data<<<<<
178.53	0.000
178.91	-1350.000
179.29	-1000.000
179.67	-222.222
180.04	-1150.000
180.42	1750.000
180.80	1140.000
181.18	-900.000
181.56	700.000
181.94	0.000
182.31	-600.000
182.69	1600.000
183.07	-562.500
183.45	-533.333
183.83	490.909
184.20	-360.000
184.58	2150.000
184.96	5600.000
185.34	-840.000
185.72	-637.500
186.09	-2250.000
186.47	2800.000
186.85	2500.000
187.23	4900.000
187.61	-1800.000
187.98	1275.000
188.36	554.545
188.74	545.455
189.12	-860.000
189.49	630.000
189.87	-4500.000
190.25	-1150.000
190.63	478.571
191.00	530.769
191.38	1000.000
191.76	-1225.000
192.14	1325.000
192.51	637.500
192.89	1016.667
193.27	587.500
193.65	-1100.000
194.02	550.000
194.40	1060.000
194.78	570.000
195.15	533.333
195.53	580.000
195.91	-2100.000
196.29	343.750
196.66	305.263
197.04	-400.000
197.42	0.000
197.79	660.000
198.17	-4600.000
198.55	714.286
198.92	725.000
199.30	900.000
199.68	0.000
200.05	333.333
200.43	757.143
200.81	5300.000
201.18	1600.000
201.56	-1300.000
201.94	622.222
202.31	522.222
202.69	383.333
203.07	590.000
203.44	0.000
203.82	1350.000
204.19	871.429
204.57	492.857
204.95	775.000
205.32	1766.667
205.70	509.091
206.08	435.714
206.45	2650.000
206.83	400.000
207.20	1000.000
207.58	820.000
207.96	327.778
208.33	712.500
208.71	-983.333
209.08	900.000
209.46	588.889
209.84	490.909
210.21	-1666.667
210.59	1400.000
210.96	-437.500
211.34	2750.000
211.71	610.000
212.09	883.333
212.46	0.000
212.84	1666.667
213.22	1350.000
213.59	-4500.000
213.97	866.667
214.34	814.286
214.72	527.273
215.09	1040.000
215.47	-2550.000
215.84	-2550.000
216.22	1766.667
216.59	442.857
216.97	1200.000
217.34	536.364
217.72	-783.333
218.09	0.000
218.47	-4700.000
218.84	622.222
219.22	800.000
219.59	1833.333
219.97	-800.000
220.34	1140.000
220.72	-1566.667
221.09	457.143
221.47	1525.000
221.84	-983.333
222.22	0.000
222.59	1275.000
222.97	-3050.000
223.34	1100.000
223.72	415.385
224.09	1060.000
224.46	2100.000
224.84	-4900.000
225.21	-1140.000
225.59	-4700.000
225.96	580.000
226.34	325.000
226.71	2750.000
227.08	775.000
227.46	600.000
227.83	-1175.000
228.21	-2800.000
228.58	644.444
228.95	-2050.000
229.33	-1750.000
229.70	2033.333
230.08	942.857
230.45	-820.000
230.82	533.333
231.20	900.000
231.57	700.000
231.95	450.000
232.32	295.455
232.69	454.545
233.07	728.571
233.44	361.538
233.81	-1866.667
234.19	305.263
234.56	450.000
234.93	483.333
235.31	518.182
235.68	392.308
236.05	464.286
236.43	163.636
236.80	300.000
237.17	4600.000
237.55	214.286
237.92	242.857
238.29	347.619
238.67	203.226
239.04	241.379
239.41	191.667
239.79	147.826
240.16	171.429
240.53	163.636
240.91	127.451
241.28	134.000
241.65	146.000
242.02	113.043
242.40	116.129
242.77	101.667
243.14	84.946
243.51	108.989
243.89	109.412
244.26	98.889
244.63	78.495
245.00	90.426
245.38	93.069
245.75	90.654
246.12	79.817
246.49	78.832
246.87	84.000
247.24	86.923
247.61	77.857
247.98	67.320
248.36	77.027
248.73	70.064
249.10	73.248
249.47	69.492
249.84	69.519
250.22	64.706
250.59	66.864
250.96	67.677
251.33	62.085
251.70	65.842
252.08	65.238
252.45	58.744
252.82	62.609
253.19	61.277
253.56	62.353
253.94	66.390
254.31	58.594
254.68	60.000
255.05	59.041
255.42	60.163
255.79	58.456
256.16	57.401
256.54	52.297
256.91	53.381
257.28	52.518
257.65	53.465
258.02	52.484
258.39	49.842
258.76	52.843
259.14	52.679
259.51	52.888
259.88	51.553
260.25	53.776
260.62	52.312
260.99	52.484
261.36	54.955
261.73	53.582
262.10	55.233
262.47	54.366
262.85	50.975
263.22	47.863
263.59	54.986
263.96	49.176
264.33	49.086
264.70	51.316
265.07	49.872
265.44	48.990
265.81	51.582
266.18	51.005
266.55	50.732
266.92	48.403
267.29	50.000
267.66	47.018
268.03	50.455
268.40	47.196
268.77	47.733
269.14	45.721
269.51	47.856
269.88	50.816
270.25	48.533
270.62	49.438
270.99	48.387
271.36	46.781
271.73	47.664
272.10	46.304
272.47	50.538
272.84	47.186
273.21	45.073
273.58	46.507
273.95	46.541
274.32	46.901
274.69	47.323
275.06	41.732
275.43	48.298
275.80	44.289
276.17	46.029
276.54	44.491
276.91	45.850
277.28	45.703
277.65	46.035
278.02	44.928
278.39	47.266
278.76	43.818
279.13	46.038
279.50	44.693
279.87	42.629
280.23	45.509
280.60	45.261
280.97	44.732
281.34	45.487
281.71	44.545
282.08	45.489
282.45	42.182
282.82	43.162
283.19	39.750
283.56	42.632
283.92	43.655
284.29	43.034
284.66	42.831
285.03	42.134
285.40	41.373
285.77	41.919
286.14	41.623
286.51	41.500
286.87	40.684
287.24	42.020
287.61	42.055
287.98	41.071
288.35	39.461
288.72	40.031
289.08	41.315
289.45	39.703
289.82	38.699
290.19	37.677
290.56	40.582
290.93	36.254
291.29	39.110
291.66	36.726
292.03	38.808
292.40	38.913
292.77	36.538
293.13	39.701
293.50	37.318
293.87	37.481
294.24	37.185
294.60	36.972
294.97	34.884
295.34	37.800
295.71	36.790
296.08	33.618
296.44	33.425
296.81	34.478
297.18	35.772
297.55	32.058
297.91	33.377
298.28	35.074
298.65	33.943
299.02	33.992
299.38	33.865
299.75	32.615
300.12	33.206
300.48	31.875
300.85	32.182
301.22	32.994
301.59	32.323
301.95	32.872
302.32	32.606
302.69	32.258
303.05	31.636
303.42	31.975
303.79	32.163
304.15	30.769
304.52	32.213
304.89	30.430
305.25	30.046
305.62	31.370
305.99	33.294
306.35	30.313
306.72	31.502
307.09	29.523
307.45	33.784
307.82	30.134
308.19	31.347
308.55	31.715
308.92	31.472
309.29	30.306
309.65	29.905
310.02	29.810
310.38	30.430
310.75	29.567
311.12	30.706
311.48	29.781
311.85	33.229
312.22	31.426
312.58	31.809
312.95	31.468
313.31	30.388
313.68	31.913
314.05	32.544
314.41	32.261
314.78	31.521
315.14	32.274
315.51	32.338
315.87	33.069
316.24	32.373
316.61	32.066
316.97	33.953
317.34	33.659
317.70	35.086
318.07	34.841
318.43	36.204
318.80	36.832
319.16	38.136
319.53	35.647
319.89	37.810
320.26	40.200
320.62	40.774
320.99	39.293
321.35	41.414
321.72	41.581
322.08	42.744
322.45	45.871
322.81	45.640
323.18	46.050
323.54	46.475
323.91	47.547
324.27	50.000
324.64	50.792
325.00	48.783
325.37	54.413
325.73	53.950
326.10	53.751
326.46	55.466
326.83	57.895
327.19	58.412
327.56	60.714
327.92	62.905
328.29	62.822
328.65	65.562
329.01	64.892
329.38	66.698
329.74	69.160
330.11	71.348
330.47	68.136
330.84	68.015
331.20	69.763
331.56	73.028
331.93	74.167
332.29	70.896
332.66	74.336
333.02	73.583
333.38	75.790
333.75	74.599
334.11	76.246
334.48	75.954
334.84	77.665
335.20	76.909
335.57	77.335
335.93	77.411
336.29	79.487
336.66	79.441
337.02	78.824
337.38	80.000
337.75	80.125
338.11	80.931
338.47	81.492
338.84	81.760
339.20	83.761
339.56	84.854
339.93	83.182
340.29	80.344
340.65	80.481
341.02	82.024
341.38	84.075
341.74	84.035
342.11	83.581
342.47	85.198
342.83	83.818
343.20	85.281
343.56	82.056
343.92	83.860
344.28	83.078
344.65	85.039
345.01	83.586
345.37	84.906
345.73	85.533
346.10	86.616
346.46	85.763
346.82	85.173
347.19	85.380
347.55	85.550
347.91	86.084
348.27	87.017
348.63	87.709
349.00	87.460
349.36	87.356
349.72	86.367
350.08	86.629
350.45	89.829
350.81	87.327
351.17	87.925
351.53	88.698
351.89	89.521
352.26	89.424
352.62	88.532
352.98	88.898
353.34	90.140
353.70	89.771
354.07	89.355
354.43	88.175
354.79	89.944
355.15	90.583
355.51	92.006
355.87	92.735
356.24	92.264
356.60	91.820
356.96	93.805
357.32	94.849
357.68	93.701
358.04	91.449
358.40	94.220
358.77	92.801
359.13	93.054
359.49	95.137
359.85	95.079
360.21	96.252
360.57	97.198
360.93	97.308
361.29	94.785
361.66	96.981
362.02	98.433
362.38	97.871
362.74	97.321
363.10	97.557
363.46	98.826
363.82	100.000
364.18	97.797
364.54	100.743
364.90	100.212
365.26	101.250
365.62	104.310
365.98	101.023
366.35	102.077
366.71	101.374
367.07	104.224
367.43	105.733
367.79	105.710
368.15	105.388
368.51	104.797
368.87	105.353
369.23	106.364
369.59	106.662
369.95	106.691
370.31	107.123
370.67	108.551
371.03	109.663
371.39	110.131
371.75	108.015
372.11	108.179
372.47	110.411
372.83	111.383
373.19	110.694
373.55	114.486
373.91	114.728
374.27	111.134
374.63	115.564
374.99	115.678
375.35	115.143
375.71	114.805
376.07	115.295
376.42	117.331
376.78	116.899
377.14	117.164
377.50	120.596
377.86	118.152
378.22	118.647
378.58	118.170
378.94	120.553
379.30	123.664
379.66	122.589
380.02	122.052
380.38	121.251
380.74	123.529
381.09	124.572
381.45	125.814
381.81	124.509
382.17	127.516
382.53	126.730
382.89	129.012
383.25	129.331
383.61	129.678
383.97	130.519
384.32	128.384
384.68	129.306
385.04	131.039
385.40	130.279
385.76	131.450
386.12	132.383
386.48	132.914
386.83	136.626
387.19	136.425
387.55	135.560
387.91	135.248
388.27	134.948
388.62	135.095
388.98	137.961
389.34	138.423
389.70	139.301
390.06	139.987
390.42	140.078
390.77	138.232
391.13	143.714
391.49	143.211
391.85	141.820
392.20	142.839
392.56	142.929
392.92	145.026
393.28	144.142
393.64	144.065
393.99	142.456
394.35	146.774
394.71	144.103
395.07	143.863
395.42	149.444
395.78	149.109
396.14	147.424
396.50	150.752
396.85	151.049
397.21	150.308
397.57	149.597
397.92	151.803
398.28	149.103
398.64	149.821
399.00	151.763
399.35	152.228
399.71	152.894
400.07	152.986
400.42	155.153
400.78	155.308
401.14	155.976
401.49	156.836
401.85	155.414
402.21	154.850
402.57	156.447
402.92	157.755
403.28	158.526
403.63	159.530
403.99	161.210
404.35	158.545
404.70	158.453
405.06	159.289
405.42	161.447
405.77	159.886
406.13	159.876
406.49	161.561
406.84	158.358
407.20	160.993
407.55	163.050
407.91	165.600
408.27	165.220
408.62	162.131
408.98	164.032
409.34	165.252
409.69	165.226
410.05	164.808
410.40	164.771
410.76	164.994
411.11	163.691
411.47	164.537
411.83	166.585
412.18	164.935
412.54	168.867
412.89	165.542
413.25	166.588
413.60	171.093
413.96	166.545
414.31	168.894
414.67	170.152
415.03	168.940
415.38	171.456
415.74	170.804
416.09	173.155
416.45	171.553
416.80	172.703
417.16	173.324
417.51	174.652
417.87	171.484
418.22	175.268
418.58	174.693
418.93	174.386
419.29	175.175
419.64	175.819
420.00	174.451
420.35	173.623
420.71	176.270
421.06	175.418
421.42	176.316
421.77	177.354
422.12	177.597
422.48	179.277
422.83	180.315
423.19	178.785
423.54	179.687
423.90	180.638
424.25	179.229
424.61	180.179
424.96	184.431
425.31	178.350
425.67	178.989
426.02	181.257
426.38	184.432
426.73	181.159
427.09	183.951
427.44	183.151
427.79	185.049
428.15	181.310
428.50	185.079
428.85	184.505
429.21	184.263
429.56	187.144
429.92	183.946
430.27	185.055
430.62	183.257
430.98	184.172
431.33	185.000
431.68	187.277
432.04	185.623
432.39	190.120
432.74	191.263
433.10	189.870
433.45	192.536
433.80	191.131
434.16	189.263
434.51	186.895
434.86	190.593
435.22	191.829
435.57	194.650
435.92	192.569
436.28	194.781
436.63	190.784
436.98	191.757
437.34	193.262
437.69	196.033
438.04	197.189
438.39	195.701
438.75	196.804
439.10	197.765
439.45	197.639
439.81	198.912
440.16	197.911
440.51	200.176
440.86	199.479
441.22	197.775
441.57	197.611
441.92	199.846
442.27	200.000
442.63	198.210
442.98	200.958
443.33	199.946
443.68	199.380
444.03	200.049
444.39	200.974
444.74	202.435
445.09	200.485
445.44	200.383
445.79	199.357
446.15	197.830
446.50	202.639
446.85	203.083
447.20	201.122
447.55	205.974
447.91	204.413
448.26	203.228
448.61	203.957
448.96	205.814
449.31	206.412
449.66	203.320
450.02	204.847
450.37	204.195
450.72	207.445
451.07	206.155
451.42	204.255
451.77	205.461
452.12	203.695
452.47	205.100
452.83	207.110
453.18	205.012
453.53	207.545
453.88	206.084
454.23	207.412
454.58	207.511
454.93	210.426
455.28	204.676
455.63	209.891
455.98	210.774
456.34	206.407
456.69	208.892
457.04	208.854
457.39	206.312
457.74	205.804
458.09	207.188
458.44	208.894
458.79	204.555
459.14	206.490
459.49	206.597
459.84	204.321
460.19	203.241
460.54	200.231
460.89	206.637
461.24	208.561
461.59	206.450
461.94	206.227
462.29	207.715
462.64	206.254
462.99	202.863
463.34	207.267
463.69	207.380
464.04	206.667
464.39	203.188
464.74	203.684
465.09	204.282
465.44	202.659
465.79	203.244
466.14	200.876
466.49	201.557
466.84	203.561
467.19	200.121
467.54	204.562
467.89	203.421
468.24	200.989
468.59	204.151
468.94	205.864
469.29	210.154
469.64	205.957
469.99	209.743
470.34	209.974
470.68	206.753
471.03	205.918
471.38	210.771
471.73	205.796
472.08	209.671
472.43	204.523
472.78	204.411
473.13	203.787
473.48	205.056
473.83	206.707
474.17	203.547
474.52	203.846
474.87	206.888
475.22	202.902
475.57	200.591
475.92	202.230
476.27	203.551
476.61	203.861
476.96	203.299
477.31	200.890
477.66	204.212
478.01	198.380
478.36	204.495
478.70	201.454
479.05	202.503
479.40	202.047
479.75	202.237
480.10	203.280
480.45	198.191
480.79	198.567
481.14	201.957
481.49	200.854
481.84	199.726
482.19	201.545
482.53	196.651
482.88	200.047
483.23	200.467
483.58	199.409
483.92	200.047
484.27	194.989
484.62	199.267
484.97	194.561
485.31	194.863
485.66	186.283
486.01	179.274
486.36	174.525
486.70	175.128
487.05	179.026
487.40	183.121
487.75	186.309
488.09	187.716
488.44	188.692
488.79	193.454
489.13	193.583
489.48	194.617
489.83	197.022
490.17	197.589
490.52	194.641
490.87	196.608
491.22	198.090
491.56	194.715
491.91	194.602
492.26	194.901
492.60	195.207
492.95	194.995
493.30	192.850
493.64	196.827
493.99	195.218
494.34	195.097
494.68	195.147
495.03	195.160
495.37	193.160
495.72	198.246
496.07	195.731
496.41	190.000
496.76	192.172
497.11	190.590
497.45	192.315
497.80	193.618
498.14	194.589
498.49	195.463
498.84	195.206
499.18	192.238
499.53	192.735
499.87	191.193
500.22	191.757
500.56	194.466
500.91	191.971
501.26	192.366
501.60	193.593
501.95	189.826
502.29	193.205
502.64	192.598
502.98	192.473
503.33	188.208
503.67	188.677
504.02	189.570
504.36	187.787
504.71	192.281
505.06	188.867
505.40	190.569
505.75	188.669
506.09	189.456
506.44	193.389
506.78	190.550
507.13	193.993
507.47	191.212
507.82	192.351
508.16	191.793
508.51	192.897
508.85	189.027
509.19	192.398
509.54	189.796
509.88	190.778
510.23	192.545
510.57	194.840
510.92	193.475
511.26	191.110
511.61	189.523
511.95	189.823
512.30	191.888
512.64	193.606
512.98	192.122
513.33	193.094
513.67	187.086
514.02	193.074
514.36	194.812
514.70	193.304
515.05	195.427
515.39	193.045
515.74	194.876
516.08	193.069
516.42	193.785
516.77	194.872
517.11	192.342
517.46	192.099
517.80	197.619
518.14	193.457
518.49	195.974
518.83	190.966
519.17	196.594
519.52	194.341
519.86	194.295
520.20	193.468
520.55	196.170
520.89	198.966
521.23	197.768
521.58	196.339
521.92	197.428
522.26	192.800
522.61	199.688
522.95	196.992
523.29	196.105
523.64	194.939
523.98	196.796
524.32	194.511
524.66	192.063
525.01	194.608
525.35	195.601
525.69	192.118
526.04	194.019
526.38	195.058
526.72	192.515
527.06	196.234
527.41	189.233
527.75	196.720
528.09	197.110
528.43	195.092
528.78	191.948
529.12	190.121
529.46	193.448
529.80	193.007
530.15	193.769
530.49	189.723
530.83	192.152
531.17	197.650
531.51	195.396
531.86	190.194
532.20	193.025
532.54	191.544
532.88	190.372
533.22	188.132
533.57	188.395
533.91	185.310
534.25	188.761
534.59	189.079
534.93	183.403
535.27	185.697
535.62	187.546
535.96	188.010
536.30	190.655
536.64	188.925
536.98	190.312
537.32	188.216
537.66	191.533
538.01	191.376
538.35	187.524
538.69	187.556
539.03	185.250
539.37	184.984
539.71	185.936
540.05	189.477
540.39	188.904
540.73	183.247
541.07	187.411
541.42	189.498
541.76	185.097
542.10	185.705
542.44	189.338
542.78	188.340
543.12	180.294
543.46	183.869
543.80	184.580
544.14	183.761
544.48	183.175
544.82	182.938
545.16	186.597
545.50	182.648
545.84	183.938
546.18	186.667
546.52	187.887
546.86	186.942
547.20	185.637
547.54	182.966
547.88	182.334
548.22	180.199
548.56	179.308
548.90	178.233
549.24	183.502
549.58	183.083
549.92	184.409
550.26	189.489
550.60	180.982
550.94	187.183
551.28	186.686
551.62	185.047
551.96	184.140
552.30	183.208
552.64	182.691
552.98	183.458
553.32	179.164
553.66	179.482
554.00	183.802
554.34	179.779
554.68	186.695
555.02	183.216
555.36	181.559
555.69	178.011
556.03	180.754
556.37	181.310
556.71	180.150
557.05	184.314
557.39	180.266
557.73	180.875
558.07	185.134
558.41	183.719
558.75	183.542
559.08	186.130
559.42	189.342
559.76	184.265
560.10	181.870
560.44	181.342
560.78	179.774
561.12	179.090
561.45	179.205
561.79	177.324
562.13	180.416
562.47	179.986
562.81	182.008
563.15	176.589
563.48	179.111
563.82	177.560
564.16	176.324
564.50	177.539
564.84	173.515
565.17	177.542
565.51	177.380
565.85	173.033
566.19	176.143
566.52	178.214
566.86	173.116
567.20	173.762
567.54	172.888
567.88	169.690
568.21	167.989
568.55	166.431
568.89	167.218
569.23	160.918
569.56	160.324
569.90	159.094
570.24	157.445
570.57	156.069
570.91	151.745
571.25	151.668
571.59	149.278
571.92	150.691
572.26	151.155
572.60	151.832
572.93	149.145
573.27	149.068
573.61	148.827
573.95	148.140
574.28	146.910
574.62	146.526
574.96	144.994
575.29	144.665
575.63	146.443
575.97	145.092
576.30	145.008
576.64	146.753
576.98	144.944
577.31	144.663
577.65	143.974
577.98	142.984
578.32	140.727
578.66	142.138
578.99	142.525
579.33	144.517
579.67	143.323
580.00	142.460
580.34	145.515
580.67	143.347
581.01	143.580
581.35	142.381
581.68	140.878
582.02	139.636
582.35	139.349
582.69	140.610
583.02	142.373
583.36	144.316
583.70	145.480
584.03	145.481
584.37	145.323
584.70	146.970
585.04	142.857
585.37	143.313
585.71	142.505
586.04	143.682
586.38	146.526
586.72	146.893
587.05	144.906
587.39	144.011
587.72	144.473
588.06	145.224
588.39	146.091
588.73	146.935
589.06	148.333
589.40	149.495
589.73	151.637
590.07	150.214
590.40	150.055
590.73	153.942
591.07	154.457
591.40	154.281
591.74	155.065
592.07	152.923
592.41	153.204
592.74	149.213
593.08	146.269
593.41	147.643
593.75	144.597
594.08	144.921
594.41	147.861
594.75	150.573
595.08	147.924
595.42	147.285
595.75	148.647
596.09	150.845
596.42	149.902
596.75	152.174
597.09	152.771
597.42	149.073
597.75	152.566
598.09	151.957
598.42	149.570
598.76	149.169
599.09	146.408
599.42	146.252
599.76	148.316
600.09	145.173
600.42	145.508
600.76	144.714
601.09	144.627
601.42	147.565
601.76	146.414
602.09	147.866
602.42	148.089
602.76	147.561
603.09	148.938
603.42	148.887
603.76	146.265
604.09	146.297
604.42	147.860
604.76	148.882
605.09	149.148
605.42	146.045
605.75	148.469
606.09	148.109
606.42	148.141
606.75	147.532
607.09	146.379
607.42	148.652
607.75	146.962
608.08	148.024
608.42	148.454
608.75	146.213
609.08	147.225
609.41	148.120
609.75	149.643
610.08	150.613
610.41	148.790
610.74	150.095
611.07	151.038
611.41	150.098
611.74	151.332
612.07	152.795
612.40	152.308
612.73	150.842
613.07	151.670
613.40	151.764
613.73	150.079
614.06	151.344
614.39	149.187
614.72	147.842
