SpectraSuite Data File
++++++++++++++++++++++++++++++++++++
Date: Wed May 13 19:56:48 PDT 2015
User: schluterlab
Dark Spectrum Present: Yes
Reference Spectrum Present: Yes
Number of Sampled Component Spectra: 1
Spectrometers: USB2E3373
Integration Time (usec): 3000 (USB2E3373)
Spectra Averaged: 3 (USB2E3373)
Boxcar Smoothing: 0 (USB2E3373)
Correct for Electrical Dark: No (USB2E3373)
Strobe/Lamp Enabled: No (USB2E3373)
Correct for Detector Non-linearity: No (USB2E3373)
Correct for Stray Light: No (USB2E3373)
Number of Pixels in Processed Spectrum: 2048
>>>>>Begin Processed Spectral Data<<<<<
178.53	0.000
178.91	-1125.000
179.29	-1300.000
179.67	-227.778
180.04	-1475.000
180.42	2550.000
180.80	1020.000
181.18	-1100.000
181.56	728.571
181.94	0.000
182.31	-685.714
182.69	1800.000
183.07	-450.000
183.45	-533.333
183.83	518.182
184.20	-500.000
184.58	2200.000
184.96	5600.000
185.34	-780.000
185.72	-587.500
186.09	-2800.000
186.47	2550.000
186.85	2200.000
187.23	4700.000
187.61	-1733.333
187.98	1400.000
188.36	581.818
188.74	518.182
189.12	-880.000
189.49	530.000
189.87	-4800.000
190.25	-1375.000
190.63	407.143
191.00	461.538
191.38	883.333
191.76	-1025.000
192.14	1325.000
192.51	675.000
192.89	883.333
193.27	487.500
193.65	-1175.000
194.02	540.000
194.40	960.000
194.78	510.000
195.15	466.667
195.53	660.000
195.91	-2150.000
196.29	350.000
196.66	289.474
197.04	-360.000
197.42	0.000
197.79	550.000
198.17	-4900.000
198.55	657.143
198.92	600.000
199.30	900.000
199.68	0.000
200.05	327.778
200.43	785.714
200.81	4300.000
201.18	1766.667
201.56	-1533.333
201.94	566.667
202.31	722.222
202.69	433.333
203.07	470.000
203.44	0.000
203.82	1350.000
204.19	800.000
204.57	414.286
204.95	737.500
205.32	1833.333
205.70	481.818
206.08	371.429
206.45	2750.000
206.83	387.500
207.20	783.333
207.58	760.000
207.96	305.556
208.33	600.000
208.71	-700.000
209.08	857.143
209.46	622.222
209.84	472.727
210.21	-1333.333
210.59	1300.000
210.96	-537.500
211.34	2350.000
211.71	610.000
212.09	450.000
212.46	0.000
212.84	1600.000
213.22	1325.000
213.59	-6000.000
213.97	966.667
214.34	814.286
214.72	600.000
215.09	1120.000
215.47	-2450.000
215.84	-2550.000
216.22	1833.333
216.59	335.714
216.97	1300.000
217.34	354.545
217.72	-666.667
218.09	0.000
218.47	-4400.000
218.84	711.111
219.22	742.857
219.59	1266.667
219.97	-714.286
220.34	940.000
220.72	-1633.333
221.09	442.857
221.47	1275.000
221.84	-950.000
222.22	0.000
222.59	1450.000
222.97	-2300.000
223.34	1200.000
223.72	430.769
224.09	780.000
224.46	2250.000
224.84	-4200.000
225.21	-1000.000
225.59	-4700.000
225.96	550.000
226.34	315.000
226.71	2750.000
227.08	662.500
227.46	560.000
227.83	-1000.000
228.21	-2250.000
228.58	655.556
228.95	-1950.000
229.33	-2300.000
229.70	1866.667
230.08	857.143
230.45	-720.000
230.82	375.000
231.20	833.333
231.57	685.714
231.95	458.333
232.32	254.545
232.69	381.818
233.07	657.143
233.44	346.154
233.81	-1633.333
234.19	263.158
234.56	483.333
234.93	383.333
235.31	454.545
235.68	307.692
236.05	378.571
236.43	181.818
236.80	252.632
237.17	4000.000
237.55	209.524
237.92	189.286
238.29	271.429
238.67	151.613
239.04	200.000
239.41	130.556
239.79	86.957
240.16	135.714
240.53	104.545
240.91	78.431
241.28	80.000
241.65	98.000
242.02	81.159
242.40	70.968
242.77	75.000
243.14	62.366
243.51	66.292
243.89	58.824
244.26	47.778
244.63	58.065
245.00	53.191
245.38	49.505
245.75	40.187
246.12	38.532
246.49	40.146
246.87	49.600
247.24	37.692
247.61	31.429
247.98	35.294
248.36	31.081
248.73	28.662
249.10	33.758
249.47	29.379
249.84	32.086
250.22	31.016
250.59	26.627
250.96	24.747
251.33	27.014
251.70	23.762
252.08	19.048
252.45	18.834
252.82	20.870
253.19	28.936
253.56	23.529
253.94	21.162
254.31	21.875
254.68	18.462
255.05	19.557
255.42	19.512
255.79	18.750
256.16	20.578
256.54	17.668
256.91	21.352
257.28	15.827
257.65	17.822
258.02	16.770
258.39	14.826
258.76	17.057
259.14	17.560
259.51	15.805
259.88	14.907
260.25	13.293
260.62	15.318
260.99	13.354
261.36	15.315
261.73	12.034
262.10	13.663
262.47	14.366
262.85	13.649
263.22	9.117
263.59	14.530
263.96	12.912
264.33	14.099
264.70	13.684
265.07	15.857
265.44	11.111
265.81	12.652
266.18	12.060
266.55	14.390
266.92	10.565
267.29	15.278
267.66	10.550
268.03	14.773
268.40	12.850
268.77	12.172
269.14	13.514
269.51	13.093
269.88	12.354
270.25	12.415
270.62	13.258
270.99	12.473
271.36	12.661
271.73	10.981
272.10	10.870
272.47	13.118
272.84	13.420
273.21	12.998
273.58	10.917
273.95	11.321
274.32	9.917
274.69	11.991
275.06	9.646
275.43	11.064
275.80	11.022
276.17	11.405
276.54	11.019
276.91	9.684
277.28	11.328
277.65	13.153
278.02	10.352
278.39	11.328
278.76	10.182
279.13	11.321
279.50	10.615
279.87	9.363
280.23	10.978
280.60	9.091
280.97	11.091
281.34	10.442
281.71	11.636
282.08	10.173
282.45	10.545
282.82	9.591
283.19	7.665
283.56	9.298
283.92	8.799
284.29	8.818
284.66	9.074
285.03	7.776
285.40	8.803
285.77	9.764
286.14	7.945
286.51	10.500
286.87	9.060
287.24	10.423
287.61	7.544
287.98	8.604
288.35	9.509
288.72	9.034
289.08	9.390
289.45	6.755
289.82	9.268
290.19	7.378
290.56	9.954
290.93	7.251
291.29	7.055
291.66	7.227
292.03	12.064
292.40	9.398
292.77	8.284
293.13	7.463
293.50	7.726
293.87	8.000
294.24	7.407
294.60	5.677
294.97	7.413
295.34	9.168
295.71	8.239
296.08	7.835
296.44	6.602
296.81	7.266
297.18	7.724
297.55	5.673
297.91	6.464
298.28	7.764
298.65	8.747
299.02	6.588
299.38	7.039
299.75	5.121
300.12	6.003
300.48	7.250
300.85	6.412
301.22	7.643
301.59	4.419
301.95	5.919
302.32	7.445
302.69	7.288
303.05	6.909
303.42	5.062
303.79	5.776
304.15	4.895
304.52	5.214
304.89	6.620
305.25	6.265
305.62	7.814
305.99	5.903
306.35	6.152
306.72	5.157
307.09	6.659
307.45	6.194
307.82	4.129
308.19	5.298
308.55	6.149
308.92	5.478
309.29	5.597
309.65	5.408
310.02	5.708
310.38	5.591
310.75	5.491
311.12	5.834
311.48	5.120
311.85	6.813
312.22	5.411
312.58	4.678
312.95	5.808
313.31	5.340
313.68	6.133
314.05	7.890
314.41	6.231
314.78	4.632
315.14	5.561
315.51	5.252
315.87	6.436
316.24	4.866
316.61	4.678
316.97	5.773
317.34	3.816
317.70	5.067
318.07	5.679
318.43	5.186
318.80	5.248
319.16	4.708
319.53	4.972
319.89	5.429
320.26	5.200
320.62	5.159
320.99	6.061
321.35	5.758
321.72	5.031
322.08	5.528
322.45	5.871
322.81	6.395
323.18	5.395
323.54	5.566
323.91	5.000
324.27	4.493
324.64	4.287
325.00	4.689
325.37	5.187
325.73	6.284
326.10	4.501
326.46	4.480
326.83	5.436
327.19	4.868
327.56	3.484
327.92	4.724
328.29	5.324
328.65	5.249
329.01	4.693
329.38	4.440
329.74	4.155
330.11	4.901
330.47	5.051
330.84	5.882
331.20	4.554
331.56	5.872
331.93	3.889
332.29	5.146
332.66	5.575
333.02	4.296
333.38	5.149
333.75	5.971
334.11	5.427
334.48	5.146
334.84	4.687
335.20	4.364
335.57	3.898
335.93	4.196
336.29	4.396
336.66	5.140
337.02	4.796
337.38	5.370
337.75	3.832
338.11	4.297
338.47	4.696
338.84	4.950
339.20	4.037
339.56	5.201
339.93	4.455
340.29	4.801
340.65	4.724
341.02	4.974
341.38	4.893
341.74	3.947
342.11	4.629
342.47	4.405
342.83	3.853
343.20	5.455
343.56	5.392
343.92	3.684
344.28	4.847
344.65	5.331
345.01	3.788
345.37	3.945
345.73	4.569
346.10	4.348
346.46	4.661
346.82	4.613
347.19	4.177
347.55	4.105
347.91	4.369
348.27	4.519
348.63	4.515
349.00	3.883
349.36	5.255
349.72	6.095
350.08	3.971
350.45	4.638
350.81	4.224
351.17	4.781
351.53	4.177
351.89	4.043
352.26	4.736
352.62	4.571
352.98	4.376
353.34	4.437
353.70	3.601
354.07	4.435
354.43	4.444
354.79	4.666
355.15	4.389
355.51	5.036
355.87	4.408
356.24	4.560
356.60	4.090
356.96	4.264
357.32	3.679
357.68	4.016
358.04	3.484
358.40	4.592
358.77	4.773
359.13	3.236
359.49	3.765
359.85	3.810
360.21	3.110
360.57	4.047
360.93	4.462
361.29	4.006
361.66	3.560
362.02	4.478
362.38	4.411
362.74	4.464
363.10	3.183
363.46	3.962
363.82	3.628
364.18	4.332
364.54	4.755
364.90	4.391
365.26	3.456
365.62	4.383
365.98	3.068
366.35	3.080
366.71	3.543
367.07	3.860
367.43	4.209
367.79	4.568
368.15	4.382
368.51	3.416
368.87	4.140
369.23	3.292
369.59	3.765
369.95	4.044
370.31	4.558
370.67	3.623
371.03	4.270
371.39	3.426
371.75	3.529
372.11	3.556
372.47	4.106
372.83	3.746
373.19	3.324
373.55	4.139
373.91	4.271
374.27	4.536
374.63	3.491
374.99	4.308
375.35	3.210
375.71	3.427
376.07	4.321
376.42	3.920
376.78	3.777
377.14	3.460
377.50	4.040
377.86	2.726
378.22	3.161
378.58	2.757
378.94	3.268
379.30	2.735
379.66	4.251
380.02	3.378
380.38	2.672
380.74	3.842
381.09	2.995
381.45	3.749
381.81	4.238
382.17	3.822
382.53	3.145
382.89	3.580
383.25	2.939
383.61	3.408
383.97	4.003
384.32	3.306
384.68	2.788
385.04	3.073
385.40	3.034
385.76	3.071
386.12	3.303
386.48	3.902
386.83	3.592
387.19	3.463
387.55	3.649
387.91	3.325
388.27	3.495
388.62	3.934
388.98	3.010
389.34	4.130
389.70	3.801
390.06	3.739
390.42	3.372
390.77	4.071
391.13	3.127
391.49	3.363
391.85	3.183
392.20	2.587
392.56	2.588
392.92	3.061
393.28	2.071
393.64	3.058
393.99	3.849
394.35	3.598
394.71	3.388
395.07	2.928
395.42	3.090
395.78	3.053
396.14	4.035
396.50	3.446
396.85	3.560
397.21	3.453
397.57	3.348
397.92	3.185
398.28	2.410
398.64	3.166
399.00	3.581
399.35	2.933
399.71	2.951
400.07	3.844
400.42	4.049
400.78	3.136
401.14	3.415
401.49	3.224
401.85	2.904
402.21	2.814
402.57	2.468
402.92	3.342
403.28	3.186
403.63	2.785
403.99	2.739
404.35	3.758
404.70	2.938
405.06	4.077
405.42	3.618
405.77	2.057
406.13	2.822
406.49	3.726
406.84	3.249
407.20	2.423
407.55	2.999
407.91	3.267
408.27	2.425
408.62	3.251
408.98	3.125
409.34	3.383
409.69	3.548
410.05	3.346
410.40	3.670
410.76	3.166
411.11	3.800
411.47	3.834
411.83	3.421
412.18	2.907
412.54	3.362
412.89	4.096
413.25	2.952
413.60	3.027
413.96	3.279
414.31	3.038
414.67	3.485
415.03	3.179
415.38	3.479
415.74	3.344
416.09	3.658
416.45	3.748
416.80	2.710
417.16	2.949
417.51	3.384
417.87	2.762
418.22	3.596
418.58	3.744
418.93	2.764
419.29	3.883
419.64	3.338
420.00	3.720
420.35	3.768
420.71	3.885
421.06	3.103
421.42	3.684
421.77	3.924
422.12	2.583
422.48	2.698
422.83	3.494
423.19	3.204
423.54	2.960
423.90	3.768
424.25	3.406
424.61	3.214
424.96	2.507
425.31	3.156
425.67	2.640
426.02	3.429
426.38	3.907
426.73	3.218
427.09	3.222
427.44	2.875
427.79	2.933
428.15	3.452
428.50	3.569
428.85	3.695
429.21	2.485
429.56	2.644
429.92	2.365
430.27	2.979
430.62	2.253
430.98	3.425
431.33	2.887
431.68	2.880
432.04	3.355
432.39	2.856
432.74	3.112
433.10	3.339
433.45	3.149
433.80	2.384
434.16	3.419
434.51	3.211
434.86	3.307
435.22	2.724
435.57	2.675
435.92	2.458
436.28	3.084
436.63	4.305
436.98	3.091
437.34	3.280
437.69	2.917
438.04	2.811
438.39	3.224
438.75	3.021
439.10	3.073
439.45	3.483
439.81	3.384
440.16	2.823
440.51	3.222
440.86	3.069
441.22	2.503
441.57	3.132
441.92	3.071
442.27	2.583
442.63	2.844
442.98	3.775
443.33	2.826
443.68	2.736
444.03	2.635
444.39	2.483
444.74	2.597
445.09	3.019
445.44	2.734
445.79	2.771
446.15	3.441
446.50	3.123
446.85	2.878
447.20	3.111
447.55	2.959
447.91	3.199
448.26	2.727
448.61	2.940
448.96	3.987
449.31	3.375
449.66	3.264
450.02	2.730
450.37	2.608
450.72	2.594
451.07	2.986
451.42	2.614
451.77	3.817
452.12	3.811
452.47	3.172
452.83	2.797
453.18	3.178
453.53	3.154
453.88	2.894
454.23	3.108
454.58	3.695
454.93	3.369
455.28	2.494
455.63	3.155
455.98	3.750
456.34	3.392
456.69	3.319
457.04	3.344
457.39	3.390
457.74	2.786
458.09	2.933
458.44	2.623
458.79	2.711
459.14	2.935
459.49	3.736
459.84	2.548
460.19	2.534
460.54	3.125
460.89	3.182
461.24	3.643
461.59	4.184
461.94	3.083
462.29	3.383
462.64	2.808
462.99	3.643
463.34	3.933
463.69	3.315
464.04	3.362
464.39	3.188
464.74	3.149
465.09	3.317
465.44	2.382
465.79	2.740
466.14	2.682
466.49	3.170
466.84	3.269
467.19	2.957
467.54	3.562
467.89	2.881
468.24	3.432
468.59	3.480
468.94	3.787
469.29	3.406
469.64	4.485
469.99	3.518
470.34	2.576
470.68	2.874
471.03	3.333
471.38	3.614
471.73	3.398
472.08	4.079
472.43	3.329
472.78	3.621
473.13	3.787
473.48	3.184
473.83	3.293
474.17	2.676
474.52	3.164
474.87	3.561
475.22	3.424
475.57	3.117
475.92	3.399
476.27	3.269
476.61	3.089
476.96	3.134
477.31	2.826
477.66	3.173
478.01	3.032
478.36	2.803
478.70	2.233
479.05	3.248
479.40	2.815
479.75	2.644
480.10	2.435
480.45	2.523
480.79	2.102
481.14	2.691
481.49	2.753
481.84	2.149
482.19	2.226
482.53	2.890
482.88	3.071
483.23	2.477
483.58	2.866
483.92	2.343
484.27	2.222
484.62	2.371
484.97	2.207
485.31	2.021
485.66	1.450
486.01	1.124
486.36	1.015
486.70	1.061
487.05	1.376
487.40	1.532
487.75	1.698
488.09	1.729
488.44	1.835
488.79	2.061
489.13	2.521
489.48	2.610
489.83	1.985
490.17	2.850
490.52	2.834
490.87	2.714
491.22	2.592
491.56	2.551
491.91	2.234
492.26	2.159
492.60	2.903
492.95	2.526
493.30	2.850
493.64	2.846
493.99	2.832
494.34	2.498
494.68	2.473
495.03	2.444
495.37	2.420
495.72	1.949
496.07	2.923
496.41	2.478
496.76	2.375
497.11	2.386
497.45	2.562
497.80	2.831
498.14	2.754
498.49	2.537
498.84	2.637
499.18	2.095
499.53	2.327
499.87	2.610
500.22	2.685
500.56	2.913
500.91	2.163
501.26	2.845
501.60	2.800
501.95	2.429
502.29	2.812
502.64	2.514
502.98	2.712
503.33	2.057
503.67	2.645
504.02	2.572
504.36	3.088
504.71	2.296
505.06	2.940
505.40	2.333
505.75	2.411
506.09	2.187
506.44	2.368
506.78	2.776
507.13	2.322
507.47	3.333
507.82	2.482
508.16	2.584
508.51	2.435
508.85	2.731
509.19	2.602
509.54	2.194
509.88	2.679
510.23	2.879
510.57	2.941
510.92	3.314
511.26	2.878
511.61	3.008
511.95	2.401
512.30	2.863
512.64	2.633
512.98	2.840
513.33	3.105
513.67	2.508
514.02	2.219
514.36	3.113
514.70	3.210
515.05	1.952
515.39	2.860
515.74	2.534
516.08	3.242
516.42	3.385
516.77	3.735
517.11	2.220
517.46	3.442
517.80	2.671
518.14	2.664
518.49	2.800
518.83	2.955
519.17	3.349
519.52	2.999
519.86	2.966
520.20	3.642
520.55	3.770
520.89	3.893
521.23	3.438
521.58	2.821
521.92	3.307
522.26	2.990
522.61	2.928
522.95	2.517
523.29	3.043
523.64	3.110
523.98	3.142
524.32	3.197
524.66	3.428
525.01	3.799
525.35	2.788
525.69	3.387
526.04	3.614
526.38	3.783
526.72	2.945
527.06	3.139
527.41	2.847
527.75	2.765
528.09	3.532
528.43	3.824
528.78	3.135
529.12	2.970
529.46	3.368
529.80	3.960
530.15	3.302
530.49	2.831
530.83	3.101
531.17	4.439
531.51	4.215
531.86	3.355
532.20	3.325
532.54	3.908
532.88	3.723
533.22	3.310
533.57	3.827
533.91	3.492
534.25	3.281
534.59	3.661
534.93	3.688
535.27	3.018
535.62	3.907
535.96	2.511
536.30	2.861
536.64	3.542
536.98	3.650
537.32	3.292
537.66	3.733
538.01	4.082
538.35	3.814
538.69	4.020
539.03	3.119
539.37	2.684
539.71	2.398
540.05	3.595
540.39	3.455
540.73	3.687
541.07	4.478
541.42	3.196
541.76	4.387
542.10	4.398
542.44	3.974
542.78	5.138
543.12	3.967
543.46	5.311
543.80	4.945
544.14	4.044
544.48	5.143
544.82	4.554
545.16	4.489
545.50	4.692
545.84	5.175
546.18	5.455
546.52	5.162
546.86	4.261
547.20	4.720
547.54	4.208
547.88	4.401
548.22	4.421
548.56	4.403
548.90	3.713
549.24	3.434
549.58	4.434
549.92	3.846
550.26	3.977
550.60	4.288
550.94	3.873
551.28	2.780
551.62	3.666
551.96	4.211
552.30	4.573
552.64	4.124
552.98	3.932
553.32	4.585
553.66	4.158
554.00	4.049
554.34	4.486
554.68	4.506
555.02	4.372
555.36	4.384
555.69	4.263
556.03	3.567
556.37	2.865
556.71	3.274
557.05	3.782
557.39	4.129
557.73	3.387
558.07	3.916
558.41	3.907
558.75	4.041
559.08	4.474
559.42	3.250
559.76	4.044
560.10	3.783
560.44	3.215
560.78	3.194
561.12	3.496
561.45	3.716
561.79	3.362
562.13	3.555
562.47	3.415
562.81	3.347
563.15	3.946
563.48	3.515
563.82	2.609
564.16	3.466
564.50	2.865
564.84	3.603
565.17	2.574
565.51	3.706
565.85	3.490
566.19	3.256
566.52	3.737
566.86	2.471
567.20	2.771
567.54	2.968
567.88	2.444
568.21	2.963
568.55	3.084
568.89	2.772
569.23	2.406
569.56	2.389
569.90	2.189
570.24	2.081
570.57	2.074
570.91	1.487
571.25	1.884
571.59	1.797
571.92	1.584
572.26	1.646
572.60	1.742
572.93	1.619
573.27	1.982
573.61	1.368
573.95	1.576
574.28	1.307
574.62	1.118
574.96	1.458
575.29	1.237
575.63	1.575
575.97	1.536
576.30	1.885
576.64	1.390
576.98	1.604
577.31	1.294
577.65	1.151
577.98	1.267
578.32	1.271
578.66	1.300
578.99	1.598
579.33	1.380
579.67	1.411
580.00	1.510
580.34	1.448
580.67	1.702
581.01	1.687
581.35	1.105
581.68	1.395
582.02	0.892
582.35	1.103
582.69	1.156
583.02	1.214
583.36	1.499
583.70	1.648
584.03	1.620
584.37	1.765
584.70	1.463
585.04	1.468
585.37	1.608
585.71	1.621
586.04	1.595
586.38	1.698
586.72	1.988
587.05	1.874
587.39	1.266
587.72	1.804
588.06	1.441
588.39	1.866
588.73	1.584
589.06	2.026
589.40	2.054
589.73	1.866
590.07	2.135
590.40	2.009
590.73	2.420
591.07	2.808
591.40	2.278
591.74	2.944
592.07	2.749
592.41	2.646
592.74	2.172
593.08	2.398
593.41	2.056
593.75	1.780
594.08	1.710
594.41	2.439
594.75	1.701
595.08	1.861
595.42	1.926
595.75	1.709
596.09	2.178
596.42	2.829
596.75	2.828
597.09	3.030
597.42	2.192
597.75	2.070
598.09	2.217
598.42	2.320
598.76	2.189
599.09	2.014
599.42	2.329
599.76	2.160
600.09	1.858
600.42	2.082
600.76	2.500
601.09	1.821
601.42	2.549
601.76	2.239
602.09	2.372
602.42	2.309
602.76	2.499
603.09	1.849
603.42	2.148
603.76	1.982
604.09	1.629
604.42	2.283
604.76	2.910
605.09	2.097
605.42	2.565
605.75	2.111
606.09	1.911
606.42	2.207
606.75	2.406
607.09	2.595
607.42	2.139
607.75	2.068
608.08	2.388
608.42	3.451
608.75	2.344
609.08	2.544
609.41	2.761
609.75	2.573
610.08	2.922
610.41	2.235
610.74	2.507
611.07	3.211
611.41	4.122
611.74	3.972
612.07	3.520
612.40	3.620
612.73	3.789
613.07	3.394
613.40	3.791
613.73	3.041
614.06	3.280
614.39	3.933
614.72	3.684
615.06	2.941
615.39	3.025
615.72	3.476
616.05	3.190
616.38	2.890
616.71	3.029
617.05	3.946
617.38	2.886
617.71	2.583
618.04	3.305
618.37	3.016
618.70	4.045
619.03	4.145
619.36	3.598
619.69	3.732
620.03	4.464
620.36	4.078
620.69	4.589
621.02	4.572
621.35	3.681
621.68	4.206
622.01	3.947
622.34	4.085
622.67	3.878
623.00	3.302
623.33	3.860
623.66	4.074
623.99	3.682
624.32	3.424
624.65	3.249
624.99	3.683
625.32	3.114
625.65	3.757
625.98	4.074
626.31	5.054
626.64	4.735
626.97	4.406
627.30	3.824
627.63	5.086
627.96	4.794
628.29	5.162
628.62	5.581
628.95	6.604
629.28	5.292
629.61	5.775
629.94	5.333
630.26	5.529
630.59	5.815
630.92	4.885
631.25	4.640
631.58	4.805
631.91	5.071
632.24	4.747
632.57	6.401
632.90	5.263
633.23	4.810
633.56	7.119
633.89	7.928
634.22	6.243
634.55	6.982
634.88	5.509
635.20	5.974
635.53	7.108
635.86	4.208
636.19	5.412
636.52	5.882
636.85	6.300
637.18	6.106
637.51	6.028
637.83	4.069
638.16	6.522
638.49	5.919
638.82	6.574
639.15	6.500
639.48	6.733
639.81	7.239
640.13	6.380
640.46	6.040
640.79	8.587
641.12	6.602
641.45	6.285
641.77	6.480
642.10	6.725
642.43	6.006
642.76	7.121
643.09	7.209
643.41	6.980
643.74	8.488
644.07	7.622
644.40	9.202
644.73	9.921
645.05	8.875
645.38	8.057
645.71	7.568
646.04	9.136
646.36	8.848
646.69	8.361
647.02	6.973
647.35	8.247
647.67	6.726
648.00	8.618
648.33	7.426
648.66	8.182
648.98	9.145
649.31	6.278
649.64	8.221
649.96	7.601
650.29	8.373
650.62	6.796
650.94	10.049
651.27	10.811
651.60	8.319
651.92	8.626
652.25	6.678
652.58	8.100
652.90	9.479
653.23	8.166
653.56	7.874
653.88	9.033
654.21	9.795
