SpectraSuite Data File
++++++++++++++++++++++++++++++++++++
Date: Wed May 13 19:35:41 PDT 2015
User: schluterlab
Dark Spectrum Present: Yes
Reference Spectrum Present: Yes
Number of Sampled Component Spectra: 1
Spectrometers: USB2E3373
Integration Time (usec): 3000 (USB2E3373)
Spectra Averaged: 3 (USB2E3373)
Boxcar Smoothing: 0 (USB2E3373)
Correct for Electrical Dark: No (USB2E3373)
Strobe/Lamp Enabled: No (USB2E3373)
Correct for Detector Non-linearity: No (USB2E3373)
Correct for Stray Light: No (USB2E3373)
Number of Pixels in Processed Spectrum: 2048
>>>>>Begin Processed Spectral Data<<<<<
178.53	0.000
178.91	-1425.000
179.29	-1375.000
179.67	-227.778
180.04	-1300.000
180.42	3350.000
180.80	1140.000
181.18	-1325.000
181.56	857.143
181.94	0.000
182.31	-600.000
182.69	2100.000
183.07	-612.500
183.45	-511.111
183.83	509.091
184.20	-370.000
184.58	2950.000
184.96	5400.000
185.34	-920.000
185.72	-675.000
186.09	-2550.000
186.47	3150.000
186.85	2900.000
187.23	5300.000
187.61	-1900.000
187.98	1400.000
188.36	572.727
188.74	572.727
189.12	-780.000
189.49	560.000
189.87	-5000.000
190.25	-1375.000
190.63	514.286
191.00	500.000
191.38	1150.000
191.76	-1325.000
192.14	1475.000
192.51	787.500
192.89	1033.333
193.27	662.500
193.65	-1325.000
194.02	540.000
194.40	880.000
194.78	610.000
195.15	566.667
195.53	670.000
195.91	-2200.000
196.29	331.250
196.66	326.316
197.04	-370.000
197.42	0.000
197.79	630.000
198.17	-4500.000
198.55	642.857
198.92	725.000
199.30	1160.000
199.68	0.000
200.05	366.667
200.43	885.714
200.81	5800.000
201.18	1866.667
201.56	-1500.000
201.94	633.333
202.31	655.556
202.69	475.000
203.07	660.000
203.44	0.000
203.82	1275.000
204.19	842.857
204.57	457.143
204.95	700.000
205.32	2066.667
205.70	545.455
206.08	385.714
206.45	2600.000
206.83	387.500
207.20	1116.667
207.58	860.000
207.96	372.222
208.33	775.000
208.71	-1000.000
209.08	814.286
209.46	600.000
209.84	609.091
210.21	-1400.000
210.59	1450.000
210.96	-387.500
211.34	3050.000
211.71	680.000
212.09	983.333
212.46	0.000
212.84	1733.333
213.22	1600.000
213.59	-5100.000
213.97	933.333
214.34	971.429
214.72	590.909
215.09	980.000
215.47	-2250.000
215.84	-2750.000
216.22	1633.333
216.59	435.714
216.97	1575.000
217.34	500.000
217.72	-750.000
218.09	0.000
218.47	-5500.000
218.84	722.222
219.22	685.714
219.59	2033.333
219.97	-814.286
220.34	1140.000
220.72	-1766.667
221.09	428.571
221.47	1350.000
221.84	-833.333
222.22	0.000
222.59	1525.000
222.97	-3150.000
223.34	1360.000
223.72	446.154
224.09	1100.000
224.46	2450.000
224.84	-5600.000
225.21	-1100.000
225.59	-5200.000
225.96	640.000
226.34	300.000
226.71	3000.000
227.08	637.500
227.46	630.000
227.83	-1300.000
228.21	-2500.000
228.58	688.889
228.95	-2750.000
229.33	-3100.000
229.70	1900.000
230.08	942.857
230.45	-940.000
230.82	500.000
231.20	966.667
231.57	700.000
231.95	566.667
232.32	245.455
232.69	436.364
233.07	885.714
233.44	476.923
233.81	-1733.333
234.19	347.368
234.56	491.667
234.93	358.333
235.31	490.909
235.68	415.385
236.05	421.429
236.43	215.152
236.80	336.842
237.17	4900.000
237.55	304.762
237.92	232.143
238.29	314.286
238.67	209.677
239.04	206.897
239.41	194.444
239.79	139.130
240.16	159.524
240.53	159.091
240.91	131.373
241.28	130.000
241.65	136.000
242.02	111.594
242.40	137.097
242.77	118.333
243.14	100.000
243.51	102.247
243.89	104.706
244.26	96.667
244.63	87.097
245.00	89.362
245.38	82.178
245.75	76.636
246.12	74.312
246.49	82.482
246.87	89.600
247.24	77.692
247.61	71.429
247.98	71.242
248.36	66.216
248.73	68.153
249.10	64.968
249.47	67.232
249.84	57.219
250.22	59.893
250.59	59.172
250.96	61.111
251.33	60.664
251.70	59.901
252.08	55.238
252.45	52.915
252.82	57.826
253.19	59.574
253.56	57.255
253.94	59.336
254.31	51.172
254.68	53.846
255.05	56.458
255.42	53.252
255.79	53.676
256.16	50.542
256.54	47.350
256.91	49.822
257.28	44.964
257.65	50.495
258.02	51.242
258.39	46.688
258.76	49.498
259.14	45.238
259.51	49.240
259.88	43.168
260.25	51.057
260.62	45.665
260.99	45.963
261.36	47.748
261.73	45.559
262.10	46.512
262.47	46.761
262.85	44.847
263.22	44.160
263.59	48.433
263.96	44.505
264.33	45.692
264.70	44.211
265.07	46.803
265.44	43.182
265.81	40.876
266.18	43.216
266.55	45.122
266.92	42.506
267.29	46.065
267.66	43.578
268.03	43.636
268.40	42.523
268.77	43.437
269.14	42.568
269.51	40.181
269.88	44.755
270.25	44.244
270.62	42.697
270.99	44.731
271.36	38.197
271.73	42.290
272.10	44.130
272.47	43.226
272.84	40.260
273.21	40.042
273.58	40.830
273.95	40.042
274.32	38.843
274.69	41.542
275.06	38.189
275.43	39.362
275.80	40.481
276.17	38.697
276.54	39.085
276.91	40.514
277.28	38.281
277.65	40.426
278.02	40.787
278.39	40.820
278.76	37.636
279.13	40.566
279.50	40.223
279.87	38.446
280.23	39.721
280.60	39.265
280.97	39.372
281.34	39.292
281.71	38.545
282.08	40.115
282.45	36.909
282.82	37.655
283.19	36.364
283.56	36.667
283.92	38.409
284.29	38.624
284.66	37.387
285.03	36.890
285.40	38.908
285.77	37.879
286.14	37.133
286.51	36.000
286.87	36.239
287.24	36.645
287.61	35.152
287.98	35.714
288.35	35.341
288.72	35.358
289.08	36.463
289.45	34.926
289.82	36.260
290.19	33.124
290.56	33.691
290.93	31.873
291.29	33.129
291.66	33.333
292.03	34.593
292.40	33.921
292.77	30.917
293.13	32.090
293.50	33.819
293.87	32.889
294.24	31.111
294.60	28.821
294.97	31.395
295.34	31.312
295.71	31.250
296.08	31.197
296.44	31.499
296.81	29.194
297.18	31.436
297.55	27.177
297.91	28.760
298.28	30.254
298.65	30.418
299.02	28.722
299.38	29.349
299.75	27.493
300.12	27.331
300.48	28.875
300.85	29.223
301.22	28.662
301.59	27.020
301.95	29.093
302.32	27.343
302.69	28.315
303.05	27.636
303.42	26.667
303.79	28.086
304.15	24.709
304.52	27.346
304.89	27.294
305.25	26.682
305.62	26.274
305.99	27.863
306.35	26.957
306.72	27.130
307.09	26.859
307.45	27.140
307.82	25.112
308.19	26.049
308.55	25.998
308.92	25.564
309.29	25.554
309.65	25.027
310.02	25.476
310.38	25.914
310.75	26.505
311.12	24.667
311.48	24.765
311.85	27.149
312.22	25.702
312.58	25.676
312.95	26.505
313.31	24.951
313.68	25.988
314.05	27.318
314.41	25.025
314.78	25.680
315.14	24.131
315.51	24.923
315.87	26.337
316.24	25.223
316.61	24.172
316.97	25.342
317.34	25.440
317.70	25.526
318.07	27.141
318.43	26.027
318.80	26.148
319.16	25.989
319.53	25.797
319.89	26.762
320.26	27.500
320.62	27.183
320.99	26.162
321.35	26.667
321.72	29.158
322.08	29.615
322.45	30.448
322.81	29.457
323.18	30.347
323.54	29.221
323.91	29.057
324.27	29.446
324.64	29.450
325.00	29.576
325.37	31.210
325.73	31.418
326.10	30.803
326.46	31.541
326.83	32.528
327.19	31.682
327.56	32.143
327.92	32.721
328.29	34.516
328.65	33.886
329.01	35.108
329.38	34.320
329.74	34.257
330.11	36.852
330.47	34.619
330.84	36.489
331.20	35.610
331.56	35.596
331.93	36.667
332.29	36.114
332.66	36.637
333.02	36.106
333.38	36.676
333.75	36.542
334.11	35.943
334.48	36.646
334.84	38.419
335.20	37.727
335.57	36.083
335.93	36.071
336.29	37.088
336.66	37.060
337.02	36.290
337.38	38.241
337.75	37.879
338.11	37.422
338.47	37.293
338.84	39.413
339.20	37.982
339.56	38.047
339.93	37.545
340.29	37.772
340.65	38.235
341.02	38.394
341.38	37.367
341.74	36.754
342.11	37.293
342.47	38.590
342.83	37.757
343.20	37.835
343.56	36.900
343.92	37.193
344.28	37.245
344.65	37.059
345.01	36.195
345.37	37.050
345.73	38.240
346.10	38.107
346.46	36.864
346.82	37.397
347.19	38.262
347.55	36.371
347.91	37.702
348.27	38.291
348.63	37.876
349.00	36.327
349.36	37.603
349.72	37.049
350.08	37.682
350.45	37.754
350.81	37.368
351.17	36.629
351.53	37.183
351.89	37.211
352.26	37.411
352.62	37.530
352.98	36.629
353.34	37.387
353.70	36.334
354.07	36.774
354.43	36.587
354.79	37.088
355.15	37.989
355.51	38.449
355.87	37.633
356.24	38.111
356.60	36.087
356.96	38.134
357.32	37.858
357.68	38.583
358.04	37.926
358.40	38.480
358.77	37.246
359.13	37.174
359.49	38.196
359.85	37.460
360.21	39.713
360.57	37.743
360.93	38.923
361.29	38.398
361.66	36.997
362.02	38.582
362.38	37.947
362.74	37.723
363.10	37.824
363.46	38.151
363.82	37.868
364.18	38.253
364.54	38.113
364.90	38.031
365.26	37.794
365.62	37.984
365.98	38.276
366.35	37.034
366.71	38.178
367.07	39.111
367.43	39.042
367.79	39.900
368.15	39.943
368.51	38.227
368.87	38.258
369.23	38.332
369.59	38.016
369.95	40.074
370.31	39.174
370.67	38.623
371.03	40.225
371.39	39.140
371.75	38.971
372.11	38.620
372.47	40.249
372.83	40.130
373.19	38.584
373.55	39.763
373.91	41.163
374.27	38.419
374.63	40.436
374.99	40.466
375.35	39.846
375.71	39.616
376.07	39.849
376.42	40.715
376.78	41.882
377.14	40.231
377.50	41.192
377.86	40.426
378.22	40.076
378.58	39.599
378.94	39.786
379.30	40.522
379.66	41.688
380.02	40.848
380.38	40.255
380.74	41.116
381.09	41.687
381.45	43.085
381.81	42.199
382.17	42.420
382.53	42.327
382.89	42.099
383.25	42.089
383.61	43.494
383.97	42.276
384.32	41.984
384.68	42.255
385.04	42.655
385.40	42.601
385.76	41.585
386.12	43.459
386.48	44.116
386.83	44.259
387.19	44.341
387.55	43.228
387.91	44.619
388.27	43.164
388.62	44.438
388.98	43.550
389.34	45.056
389.70	44.942
390.06	45.564
390.42	45.850
390.77	44.148
391.13	45.501
391.49	45.558
391.85	46.085
392.20	46.183
392.56	45.581
392.92	45.968
393.28	45.148
393.64	45.564
393.99	45.510
394.35	46.340
394.71	46.738
395.07	46.355
395.42	48.084
395.78	46.501
396.14	46.058
396.50	48.246
396.85	47.934
397.21	46.301
397.57	46.931
397.92	47.656
398.28	47.478
398.64	48.208
399.00	48.461
399.35	47.547
399.71	48.264
400.07	48.137
400.42	49.018
400.78	49.457
401.14	49.573
401.49	50.090
401.85	49.244
402.21	49.521
402.57	51.141
402.92	50.504
403.28	51.031
403.63	51.423
403.99	51.210
404.35	51.212
404.70	50.659
405.06	50.320
405.42	52.215
405.77	50.686
406.13	50.621
406.49	51.863
406.84	50.266
407.20	51.773
407.55	53.606
407.91	53.267
408.27	52.840
408.62	53.703
408.98	52.941
409.34	54.674
409.69	53.226
410.05	53.222
410.40	53.028
410.76	54.898
411.11	53.619
411.47	54.505
411.83	54.429
412.18	54.607
412.54	55.666
412.89	54.458
413.25	54.900
413.60	54.787
413.96	53.248
414.31	54.435
414.67	56.210
415.03	56.225
415.38	56.314
415.74	56.334
416.09	57.871
416.45	57.162
416.80	57.436
417.16	57.976
417.51	58.660
417.87	56.712
418.22	58.044
418.58	57.908
418.93	58.108
419.29	57.798
419.64	58.627
420.00	57.561
420.35	58.261
420.71	59.773
421.06	58.413
421.42	58.304
421.77	58.688
422.12	58.394
422.48	58.392
422.83	59.173
423.19	59.392
423.54	59.141
423.90	59.942
424.25	59.576
424.61	58.750
424.96	60.175
425.31	59.192
425.67	59.382
426.02	58.971
426.38	60.562
426.73	59.450
427.09	60.790
427.44	61.127
427.79	60.610
428.15	61.488
428.50	60.796
428.85	62.455
429.21	61.126
429.56	60.757
429.92	60.594
430.27	60.526
430.62	60.266
430.98	60.820
431.33	60.412
431.68	61.675
432.04	60.863
432.39	63.906
432.74	63.136
433.10	63.780
433.45	63.440
433.80	63.248
434.16	62.447
434.51	60.895
434.86	63.227
435.22	63.480
435.57	63.708
435.92	62.668
436.28	64.591
436.63	63.355
436.98	63.366
437.34	63.268
437.69	64.994
438.04	64.924
438.39	63.582
438.75	63.974
439.10	63.911
439.45	64.404
439.81	64.169
440.16	63.241
440.51	64.265
440.86	65.431
441.22	64.405
441.57	64.756
441.92	64.841
442.27	64.586
442.63	63.612
442.98	64.394
443.33	65.272
443.68	65.514
444.03	63.885
444.39	65.190
444.74	66.721
445.09	64.151
445.44	64.243
445.79	65.017
446.15	64.743
446.50	64.513
446.85	65.313
447.20	65.018
447.55	67.169
447.91	65.472
448.26	65.442
448.61	66.196
448.96	66.002
449.31	66.085
449.66	65.279
450.02	65.348
450.37	65.476
450.72	66.046
451.07	65.265
451.42	64.985
451.77	66.001
452.12	64.954
452.47	66.418
452.83	65.618
453.18	64.609
453.53	67.718
453.88	66.627
454.23	66.766
454.58	65.839
454.93	67.896
455.28	65.835
455.63	66.869
455.98	67.262
456.34	67.148
456.69	66.124
457.04	68.050
457.39	66.219
457.74	66.686
458.09	67.510
458.44	66.591
458.79	65.347
459.14	65.801
459.49	66.842
459.84	65.097
460.19	67.118
460.54	64.410
460.89	64.893
461.24	67.820
461.59	66.357
461.94	66.215
462.29	66.884
462.64	66.241
462.99	65.908
463.34	66.800
463.69	67.230
464.04	65.507
464.39	64.580
464.74	65.181
465.09	66.466
465.44	65.319
465.79	65.772
466.14	63.930
466.49	65.962
466.84	66.492
467.19	65.842
467.54	66.812
467.89	65.606
468.24	64.863
468.59	66.484
468.94	64.203
469.29	66.324
469.64	66.667
469.99	66.509
470.34	66.777
470.68	66.882
471.03	66.939
471.38	68.589
471.73	65.290
472.08	67.829
472.43	66.646
472.78	67.544
473.13	67.394
473.48	66.729
473.83	66.220
474.17	66.273
474.52	66.687
474.87	66.375
475.22	65.061
475.57	64.481
475.92	64.843
476.27	66.855
476.61	66.575
476.96	65.366
477.31	64.312
477.66	65.864
478.01	64.872
478.36	66.155
478.70	65.524
479.05	65.282
479.40	66.274
479.75	65.531
480.10	65.159
480.45	64.398
480.79	65.456
481.14	65.705
481.49	66.350
481.84	65.341
482.19	66.652
482.53	64.725
482.88	64.960
483.23	65.327
483.58	64.513
483.92	64.902
484.27	63.834
484.62	64.267
484.97	63.934
485.31	65.548
485.66	63.250
486.01	61.478
486.36	59.829
486.70	59.682
487.05	60.081
487.40	62.130
487.75	62.897
488.09	64.301
488.44	65.844
488.79	66.004
489.13	65.508
489.48	65.824
489.83	64.178
490.17	64.577
490.52	62.666
490.87	64.722
491.22	64.075
491.56	63.781
491.91	64.076
492.26	63.206
492.60	63.641
492.95	63.564
493.30	64.720
493.64	64.769
493.99	63.695
494.34	63.552
494.68	63.599
495.03	64.145
495.37	63.471
495.72	64.230
496.07	64.826
496.41	62.345
496.76	63.325
497.11	63.080
497.45	63.344
497.80	64.635
498.14	63.865
498.49	64.244
498.84	63.327
499.18	63.429
499.53	64.387
499.87	62.628
500.22	63.401
500.56	64.126
500.91	62.740
501.26	64.106
501.60	64.784
501.95	62.420
502.29	64.667
502.64	64.479
502.98	63.534
503.33	61.837
503.67	63.527
504.02	63.611
504.36	62.658
504.71	64.827
505.06	62.458
505.40	64.511
505.75	61.958
506.09	63.605
506.44	64.134
506.78	63.614
507.13	63.958
507.47	63.333
507.82	63.830
508.16	64.843
508.51	64.739
508.85	63.009
509.19	63.265
509.54	61.786
509.88	62.906
510.23	64.679
510.57	64.190
510.92	64.319
511.26	63.361
511.61	63.174
511.95	62.630
512.30	63.574
512.64	64.105
512.98	63.987
513.33	64.186
513.67	61.953
514.02	62.554
514.36	64.555
514.70	63.752
515.05	62.744
515.39	62.928
515.74	62.331
516.08	63.835
516.42	63.762
516.77	64.437
517.11	62.098
517.46	65.801
517.80	65.331
518.14	62.536
518.49	64.061
518.83	62.841
519.17	63.337
519.52	62.535
519.86	62.464
520.20	63.815
520.55	64.393
520.89	65.085
521.23	64.656
521.58	64.106
521.92	64.360
522.26	62.721
522.61	63.240
522.95	63.106
523.29	63.177
523.64	65.000
523.98	65.311
524.32	63.329
524.66	64.041
525.01	62.990
525.35	63.197
525.69	63.424
526.04	64.237
526.38	63.331
526.72	62.945
527.06	64.218
527.41	62.129
527.75	64.952
528.09	64.547
528.43	63.990
528.78	63.061
529.12	62.909
529.46	63.870
529.80	62.438
530.15	65.047
530.49	61.969
530.83	64.430
531.17	65.992
531.51	64.591
531.86	63.677
532.20	64.733
532.54	64.254
532.88	64.442
533.22	63.398
533.57	62.407
533.91	63.516
534.25	62.697
534.59	64.246
534.93	62.820
535.27	62.583
535.62	63.431
535.96	64.909
536.30	63.318
536.64	64.070
536.98	65.163
537.32	62.080
537.66	64.200
538.01	63.989
538.35	63.736
538.69	63.816
539.03	61.663
539.37	62.556
539.71	63.189
540.05	62.876
540.39	64.252
540.73	61.708
541.07	63.206
541.42	62.296
541.76	63.806
542.10	64.101
542.44	63.907
542.78	65.283
543.12	61.484
543.46	63.934
543.80	63.565
544.14	61.938
544.48	63.810
544.82	62.925
545.16	64.086
545.50	62.339
545.84	63.038
546.18	64.040
546.52	64.763
546.86	63.436
547.20	63.722
547.54	63.393
547.88	63.839
548.22	62.329
548.56	62.830
548.90	62.036
549.24	62.020
549.58	62.688
549.92	63.393
550.26	64.347
550.60	63.347
550.94	63.099
551.28	62.326
551.62	63.264
551.96	61.895
552.30	63.276
552.64	61.663
552.98	62.305
553.32	62.643
553.66	63.531
554.00	62.388
554.34	62.733
554.68	65.451
555.02	63.893
555.36	62.491
555.69	60.419
556.03	61.575
556.37	63.643
556.71	60.846
557.05	61.275
557.39	62.141
557.73	62.032
558.07	64.757
558.41	63.025
558.75	62.160
559.08	63.013
559.42	62.661
559.76	62.647
560.10	61.242
560.44	61.426
560.78	61.411
561.12	61.016
561.45	61.278
561.79	59.987
562.13	61.368
562.47	62.637
562.81	62.762
563.15	59.799
563.48	60.676
563.82	61.057
564.16	61.543
564.50	60.938
564.84	60.303
565.17	60.425
565.51	61.406
565.85	61.041
566.19	59.674
566.52	61.178
566.86	60.759
567.20	60.731
567.54	59.817
567.88	59.479
568.21	60.370
568.55	59.302
568.89	58.512
569.23	58.200
569.56	57.733
569.90	56.792
570.24	57.194
570.57	55.933
570.91	55.882
571.25	55.281
571.59	55.317
571.92	56.135
572.26	55.199
572.60	56.066
572.93	54.393
573.27	55.605
573.61	55.248
573.95	55.375
574.28	55.101
574.62	55.248
574.96	54.576
575.29	55.189
575.63	54.853
575.97	54.621
576.30	54.833
576.64	54.663
576.98	54.278
577.31	54.690
577.65	54.767
577.98	54.343
578.32	53.773
578.66	53.732
578.99	54.166
579.33	54.587
579.67	53.588
580.00	55.406
580.34	54.936
580.67	55.070
581.01	54.104
581.35	54.285
581.68	54.194
582.02	52.842
582.35	53.725
582.69	53.098
583.02	54.258
583.36	54.715
583.70	55.320
584.03	54.990
584.37	55.283
584.70	55.172
585.04	54.207
585.37	53.938
585.71	54.253
586.04	53.588
586.38	54.624
586.72	54.598
587.05	53.409
587.39	54.037
587.72	53.749
588.06	53.895
588.39	54.376
588.73	54.356
589.06	55.562
589.40	56.599
589.73	55.861
590.07	54.164
590.40	54.110
590.73	55.386
591.07	55.718
591.40	55.757
591.74	56.017
592.07	55.672
592.41	54.816
592.74	54.045
593.08	52.998
593.41	53.559
593.75	52.655
594.08	53.369
594.41	54.189
594.75	53.826
595.08	53.078
595.42	54.571
595.75	54.095
596.09	55.051
596.42	54.499
596.75	54.664
597.09	54.372
597.42	53.626
597.75	54.592
598.09	54.304
598.42	53.952
598.76	52.533
599.09	52.680
599.42	51.528
599.76	52.416
600.09	52.240
600.42	52.301
600.76	52.107
601.09	52.386
601.42	52.131
601.76	52.524
602.09	53.874
602.42	53.105
602.76	53.607
603.09	53.265
603.42	53.417
603.76	53.239
604.09	52.695
604.42	52.629
604.76	53.437
605.09	53.561
605.42	52.715
605.75	53.228
606.09	52.664
606.42	53.331
606.75	52.095
607.09	52.114
607.42	52.161
607.75	50.422
608.08	51.585
608.42	52.846
608.75	52.615
609.08	52.359
609.41	52.975
609.75	52.644
610.08	52.121
610.41	52.235
610.74	52.460
611.07	53.113
611.41	52.601
611.74	52.841
612.07	53.209
612.40	52.991
612.73	52.053
613.07	54.472
613.40	52.817
613.73	52.281
614.06	53.387
614.39	51.494
614.72	51.895
615.06	51.996
615.39	51.911
615.72	51.789
616.05	51.728
616.38	52.196
616.71	53.919
617.05	53.416
617.38	53.518
617.71	53.333
618.04	53.666
618.37	51.685
618.70	52.396
619.03	53.816
619.36	53.564
619.69	54.225
620.03	54.602
620.36	53.409
620.69	53.288
621.02	54.646
621.35	54.503
621.68	53.193
622.01	53.328
622.34	53.404
622.67	53.384
623.00	52.531
623.33	51.465
623.66	53.252
623.99	53.535
624.32	53.210
624.65	53.107
624.99	52.266
625.32	52.281
625.65	51.991
625.98	53.420
626.31	52.488
626.64	54.041
626.97	53.948
627.30	53.616
627.63	54.963
627.96	53.659
628.29	53.631
628.62	54.986
628.95	55.943
629.28	52.372
629.61	53.254
629.94	57.810
630.26	53.194
630.59	53.098
