SpectraSuite Data File
++++++++++++++++++++++++++++++++++++
Date: Tue May 12 19:48:14 PDT 2015
User: schluterlab
Dark Spectrum Present: Yes
Reference Spectrum Present: Yes
Number of Sampled Component Spectra: 1
Spectrometers: USB2E3373
Integration Time (usec): 3000 (USB2E3373)
Spectra Averaged: 3 (USB2E3373)
Boxcar Smoothing: 0 (USB2E3373)
Correct for Electrical Dark: No (USB2E3373)
Strobe/Lamp Enabled: No (USB2E3373)
Correct for Detector Non-linearity: No (USB2E3373)
Correct for Stray Light: No (USB2E3373)
Number of Pixels in Processed Spectrum: 2048
>>>>>Begin Processed Spectral Data<<<<<
178.53	0.000
178.91	-120.000
179.29	-200.000
179.67	566.667
180.04	0.000
180.42	-160.000
180.80	-366.667
181.18	650.000
181.56	-700.000
181.94	283.333
182.31	2500.000
182.69	-85.714
183.07	0.000
183.45	125.000
183.83	340.000
184.20	450.000
184.58	1100.000
184.96	216.667
185.34	-600.000
185.72	-85.714
186.09	-300.000
186.47	-1800.000
186.85	-180.000
187.23	175.000
187.61	-142.857
187.98	-200.000
188.36	500.000
188.74	-350.000
189.12	-144.444
189.49	-20.000
189.87	500.000
190.25	222.222
190.63	366.667
191.00	460.000
191.38	-400.000
191.76	400.000
192.14	-171.429
192.51	-150.000
192.89	-120.000
193.27	-100.000
193.65	-466.667
194.02	0.000
194.40	300.000
194.78	-100.000
195.15	-285.714
195.53	333.333
195.91	260.000
196.29	-375.000
196.66	-400.000
197.04	-257.143
197.42	180.000
197.79	-225.000
198.17	-83.333
198.55	-1600.000
198.92	-166.667
199.30	550.000
199.68	-275.000
200.05	-750.000
200.43	-66.667
200.81	-75.000
201.18	416.667
201.56	-950.000
201.94	-1800.000
202.31	-83.333
202.69	-11.111
203.07	-33.333
203.44	-400.000
203.82	0.000
204.19	312.500
204.57	-566.667
204.95	209.091
205.32	140.000
205.70	425.000
206.08	-1300.000
206.45	-40.000
206.83	1500.000
207.20	-222.222
207.58	-38.462
207.96	466.667
208.33	800.000
208.71	633.333
209.08	600.000
209.46	-33.333
209.84	900.000
210.21	-933.333
210.59	650.000
210.96	244.444
211.34	-250.000
211.71	1150.000
212.09	-320.000
212.46	-137.500
212.84	-187.500
213.22	42.857
213.59	-50.000
213.97	0.000
214.34	-450.000
214.72	-1000.000
215.09	650.000
215.47	6.667
215.84	-75.000
216.22	-1900.000
216.59	2000.000
216.97	33.333
217.34	-100.000
217.72	11.111
218.09	475.000
218.47	-63.158
218.84	-100.000
219.22	-7.143
219.59	-150.000
219.97	-60.000
220.34	200.000
220.72	127.273
221.09	-300.000
221.47	0.000
221.84	1000.000
222.22	-375.000
222.59	-450.000
222.97	0.000
223.34	173.333
223.72	428.571
224.09	-266.667
224.46	184.615
224.84	-66.667
225.21	-700.000
225.59	-375.000
225.96	10.000
226.34	433.333
226.71	220.000
227.08	-53.846
227.46	-128.571
227.83	66.667
228.21	-1100.000
228.58	316.667
228.95	-26.316
229.33	-31.250
229.70	-250.000
230.08	-133.333
230.45	-633.333
230.82	-900.000
231.20	-47.619
231.57	-260.000
231.95	-633.333
232.32	111.111
232.69	-850.000
233.07	25.000
233.44	-112.500
233.81	19.355
234.19	-400.000
234.56	-16.667
234.93	-133.333
235.31	-3.704
235.68	14.815
236.05	7.692
236.43	-63.158
236.80	4.545
237.17	-85.714
237.55	-55.000
237.92	11.628
238.29	6.452
238.67	-10.714
239.04	31.429
239.41	-15.686
239.79	34.000
240.16	10.000
240.53	3.448
240.91	21.918
241.28	15.493
241.65	20.313
242.02	15.789
242.40	14.667
242.77	17.895
243.14	23.529
243.51	24.731
243.89	24.762
244.26	25.926
244.63	25.510
245.00	20.536
245.38	20.168
245.75	30.508
246.12	34.375
246.49	32.000
246.87	24.590
247.24	16.197
247.61	24.503
247.98	29.213
248.36	28.931
248.73	27.841
249.10	30.556
249.47	35.417
249.84	26.904
250.22	26.042
250.59	27.528
250.96	28.636
251.33	40.566
251.70	33.028
252.08	31.169
252.45	32.245
252.82	27.004
253.19	31.907
253.56	33.333
253.94	32.927
254.31	36.691
254.68	30.556
255.05	33.775
255.42	26.909
255.79	38.079
256.16	34.722
256.54	30.606
256.91	36.859
257.28	34.416
257.65	29.836
258.02	31.832
258.39	34.139
258.76	33.945
259.14	30.882
259.51	37.465
259.88	34.006
260.25	32.955
260.62	30.337
260.99	32.591
261.36	33.046
261.73	33.067
262.10	37.602
262.47	37.741
262.85	33.933
263.22	32.258
263.59	34.316
263.96	33.159
264.33	31.267
264.70	31.204
265.07	34.236
265.44	33.724
265.81	34.940
266.18	32.553
266.55	32.143
266.92	37.946
267.29	34.667
267.66	32.500
268.03	34.194
268.40	34.783
268.77	32.294
269.14	33.613
269.51	34.842
269.88	32.906
270.25	30.802
270.62	35.294
270.99	33.895
271.36	36.203
271.73	35.417
272.10	32.988
272.47	33.200
272.84	33.970
273.21	33.820
273.58	31.429
273.95	33.665
274.32	31.915
274.69	34.834
275.06	34.522
275.43	31.800
275.80	31.549
276.17	34.190
276.54	34.981
276.91	35.509
277.28	35.397
277.65	32.892
278.02	32.008
278.39	36.298
278.76	33.333
279.13	32.379
279.50	35.018
279.87	33.396
280.23	34.244
280.60	30.565
280.97	34.271
281.34	34.237
281.71	31.261
282.08	34.168
282.45	31.393
282.82	33.502
283.19	33.670
283.56	32.594
283.92	31.280
284.29	34.687
284.66	32.920
285.03	28.988
285.40	34.167
285.77	33.498
286.14	30.745
286.51	29.582
286.87	31.280
287.24	30.929
287.61	32.099
287.98	32.864
288.35	31.163
288.72	32.263
289.08	29.403
289.45	30.577
289.82	29.814
290.19	30.000
290.56	28.654
290.93	30.576
291.29	28.936
291.66	29.354
292.03	32.425
292.40	29.496
292.77	27.843
293.13	28.341
293.50	28.926
293.87	28.710
294.24	29.494
294.60	28.142
294.97	27.147
295.34	26.712
295.71	26.768
296.08	27.869
296.44	27.009
296.81	25.226
297.18	27.296
297.55	27.010
297.91	25.888
298.28	26.982
298.65	25.614
299.02	28.237
299.38	26.403
299.75	25.354
300.12	25.180
300.48	25.352
300.85	25.306
301.22	25.240
301.59	25.547
301.95	25.488
302.32	26.245
302.69	24.732
303.05	24.675
303.42	25.242
303.79	23.034
304.15	24.349
304.52	24.804
304.89	23.337
305.25	23.624
305.62	24.659
305.99	24.636
306.35	25.056
306.72	25.599
307.09	23.177
307.45	24.380
307.82	24.973
308.19	25.083
308.55	25.211
308.92	24.258
309.29	23.954
309.65	24.149
310.02	23.899
310.38	24.947
310.75	24.488
311.12	24.720
311.48	25.694
311.85	24.316
312.22	23.967
312.58	25.277
312.95	26.283
313.31	24.582
313.68	25.621
314.05	27.905
314.41	26.326
314.78	25.729
315.14	27.522
315.51	27.905
315.87	26.953
316.24	27.498
316.61	27.573
316.97	26.275
317.34	28.900
317.70	27.171
318.07	27.194
318.43	29.301
318.80	28.415
319.16	28.611
319.53	31.509
319.89	30.303
320.26	30.088
320.62	31.686
320.99	33.367
321.35	32.115
321.72	34.646
322.08	33.366
322.45	33.235
322.81	34.680
323.18	35.283
323.54	34.218
323.91	35.579
324.27	34.330
324.64	37.207
325.00	36.670
325.37	38.669
325.73	37.044
326.10	39.229
326.46	40.345
326.83	39.930
327.19	40.611
327.56	41.998
327.92	40.451
328.29	40.591
328.65	42.561
329.01	42.936
329.38	43.802
329.74	44.011
330.11	42.498
330.47	42.737
330.84	42.951
331.20	42.791
331.56	43.585
331.93	44.739
332.29	46.346
332.66	46.474
333.02	47.075
333.38	46.324
333.75	47.575
334.11	45.750
334.48	46.959
334.84	46.103
335.20	47.090
335.57	48.138
335.93	48.465
336.29	48.080
336.66	47.996
337.02	47.779
337.38	47.075
337.75	48.000
338.11	48.040
338.47	49.582
338.84	48.619
339.20	49.038
339.56	48.462
339.93	48.018
340.29	47.960
340.65	48.311
341.02	47.919
341.38	48.279
341.74	50.178
342.11	50.221
342.47	48.601
342.83	49.176
343.20	49.514
343.56	50.437
343.92	50.219
344.28	49.142
344.65	50.685
345.01	51.481
345.37	49.744
345.73	49.871
346.10	52.031
346.46	49.267
346.82	50.807
347.19	51.556
347.55	50.850
347.91	50.123
348.27	52.233
348.63	53.241
349.00	54.174
349.36	53.009
349.72	53.941
350.08	52.455
350.45	51.098
350.81	53.097
351.17	52.883
351.53	51.127
351.89	54.059
352.26	52.846
352.62	55.274
352.98	55.397
353.34	55.639
353.70	55.391
354.07	55.272
354.43	54.090
354.79	54.508
355.15	54.479
355.51	57.131
355.87	55.787
356.24	56.127
356.60	54.591
356.96	55.213
357.32	56.132
357.68	55.688
358.04	54.781
358.40	57.365
358.77	56.627
359.13	56.386
359.49	56.000
359.85	58.433
360.21	57.098
360.57	58.293
360.93	58.670
361.29	57.477
361.66	55.994
362.02	59.027
362.38	60.295
362.74	60.415
363.10	59.879
363.46	59.744
363.82	58.040
364.18	58.895
364.54	59.237
364.90	59.778
365.26	59.314
365.62	61.166
365.98	60.645
366.35	60.893
366.71	61.016
367.07	61.476
367.43	59.422
367.79	61.919
368.15	61.601
368.51	61.573
368.87	61.894
369.23	63.361
369.59	62.868
369.95	61.550
370.31	62.424
370.67	62.782
371.03	61.997
371.39	63.293
371.75	61.367
372.11	62.889
372.47	61.247
372.83	62.893
373.19	63.178
373.55	63.323
373.91	63.409
374.27	64.165
374.63	64.875
374.99	63.177
375.35	63.570
375.71	64.060
376.07	63.110
376.42	63.762
376.78	64.669
377.14	65.154
377.50	64.911
377.86	63.788
378.22	64.729
378.58	66.118
378.94	65.291
379.30	63.256
379.66	65.877
380.02	64.399
380.38	65.522
380.74	65.009
381.09	64.930
381.45	64.762
381.81	65.242
382.17	63.713
382.53	67.061
382.89	66.774
383.25	63.665
383.61	65.035
383.97	64.717
384.32	65.226
384.68	65.262
385.04	63.972
385.40	64.026
385.76	64.706
386.12	65.083
386.48	65.753
386.83	65.767
387.19	65.900
387.55	66.516
387.91	65.047
388.27	64.427
388.62	66.321
388.98	66.158
389.34	65.322
389.70	65.449
390.06	65.941
390.42	64.097
390.77	65.929
391.13	65.843
391.49	65.162
391.85	65.203
392.20	66.667
392.56	64.506
392.92	65.925
393.28	64.034
393.64	65.928
393.99	65.325
394.35	64.439
394.71	64.636
395.07	66.180
395.42	64.381
395.78	65.860
396.14	65.157
396.50	65.201
396.85	63.384
397.21	64.166
397.57	64.845
397.92	65.331
398.28	65.767
398.64	64.317
399.00	64.481
399.35	63.775
399.71	62.874
400.07	63.434
400.42	63.141
400.78	64.811
401.14	63.005
401.49	63.523
401.85	62.857
402.21	64.277
402.57	62.267
402.92	64.409
403.28	63.914
403.63	63.654
403.99	63.738
404.35	63.121
404.70	62.065
405.06	62.802
405.42	62.589
405.77	61.891
406.13	61.231
406.49	62.965
406.84	62.453
407.20	62.020
407.55	62.458
407.91	62.867
408.27	61.769
408.62	61.865
408.98	62.098
409.34	61.396
409.69	59.599
410.05	61.723
410.40	61.272
410.76	61.768
411.11	60.892
411.47	62.449
411.83	60.721
412.18	61.387
412.54	60.867
412.89	61.205
413.25	61.066
413.60	61.735
413.96	59.482
414.31	59.911
414.67	60.972
415.03	60.304
415.38	61.142
415.74	61.383
416.09	60.579
416.45	59.660
416.80	59.736
417.16	61.495
417.51	60.583
417.87	60.739
418.22	60.428
418.58	59.295
418.93	59.446
419.29	60.991
419.64	62.088
420.00	59.463
420.35	59.761
420.71	59.091
421.06	62.427
421.42	60.100
421.77	62.119
422.12	59.185
422.48	59.623
422.83	58.845
423.19	60.000
423.54	59.805
423.90	59.085
424.25	60.604
424.61	59.290
424.96	59.582
425.31	59.662
425.67	60.182
426.02	61.180
426.38	60.489
426.73	59.813
427.09	59.357
427.44	60.000
427.79	60.767
428.15	59.417
428.50	59.799
428.85	58.948
429.21	60.371
429.56	58.840
429.92	59.221
430.27	58.187
430.62	58.680
430.98	58.732
431.33	61.568
431.68	59.956
432.04	58.803
432.39	58.526
432.74	58.824
433.10	59.248
433.45	60.038
433.80	59.524
434.16	58.688
434.51	58.919
434.86	60.423
435.22	59.953
435.57	59.828
435.92	58.700
436.28	58.904
436.63	58.855
436.98	59.753
437.34	61.292
437.69	58.889
438.04	59.976
438.39	59.334
438.75	58.646
439.10	59.702
439.45	61.104
439.81	59.429
440.16	58.318
440.51	59.418
440.86	59.975
441.22	58.606
441.57	58.234
441.92	59.083
442.27	59.429
442.63	60.271
442.98	60.208
443.33	59.694
443.68	58.846
444.03	57.990
444.39	57.626
444.74	57.584
445.09	59.209
445.44	58.484
445.79	58.306
446.15	58.659
446.50	59.398
446.85	58.691
447.20	58.643
447.55	56.079
447.91	59.436
448.26	58.872
448.61	57.946
448.96	59.137
449.31	57.203
449.66	57.385
450.02	56.391
450.37	57.898
450.72	58.169
451.07	57.811
451.42	58.235
451.77	56.936
452.12	57.393
452.47	57.317
452.83	57.347
453.18	57.394
453.53	57.609
453.88	57.498
454.23	58.083
454.58	57.702
454.93	57.016
455.28	55.261
455.63	57.050
455.98	57.741
456.34	56.999
456.69	56.534
457.04	55.840
457.39	56.305
457.74	56.511
458.09	54.325
458.44	55.978
458.79	55.771
459.14	57.543
459.49	57.134
459.84	55.351
460.19	55.034
460.54	53.346
460.89	55.000
461.24	55.649
461.59	55.521
461.94	55.424
462.29	54.449
462.64	54.944
462.99	57.143
463.34	55.604
463.69	55.350
464.04	54.458
464.39	54.727
464.74	54.121
465.09	53.248
465.44	53.809
465.79	54.693
466.14	52.506
466.49	53.361
466.84	54.177
467.19	52.891
467.54	52.586
467.89	54.148
468.24	52.778
468.59	53.141
468.94	54.001
469.29	53.633
469.64	54.413
469.99	54.074
470.34	52.617
470.68	52.462
471.03	52.628
471.38	53.104
471.73	53.125
472.08	51.957
472.43	53.734
472.78	51.414
473.13	52.211
473.48	53.320
473.83	52.180
474.17	51.835
474.52	53.784
474.87	52.462
475.22	51.588
475.57	51.528
475.92	50.881
476.27	50.512
476.61	51.891
476.96	52.282
477.31	51.199
477.66	51.714
478.01	50.912
478.36	51.289
478.70	51.662
479.05	50.958
479.40	49.972
479.75	52.888
480.10	51.082
480.45	50.838
480.79	50.649
481.14	50.817
481.49	51.105
481.84	50.000
482.19	49.756
482.53	49.902
482.88	50.737
483.23	50.553
483.58	49.257
483.92	49.548
484.27	49.419
484.62	49.976
484.97	48.902
485.31	48.415
485.66	47.160
486.01	46.398
486.36	46.545
486.70	47.979
487.05	48.252
487.40	47.112
487.75	47.409
488.09	46.554
488.44	47.100
488.79	46.292
489.13	47.091
489.48	47.880
489.83	47.064
490.17	47.820
490.52	47.562
490.87	48.566
491.22	47.239
491.56	47.283
491.91	47.641
492.26	48.649
492.60	48.010
492.95	48.152
493.30	49.190
493.64	47.667
493.99	47.587
494.34	47.745
494.68	46.779
495.03	45.791
495.37	48.049
495.72	47.152
496.07	47.363
496.41	45.850
496.76	45.989
497.11	46.923
497.45	46.258
497.80	46.054
498.14	47.149
498.49	46.930
498.84	46.069
499.18	45.978
499.53	46.625
499.87	46.544
500.22	46.545
500.56	45.892
500.91	47.142
501.26	46.142
501.60	46.432
501.95	46.418
502.29	46.280
502.64	44.948
502.98	44.977
503.33	45.482
503.67	45.278
504.02	45.301
504.36	45.403
504.71	45.798
505.06	45.474
505.40	45.308
505.75	44.708
506.09	45.666
506.44	46.030
506.78	45.824
507.13	45.711
507.47	45.762
507.82	45.201
508.16	44.265
508.51	45.350
508.85	44.780
509.19	45.694
509.54	45.382
509.88	45.570
510.23	45.000
510.57	45.940
510.92	45.692
511.26	45.721
511.61	45.263
511.95	45.518
512.30	45.913
512.64	44.457
512.98	46.013
513.33	44.900
513.67	45.090
514.02	46.154
514.36	44.603
514.70	46.023
515.05	45.610
515.39	46.299
515.74	45.614
516.08	44.633
516.42	45.681
516.77	46.894
517.11	45.015
517.46	45.784
517.80	46.075
518.14	46.426
518.49	46.572
518.83	46.109
519.17	46.272
519.52	45.222
519.86	47.562
520.20	45.350
520.55	45.953
520.89	45.884
521.23	46.025
521.58	44.709
521.92	44.927
522.26	46.254
522.61	46.143
522.95	45.137
523.29	45.142
523.64	45.794
523.98	44.422
524.32	46.263
524.66	45.615
525.01	46.598
525.35	44.938
525.69	44.391
526.04	45.948
526.38	45.236
526.72	44.097
527.06	45.851
527.41	45.854
527.75	46.734
528.09	45.332
528.43	44.366
528.78	44.864
529.12	44.384
529.46	44.120
529.80	44.724
530.15	45.935
530.49	45.188
530.83	43.384
531.17	44.068
531.51	45.682
531.86	43.697
532.20	45.094
532.54	43.165
532.88	43.127
533.22	43.894
533.57	42.897
533.91	44.184
534.25	43.788
534.59	43.535
534.93	43.922
535.27	43.367
535.62	43.349
535.96	43.545
536.30	43.424
536.64	43.205
536.98	44.248
537.32	42.634
537.66	44.208
538.01	43.520
538.35	43.855
538.69	41.755
539.03	42.466
539.37	42.139
539.71	43.986
540.05	42.836
540.39	42.266
540.73	43.590
541.07	43.456
541.42	42.552
541.76	42.518
542.10	42.970
542.44	43.280
542.78	42.449
543.12	42.238
543.46	42.176
543.80	41.601
544.14	42.437
544.48	40.842
544.82	42.016
545.16	42.246
545.50	42.649
545.84	42.356
546.18	41.348
546.52	42.890
546.86	42.540
547.20	42.348
547.54	41.850
547.88	41.595
548.22	39.170
548.56	41.720
548.90	40.421
549.24	42.617
549.58	41.729
549.92	41.805
550.26	42.239
550.60	40.682
550.94	42.222
551.28	41.951
551.62	42.260
551.96	41.534
552.30	40.853
552.64	42.074
552.98	41.382
553.32	41.061
553.66	40.819
554.00	41.158
554.34	41.484
554.68	41.946
555.02	40.635
555.36	39.714
555.69	40.507
556.03	40.133
556.37	40.585
556.71	41.026
557.05	41.484
557.39	40.643
557.73	40.252
558.07	39.906
558.41	40.543
558.75	40.747
559.08	42.128
559.42	40.886
559.76	40.270
560.10	42.135
560.44	39.747
560.78	40.646
561.12	40.270
561.45	40.551
561.79	38.473
562.13	40.919
562.47	40.902
562.81	40.334
563.15	39.772
563.48	39.026
563.82	40.029
564.16	38.824
564.50	39.040
564.84	38.412
565.17	39.485
565.51	39.972
565.85	39.014
566.19	39.179
566.52	40.789
566.86	39.003
567.20	39.721
567.54	37.843
567.88	39.199
568.21	38.335
568.55	37.691
568.89	38.571
569.23	37.400
569.56	38.253
569.90	37.216
570.24	37.273
570.57	36.795
570.91	36.245
571.25	37.156
571.59	36.164
571.92	35.070
572.26	35.082
572.60	35.760
572.93	35.134
573.27	34.880
573.61	34.850
573.95	34.625
574.28	34.979
574.62	34.272
574.96	35.332
575.29	34.125
575.63	34.187
575.97	34.319
576.30	34.442
576.64	34.068
576.98	34.729
577.31	33.985
577.65	34.819
577.98	33.886
578.32	33.941
578.66	33.385
578.99	33.925
579.33	33.904
579.67	34.090
580.00	33.723
580.34	33.604
580.67	33.901
581.01	33.724
581.35	33.416
581.68	33.724
582.02	33.201
582.35	33.277
582.69	34.091
583.02	33.772
583.36	33.318
583.70	33.944
584.03	33.862
584.37	33.914
584.70	32.993
585.04	32.651
585.37	33.401
585.71	33.359
586.04	34.153
586.38	33.697
586.72	33.618
587.05	34.132
587.39	33.649
587.72	33.843
588.06	34.006
588.39	33.772
588.73	33.479
589.06	33.641
589.40	34.460
589.73	34.592
590.07	34.185
590.40	34.203
590.73	34.694
591.07	34.675
591.40	34.399
591.74	35.075
592.07	33.381
592.41	35.192
592.74	34.896
593.08	34.748
593.41	34.522
593.75	33.974
594.08	33.893
594.41	33.836
594.75	33.908
595.08	34.009
595.42	33.008
595.75	34.053
596.09	34.468
596.42	33.784
596.75	34.273
597.09	33.256
597.42	33.505
597.75	34.615
598.09	34.082
598.42	33.696
598.76	33.106
599.09	33.487
599.42	33.045
599.76	33.817
600.09	34.124
600.42	32.227
600.76	33.025
601.09	33.176
601.42	33.776
601.76	32.670
602.09	33.766
602.42	33.348
602.76	32.897
603.09	33.856
603.42	33.816
603.76	33.068
604.09	33.250
604.42	33.319
604.76	33.501
605.09	33.113
605.42	33.460
605.75	33.440
606.09	33.733
606.42	33.246
606.75	32.682
607.09	33.349
607.42	33.180
607.75	31.818
608.08	33.863
608.42	33.172
608.75	32.716
609.08	32.004
609.41	33.178
609.75	32.965
610.08	33.385
610.41	33.232
610.74	34.226
611.07	33.210
611.41	33.565
611.74	33.732
612.07	33.761
612.40	33.928
612.73	34.086
613.07	34.351
613.40	34.100
613.73	33.333
614.06	32.436
614.39	34.388
614.72	34.061
615.06	33.180
615.39	33.141
615.72	32.643
616.05	32.986
616.38	33.511
616.71	33.209
617.05	33.480
617.38	32.968
617.71	33.638
618.04	34.823
618.37	34.532
618.70	33.696
619.03	34.663
619.36	34.462
619.69	33.826
620.03	34.401
620.36	34.996
620.69	33.629
621.02	33.967
621.35	34.809
621.68	34.833
622.01	36.275
622.34	33.836
622.67	35.160
623.00	35.545
623.33	34.094
623.66	35.538
623.99	34.530
624.32	33.360
624.65	34.219
624.99	33.438
625.32	34.518
625.65	33.387
625.98	35.667
626.31	34.459
626.64	34.775
626.97	36.213
627.30	36.111
627.63	35.256
627.96	34.544
628.29	34.417
628.62	34.433
628.95	35.586
629.28	35.744
629.61	36.364
629.94	36.411
630.26	36.402
630.59	35.497
630.92	34.036
631.25	34.078
631.58	35.930
631.91	36.105
