SpectraSuite Data File
++++++++++++++++++++++++++++++++++++
Date: Wed May 13 19:25:32 PDT 2015
User: schluterlab
Dark Spectrum Present: Yes
Reference Spectrum Present: Yes
Number of Sampled Component Spectra: 1
Spectrometers: USB2E3373
Integration Time (usec): 3000 (USB2E3373)
Spectra Averaged: 3 (USB2E3373)
Boxcar Smoothing: 0 (USB2E3373)
Correct for Electrical Dark: No (USB2E3373)
Strobe/Lamp Enabled: No (USB2E3373)
Correct for Detector Non-linearity: No (USB2E3373)
Correct for Stray Light: No (USB2E3373)
Number of Pixels in Processed Spectrum: 2048
>>>>>Begin Processed Spectral Data<<<<<
178.53	0.000
178.91	-1300.000
179.29	-1425.000
179.67	-244.444
180.04	-1275.000
180.42	2850.000
180.80	1120.000
181.18	-1275.000
181.56	600.000
181.94	0.000
182.31	-757.143
182.69	1766.667
183.07	-575.000
183.45	-511.111
183.83	609.091
184.20	-420.000
184.58	2300.000
184.96	6300.000
185.34	-940.000
185.72	-737.500
186.09	-2350.000
186.47	2700.000
186.85	2650.000
187.23	6200.000
187.61	-1900.000
187.98	1450.000
188.36	518.182
188.74	490.909
189.12	-960.000
189.49	630.000
189.87	-4600.000
190.25	-1275.000
190.63	414.286
191.00	453.846
191.38	866.667
191.76	-1250.000
192.14	1450.000
192.51	625.000
192.89	1033.333
193.27	612.500
193.65	-1200.000
194.02	540.000
194.40	920.000
194.78	490.000
195.15	541.667
195.53	660.000
195.91	-2250.000
196.29	362.500
196.66	300.000
197.04	-330.000
197.42	0.000
197.79	640.000
198.17	-5200.000
198.55	657.143
198.92	687.500
199.30	980.000
199.68	0.000
200.05	311.111
200.43	828.571
200.81	3900.000
201.18	1733.333
201.56	-1966.667
201.94	644.444
202.31	644.444
202.69	450.000
203.07	610.000
203.44	0.000
203.82	1275.000
204.19	728.571
204.57	457.143
204.95	787.500
205.32	1433.333
205.70	554.545
206.08	400.000
206.45	2550.000
206.83	381.250
207.20	933.333
207.58	860.000
207.96	383.333
208.33	837.500
208.71	-1000.000
209.08	714.286
209.46	566.667
209.84	427.273
210.21	-1433.333
210.59	1325.000
210.96	-500.000
211.34	2850.000
211.71	610.000
212.09	833.333
212.46	0.000
212.84	1733.333
213.22	1600.000
213.59	-5800.000
213.97	833.333
214.34	871.429
214.72	563.636
215.09	1160.000
215.47	-2450.000
215.84	-2450.000
216.22	2033.333
216.59	385.714
216.97	1200.000
217.34	572.727
217.72	-766.667
218.09	0.000
218.47	-4400.000
218.84	644.444
219.22	857.143
219.59	1666.667
219.97	-585.714
220.34	1100.000
220.72	-1766.667
221.09	492.857
221.47	1400.000
221.84	-1016.667
222.22	0.000
222.59	1475.000
222.97	-2900.000
223.34	1100.000
223.72	538.462
224.09	1220.000
224.46	2400.000
224.84	-4800.000
225.21	-1120.000
225.59	-4400.000
225.96	710.000
226.34	325.000
226.71	2950.000
227.08	775.000
227.46	630.000
227.83	-1200.000
228.21	-2500.000
228.58	644.444
228.95	-2700.000
229.33	-2650.000
229.70	1766.667
230.08	842.857
230.45	-900.000
230.82	475.000
231.20	866.667
231.57	800.000
231.95	508.333
232.32	254.545
232.69	509.091
233.07	757.143
233.44	338.462
233.81	-1566.667
234.19	321.053
234.56	550.000
234.93	400.000
235.31	463.636
235.68	323.077
236.05	364.286
236.43	203.030
236.80	310.526
237.17	5100.000
237.55	233.333
237.92	225.000
238.29	280.952
238.67	200.000
239.04	217.241
239.41	183.333
239.79	130.435
240.16	183.333
240.53	161.364
240.91	139.216
241.28	138.000
241.65	126.000
242.02	113.043
242.40	112.903
242.77	118.333
243.14	74.194
243.51	101.124
243.89	84.706
244.26	94.444
244.63	74.194
245.00	75.532
245.38	90.099
245.75	70.093
246.12	65.138
246.49	78.102
246.87	76.800
247.24	76.923
247.61	67.857
247.98	62.092
248.36	58.784
248.73	63.694
249.10	68.790
249.47	60.452
249.84	62.032
250.22	52.941
250.59	57.396
250.96	60.606
251.33	61.137
251.70	55.446
252.08	51.429
252.45	50.224
252.82	52.174
253.19	52.340
253.56	50.588
253.94	52.697
254.31	45.312
254.68	52.308
255.05	47.970
255.42	50.000
255.79	47.426
256.16	52.347
256.54	45.583
256.91	55.872
257.28	43.525
257.65	44.224
258.02	45.652
258.39	44.795
258.76	48.161
259.14	44.048
259.51	44.681
259.88	42.236
260.25	47.130
260.62	44.509
260.99	44.410
261.36	44.144
261.73	43.553
262.10	43.023
262.47	45.352
262.85	44.847
263.22	40.171
263.59	46.439
263.96	41.209
264.33	40.209
264.70	42.368
265.07	43.223
265.44	41.414
265.81	39.416
266.18	41.960
266.55	40.000
266.92	42.260
267.29	40.509
267.66	38.991
268.03	37.727
268.40	40.421
268.77	36.754
269.14	37.613
269.51	42.212
269.88	39.860
270.25	39.503
270.62	37.978
270.99	41.505
271.36	38.412
271.73	41.121
272.10	38.261
272.47	39.785
272.84	40.043
273.21	37.526
273.58	37.555
273.95	37.736
274.32	37.397
274.69	38.972
275.06	36.614
275.43	39.362
275.80	38.878
276.17	37.678
276.54	36.798
276.91	38.142
277.28	38.477
277.65	36.944
278.02	37.474
278.39	36.914
278.76	37.818
279.13	37.358
279.50	36.499
279.87	35.060
280.23	37.725
280.60	38.104
280.97	36.044
281.34	37.345
281.71	38.000
282.08	36.468
282.45	36.182
282.82	35.702
283.19	35.116
283.56	34.211
283.92	35.025
284.29	35.450
284.66	34.301
285.03	35.624
285.40	32.923
285.77	34.512
286.14	32.470
286.51	34.000
286.87	34.188
287.24	34.853
287.61	34.189
287.98	32.630
288.35	33.439
288.72	31.464
289.08	31.142
289.45	31.137
289.82	33.333
290.19	31.240
290.56	29.403
290.93	30.060
291.29	30.828
291.66	30.826
292.03	30.233
292.40	31.424
292.77	29.586
293.13	30.448
293.50	32.070
293.87	29.926
294.24	29.333
294.60	29.694
294.97	28.052
295.34	28.632
295.71	27.273
296.08	28.490
296.44	28.198
296.81	27.609
297.18	28.320
297.55	25.989
297.91	27.441
298.28	27.577
298.65	26.762
299.02	25.692
299.38	26.295
299.75	25.472
300.12	26.564
300.48	24.750
300.85	25.647
301.22	24.968
301.59	22.222
301.95	26.700
302.32	25.417
302.69	25.209
303.05	26.182
303.42	24.938
303.79	25.821
304.15	22.727
304.52	23.754
304.89	24.739
305.25	23.202
305.62	24.349
305.99	26.092
306.35	23.378
306.72	24.103
307.09	25.194
307.45	25.563
307.82	23.214
308.19	24.945
308.55	24.703
308.92	23.738
309.29	24.287
309.65	23.012
310.02	25.053
310.38	24.624
310.75	23.865
311.12	24.974
311.48	24.765
311.85	24.004
312.22	23.933
312.58	22.557
312.95	24.604
313.31	22.816
313.68	25.884
314.05	26.529
314.41	24.020
314.78	24.572
315.14	24.727
315.51	24.614
315.87	25.545
316.24	25.025
316.61	25.731
316.97	23.777
317.34	24.951
317.70	26.960
318.07	26.468
318.43	26.908
318.80	26.336
319.16	26.648
319.53	25.797
319.89	28.381
320.26	29.800
320.62	30.159
320.99	29.293
321.35	29.192
321.72	30.493
322.08	30.306
322.45	31.045
322.81	30.039
323.18	31.696
323.54	32.468
323.91	32.075
324.27	34.034
324.64	32.153
325.00	33.093
325.37	34.668
325.73	35.099
326.10	34.598
326.46	34.677
326.83	36.324
327.19	34.671
327.56	35.540
327.92	36.395
328.29	38.421
328.65	38.858
329.01	37.635
329.38	38.205
329.74	38.873
330.11	39.208
330.47	39.394
330.84	40.809
331.20	39.891
331.56	39.174
331.93	40.833
332.29	39.752
332.66	40.531
333.02	39.945
333.38	41.102
333.75	41.800
334.11	41.815
334.48	40.905
334.84	42.739
335.20	42.364
335.57	41.070
335.93	41.518
336.29	41.484
336.66	42.651
337.02	41.629
337.38	41.667
337.75	42.513
338.11	43.241
338.47	43.462
338.84	43.171
339.20	42.385
339.56	45.347
339.93	43.455
340.29	43.297
340.65	43.583
341.02	43.194
341.38	44.573
341.74	43.684
342.11	45.153
342.47	44.846
342.83	44.692
343.20	45.195
343.56	44.145
343.92	45.877
344.28	44.813
344.65	46.174
345.01	44.949
345.37	44.597
345.73	45.854
346.10	45.098
346.46	46.102
346.82	46.376
347.19	46.282
347.55	46.223
347.91	46.602
348.27	47.165
348.63	46.572
349.00	46.036
349.36	46.634
349.72	46.592
350.08	46.759
350.45	46.949
350.81	45.898
351.17	45.300
351.53	47.174
351.89	46.700
352.26	48.145
352.62	47.073
352.98	47.164
353.34	47.329
353.70	47.545
354.07	48.226
354.43	46.508
354.79	46.822
355.15	47.965
355.51	49.241
355.87	48.980
356.24	48.697
356.60	48.196
356.96	47.868
357.32	49.550
357.68	48.740
358.04	49.960
358.40	49.010
358.77	49.687
359.13	48.145
359.49	49.176
359.85	48.175
360.21	50.319
360.57	49.105
360.93	49.000
361.29	50.567
361.66	49.303
362.02	50.149
362.38	51.711
362.74	51.711
363.10	49.519
363.46	49.817
363.82	50.945
364.18	51.028
364.54	50.817
364.90	50.992
365.26	51.029
365.62	51.132
365.98	49.671
366.35	48.854
366.71	49.964
367.07	50.983
367.43	52.540
367.79	52.463
368.15	51.796
368.51	50.654
368.87	52.534
369.23	51.426
369.59	52.933
369.95	51.618
370.31	52.493
370.67	51.449
371.03	52.959
371.39	53.061
371.75	52.353
372.11	51.636
372.47	52.346
372.83	54.107
373.19	52.746
373.55	52.993
373.91	53.682
374.27	51.134
374.63	52.582
374.99	52.684
375.35	53.245
375.71	51.816
376.07	53.018
376.42	53.026
376.78	53.148
377.14	52.442
377.50	52.715
377.86	53.059
378.22	53.729
378.58	52.193
378.94	52.671
379.30	53.308
379.66	52.919
380.02	53.010
380.38	52.277
380.74	53.361
381.09	53.423
381.45	53.657
381.81	53.501
382.17	54.522
382.53	52.201
382.89	52.901
383.25	53.846
383.61	54.647
383.97	52.533
384.32	53.026
384.68	54.461
385.04	52.858
385.40	53.065
385.76	54.054
386.12	54.210
386.48	54.751
386.83	55.484
387.19	54.484
387.55	55.102
387.91	53.386
388.27	54.016
388.62	53.964
388.98	52.580
389.34	54.380
389.70	53.464
390.06	54.309
390.42	53.761
390.77	55.598
391.13	54.308
391.49	53.997
391.85	53.978
392.20	54.953
392.56	54.230
392.92	53.679
393.28	53.905
393.64	54.317
393.99	52.657
394.35	53.784
394.71	52.698
395.07	52.897
395.42	55.315
395.78	53.372
396.14	53.073
396.50	53.383
396.85	53.210
397.21	53.144
397.57	52.821
397.92	53.065
398.28	52.747
398.64	52.449
399.00	51.931
399.35	52.228
399.71	51.678
400.07	51.745
400.42	52.638
400.78	54.101
401.14	52.561
401.49	52.836
401.85	52.450
402.21	52.275
402.57	52.992
402.92	51.955
403.28	53.779
403.63	52.413
403.99	52.930
404.35	52.364
404.70	51.978
405.06	52.126
405.42	52.402
405.77	50.686
406.13	51.749
406.49	51.863
406.84	51.802
407.20	50.650
407.55	52.776
407.91	51.867
408.27	51.436
408.62	50.753
408.98	51.471
409.34	52.460
409.69	51.355
410.05	51.301
410.40	51.315
410.76	50.836
411.11	50.965
411.47	50.671
411.83	50.764
412.18	48.980
412.54	51.308
412.89	50.301
413.25	50.236
413.60	51.143
413.96	48.209
414.31	49.149
414.67	51.204
415.03	50.331
415.38	51.611
415.74	50.161
416.09	50.425
416.45	50.602
416.80	49.372
417.16	51.139
417.51	50.431
417.87	49.711
418.22	50.536
418.58	49.839
418.93	49.693
419.29	49.459
419.64	49.874
420.00	49.329
420.35	48.928
420.71	49.611
421.06	48.628
421.42	48.713
421.77	48.711
422.12	48.119
422.48	49.217
422.83	48.457
423.19	48.729
423.54	48.868
423.90	48.928
424.25	48.632
424.61	47.798
424.96	49.621
425.31	48.339
425.67	47.416
426.02	47.429
426.38	48.535
426.73	47.572
427.09	47.295
427.44	48.304
427.79	47.671
428.15	47.083
428.50	47.045
428.85	48.629
429.21	46.549
429.56	47.123
429.92	47.257
430.27	46.624
430.62	46.185
430.98	46.757
431.33	45.619
431.68	46.806
432.04	46.432
432.39	47.230
432.74	46.200
433.10	46.406
433.45	46.764
433.80	46.619
434.16	46.421
434.51	45.421
434.86	45.952
435.22	46.804
435.57	46.505
435.92	45.816
436.28	46.738
436.63	46.302
436.98	46.022
437.34	46.094
437.69	45.683
438.04	45.981
438.39	45.254
438.75	46.659
439.10	46.369
439.45	46.399
439.81	45.317
440.16	44.156
440.51	45.870
440.86	44.760
441.22	44.661
441.57	45.276
441.92	46.008
442.27	45.533
442.63	44.181
442.98	44.789
443.33	44.565
443.68	45.431
444.03	43.631
444.39	44.255
444.74	43.939
445.09	42.965
445.44	44.177
445.79	44.186
446.15	43.303
446.50	43.834
446.85	43.782
447.20	43.396
447.55	42.937
447.91	42.637
448.26	42.849
448.61	43.245
448.96	44.020
449.31	44.151
449.66	43.782
450.02	43.008
450.37	42.800
450.72	43.034
451.07	42.779
451.42	42.371
451.77	43.218
452.12	42.783
452.47	43.284
452.83	43.065
453.18	42.665
453.53	43.476
453.88	42.115
454.23	41.184
454.58	43.610
454.93	42.594
455.28	40.835
455.63	43.811
455.98	43.452
456.34	42.085
456.69	42.079
457.04	43.158
457.39	41.555
457.74	41.613
458.09	42.496
458.44	41.676
458.79	40.239
459.14	40.745
459.49	41.214
459.84	41.330
460.19	40.896
460.54	40.451
460.89	41.360
461.24	41.894
461.59	41.778
461.94	40.814
462.29	41.009
462.64	40.140
462.99	39.753
463.34	41.200
463.69	40.963
464.04	40.348
464.39	40.464
464.74	39.691
465.09	40.470
465.44	39.778
465.79	39.318
466.14	40.394
466.49	38.877
466.84	39.405
467.19	38.805
467.54	40.188
467.89	39.196
468.24	39.209
468.59	39.866
468.94	39.157
469.29	40.039
469.64	40.629
469.99	40.663
470.34	40.357
470.68	38.793
471.03	39.728
471.38	39.055
471.73	39.107
472.08	39.671
472.43	38.756
472.78	39.039
473.13	39.345
473.48	39.139
473.83	38.232
474.17	38.706
474.52	38.710
474.87	39.054
475.22	38.479
475.57	38.474
475.92	38.290
476.27	38.106
476.61	37.728
476.96	37.658
477.31	36.682
477.66	37.418
478.01	37.324
478.36	37.864
478.70	36.189
479.05	37.061
479.40	37.718
479.75	37.214
480.10	36.332
480.45	37.411
480.79	36.168
481.14	37.524
481.49	36.925
481.84	36.717
482.19	36.075
482.53	36.147
482.88	36.203
483.23	36.869
483.58	36.897
483.92	36.692
484.27	34.074
484.62	36.164
484.97	35.436
485.31	36.233
485.66	34.710
486.01	34.119
486.36	33.242
486.70	32.412
487.05	32.950
487.40	33.478
487.75	33.297
488.09	33.242
488.44	33.089
488.79	34.394
489.13	33.995
489.48	34.625
489.83	34.225
490.17	35.511
490.52	34.234
490.87	34.147
491.22	34.061
491.56	33.257
491.91	34.388
492.26	34.543
492.60	33.733
492.95	33.817
493.30	33.692
493.64	33.271
493.99	33.473
494.34	34.228
494.68	33.700
495.03	33.835
495.37	33.690
495.72	34.016
496.07	33.503
496.41	32.965
496.76	34.037
497.11	33.679
497.45	33.582
497.80	33.301
498.14	33.188
498.49	33.707
498.84	33.988
499.18	33.095
499.53	33.286
499.87	33.458
500.22	32.878
500.56	33.981
500.91	33.894
501.26	32.101
501.60	33.650
501.95	31.760
502.29	33.786
502.64	32.821
502.98	32.632
503.33	33.135
503.67	33.225
504.02	33.302
504.36	31.961
504.71	34.050
505.06	32.964
505.40	33.058
505.75	32.594
506.09	32.410
506.44	33.103
506.78	32.245
507.13	34.124
507.47	32.778
507.82	32.472
508.16	32.725
508.51	33.080
508.85	31.877
509.19	32.755
509.54	32.653
509.88	31.942
510.23	31.928
510.57	33.849
510.92	32.470
511.26	32.477
511.61	32.365
511.95	32.307
512.30	31.230
512.64	32.402
512.98	33.065
513.33	33.619
513.67	31.804
514.02	32.305
514.36	33.534
514.70	33.149
515.05	32.348
515.39	32.249
515.74	33.164
516.08	32.644
516.42	33.629
516.77	33.779
517.11	31.853
517.46	33.465
517.80	33.043
518.14	32.600
518.49	32.847
518.83	32.614
519.17	32.852
519.52	33.390
519.86	33.143
520.20	32.486
520.55	32.735
520.89	32.299
521.23	33.595
521.58	33.073
521.92	32.394
522.26	32.215
522.61	33.022
522.95	32.719
523.29	31.771
523.64	33.415
523.98	32.902
524.32	31.966
524.66	32.111
525.01	33.088
525.35	32.900
525.69	31.773
526.04	32.710
526.38	32.520
526.72	32.822
527.06	33.082
527.41	32.302
527.75	33.505
528.09	32.306
528.43	32.887
528.78	33.374
529.12	31.697
529.46	33.313
529.80	32.735
530.15	32.960
530.49	32.123
530.83	32.532
531.17	32.245
531.51	33.852
531.86	32.258
532.20	33.051
532.54	32.223
532.88	32.478
533.22	31.980
533.57	31.667
533.91	31.547
534.25	32.685
534.59	31.544
534.93	31.767
535.27	31.865
535.62	32.357
535.96	31.638
536.30	32.295
536.64	32.131
536.98	31.851
537.32	31.073
537.66	32.533
538.01	32.982
538.35	31.674
538.69	32.802
539.03	31.579
539.37	30.351
539.71	30.655
540.05	31.307
540.39	32.093
540.73	30.078
541.07	32.576
541.42	32.029
541.76	31.871
542.10	32.536
542.44	30.927
542.78	32.279
543.12	30.710
543.46	31.738
543.80	32.271
544.14	30.616
544.48	31.937
544.82	30.597
545.16	32.141
545.50	31.041
545.84	31.452
546.18	31.987
546.52	31.039
546.86	31.340
547.20	31.760
547.54	30.661
547.88	32.143
548.22	31.009
548.56	30.440
548.90	30.410
549.24	30.842
549.58	30.764
549.92	30.769
550.26	31.818
550.60	30.844
550.94	31.690
551.28	30.358
551.62	31.848
551.96	30.105
552.30	31.741
552.64	31.373
552.98	31.119
553.32	30.209
553.66	31.288
554.00	30.130
554.34	30.918
554.68	31.474
555.02	30.748
555.36	29.993
555.69	30.920
556.03	31.292
556.37	30.559
556.71	30.559
557.05	30.462
557.39	30.231
557.73	29.640
558.07	30.602
558.41	29.522
558.75	30.713
559.08	30.201
559.42	30.385
559.76	29.559
560.10	29.836
560.44	31.167
560.78	28.942
561.12	30.145
561.45	30.313
561.79	29.598
562.13	29.913
562.47	29.303
562.81	29.777
563.15	30.301
563.48	30.305
563.82	29.485
564.16	29.366
564.50	29.232
564.84	28.571
565.17	29.858
565.51	29.265
565.85	30.520
566.19	29.368
566.52	31.222
566.86	29.234
567.20	29.658
567.54	29.281
567.88	28.680
568.21	28.466
568.55	28.008
568.89	28.648
569.23	27.585
569.56	27.571
569.90	27.585
570.24	28.023
570.57	27.440
570.91	26.697
571.25	26.313
571.59	27.040
571.92	26.037
572.26	26.603
572.60	26.997
572.93	26.177
573.27	25.909
573.61	25.907
573.95	26.512
574.28	25.653
574.62	25.948
574.96	26.332
575.29	25.558
575.63	25.915
575.97	24.941
576.30	25.571
576.64	25.802
576.98	25.766
577.31	25.855
577.65	25.516
577.98	25.633
578.32	24.980
578.66	25.010
578.99	25.063
579.33	25.006
579.67	25.833
580.00	25.485
580.34	24.822
580.67	24.911
581.01	25.118
581.35	25.261
581.68	25.293
582.02	25.345
582.35	25.389
582.69	25.090
583.02	25.026
583.36	24.856
583.70	25.075
584.03	25.183
584.37	24.848
584.70	24.687
585.04	25.122
585.37	24.977
585.71	25.305
586.04	24.958
586.38	25.836
586.72	25.794
587.05	24.966
587.39	24.828
587.72	25.148
588.06	25.320
588.39	25.377
588.73	24.817
589.06	25.148
589.40	25.354
589.73	25.378
590.07	25.267
590.40	25.429
590.73	26.386
591.07	25.600
591.40	25.812
591.74	27.316
592.07	26.745
592.41	26.375
592.74	25.805
593.08	25.883
593.41	25.562
593.75	24.703
594.08	25.746
594.41	25.168
594.75	25.360
595.08	25.304
595.42	25.289
595.75	25.214
596.09	25.535
596.42	25.855
596.75	26.129
597.09	26.104
597.42	25.506
597.75	25.658
598.09	25.304
598.42	25.215
598.76	25.334
599.09	24.895
599.42	25.582
599.76	25.037
600.09	24.590
600.42	24.690
600.76	25.143
601.09	24.845
601.42	25.419
601.76	24.820
602.09	25.257
602.42	25.199
602.76	25.393
603.09	24.862
603.42	25.654
603.76	25.381
604.09	25.204
604.42	25.927
604.76	25.770
605.09	25.688
605.42	25.566
605.75	25.538
606.09	24.237
606.42	25.174
606.75	25.342
607.09	24.697
607.42	25.032
607.75	24.051
608.08	25.011
608.42	25.639
608.75	25.293
609.08	24.977
609.41	25.083
609.75	25.393
610.08	25.636
610.41	25.186
610.74	25.213
611.07	25.494
611.41	25.515
611.74	25.792
612.07	26.087
612.40	26.653
612.73	25.000
613.07	26.455
613.40	26.277
613.73	25.066
614.06	26.237
614.39	25.695
614.72	25.316
615.06	26.050
615.39	25.106
615.72	25.511
616.05	25.784
616.38	25.125
616.71	25.594
617.05	26.325
617.38	25.616
617.71	26.126
618.04	26.803
618.37	26.138
618.70	26.447
619.03	27.105
619.36	27.223
619.69	27.042
620.03	27.679
620.36	27.206
620.69	28.014
621.02	26.180
621.35	27.095
621.68	27.414
622.01	28.096
622.34	27.156
622.67	26.996
623.00	26.486
623.33	26.376
623.66	28.949
623.99	27.541
624.32	27.104
624.65	26.342
624.99	25.779
625.32	25.851
625.65	25.695
625.98	27.517
626.31	27.683
626.64	28.000
626.97	28.595
627.30	27.515
627.63	26.989
627.96	27.586
628.29	28.171
628.62	29.003
628.95	29.151
629.28	29.288
629.61	28.873
629.94	29.333
630.26	28.217
630.59	26.883
