SpectraSuite Data File
++++++++++++++++++++++++++++++++++++
Date: Wed May 13 19:10:50 PDT 2015
User: schluterlab
Dark Spectrum Present: Yes
Reference Spectrum Present: Yes
Number of Sampled Component Spectra: 1
Spectrometers: USB2E3373
Integration Time (usec): 3000 (USB2E3373)
Spectra Averaged: 3 (USB2E3373)
Boxcar Smoothing: 0 (USB2E3373)
Correct for Electrical Dark: No (USB2E3373)
Strobe/Lamp Enabled: No (USB2E3373)
Correct for Detector Non-linearity: No (USB2E3373)
Correct for Stray Light: No (USB2E3373)
Number of Pixels in Processed Spectrum: 2048
>>>>>Begin Processed Spectral Data<<<<<
178.53	0.000
178.91	-1350.000
179.29	-1525.000
179.67	-311.111
180.04	-1600.000
180.42	3050.000
180.80	1040.000
181.18	-1150.000
181.56	800.000
181.94	0.000
182.31	-685.714
182.69	1933.333
183.07	-550.000
183.45	-622.222
183.83	463.636
184.20	-520.000
184.58	2650.000
184.96	6000.000
185.34	-1060.000
185.72	-687.500
186.09	-2800.000
186.47	2200.000
186.85	3050.000
187.23	5900.000
187.61	-1900.000
187.98	1650.000
188.36	609.091
188.74	572.727
189.12	-1040.000
189.49	620.000
189.87	-6100.000
190.25	-1375.000
190.63	428.571
191.00	515.385
191.38	1066.667
191.76	-1500.000
192.14	1700.000
192.51	612.500
192.89	950.000
193.27	737.500
193.65	-1375.000
194.02	640.000
194.40	1100.000
194.78	680.000
195.15	533.333
195.53	720.000
195.91	-2050.000
196.29	368.750
196.66	342.105
197.04	-490.000
197.42	0.000
197.79	710.000
198.17	-5100.000
198.55	742.857
198.92	750.000
199.30	1040.000
199.68	0.000
200.05	372.222
200.43	814.286
200.81	5500.000
201.18	2200.000
201.56	-1933.333
201.94	611.111
202.31	666.667
202.69	550.000
203.07	570.000
203.44	0.000
203.82	1325.000
204.19	971.429
204.57	528.571
204.95	712.500
205.32	1666.667
205.70	545.455
206.08	457.143
206.45	3050.000
206.83	387.500
207.20	1050.000
207.58	900.000
207.96	372.222
208.33	950.000
208.71	-1016.667
209.08	857.143
209.46	766.667
209.84	500.000
210.21	-1900.000
210.59	1450.000
210.96	-575.000
211.34	2400.000
211.71	720.000
212.09	766.667
212.46	0.000
212.84	1766.667
213.22	1400.000
213.59	-5700.000
213.97	950.000
214.34	857.143
214.72	618.182
215.09	1140.000
215.47	-2900.000
215.84	-3050.000
216.22	2300.000
216.59	492.857
216.97	1575.000
217.34	472.727
217.72	-850.000
218.09	0.000
218.47	-6000.000
218.84	622.222
219.22	900.000
219.59	1800.000
219.97	-800.000
220.34	1160.000
220.72	-1733.333
221.09	435.714
221.47	1700.000
221.84	-1000.000
222.22	0.000
222.59	1825.000
222.97	-3150.000
223.34	1360.000
223.72	492.308
224.09	1160.000
224.46	2950.000
224.84	-5100.000
225.21	-1120.000
225.59	-6200.000
225.96	680.000
226.34	335.000
226.71	2750.000
227.08	825.000
227.46	680.000
227.83	-1200.000
228.21	-2800.000
228.58	622.222
228.95	-2800.000
229.33	-2850.000
229.70	2266.667
230.08	814.286
230.45	-1080.000
230.82	583.333
231.20	966.667
231.57	728.571
231.95	550.000
232.32	272.727
232.69	472.727
233.07	814.286
233.44	438.462
233.81	-2100.000
234.19	347.368
234.56	575.000
234.93	416.667
235.31	454.545
235.68	423.077
236.05	407.143
236.43	203.030
236.80	294.737
237.17	5200.000
237.55	247.619
237.92	246.429
238.29	271.429
238.67	222.581
239.04	210.345
239.41	147.222
239.79	156.522
240.16	154.762
240.53	163.636
240.91	129.412
241.28	156.000
241.65	106.000
242.02	105.797
242.40	101.613
242.77	110.000
243.14	87.097
243.51	98.876
243.89	91.765
244.26	73.333
244.63	77.419
245.00	74.468
245.38	82.178
245.75	71.028
246.12	66.972
246.49	72.993
246.87	78.400
247.24	73.846
247.61	62.857
247.98	53.595
248.36	52.027
248.73	50.318
249.10	60.510
249.47	60.452
249.84	57.219
250.22	51.872
250.59	52.071
250.96	55.556
251.33	49.763
251.70	52.970
252.08	49.048
252.45	49.327
252.82	48.261
253.19	49.787
253.56	47.059
253.94	43.154
254.31	48.438
254.68	49.615
255.05	45.756
255.42	41.057
255.79	41.912
256.16	45.126
256.54	41.343
256.91	44.484
257.28	39.209
257.65	39.604
258.02	44.720
258.39	38.801
258.76	38.127
259.14	41.667
259.51	39.514
259.88	33.851
260.25	40.181
260.62	38.150
260.99	39.441
261.36	38.739
261.73	39.255
262.10	40.116
262.47	38.873
262.85	39.833
263.22	34.758
263.59	40.741
263.96	39.011
264.33	34.987
264.70	37.368
265.07	35.294
265.44	34.596
265.81	32.117
266.18	38.442
266.55	35.610
266.92	38.575
267.29	36.806
267.66	34.174
268.03	36.818
268.40	38.318
268.77	33.890
269.14	33.784
269.51	34.763
269.88	36.597
270.25	34.989
270.62	33.483
270.99	34.409
271.36	34.335
271.73	36.215
272.10	35.435
272.47	36.989
272.84	34.848
273.21	36.478
273.58	31.878
273.95	33.333
274.32	32.025
274.69	34.690
275.06	31.299
275.43	34.894
275.80	32.665
276.17	32.179
276.54	31.601
276.91	31.423
277.28	29.883
277.65	33.075
278.02	29.607
278.39	34.570
278.76	32.909
279.13	32.830
279.50	33.147
279.87	31.873
280.23	33.533
280.60	29.787
280.97	31.238
281.34	31.681
281.71	29.818
282.08	33.781
282.45	28.727
282.82	30.906
283.19	26.738
283.56	30.526
283.92	31.134
284.29	30.688
284.66	30.127
285.03	31.103
285.40	31.162
285.77	27.273
286.14	28.843
286.51	29.833
286.87	30.256
287.24	30.456
287.61	29.213
287.98	30.519
288.35	28.526
288.72	27.414
289.08	27.387
289.45	27.183
289.82	28.780
290.19	27.943
290.56	26.646
290.93	25.680
291.29	26.227
291.66	26.106
292.03	28.343
292.40	28.781
292.77	26.479
293.13	27.612
293.50	26.093
293.87	27.704
294.24	24.296
294.60	25.619
294.97	25.436
295.34	25.670
295.71	23.864
296.08	26.353
296.44	24.484
296.81	24.571
297.18	23.713
297.55	22.164
297.91	22.559
298.28	23.695
298.65	24.413
299.02	25.692
299.38	23.108
299.75	21.429
300.12	22.861
300.48	22.500
300.85	22.441
301.22	22.930
301.59	21.338
301.95	22.418
302.32	22.465
302.69	23.059
303.05	22.788
303.42	21.728
303.79	22.763
304.15	20.746
304.52	20.973
304.89	22.532
305.25	21.462
305.62	20.838
305.99	21.015
306.35	21.924
306.72	21.637
307.09	22.752
307.45	22.860
307.82	21.205
308.19	21.744
308.55	22.222
308.92	21.590
309.29	19.535
309.65	19.512
310.02	20.190
310.38	20.215
310.75	19.324
311.12	21.085
311.48	20.690
311.85	22.432
312.22	21.644
312.58	20.374
312.95	21.964
313.31	20.583
313.68	21.414
314.05	21.893
314.41	21.106
314.78	22.356
315.14	21.450
315.51	22.966
315.87	21.683
316.24	21.648
316.61	21.540
316.97	22.211
317.34	22.016
317.70	22.467
318.07	23.003
318.43	23.288
318.80	23.055
319.16	23.070
319.53	23.546
319.89	23.048
320.26	25.700
320.62	25.298
320.99	23.939
321.35	24.949
321.72	25.565
322.08	26.357
322.45	26.567
322.81	26.260
323.18	27.071
323.54	26.994
323.91	27.736
324.27	28.203
324.64	27.493
325.00	26.871
325.37	28.389
325.73	29.443
326.10	29.391
326.46	28.674
326.83	29.940
327.19	29.633
327.56	29.443
327.92	29.921
328.29	30.524
328.65	30.663
329.01	29.783
329.38	30.990
329.74	31.856
330.11	30.726
330.47	32.140
330.84	30.423
331.20	31.330
331.56	31.468
331.93	31.481
332.29	31.588
332.66	31.239
333.02	31.810
333.38	31.707
333.75	32.799
334.11	31.228
334.48	31.766
334.84	31.801
335.20	31.455
335.57	32.457
335.93	30.268
336.29	31.593
336.66	31.470
337.02	31.765
337.38	31.667
337.75	30.838
338.11	30.886
338.47	31.308
338.84	31.806
339.20	31.560
339.56	32.117
339.93	30.818
340.29	32.246
340.65	31.640
341.02	31.501
341.38	32.918
341.74	30.877
342.11	31.790
342.47	31.454
342.83	32.277
343.20	31.082
343.56	31.340
343.92	32.018
344.28	31.293
344.65	31.470
345.01	30.724
345.37	30.703
345.73	31.049
346.10	30.861
346.46	31.780
346.82	31.054
347.19	30.827
347.55	30.870
347.91	31.392
348.27	31.306
348.63	31.856
349.00	31.068
349.36	31.773
349.72	31.917
350.08	31.280
350.45	31.570
350.81	30.544
351.17	30.713
351.53	30.549
351.89	30.363
352.26	30.781
352.62	31.275
352.98	31.524
353.34	31.060
353.70	31.588
354.07	30.806
354.43	30.952
354.79	30.652
355.15	30.487
355.51	31.495
355.87	31.673
356.24	31.515
356.60	29.511
356.96	30.249
357.32	30.417
357.68	32.283
358.04	30.800
358.40	32.067
358.77	31.455
359.13	29.676
359.49	31.686
359.85	29.841
360.21	31.738
360.57	31.984
360.93	31.308
361.29	31.066
361.66	30.960
362.02	30.597
362.38	32.319
362.74	32.738
363.10	31.310
363.46	31.255
363.82	31.595
364.18	31.131
364.54	32.244
364.90	30.807
365.26	31.397
365.62	31.994
365.98	31.264
366.35	30.874
366.71	30.947
367.07	32.047
367.43	32.366
367.79	31.906
368.15	32.471
368.51	31.686
368.87	31.834
369.23	32.041
369.59	31.861
369.95	32.426
370.31	32.550
370.67	31.667
371.03	32.285
371.39	32.653
371.75	32.279
372.11	32.432
372.47	32.845
372.83	32.853
373.19	31.936
373.55	32.668
373.91	33.358
374.27	31.821
374.63	32.582
374.99	34.322
375.35	32.519
375.71	32.762
376.07	32.853
376.42	32.600
376.78	33.400
377.14	33.582
377.50	34.106
377.86	32.513
378.22	33.944
378.58	32.331
378.94	32.935
379.30	32.952
379.66	34.581
380.02	32.924
380.38	32.969
380.74	34.034
381.09	33.924
381.45	33.989
381.81	33.968
382.17	33.885
382.53	33.333
382.89	34.815
383.25	34.647
383.61	34.387
383.97	33.208
384.32	33.874
384.68	33.581
385.04	34.296
385.40	33.870
385.76	34.152
386.12	34.521
386.48	35.179
386.83	34.894
387.19	35.189
387.55	34.323
387.91	34.704
388.27	33.660
388.62	34.972
388.98	34.889
389.34	34.856
389.70	34.764
390.06	35.298
390.42	34.825
390.77	35.178
391.13	36.631
391.49	36.104
391.85	35.201
392.20	34.953
392.56	35.101
392.92	35.256
393.28	34.911
393.64	35.612
393.99	34.759
394.35	35.794
394.71	35.947
395.07	34.393
395.42	36.094
395.78	36.514
396.14	35.196
396.50	36.028
396.85	36.427
397.21	34.402
397.57	35.772
397.92	35.998
398.28	35.202
398.64	35.783
399.00	36.374
399.35	35.195
399.71	36.285
400.07	36.606
400.42	36.748
400.78	36.369
401.14	35.976
401.49	35.761
401.85	36.237
402.21	35.269
402.57	36.706
402.92	36.822
403.28	36.790
403.63	35.644
403.99	37.261
404.35	36.182
404.70	36.511
405.06	35.119
405.42	37.679
405.77	35.886
406.13	35.553
406.49	37.079
406.84	36.444
407.20	35.638
407.55	36.056
407.91	37.600
408.27	36.694
408.62	35.641
408.98	36.397
409.34	36.531
409.69	36.774
410.05	36.369
410.40	36.575
410.76	36.499
411.11	36.429
411.47	35.974
411.83	36.775
412.18	35.869
412.54	37.547
412.89	36.145
413.25	36.187
413.60	37.554
413.96	35.519
414.31	36.270
414.67	37.643
415.03	35.629
415.38	37.113
415.74	36.592
416.09	36.839
416.45	36.747
416.80	37.211
417.16	36.930
417.51	36.032
417.87	36.994
418.22	37.161
418.58	38.347
418.93	36.364
419.29	36.346
419.64	37.028
420.00	36.463
420.35	36.696
420.71	37.238
421.06	36.456
421.42	36.374
421.77	36.323
422.12	36.384
422.48	36.266
422.83	36.634
423.19	36.298
423.54	36.448
423.90	37.565
424.25	36.013
424.61	36.964
424.96	36.618
425.31	35.548
425.67	35.112
426.02	35.714
426.38	37.973
426.73	36.981
427.09	36.596
427.44	35.998
427.79	36.400
428.15	37.143
428.50	35.401
428.85	37.306
429.21	35.837
429.56	35.925
429.92	36.537
430.27	35.998
430.62	35.689
430.98	36.015
431.33	35.619
431.68	35.707
432.04	35.463
432.39	36.094
432.74	35.907
433.10	37.182
433.45	37.493
433.80	36.031
434.16	36.165
434.51	35.526
434.86	36.146
435.22	36.298
435.57	36.839
435.92	35.869
436.28	36.418
436.63	35.044
436.98	35.890
437.34	36.852
437.69	35.706
438.04	36.200
438.39	36.418
438.75	36.723
439.10	36.704
439.45	37.013
439.81	37.462
440.16	36.194
440.51	35.559
440.86	36.595
441.22	35.762
441.57	37.102
441.92	35.977
442.27	36.276
442.63	36.388
442.98	36.676
443.33	35.489
443.68	36.603
444.03	36.750
444.39	35.248
444.74	35.552
445.09	36.119
445.44	36.140
445.79	36.170
446.15	35.892
446.50	36.618
446.85	36.228
447.20	36.665
447.55	36.739
447.91	36.128
448.26	35.949
448.61	36.744
448.96	37.320
449.31	35.602
449.66	35.397
450.02	36.267
450.37	35.941
450.72	36.266
451.07	36.624
451.42	34.772
451.77	37.111
452.12	35.797
452.47	36.194
452.83	36.422
453.18	35.575
453.53	37.106
453.88	36.680
454.23	35.804
454.58	36.402
454.93	36.618
455.28	36.035
455.63	35.862
455.98	36.667
456.34	36.244
456.69	36.944
457.04	36.718
457.39	35.535
457.74	35.461
458.09	35.480
458.44	36.260
458.79	34.436
459.14	35.609
459.49	34.910
459.84	35.679
460.19	36.005
460.54	34.664
460.89	35.765
461.24	35.580
461.59	36.607
461.94	34.834
462.29	35.608
462.64	34.269
462.99	34.743
463.34	35.800
463.69	36.523
464.04	35.942
464.39	35.594
464.74	36.126
465.09	35.283
465.44	34.903
465.79	34.340
466.14	34.045
466.49	34.705
466.84	34.734
467.19	34.641
467.54	35.250
467.89	34.874
468.24	35.137
468.59	34.921
468.94	33.903
469.29	34.897
469.64	35.542
469.99	35.792
470.34	35.601
470.68	36.063
471.03	34.218
471.38	35.928
471.73	34.710
472.08	34.145
472.43	34.234
472.78	34.826
473.13	35.173
473.48	35.268
473.83	33.780
474.17	34.785
474.52	34.429
474.87	34.676
475.22	34.185
475.57	32.832
475.92	33.723
476.27	33.371
476.61	32.708
476.96	32.985
477.31	33.281
477.66	32.932
478.01	32.776
478.36	33.263
478.70	33.022
479.05	32.694
479.40	33.367
479.75	33.198
480.10	32.952
480.45	31.652
480.79	32.298
481.14	33.219
481.49	33.412
481.84	32.327
482.19	32.803
482.53	31.835
482.88	32.015
483.23	32.757
483.58	32.166
483.92	33.037
484.27	31.198
484.62	30.776
484.97	31.139
485.31	31.986
485.66	30.433
486.01	29.200
486.36	28.489
486.70	28.422
487.05	28.800
487.40	29.341
487.75	30.120
488.09	30.452
488.44	30.587
488.79	31.718
489.13	31.245
489.48	31.199
489.83	30.600
490.17	31.521
490.52	30.824
490.87	30.439
491.22	30.559
491.56	30.114
491.91	30.433
492.26	30.225
492.60	30.507
492.95	29.981
493.30	31.822
493.64	30.331
493.99	30.501
494.34	30.481
494.68	30.815
495.03	30.968
495.37	29.828
495.72	30.702
496.07	30.812
496.41	29.115
496.76	29.507
497.11	29.626
497.45	30.601
497.80	29.798
498.14	30.097
498.49	29.854
498.84	30.537
499.18	29.667
499.53	29.677
499.87	29.637
500.22	30.240
500.56	29.854
500.91	28.798
501.26	29.919
501.60	30.327
501.95	29.423
502.29	29.897
502.64	30.028
502.98	29.687
503.33	29.068
503.67	28.770
504.02	29.280
504.36	29.855
504.71	29.946
505.06	28.867
505.40	29.120
505.75	28.303
506.09	29.738
506.44	29.008
506.78	29.420
507.13	29.228
507.47	29.495
507.82	29.483
508.16	28.521
508.51	29.021
508.85	28.798
509.19	29.694
509.54	28.929
509.88	28.233
510.23	28.483
510.57	30.134
510.92	28.431
511.26	29.496
511.61	28.994
511.95	27.818
512.30	28.420
512.64	28.694
512.98	28.832
513.33	29.069
513.67	27.588
514.02	28.084
514.36	29.656
514.70	28.113
515.05	27.663
515.39	29.893
515.74	29.054
516.08	28.899
516.42	29.523
516.77	29.376
517.11	28.801
517.46	28.442
517.80	29.443
518.14	27.794
518.49	28.530
518.83	29.205
519.17	27.425
519.52	28.127
519.86	29.606
520.20	28.728
520.55	28.845
520.89	28.954
521.23	28.709
521.58	28.031
521.92	29.088
522.26	28.310
522.61	29.221
522.95	27.010
523.29	28.119
523.64	28.963
523.98	28.343
524.32	29.131
524.66	28.803
525.01	29.044
525.35	28.253
525.69	28.264
526.04	27.913
526.38	28.066
526.72	27.975
527.06	28.751
527.41	26.733
527.75	28.360
528.09	28.388
528.43	27.151
528.78	28.334
529.12	27.212
529.46	27.985
529.80	27.723
530.15	28.847
530.49	27.815
530.83	28.228
531.17	29.178
531.51	28.145
531.86	28.516
532.20	29.205
532.54	27.931
532.88	27.920
533.22	27.545
533.57	27.654
533.91	27.092
534.25	27.582
534.59	26.846
534.93	26.353
535.27	27.399
535.62	26.862
535.96	26.868
536.30	27.400
536.64	27.753
536.98	27.605
537.32	27.584
537.66	27.933
538.01	28.111
538.35	27.731
538.69	27.058
539.03	27.031
539.37	26.070
539.71	26.248
540.05	27.059
540.39	27.641
540.73	26.908
541.07	27.190
541.42	28.180
541.76	28.000
542.10	26.326
542.44	27.020
542.78	27.734
543.12	26.232
543.46	26.885
543.80	27.326
544.14	25.802
544.48	26.984
544.82	26.620
545.16	26.740
545.50	25.129
545.84	26.277
546.18	27.340
546.52	26.290
546.86	26.048
547.20	26.837
547.54	26.787
547.88	26.786
548.22	25.903
548.56	26.478
548.90	25.672
549.24	25.926
549.58	26.671
549.92	26.511
550.26	26.562
550.60	25.519
550.94	26.127
551.28	25.750
551.62	25.449
551.96	26.386
552.30	27.099
552.64	27.451
552.98	26.644
553.32	26.028
553.66	26.517
554.00	26.081
554.34	25.880
554.68	27.754
555.02	25.458
555.36	25.748
555.69	25.778
556.03	26.043
556.37	26.671
556.71	24.693
557.05	25.420
557.39	25.612
557.73	26.182
558.07	26.396
558.41	26.339
558.75	26.231
559.08	25.727
559.42	25.850
559.76	26.029
560.10	26.124
560.44	25.507
560.78	24.950
561.12	25.132
561.45	25.945
561.79	24.720
562.13	25.889
562.47	24.932
562.81	26.569
563.15	25.819
563.48	26.127
563.82	25.571
564.16	25.638
564.50	24.479
564.84	24.905
565.17	25.611
565.51	24.856
565.85	24.556
566.19	24.609
566.52	24.573
566.86	23.508
567.20	25.354
567.54	24.315
567.88	23.303
568.21	24.444
568.55	24.621
568.89	23.346
569.23	23.485
569.56	23.077
569.90	22.415
570.24	21.923
570.57	22.033
570.91	21.687
571.25	21.217
571.59	21.973
571.92	21.601
572.26	21.231
572.60	21.982
572.93	21.559
573.27	22.597
573.61	21.608
573.95	21.912
574.28	21.457
574.62	21.016
574.96	20.717
575.29	21.484
575.63	21.011
575.97	21.140
576.30	21.880
576.64	21.152
576.98	21.074
577.31	21.118
577.65	20.326
577.98	20.808
578.32	20.651
578.66	20.839
578.99	20.726
579.33	20.891
579.67	20.944
580.00	20.834
580.34	21.262
580.67	20.492
581.01	20.935
581.35	20.597
581.68	20.532
582.02	20.203
582.35	20.506
582.69	20.466
583.02	20.193
583.36	20.752
583.70	20.929
584.03	21.055
584.37	20.896
584.70	20.637
585.04	21.111
585.37	20.969
585.71	21.053
586.04	20.778
586.38	21.473
586.72	21.541
587.05	20.973
587.39	20.554
587.72	20.871
588.06	20.384
588.39	21.043
588.73	20.739
589.06	21.845
589.40	21.818
589.73	21.331
590.07	21.779
590.40	20.935
590.73	21.624
591.07	21.734
591.40	21.763
591.74	23.377
592.07	22.120
592.41	22.034
592.74	21.536
593.08	21.119
593.41	21.259
593.75	20.550
594.08	21.086
594.41	21.068
594.75	20.998
595.08	21.868
595.42	21.611
595.75	21.083
596.09	22.118
596.42	21.847
596.75	21.655
597.09	22.251
597.42	20.911
597.75	21.259
598.09	22.174
598.42	21.564
598.76	21.443
599.09	21.437
599.42	21.543
599.76	21.266
600.09	20.984
600.42	21.293
600.76	20.643
601.09	20.364
601.42	21.043
601.76	21.556
602.09	21.542
602.42	21.537
602.76	21.443
603.09	21.479
603.42	20.968
603.76	21.113
604.09	21.249
604.42	21.239
604.76	21.721
605.09	21.407
605.42	21.120
605.75	20.944
606.09	20.862
606.42	21.577
606.75	20.904
607.09	21.139
607.42	21.095
607.75	21.308
608.08	20.495
608.42	21.291
608.75	21.371
609.08	21.508
609.41	21.609
609.75	21.534
610.08	21.348
610.41	21.322
610.74	21.145
611.07	21.245
611.41	21.688
611.74	22.323
612.07	21.791
612.40	21.826
612.73	22.105
613.07	21.713
613.40	21.801
613.73	20.818
614.06	21.935
614.39	21.657
614.72	21.737
615.06	21.954
615.39	22.081
615.72	21.370
616.05	21.425
616.38	21.734
616.71	22.031
617.05	22.497
617.38	22.369
617.71	22.643
618.04	22.596
618.37	22.531
618.70	23.211
619.03	23.026
619.36	22.675
619.69	23.028
620.03	23.283
620.36	22.794
620.69	24.178
621.02	22.935
621.35	22.788
621.68	22.586
622.01	22.988
622.34	23.828
622.67	24.030
623.00	23.331
623.33	22.445
623.66	23.874
623.99	23.417
624.32	23.110
624.65	22.246
624.99	22.805
625.32	22.737
625.65	23.065
625.98	23.674
626.31	23.950
626.64	23.184
626.97	24.439
627.30	23.774
627.63	24.036
627.96	24.138
628.29	23.972
628.62	23.788
628.95	25.472
629.28	24.361
629.61	24.931
629.94	24.381
630.26	23.737
630.59	25.453
