SpectraSuite Data File
++++++++++++++++++++++++++++++++++++
Date: Wed May 13 19:42:11 PDT 2015
User: schluterlab
Dark Spectrum Present: Yes
Reference Spectrum Present: Yes
Number of Sampled Component Spectra: 1
Spectrometers: USB2E3373
Integration Time (usec): 3000 (USB2E3373)
Spectra Averaged: 3 (USB2E3373)
Boxcar Smoothing: 0 (USB2E3373)
Correct for Electrical Dark: No (USB2E3373)
Strobe/Lamp Enabled: No (USB2E3373)
Correct for Detector Non-linearity: No (USB2E3373)
Correct for Stray Light: No (USB2E3373)
Number of Pixels in Processed Spectrum: 2048
>>>>>Begin Processed Spectral Data<<<<<
178.53	0.000
178.91	-1350.000
179.29	-1300.000
179.67	-277.778
180.04	-1375.000
180.42	2550.000
180.80	1120.000
181.18	-1225.000
181.56	671.429
181.94	0.000
182.31	-728.571
182.69	1866.667
183.07	-575.000
183.45	-544.444
183.83	618.182
184.20	-420.000
184.58	2050.000
184.96	5500.000
185.34	-1000.000
185.72	-512.500
186.09	-2350.000
186.47	2750.000
186.85	2650.000
187.23	5100.000
187.61	-1533.333
187.98	1275.000
188.36	527.273
188.74	600.000
189.12	-780.000
189.49	570.000
189.87	-5100.000
190.25	-1225.000
190.63	414.286
191.00	423.077
191.38	816.667
191.76	-1325.000
192.14	1400.000
192.51	662.500
192.89	1016.667
193.27	600.000
193.65	-1125.000
194.02	430.000
194.40	1020.000
194.78	590.000
195.15	458.333
195.53	640.000
195.91	-2250.000
196.29	393.750
196.66	315.789
197.04	-380.000
197.42	0.000
197.79	680.000
198.17	-4600.000
198.55	728.571
198.92	662.500
199.30	840.000
199.68	0.000
200.05	305.556
200.43	785.714
200.81	4500.000
201.18	1900.000
201.56	-1633.333
201.94	488.889
202.31	622.222
202.69	391.667
203.07	470.000
203.44	0.000
203.82	1425.000
204.19	785.714
204.57	507.143
204.95	675.000
205.32	1733.333
205.70	527.273
206.08	371.429
206.45	2800.000
206.83	331.250
207.20	816.667
207.58	820.000
207.96	266.667
208.33	700.000
208.71	-850.000
209.08	785.714
209.46	544.444
209.84	409.091
210.21	-1600.000
210.59	1225.000
210.96	-437.500
211.34	2450.000
211.71	570.000
212.09	900.000
212.46	0.000
212.84	1900.000
213.22	1250.000
213.59	-4900.000
213.97	916.667
214.34	885.714
214.72	554.545
215.09	1100.000
215.47	-2300.000
215.84	-3150.000
216.22	1400.000
216.59	464.286
216.97	1125.000
217.34	463.636
217.72	-716.667
218.09	0.000
218.47	-4400.000
218.84	666.667
219.22	785.714
219.59	1800.000
219.97	-642.857
220.34	1020.000
220.72	-1733.333
221.09	457.143
221.47	1475.000
221.84	-883.333
222.22	0.000
222.59	1550.000
222.97	-3000.000
223.34	1000.000
223.72	507.692
224.09	1120.000
224.46	2000.000
224.84	-4800.000
225.21	-1060.000
225.59	-5000.000
225.96	600.000
226.34	315.000
226.71	2800.000
227.08	662.500
227.46	540.000
227.83	-1325.000
228.21	-2400.000
228.58	600.000
228.95	-2600.000
229.33	-2000.000
229.70	1633.333
230.08	857.143
230.45	-660.000
230.82	466.667
231.20	883.333
231.57	628.571
231.95	483.333
232.32	250.000
232.69	318.182
233.07	657.143
233.44	346.154
233.81	-1733.333
234.19	284.211
234.56	391.667
234.93	416.667
235.31	436.364
235.68	415.385
236.05	350.000
236.43	172.727
236.80	231.579
237.17	3800.000
237.55	204.762
237.92	225.000
238.29	238.095
238.67	180.645
239.04	217.241
239.41	116.667
239.79	117.391
240.16	142.857
240.53	122.727
240.91	94.118
241.28	102.000
241.65	98.000
242.02	76.812
242.40	91.935
242.77	76.667
243.14	77.419
243.51	77.528
243.89	60.000
244.26	63.333
244.63	50.538
245.00	55.319
245.38	58.416
245.75	56.075
246.12	45.872
246.49	50.365
246.87	51.200
247.24	46.154
247.61	45.714
247.98	43.137
248.36	42.568
248.73	34.395
249.10	45.860
249.47	41.243
249.84	35.829
250.22	31.016
250.59	30.178
250.96	34.848
251.33	37.915
251.70	37.129
252.08	32.857
252.45	30.493
252.82	28.696
253.19	32.340
253.56	27.843
253.94	31.535
254.31	28.906
254.68	30.769
255.05	25.830
255.42	23.984
255.79	25.368
256.16	27.798
256.54	22.968
256.91	28.470
257.28	22.662
257.65	23.762
258.02	25.155
258.39	25.868
258.76	22.408
259.14	23.512
259.51	24.620
259.88	22.981
260.25	26.586
260.62	23.410
260.99	19.255
261.36	27.327
261.73	23.782
262.10	21.221
262.47	21.972
262.85	20.891
263.22	21.652
263.59	23.932
263.96	20.879
264.33	23.499
264.70	22.632
265.07	21.228
265.44	19.949
265.81	19.708
266.18	21.357
266.55	19.024
266.92	18.428
267.29	20.139
267.66	18.349
268.03	21.136
268.40	20.794
268.77	19.570
269.14	18.468
269.51	21.219
269.88	18.881
270.25	20.090
270.62	18.202
270.99	20.000
271.36	18.455
271.73	19.393
272.10	18.696
272.47	18.065
272.84	16.234
273.21	20.964
273.58	18.122
273.95	16.771
274.32	17.562
274.69	16.488
275.06	17.323
275.43	18.723
275.80	17.836
276.17	17.312
276.54	21.206
276.91	17.787
277.28	18.750
277.65	17.215
278.02	15.735
278.39	18.945
278.76	18.182
279.13	17.547
279.50	17.318
279.87	16.932
280.23	17.365
280.60	15.087
280.97	17.560
281.34	17.522
281.71	18.182
282.08	18.618
282.45	16.000
282.82	16.341
283.19	14.617
283.56	15.965
283.92	17.259
284.29	14.638
284.66	14.882
285.03	14.828
285.40	14.437
285.77	15.152
286.14	17.271
286.51	15.333
286.87	16.923
287.24	15.472
287.61	14.446
287.98	17.532
288.35	15.214
288.72	14.953
289.08	14.085
289.45	14.498
289.82	15.122
290.19	13.658
290.56	15.008
290.93	13.897
291.29	13.037
291.66	13.864
292.03	17.006
292.40	16.153
292.77	13.757
293.13	13.433
293.50	12.536
293.87	12.741
294.24	12.889
294.60	13.683
294.97	13.227
295.34	13.963
295.71	12.784
296.08	12.393
296.44	12.517
296.81	13.078
297.18	14.092
297.55	12.137
297.91	11.478
298.28	12.985
298.65	13.316
299.02	12.253
299.38	12.483
299.75	10.108
300.12	11.622
300.48	12.625
300.85	11.961
301.22	10.701
301.59	11.995
301.95	10.831
302.32	10.526
302.69	10.992
303.05	11.636
303.42	11.728
303.79	11.438
304.15	10.956
304.52	10.776
304.89	11.034
305.25	11.021
305.62	11.099
305.99	11.334
306.35	11.186
306.72	11.659
307.09	9.989
307.45	13.288
307.82	10.156
308.19	11.810
308.55	12.837
308.92	10.741
309.29	10.454
309.65	11.347
310.02	11.416
310.38	11.828
310.75	11.404
311.12	12.385
311.48	11.076
311.85	11.006
312.22	11.446
312.58	11.123
312.95	11.827
313.31	11.068
313.68	11.227
314.05	13.116
314.41	13.166
314.78	12.185
315.14	12.612
315.51	12.873
315.87	12.970
316.24	13.108
316.61	12.476
316.97	12.133
317.34	11.057
317.70	13.384
318.07	13.763
318.43	15.166
318.80	14.246
319.16	14.501
319.53	13.227
319.89	14.762
320.26	16.100
320.62	15.675
320.99	17.071
321.35	17.273
321.72	16.632
322.08	18.164
322.45	18.806
322.81	18.798
323.18	18.786
323.54	18.924
323.91	20.094
324.27	19.790
324.64	19.292
325.00	19.477
325.37	20.382
325.73	21.993
326.10	21.006
326.46	20.968
326.83	21.570
327.19	22.545
327.56	21.254
327.92	22.135
328.29	23.957
328.65	21.639
329.01	22.563
329.38	23.959
329.74	23.361
330.11	23.374
330.47	24.059
330.84	24.449
331.20	24.954
331.56	24.495
331.93	25.093
332.29	24.667
332.66	26.106
333.02	25.046
333.38	24.571
333.75	25.758
334.11	26.246
334.48	26.619
334.84	25.643
335.20	25.636
335.57	24.841
335.93	25.179
336.29	25.275
336.66	26.510
337.02	25.158
337.38	26.204
337.75	25.401
338.11	25.157
338.47	25.506
338.84	27.314
339.20	26.055
339.56	26.642
339.93	25.727
340.29	27.174
340.65	26.560
341.02	27.138
341.38	25.801
341.74	25.614
342.11	27.511
342.47	25.198
342.83	26.712
343.20	27.965
343.56	26.874
343.92	27.105
344.28	26.786
344.65	27.945
345.01	25.673
345.37	25.643
345.73	25.973
346.10	27.366
346.46	27.119
346.82	27.512
347.19	26.399
347.55	26.847
347.91	27.427
348.27	27.938
348.63	27.592
349.00	27.832
349.36	27.011
349.72	25.982
350.08	26.580
350.45	27.258
350.81	27.620
351.17	28.039
351.53	27.437
351.89	26.815
352.26	28.887
352.62	28.148
352.98	27.796
353.34	27.034
353.70	27.169
354.07	27.742
354.43	27.778
354.79	27.595
355.15	26.736
355.51	28.697
355.87	28.898
356.24	28.583
356.60	28.148
356.96	28.640
357.32	27.719
357.68	28.031
358.04	28.820
358.40	28.583
358.77	28.795
359.13	28.335
359.49	28.941
359.85	28.333
360.21	28.309
360.57	29.416
360.93	28.308
361.29	27.967
361.66	27.941
362.02	30.000
362.38	29.962
362.74	29.464
363.10	28.127
363.46	28.100
363.82	29.176
364.18	29.295
364.54	29.272
364.90	28.329
365.26	28.750
365.62	29.584
365.98	28.269
366.35	28.080
366.71	29.284
367.07	29.206
367.43	29.826
367.79	29.979
368.15	30.172
368.51	29.360
368.87	29.693
369.23	30.139
369.59	29.399
369.95	29.632
370.31	29.701
370.67	30.000
371.03	30.412
371.39	29.592
371.75	30.294
372.11	29.872
372.47	30.792
372.83	30.115
373.19	29.697
373.55	30.894
373.91	30.854
374.27	30.103
374.63	30.545
374.99	30.862
375.35	29.798
375.71	30.912
376.07	30.796
376.42	30.880
376.78	31.544
377.14	30.258
377.50	30.464
377.86	30.851
378.22	29.899
378.58	30.138
378.94	31.050
379.30	30.980
379.66	31.091
380.02	31.204
380.38	30.601
380.74	31.393
381.09	31.235
381.45	32.391
381.81	32.125
382.17	31.274
382.53	30.503
382.89	31.728
383.25	31.957
383.61	31.846
383.97	31.520
384.32	31.628
384.68	31.289
385.04	31.285
385.40	31.827
385.76	32.064
386.12	31.865
386.48	32.599
386.83	33.034
387.19	33.271
387.55	32.282
387.91	32.104
388.27	32.925
388.62	32.022
388.98	32.002
389.34	32.728
389.70	33.170
390.06	32.636
390.42	32.944
390.77	32.761
391.13	32.163
391.49	31.789
391.85	32.909
392.20	31.672
392.56	32.071
392.92	32.784
393.28	31.657
393.64	33.573
393.99	32.498
394.35	33.685
394.71	33.877
395.07	31.776
395.42	32.571
395.78	32.761
396.14	32.651
396.50	32.895
396.85	33.058
397.21	32.614
397.57	31.990
397.92	33.474
398.28	31.166
398.64	33.632
399.00	34.024
399.35	32.375
399.71	33.044
400.07	32.170
400.42	32.515
400.78	33.353
401.14	32.927
401.49	33.015
401.85	32.123
402.21	32.754
402.57	33.004
402.92	32.535
403.28	33.604
403.63	32.921
403.99	32.866
404.35	32.364
404.70	32.914
405.06	33.314
405.42	32.439
405.77	32.114
406.13	32.619
406.49	31.993
406.84	32.959
407.20	31.915
407.55	32.865
407.91	32.267
408.27	31.780
408.62	33.113
408.98	32.904
409.34	32.042
409.69	32.710
410.05	32.094
410.40	32.416
410.76	31.840
411.11	32.871
411.47	32.077
411.83	32.376
412.18	31.293
412.54	32.814
412.89	31.807
413.25	32.231
413.60	32.366
413.96	31.633
414.31	32.928
414.67	31.115
415.03	32.781
415.38	32.088
415.74	32.412
416.09	31.744
416.45	31.727
416.80	32.320
417.16	32.641
417.51	31.254
417.87	31.214
418.22	32.492
418.58	32.214
418.93	31.511
419.29	32.654
419.64	32.872
420.00	31.768
420.35	31.246
420.71	31.978
421.06	31.444
421.42	31.813
421.77	31.783
422.12	30.825
422.48	30.707
422.83	31.159
423.19	30.994
423.54	31.341
423.90	30.551
424.25	31.491
424.61	31.845
424.96	30.962
425.31	30.454
425.67	30.787
426.02	30.743
426.38	31.624
426.73	31.071
427.09	31.246
427.44	30.420
427.79	30.362
428.15	31.012
428.50	30.427
428.85	30.632
429.21	30.591
429.56	30.689
429.92	30.247
430.27	29.494
430.62	28.674
430.98	29.839
431.33	28.866
431.68	30.524
432.04	29.925
432.39	30.097
432.74	29.324
433.10	29.994
433.45	30.787
433.80	29.712
434.16	30.449
434.51	29.789
434.86	30.046
435.22	29.294
435.57	29.848
435.92	28.964
436.28	29.953
436.63	29.967
436.98	29.365
437.34	29.636
437.69	30.222
438.04	29.623
438.39	29.552
438.75	29.692
439.10	28.994
439.45	28.985
439.81	28.701
440.16	28.797
440.51	29.877
440.86	29.241
441.22	28.476
441.57	28.928
441.92	29.017
442.27	28.525
442.63	28.120
442.98	30.254
443.33	27.826
443.68	28.136
444.03	28.502
444.39	27.897
444.74	28.409
445.09	27.709
445.44	28.157
445.79	28.204
446.15	28.004
446.50	28.325
446.85	28.109
447.20	27.843
447.55	27.694
447.91	28.627
448.26	27.546
448.61	28.151
448.96	27.464
449.31	28.009
449.66	27.575
450.02	28.022
450.37	27.664
450.72	26.904
451.07	26.630
451.42	27.173
451.77	27.775
452.12	28.002
452.47	28.047
452.83	27.389
453.18	27.017
453.53	27.767
453.88	26.226
454.23	26.121
454.58	27.559
454.93	27.781
455.28	26.372
455.63	26.335
455.98	28.274
456.34	27.073
456.69	26.925
457.04	27.368
457.39	26.242
457.74	25.015
458.09	25.647
458.44	25.656
458.79	25.597
459.14	25.903
459.49	26.036
459.84	25.706
460.19	25.516
460.54	25.637
460.89	26.330
461.24	25.319
461.59	26.264
461.94	25.462
462.29	25.816
462.64	26.101
462.99	25.830
463.34	26.267
463.69	25.516
464.04	24.986
464.39	24.870
464.74	25.074
465.09	24.668
465.44	24.432
465.79	23.546
466.14	23.810
466.49	24.194
466.84	24.752
467.19	24.864
467.54	24.812
467.89	23.890
468.24	24.433
468.59	24.542
468.94	23.885
469.29	24.422
469.64	24.900
469.99	25.101
470.34	23.844
470.68	24.569
471.03	23.878
471.38	24.878
471.73	24.384
472.08	23.882
472.43	24.058
472.78	24.358
473.13	23.235
473.48	23.471
473.83	24.085
474.17	22.526
474.52	22.705
474.87	23.117
475.22	23.041
475.57	22.246
475.92	22.199
476.27	22.210
476.61	22.063
476.96	21.990
477.31	22.344
477.66	22.210
478.01	21.432
478.36	22.210
478.70	22.118
479.05	21.299
479.40	22.211
479.75	21.352
480.10	21.918
480.45	20.990
480.79	20.879
481.14	20.890
481.49	21.500
481.84	20.393
482.19	21.081
482.53	20.917
482.88	20.800
483.23	21.028
483.58	21.065
483.92	21.087
484.27	19.564
484.62	19.741
484.97	20.260
485.31	19.760
485.66	18.781
486.01	17.833
486.36	17.805
486.70	17.789
487.05	17.930
487.40	18.105
487.75	18.729
488.09	19.533
488.44	18.913
488.79	19.638
489.13	18.984
489.48	19.290
489.83	19.335
490.17	19.509
490.52	19.398
490.87	19.539
491.22	18.918
491.56	19.226
491.91	19.125
492.26	20.119
492.60	19.585
492.95	18.709
493.30	19.533
493.64	18.432
493.99	19.081
494.34	19.149
494.68	19.643
495.03	19.267
495.37	18.939
495.72	18.908
496.07	18.422
496.41	18.363
496.76	18.997
497.11	18.370
497.45	18.258
497.80	19.002
498.14	18.164
498.49	17.951
498.84	18.121
499.18	18.381
499.53	18.566
499.87	18.313
500.22	18.088
500.56	19.320
500.91	17.404
501.26	18.208
501.60	17.940
501.95	17.644
502.29	18.697
502.64	18.855
502.98	17.719
503.33	18.236
503.67	17.448
504.02	17.867
504.36	18.063
504.71	17.684
505.06	18.265
505.40	17.453
505.75	17.502
506.09	17.979
506.44	17.316
506.78	17.828
507.13	18.021
507.47	18.081
507.82	18.237
508.16	17.882
508.51	17.555
508.85	17.478
509.19	17.449
509.54	17.500
509.88	17.259
510.23	17.481
510.57	18.060
510.92	17.866
511.26	18.397
511.61	17.687
511.95	16.388
512.30	16.808
512.64	17.464
512.98	17.310
513.33	17.880
513.67	17.449
514.02	17.532
514.36	17.368
514.70	17.820
515.05	16.955
515.39	17.611
515.74	17.624
516.08	17.775
516.42	17.314
516.77	18.283
517.11	16.704
517.46	18.059
517.80	17.480
518.14	15.924
518.49	17.970
518.83	17.386
519.17	16.859
519.52	17.261
519.86	18.197
520.20	17.283
520.55	17.953
520.89	18.005
521.23	17.310
521.58	17.587
521.92	17.820
522.26	17.572
522.61	17.944
522.95	17.373
523.29	17.712
523.64	17.500
523.98	16.759
524.32	17.431
524.66	17.498
525.01	16.728
525.35	17.410
525.69	16.872
526.04	17.508
526.38	16.718
526.72	17.546
527.06	17.137
527.41	15.842
527.75	17.299
528.09	17.020
528.43	17.208
528.78	17.394
529.12	16.848
529.46	16.901
529.80	16.955
530.15	17.445
530.49	16.246
530.83	16.139
531.17	18.668
531.51	17.639
531.86	16.774
532.20	17.797
532.54	18.001
532.88	16.945
533.22	16.802
533.57	16.790
533.91	17.158
534.25	17.193
534.59	16.901
534.93	16.121
535.27	16.355
535.62	16.056
535.96	16.824
536.30	15.893
536.64	17.579
536.98	16.589
537.32	16.261
537.66	16.533
538.01	16.656
538.35	16.290
538.69	16.847
539.03	15.400
539.37	16.038
539.71	15.554
540.05	16.732
540.39	16.346
540.73	15.653
541.07	17.391
541.42	16.308
541.76	16.903
542.10	17.464
542.44	15.695
542.78	16.271
543.12	16.571
543.46	16.787
543.80	16.461
544.14	15.083
544.48	16.952
544.82	15.587
545.16	16.396
545.50	15.874
545.84	16.129
546.18	16.633
546.52	16.999
546.86	16.357
547.20	15.711
547.54	16.700
547.88	17.156
548.22	15.753
548.56	15.723
548.90	16.325
549.24	15.152
549.58	16.235
549.92	16.209
550.26	16.548
550.60	15.560
550.94	16.831
551.28	14.923
551.62	16.247
551.96	16.000
552.30	16.109
552.64	16.295
552.98	15.729
553.32	16.655
553.66	16.905
554.00	17.021
554.34	16.287
554.68	16.023
555.02	15.797
555.36	16.562
555.69	15.562
556.03	16.083
556.37	15.348
556.71	16.030
557.05	16.597
557.39	16.025
557.73	16.443
558.07	16.099
558.41	15.630
558.75	16.018
559.08	16.928
559.42	15.949
559.76	15.956
560.10	15.275
560.44	15.164
560.78	15.103
561.12	15.172
561.45	15.906
561.79	15.030
562.13	15.761
562.47	15.574
562.81	16.248
563.15	15.786
563.48	15.849
563.82	14.938
564.16	14.912
564.50	14.128
564.84	14.539
565.17	15.315
565.51	15.399
565.85	14.467
566.19	15.091
566.52	14.376
566.86	14.768
567.20	15.035
567.54	15.525
567.88	13.797
568.21	14.233
568.55	13.852
568.89	13.813
569.23	13.458
569.56	13.360
569.90	13.547
570.24	13.204
570.57	12.615
570.91	12.508
571.25	12.261
571.59	12.224
571.92	12.615
572.26	12.074
572.60	12.793
572.93	12.204
573.27	12.570
573.61	12.312
573.95	12.377
574.28	12.136
574.62	11.880
574.96	12.091
575.29	12.003
575.63	11.712
575.97	12.236
576.30	12.215
576.64	11.676
576.98	11.595
577.31	11.599
577.65	11.596
577.98	11.359
578.32	11.358
578.66	11.509
578.99	11.413
579.33	11.692
579.67	11.700
580.00	11.604
580.34	11.699
580.67	11.463
581.01	11.513
581.35	11.516
581.68	11.177
582.02	11.142
582.35	10.796
582.69	11.427
583.02	11.634
583.36	11.759
583.70	11.838
584.03	12.069
584.37	12.490
584.70	11.755
585.04	11.619
585.37	11.673
585.71	12.077
586.04	11.766
586.38	11.703
586.72	11.930
587.05	11.274
587.39	11.609
587.72	11.956
588.06	11.446
588.39	11.852
588.73	12.056
589.06	12.371
589.40	12.424
589.73	12.531
590.07	12.384
590.40	12.276
590.73	12.178
591.07	12.983
591.40	12.906
591.74	13.463
592.07	13.002
592.41	13.022
592.74	12.060
593.08	12.258
593.41	11.863
593.75	11.524
594.08	12.270
594.41	12.337
594.75	12.089
595.08	12.276
595.42	12.434
595.75	12.322
596.09	12.617
596.42	12.927
596.75	12.664
597.09	13.333
597.42	12.605
597.75	12.678
598.09	13.087
598.42	12.543
598.76	13.012
599.09	11.783
599.42	12.009
599.76	11.640
600.09	12.168
600.42	11.687
600.76	11.964
601.09	12.095
601.42	12.100
601.76	11.917
602.09	11.937
602.42	12.341
602.76	12.777
603.09	12.156
603.42	12.651
603.76	12.652
604.09	11.981
604.42	12.189
604.76	12.484
605.09	12.320
605.42	12.527
605.75	12.045
606.09	12.159
606.42	12.178
606.75	13.107
607.09	12.516
607.42	12.238
607.75	12.194
608.08	12.201
608.42	12.775
608.75	12.985
609.08	12.257
609.41	12.899
609.75	12.625
610.08	12.582
610.41	12.337
610.74	12.299
611.07	12.796
611.41	13.297
611.74	12.921
612.07	12.888
612.40	13.536
612.73	13.053
613.07	13.308
613.40	13.323
613.73	13.267
614.06	13.548
614.39	13.162
614.72	13.632
615.06	13.235
615.39	12.314
615.72	12.883
616.05	12.812
616.38	13.285
616.71	13.539
617.05	13.428
617.38	13.590
617.71	13.514
618.04	12.981
618.37	13.424
618.70	13.006
619.03	13.816
619.36	14.189
619.69	13.873
620.03	14.148
620.36	14.572
620.69	14.589
621.02	14.233
621.35	13.939
621.68	13.863
622.01	14.783
622.34	14.297
622.67	14.753
623.00	13.500
623.33	12.938
623.66	14.439
623.99	15.096
624.32	14.051
624.65	14.477
624.99	12.890
625.32	13.396
625.65	13.974
625.98	14.835
626.31	14.930
626.64	15.429
626.97	14.879
627.30	14.630
627.63	14.438
627.96	14.130
628.29	13.998
628.62	16.377
628.95	16.415
629.28	15.967
629.61	16.040
629.94	15.048
630.26	14.871
630.59	15.157
630.92	15.613
