SpectraSuite Data File
++++++++++++++++++++++++++++++++++++
Date: Wed May 13 19:27:45 PDT 2015
User: schluterlab
Dark Spectrum Present: Yes
Reference Spectrum Present: Yes
Number of Sampled Component Spectra: 1
Spectrometers: USB2E3373
Integration Time (usec): 3000 (USB2E3373)
Spectra Averaged: 3 (USB2E3373)
Boxcar Smoothing: 0 (USB2E3373)
Correct for Electrical Dark: No (USB2E3373)
Strobe/Lamp Enabled: No (USB2E3373)
Correct for Detector Non-linearity: No (USB2E3373)
Correct for Stray Light: No (USB2E3373)
Number of Pixels in Processed Spectrum: 2048
>>>>>Begin Processed Spectral Data<<<<<
178.53	0.000
178.91	-1275.000
179.29	-1200.000
179.67	-200.000
180.04	-1500.000
180.42	2800.000
180.80	1040.000
181.18	-1025.000
181.56	771.429
181.94	0.000
182.31	-657.143
182.69	1733.333
183.07	-537.500
183.45	-511.111
183.83	581.818
184.20	-480.000
184.58	2100.000
184.96	5200.000
185.34	-1080.000
185.72	-600.000
186.09	-2550.000
186.47	2500.000
186.85	2600.000
187.23	4200.000
187.61	-1733.333
187.98	1375.000
188.36	554.545
188.74	509.091
189.12	-780.000
189.49	560.000
189.87	-5600.000
190.25	-1250.000
190.63	442.857
191.00	469.231
191.38	916.667
191.76	-1125.000
192.14	1575.000
192.51	650.000
192.89	883.333
193.27	612.500
193.65	-1175.000
194.02	520.000
194.40	940.000
194.78	570.000
195.15	516.667
195.53	590.000
195.91	-2850.000
196.29	418.750
196.66	331.579
197.04	-390.000
197.42	0.000
197.79	610.000
198.17	-4800.000
198.55	671.429
198.92	637.500
199.30	1040.000
199.68	0.000
200.05	322.222
200.43	714.286
200.81	5300.000
201.18	1666.667
201.56	-1733.333
201.94	566.667
202.31	611.111
202.69	425.000
203.07	500.000
203.44	0.000
203.82	1375.000
204.19	800.000
204.57	421.429
204.95	700.000
205.32	1800.000
205.70	545.455
206.08	392.857
206.45	2600.000
206.83	350.000
207.20	1066.667
207.58	900.000
207.96	350.000
208.33	737.500
208.71	-800.000
209.08	842.857
209.46	644.444
209.84	554.545
210.21	-1466.667
210.59	1500.000
210.96	-512.500
211.34	2950.000
211.71	670.000
212.09	816.667
212.46	0.000
212.84	1666.667
213.22	1400.000
213.59	-5400.000
213.97	916.667
214.34	800.000
214.72	581.818
215.09	1000.000
215.47	-2550.000
215.84	-2700.000
216.22	1733.333
216.59	392.857
216.97	1050.000
217.34	500.000
217.72	-933.333
218.09	0.000
218.47	-4200.000
218.84	733.333
219.22	814.286
219.59	1800.000
219.97	-671.429
220.34	920.000
220.72	-1633.333
221.09	414.286
221.47	1550.000
221.84	-816.667
222.22	0.000
222.59	1450.000
222.97	-2500.000
223.34	1140.000
223.72	438.462
224.09	1140.000
224.46	2400.000
224.84	-5100.000
225.21	-940.000
225.59	-5600.000
225.96	690.000
226.34	325.000
226.71	2450.000
227.08	587.500
227.46	600.000
227.83	-1250.000
228.21	-2650.000
228.58	700.000
228.95	-1900.000
229.33	-2300.000
229.70	1433.333
230.08	685.714
230.45	-760.000
230.82	475.000
231.20	900.000
231.57	600.000
231.95	475.000
232.32	268.182
232.69	418.182
233.07	885.714
233.44	400.000
233.81	-1666.667
234.19	305.263
234.56	400.000
234.93	341.667
235.31	400.000
235.68	323.077
236.05	342.857
236.43	154.545
236.80	257.895
237.17	3800.000
237.55	223.810
237.92	200.000
238.29	271.429
238.67	183.871
239.04	227.586
239.41	147.222
239.79	115.217
240.16	128.571
240.53	115.909
240.91	90.196
241.28	98.000
241.65	86.000
242.02	89.855
242.40	72.581
242.77	86.667
243.14	66.667
243.51	73.034
243.89	60.000
244.26	54.444
244.63	53.763
245.00	54.255
245.38	47.525
245.75	46.729
246.12	49.541
246.49	56.204
246.87	60.800
247.24	46.154
247.61	45.714
247.98	42.484
248.36	33.108
248.73	35.032
249.10	32.484
249.47	36.158
249.84	32.620
250.22	28.877
250.59	30.769
250.96	29.293
251.33	32.701
251.70	36.139
252.08	28.571
252.45	21.973
252.82	20.870
253.19	24.255
253.56	25.882
253.94	23.651
254.31	31.250
254.68	25.769
255.05	23.985
255.42	21.138
255.79	25.735
256.16	26.715
256.54	22.615
256.91	22.776
257.28	20.144
257.65	22.442
258.02	22.671
258.39	20.189
258.76	18.729
259.14	20.833
259.51	18.845
259.88	15.839
260.25	20.242
260.62	20.520
260.99	19.255
261.36	18.018
261.73	17.765
262.10	16.570
262.47	18.592
262.85	18.384
263.22	14.815
263.59	19.943
263.96	13.736
264.33	15.144
264.70	18.421
265.07	18.926
265.44	17.172
265.81	17.032
266.18	18.593
266.55	16.829
266.92	14.251
267.29	15.972
267.66	15.596
268.03	17.273
268.40	16.822
268.77	15.036
269.14	16.441
269.51	18.059
269.88	13.986
270.25	14.447
270.62	16.629
270.99	18.495
271.36	17.597
271.73	16.355
272.10	12.609
272.47	16.774
272.84	14.935
273.21	17.610
273.58	13.755
273.95	12.998
274.32	13.223
274.69	13.704
275.06	10.827
275.43	14.468
275.80	13.828
276.17	12.831
276.54	14.761
276.91	15.613
277.28	13.086
277.65	14.120
278.02	13.251
278.39	14.258
278.76	14.545
279.13	13.019
279.50	13.222
279.87	13.546
280.23	12.375
280.60	11.799
280.97	12.569
281.34	13.451
281.71	14.909
282.08	12.668
282.45	11.818
282.82	11.545
283.19	11.052
283.56	13.509
283.92	12.352
284.29	13.051
284.66	11.797
285.03	10.850
285.40	12.852
285.77	12.458
286.14	10.017
286.51	12.333
286.87	12.137
287.24	11.401
287.61	12.039
287.98	12.175
288.35	10.935
288.72	10.436
289.08	11.894
289.45	9.555
289.82	10.732
290.19	8.634
290.56	10.720
290.93	9.819
291.29	11.043
291.66	11.652
292.03	13.808
292.40	11.747
292.77	9.763
293.13	10.746
293.50	10.933
293.87	10.370
294.24	10.370
294.60	9.898
294.97	10.029
295.34	11.566
295.71	10.085
296.08	10.969
296.44	10.729
296.81	10.568
297.18	11.653
297.55	8.443
297.91	8.971
298.28	11.245
298.65	10.183
299.02	10.013
299.38	8.101
299.75	8.221
300.12	8.685
300.48	9.500
300.85	9.494
301.22	10.064
301.59	8.838
301.95	9.446
302.32	8.472
302.69	8.961
303.05	7.394
303.42	8.765
303.79	8.607
304.15	7.809
304.52	9.270
304.89	8.246
305.25	8.585
305.62	9.400
305.99	9.091
306.35	7.942
306.72	8.408
307.09	9.323
307.45	8.559
307.82	8.259
308.19	8.720
308.55	9.385
308.92	8.808
309.29	8.131
309.65	7.317
310.02	9.302
310.38	6.989
310.75	9.609
311.12	8.700
311.48	8.568
311.85	8.700
312.22	8.741
312.58	8.108
312.95	9.398
313.31	8.738
313.68	8.732
314.05	10.158
314.41	10.452
314.78	8.560
315.14	8.540
315.51	8.857
315.87	9.010
316.24	8.937
316.61	8.772
316.97	9.100
317.34	8.611
317.70	9.560
318.07	9.721
318.43	10.176
318.80	10.590
319.16	10.075
319.53	10.694
319.89	12.095
320.26	11.800
320.62	10.417
320.99	11.717
321.35	11.717
321.72	12.628
322.08	12.241
322.45	13.632
322.81	12.791
323.18	14.451
323.54	13.080
323.91	14.434
324.27	14.627
324.64	14.539
325.00	13.886
325.37	15.469
325.73	16.517
326.10	15.534
326.46	15.771
326.83	17.170
327.19	17.336
327.56	16.463
327.92	17.585
328.29	17.835
328.65	17.864
329.01	17.780
329.38	18.409
329.74	18.837
330.11	19.133
330.47	19.743
330.84	21.232
331.20	20.128
331.56	19.908
331.93	19.630
332.29	20.319
332.66	21.062
333.02	21.298
333.38	21.951
333.75	21.301
334.11	21.085
334.48	21.384
334.84	20.864
335.20	22.273
335.57	21.759
335.93	20.714
336.29	21.429
336.66	21.731
337.02	20.814
337.38	22.963
337.75	20.499
338.11	21.934
338.47	21.271
338.84	23.190
339.20	20.917
339.56	23.084
339.93	21.727
340.29	20.652
340.65	20.766
341.02	22.164
341.38	21.975
341.74	21.754
342.11	22.882
342.47	23.172
342.83	21.575
343.20	21.905
343.56	21.483
343.92	22.456
344.28	23.214
344.65	22.614
345.01	20.286
345.37	20.240
345.73	22.420
346.10	21.569
346.46	21.780
346.82	21.087
347.19	22.640
347.55	21.264
347.91	21.359
348.27	22.432
348.63	21.990
349.00	21.440
349.36	21.182
349.72	21.091
350.08	22.123
350.45	21.969
350.81	20.634
351.17	22.285
351.53	22.359
351.89	20.627
352.26	22.494
352.62	22.294
352.98	21.799
353.34	22.761
353.70	20.049
354.07	22.258
354.43	21.111
354.79	21.480
355.15	22.346
355.51	22.462
355.87	22.776
356.24	22.313
356.60	21.171
356.96	23.170
357.32	22.240
357.68	22.756
358.04	22.961
358.40	21.774
358.77	22.144
359.13	22.178
359.49	22.196
359.85	20.952
360.21	21.372
360.57	23.191
360.93	22.000
361.29	21.920
361.66	21.362
362.02	22.313
362.38	21.673
362.74	21.801
363.10	22.132
363.46	22.524
363.82	22.449
364.18	21.806
364.54	23.031
364.90	22.521
365.26	21.618
365.62	23.083
365.98	22.279
366.35	22.206
366.71	22.054
367.07	22.214
367.43	23.440
367.79	23.340
368.15	24.210
368.51	21.948
368.87	22.912
369.23	21.873
369.59	24.692
369.95	22.794
370.31	23.932
370.67	23.333
371.03	23.521
371.39	24.490
371.75	23.456
372.11	23.257
372.47	23.387
372.83	23.703
373.19	22.977
373.55	23.429
373.91	24.521
374.27	23.574
374.63	23.709
374.99	25.000
375.35	22.889
375.71	24.880
376.07	25.309
376.42	24.278
376.78	24.917
377.14	24.355
377.50	24.503
377.86	23.870
378.22	25.158
378.58	24.185
378.94	23.759
379.30	24.936
379.66	25.635
380.02	25.430
380.38	25.379
380.74	25.510
381.09	25.489
381.45	25.691
381.81	25.614
382.17	25.159
382.53	25.723
382.89	26.358
383.25	25.829
383.61	26.022
383.97	25.391
384.32	25.702
384.68	25.403
385.04	26.306
385.40	26.068
385.76	26.781
386.12	26.295
386.48	27.439
386.83	26.427
387.19	27.829
387.55	26.840
387.91	27.207
388.27	27.406
388.62	27.535
388.98	26.658
389.34	27.785
389.70	27.161
390.06	28.707
390.42	27.302
390.77	27.990
391.13	27.888
391.49	28.109
391.85	27.626
392.20	28.517
392.56	28.346
392.92	27.840
393.28	27.337
393.64	28.118
393.99	29.444
394.35	28.536
394.71	28.356
395.07	28.536
395.42	29.357
395.78	29.453
396.14	29.671
396.50	29.887
396.85	30.324
397.21	29.100
397.57	28.890
397.92	29.928
398.28	28.587
398.64	29.689
399.00	29.882
399.35	29.554
399.71	30.613
400.07	29.746
400.42	30.429
400.78	31.001
401.14	29.817
401.49	30.567
401.85	30.490
402.21	30.958
402.57	30.167
402.92	31.715
403.28	31.793
403.63	31.188
403.99	31.465
404.35	31.091
404.70	31.775
405.06	31.800
405.42	32.314
405.77	32.343
406.13	31.603
406.49	32.880
406.84	31.955
407.20	31.383
407.55	32.163
407.91	32.200
408.27	31.972
408.62	33.173
408.98	32.843
409.34	33.026
409.69	33.032
410.05	33.209
410.40	33.272
410.76	33.811
411.11	34.560
411.47	33.994
411.83	33.842
412.18	33.086
412.54	34.807
412.89	34.578
413.25	34.120
413.60	34.527
413.96	34.244
414.31	34.508
414.67	34.537
415.03	33.642
415.38	35.309
415.74	34.277
416.09	35.402
416.45	35.074
416.80	34.964
417.16	36.394
417.51	36.032
417.87	35.067
418.22	35.457
418.58	36.540
418.93	35.504
419.29	35.455
419.64	36.272
420.00	36.220
420.35	35.768
420.71	36.940
421.06	36.695
421.42	36.199
421.77	35.930
422.12	34.868
422.48	35.888
422.83	36.517
423.19	36.077
423.54	36.158
423.90	36.870
424.25	35.455
424.61	36.310
424.96	37.259
425.31	37.099
425.67	36.910
426.02	36.629
426.38	37.118
426.73	35.869
427.09	37.508
427.44	37.090
427.79	37.320
428.15	38.095
428.50	37.039
428.85	37.843
429.21	36.996
429.56	37.481
429.92	37.695
430.27	36.892
430.62	36.150
430.98	38.350
431.33	37.938
431.68	37.592
432.04	37.380
432.39	37.579
432.74	39.437
433.10	37.861
433.45	39.359
433.80	38.137
434.16	38.568
434.51	37.632
434.86	38.198
435.22	38.799
435.57	38.298
435.92	38.209
436.28	38.553
436.63	38.797
436.98	39.325
437.34	39.475
437.69	39.790
438.04	39.236
438.39	39.701
438.75	39.454
439.10	39.665
439.45	39.197
439.81	39.698
440.16	38.622
440.51	39.250
440.86	39.027
441.22	38.932
441.57	38.960
441.92	39.355
442.27	38.644
442.63	38.757
442.98	39.155
443.33	38.913
443.68	39.339
444.03	39.971
444.39	39.094
444.74	39.123
445.09	38.544
445.44	39.038
445.79	38.941
446.15	39.227
446.50	39.795
446.85	39.157
447.20	39.878
447.55	39.252
447.91	38.941
448.26	39.955
448.61	39.288
448.96	39.424
449.31	39.539
449.66	40.011
450.02	38.552
450.37	39.853
450.72	39.030
451.07	39.122
451.42	38.845
451.77	40.341
452.12	39.723
452.47	40.174
452.83	39.918
453.18	39.059
453.53	39.332
453.88	40.106
454.23	39.091
454.58	40.521
454.93	40.687
455.28	39.152
455.63	40.534
455.98	40.536
456.34	39.950
456.69	40.013
457.04	39.567
457.39	39.801
457.74	38.886
458.09	39.505
458.44	39.225
458.79	37.798
459.14	39.108
459.49	39.054
459.84	40.055
460.19	38.892
460.54	38.600
460.89	38.947
461.24	38.919
461.59	40.442
461.94	39.519
462.29	40.356
462.64	38.992
462.99	39.297
463.34	40.400
463.69	39.775
464.04	39.420
464.39	39.362
464.74	39.810
465.09	38.661
465.44	38.338
465.79	38.031
466.14	39.299
466.49	38.154
466.84	38.938
467.19	38.443
467.54	39.688
467.89	39.676
468.24	39.325
468.59	38.767
468.94	37.447
469.29	39.589
469.64	39.625
469.99	39.919
470.34	39.630
470.68	39.799
471.03	40.408
471.38	40.028
471.73	38.974
472.08	39.934
472.43	38.756
472.78	39.302
473.13	37.997
473.48	39.263
473.83	39.085
474.17	38.955
474.52	40.385
474.87	38.821
475.22	38.073
475.57	38.259
475.92	38.078
476.27	38.670
476.61	38.720
476.96	38.428
477.31	38.148
477.66	38.403
478.01	36.905
478.36	38.763
478.70	38.058
479.05	38.126
479.40	38.280
479.75	38.282
480.10	37.326
480.45	38.125
480.79	37.793
481.14	38.796
481.49	37.684
481.84	38.226
482.19	37.210
482.53	38.761
482.88	37.366
483.23	37.944
483.58	37.580
483.92	37.348
484.27	36.514
484.62	37.241
484.97	36.894
485.31	36.541
485.66	35.398
486.01	34.488
486.36	33.258
486.70	33.272
487.05	34.687
487.40	35.061
487.75	35.268
488.09	36.215
488.44	35.891
488.79	36.709
489.13	37.089
489.48	36.990
489.83	36.470
490.17	37.045
490.52	36.537
490.87	36.318
491.22	36.971
491.56	36.492
491.91	36.622
492.26	36.105
492.60	36.083
492.95	35.828
493.30	37.196
493.64	36.538
493.99	36.444
494.34	36.448
494.68	38.004
495.03	37.500
495.37	37.552
495.72	37.671
496.07	37.216
496.41	35.619
496.76	36.719
497.11	36.065
497.45	36.702
497.80	37.380
498.14	35.942
498.49	37.512
498.84	37.488
499.18	36.238
499.53	36.087
499.87	36.580
500.22	35.940
500.56	37.427
500.91	35.962
501.26	35.941
501.60	36.925
501.95	34.922
502.29	37.067
502.64	36.499
502.98	35.858
503.33	35.558
503.67	35.360
504.02	35.828
504.36	35.657
504.71	36.492
505.06	35.807
505.40	35.246
505.75	35.824
506.09	35.860
506.44	36.458
506.78	36.337
507.13	36.497
507.47	36.869
507.82	37.031
508.16	37.335
508.51	37.139
508.85	36.346
509.19	36.582
509.54	36.224
509.88	36.012
510.23	36.555
510.57	36.429
510.92	36.302
511.26	36.023
511.61	35.581
511.95	34.864
512.30	35.843
512.64	36.002
512.98	37.353
513.33	37.420
513.67	35.752
514.02	35.768
514.36	37.193
514.70	36.469
515.05	36.085
515.39	37.128
515.74	36.824
516.08	36.948
516.42	36.404
516.77	37.402
517.11	36.681
517.46	36.400
517.80	36.934
518.14	36.364
518.49	37.106
518.83	37.045
519.17	36.259
519.52	36.333
519.86	36.338
520.20	35.838
520.55	36.864
520.89	37.470
521.23	37.214
521.58	37.755
521.92	37.171
522.26	36.120
522.61	36.698
522.95	36.587
523.29	37.127
523.64	37.866
523.98	37.092
524.32	36.490
524.66	37.282
525.01	36.826
525.35	36.121
525.69	36.884
526.04	37.196
526.38	36.913
526.72	35.276
527.06	37.225
527.41	35.520
527.75	37.621
528.09	36.802
528.43	36.584
528.78	37.001
529.12	36.182
529.46	37.355
529.80	37.624
530.15	36.511
530.49	35.938
530.83	37.089
531.17	38.381
531.51	37.808
531.86	36.452
532.20	38.136
532.54	36.579
532.88	37.805
533.22	34.978
533.57	35.926
533.91	36.544
534.25	36.938
534.59	35.692
534.93	35.931
535.27	36.632
535.62	36.691
535.96	36.033
536.30	36.236
536.64	36.510
536.98	36.828
537.32	35.945
537.66	35.933
538.01	37.064
538.35	36.522
538.69	36.694
539.03	36.192
539.37	34.888
539.71	34.349
540.05	36.275
540.39	36.146
540.73	35.058
541.07	36.470
541.42	35.812
541.76	36.129
542.10	34.605
542.44	35.497
542.78	36.034
543.12	35.061
543.46	36.197
543.80	36.174
544.14	34.146
544.48	35.238
544.82	34.638
545.16	35.524
545.50	34.961
545.84	35.215
546.18	35.017
546.52	34.687
546.86	35.808
547.20	36.413
547.54	34.803
547.88	35.842
548.22	34.060
548.56	35.157
548.90	35.147
549.24	35.892
549.58	35.675
549.92	36.813
550.26	36.861
550.60	35.685
550.94	34.648
551.28	35.625
551.62	35.155
551.96	34.947
552.30	36.382
552.64	34.753
552.98	35.390
553.32	34.390
553.66	35.174
554.00	35.415
554.34	34.852
554.68	34.835
555.02	34.838
555.36	35.351
555.69	34.912
556.03	34.186
556.37	35.334
556.71	34.175
557.05	34.524
557.39	34.290
557.73	34.792
558.07	34.880
558.41	33.502
558.75	35.048
559.08	34.526
559.42	35.828
559.76	34.265
560.10	34.261
560.44	33.613
560.78	32.468
561.12	34.037
561.45	33.898
561.79	34.080
562.13	33.870
562.47	33.538
562.81	35.495
563.15	34.114
563.48	33.223
563.82	33.790
564.16	32.963
564.50	33.008
564.84	33.439
565.17	33.784
565.51	34.058
565.85	33.058
566.19	32.311
566.52	33.439
566.86	31.947
567.20	33.608
567.54	33.276
567.88	31.505
568.21	31.376
568.55	31.345
568.89	30.545
569.23	30.392
569.56	29.960
569.90	29.925
570.24	29.961
570.57	28.868
570.91	28.410
571.25	28.351
571.59	28.689
571.92	28.053
572.26	28.307
572.60	28.348
572.93	28.666
573.27	28.956
573.61	28.532
573.95	28.553
574.28	27.487
574.62	27.187
574.96	27.216
575.29	27.110
575.63	27.363
575.97	27.701
576.30	27.536
576.64	27.142
576.98	27.151
577.31	27.172
577.65	26.797
577.98	26.478
578.32	26.172
578.66	26.499
578.99	26.889
579.33	26.628
579.67	26.709
580.00	26.732
580.34	26.815
580.67	26.873
581.01	26.872
581.35	26.570
581.68	25.944
582.02	25.380
582.35	26.347
582.69	26.322
583.02	26.407
583.36	26.239
583.70	27.098
584.03	26.907
584.37	27.062
584.70	26.594
585.04	26.761
585.37	26.608
585.71	26.457
586.04	26.504
586.38	26.567
586.72	27.064
587.05	26.189
587.39	26.385
587.72	26.359
588.06	26.628
588.39	26.118
588.73	26.753
589.06	27.142
589.40	27.003
589.73	27.878
590.07	26.868
590.40	26.964
590.73	27.518
591.07	27.920
591.40	27.752
591.74	28.528
592.07	27.705
592.41	27.656
592.74	26.816
593.08	26.682
593.41	26.669
593.75	26.452
594.08	25.880
594.41	26.087
594.75	26.285
595.08	26.807
595.42	26.970
595.75	26.781
596.09	26.962
596.42	27.348
596.75	27.480
597.09	27.446
597.42	26.391
597.75	27.081
598.09	27.478
598.42	26.632
598.76	26.064
599.09	25.390
599.42	25.473
599.76	25.952
600.09	25.902
600.42	24.690
600.76	25.607
601.09	25.537
601.42	26.218
601.76	26.072
602.09	26.482
602.42	26.553
602.76	26.763
603.09	25.767
603.42	26.123
603.76	25.457
604.09	26.328
604.42	25.316
604.76	26.613
605.09	26.431
605.42	26.251
605.75	25.621
606.09	25.824
606.42	26.114
606.75	25.881
607.09	25.994
607.42	25.717
607.75	24.895
608.08	25.315
608.42	26.490
608.75	25.924
609.08	25.116
609.41	26.083
609.75	25.488
610.08	26.202
610.41	25.745
610.74	26.537
611.07	26.383
611.41	26.546
611.74	27.049
612.07	26.398
612.40	26.548
612.73	26.526
613.07	26.401
613.40	26.435
613.73	26.324
614.06	25.323
614.39	25.905
614.72	25.789
615.06	26.103
615.39	25.743
615.72	25.767
616.05	25.359
616.38	26.737
616.71	26.425
617.05	26.443
617.38	27.060
617.71	26.066
618.04	26.683
618.37	26.079
618.70	27.318
619.03	27.697
619.36	27.291
619.69	27.394
620.03	27.885
620.36	27.273
620.69	27.260
621.02	27.065
621.35	27.800
621.68	27.414
622.01	27.864
622.34	27.837
622.67	27.300
623.00	27.366
623.33	27.162
623.66	26.876
623.99	26.730
624.32	26.890
624.65	26.130
624.99	26.062
625.32	25.634
625.65	27.724
625.98	28.132
626.31	27.994
626.64	28.163
626.97	27.598
627.30	27.847
627.63	27.317
627.96	28.007
628.29	27.997
628.62	29.186
628.95	30.000
629.28	28.193
629.61	28.048
629.94	28.000
630.26	28.599
630.59	29.838
630.92	28.736
631.25	28.825
631.58	28.328
631.91	28.702
632.24	27.743
