SpectraSuite Data File
++++++++++++++++++++++++++++++++++++
Date: Wed May 13 19:57:01 PDT 2015
User: schluterlab
Dark Spectrum Present: Yes
Reference Spectrum Present: Yes
Number of Sampled Component Spectra: 1
Spectrometers: USB2E3373
Integration Time (usec): 3000 (USB2E3373)
Spectra Averaged: 3 (USB2E3373)
Boxcar Smoothing: 0 (USB2E3373)
Correct for Electrical Dark: No (USB2E3373)
Strobe/Lamp Enabled: No (USB2E3373)
Correct for Detector Non-linearity: No (USB2E3373)
Correct for Stray Light: No (USB2E3373)
Number of Pixels in Processed Spectrum: 2048
>>>>>Begin Processed Spectral Data<<<<<
178.53	0.000
178.91	-1400.000
179.29	-1475.000
179.67	-216.667
180.04	-1425.000
180.42	2950.000
180.80	1220.000
181.18	-975.000
181.56	757.143
181.94	0.000
182.31	-600.000
182.69	1966.667
183.07	-575.000
183.45	-544.444
183.83	527.273
184.20	-430.000
184.58	2400.000
184.96	5400.000
185.34	-860.000
185.72	-600.000
186.09	-2500.000
186.47	2950.000
186.85	1950.000
187.23	5200.000
187.61	-1800.000
187.98	1350.000
188.36	563.636
188.74	509.091
189.12	-960.000
189.49	620.000
189.87	-4100.000
190.25	-1375.000
190.63	442.857
191.00	446.154
191.38	933.333
191.76	-1075.000
192.14	1300.000
192.51	612.500
192.89	966.667
193.27	612.500
193.65	-1200.000
194.02	550.000
194.40	760.000
194.78	520.000
195.15	533.333
195.53	710.000
195.91	-2000.000
196.29	343.750
196.66	310.526
197.04	-330.000
197.42	0.000
197.79	620.000
198.17	-3800.000
198.55	714.286
198.92	712.500
199.30	960.000
199.68	0.000
200.05	338.889
200.43	771.429
200.81	5000.000
201.18	1533.333
201.56	-1766.667
201.94	611.111
202.31	722.222
202.69	416.667
203.07	450.000
203.44	0.000
203.82	1200.000
204.19	742.857
204.57	421.429
204.95	612.500
205.32	1566.667
205.70	581.818
206.08	357.143
206.45	2700.000
206.83	412.500
207.20	933.333
207.58	580.000
207.96	311.111
208.33	712.500
208.71	-933.333
209.08	771.429
209.46	700.000
209.84	409.091
210.21	-1366.667
210.59	1650.000
210.96	-537.500
211.34	2550.000
211.71	600.000
212.09	850.000
212.46	0.000
212.84	1700.000
213.22	1275.000
213.59	-4100.000
213.97	1000.000
214.34	971.429
214.72	636.364
215.09	1120.000
215.47	-2250.000
215.84	-2650.000
216.22	1866.667
216.59	392.857
216.97	1325.000
217.34	481.818
217.72	-850.000
218.09	0.000
218.47	-5100.000
218.84	577.778
219.22	828.571
219.59	1500.000
219.97	-628.571
220.34	720.000
220.72	-1466.667
221.09	407.143
221.47	1775.000
221.84	-966.667
222.22	0.000
222.59	1475.000
222.97	-2800.000
223.34	1360.000
223.72	469.231
224.09	1240.000
224.46	2300.000
224.84	-4700.000
225.21	-960.000
225.59	-3800.000
225.96	680.000
226.34	345.000
226.71	2550.000
227.08	625.000
227.46	670.000
227.83	-925.000
228.21	-2350.000
228.58	655.556
228.95	-2350.000
229.33	-2700.000
229.70	1833.333
230.08	785.714
230.45	-800.000
230.82	433.333
231.20	900.000
231.57	557.143
231.95	508.333
232.32	190.909
232.69	454.545
233.07	728.571
233.44	361.538
233.81	-1700.000
234.19	373.684
234.56	433.333
234.93	391.667
235.31	436.364
235.68	361.538
236.05	442.857
236.43	184.848
236.80	336.842
237.17	4700.000
237.55	276.190
237.92	214.286
238.29	247.619
238.67	193.548
239.04	189.655
239.41	150.000
239.79	130.435
240.16	138.095
240.53	143.182
240.91	98.039
241.28	108.000
241.65	102.000
242.02	81.159
242.40	100.000
242.77	101.667
243.14	79.570
243.51	85.393
243.89	69.412
244.26	82.222
244.63	60.215
245.00	71.277
245.38	67.327
245.75	69.159
246.12	54.128
246.49	62.774
246.87	69.600
247.24	56.154
247.61	57.143
247.98	52.288
248.36	42.568
248.73	49.045
249.10	53.503
249.47	37.853
249.84	48.128
250.22	46.524
250.59	46.154
250.96	48.485
251.33	45.972
251.70	48.515
252.08	40.476
252.45	36.771
252.82	41.304
253.19	41.277
253.56	40.000
253.94	44.813
254.31	35.156
254.68	43.846
255.05	38.376
255.42	34.959
255.79	33.088
256.16	35.018
256.54	33.216
256.91	35.231
257.28	28.417
257.65	35.314
258.02	32.298
258.39	33.123
258.76	32.107
259.14	31.250
259.51	31.307
259.88	27.950
260.25	31.420
260.62	32.659
260.99	31.366
261.36	31.231
261.73	30.659
262.10	31.105
262.47	29.577
262.85	29.805
263.22	26.781
263.59	30.484
263.96	26.923
264.33	31.593
264.70	28.421
265.07	27.110
265.44	26.010
265.81	27.251
266.18	28.894
266.55	27.805
266.92	27.273
267.29	25.231
267.66	25.459
268.03	27.045
268.40	27.103
268.77	25.060
269.14	26.126
269.51	31.151
269.88	28.438
270.25	27.765
270.62	26.067
270.99	26.022
271.36	26.609
271.73	26.402
272.10	25.652
272.47	24.731
272.84	28.788
273.21	26.834
273.58	22.489
273.95	24.319
274.32	23.347
274.69	25.910
275.06	24.606
275.43	26.809
275.80	25.050
276.17	25.255
276.54	25.156
276.91	23.913
277.28	22.656
277.65	25.919
278.02	24.224
278.39	24.023
278.76	22.909
279.13	23.019
279.50	23.091
279.87	26.096
280.23	22.954
280.60	22.050
280.97	24.954
281.34	23.186
281.71	23.818
282.08	23.992
282.45	22.545
282.82	23.268
283.19	21.034
283.56	22.456
283.92	23.858
284.29	20.811
284.66	22.868
285.03	22.966
285.40	22.711
285.77	23.737
286.14	22.107
286.51	22.500
286.87	22.393
287.24	23.127
287.61	21.027
287.98	23.377
288.35	21.078
288.72	21.184
289.08	22.535
289.45	22.735
289.82	21.138
290.19	20.565
290.56	22.205
290.93	17.674
291.29	21.166
291.66	20.944
292.03	20.930
292.40	22.026
292.77	19.379
293.13	20.000
293.50	21.866
293.87	20.000
294.24	19.852
294.60	18.923
294.97	19.041
295.34	21.862
295.71	20.455
296.08	20.370
296.44	19.120
296.81	19.551
297.18	19.919
297.55	16.755
297.91	18.865
298.28	19.946
298.65	19.582
299.02	19.631
299.38	18.592
299.75	17.251
300.12	16.475
300.48	18.875
300.85	17.756
301.22	18.471
301.59	17.551
301.95	18.388
302.32	17.587
302.69	17.921
303.05	18.303
303.42	18.642
303.79	17.667
304.15	17.716
304.52	17.149
304.89	18.118
305.25	19.026
305.62	18.007
305.99	19.599
306.35	19.239
306.72	19.395
307.09	19.090
307.45	19.820
307.82	18.415
308.19	18.874
308.55	19.525
308.92	19.764
309.29	18.374
309.65	18.664
310.02	19.767
310.38	20.323
310.75	19.958
311.12	20.266
311.48	19.958
311.85	20.755
312.22	20.499
312.58	19.231
312.95	21.436
313.31	19.515
313.68	21.102
314.05	24.063
314.41	22.010
314.78	23.061
315.14	20.556
315.51	22.451
315.87	22.574
316.24	22.642
316.61	22.417
316.97	22.016
317.34	22.505
317.70	25.048
318.07	25.217
318.43	24.168
318.80	25.773
319.16	24.576
319.53	25.516
319.89	25.714
320.26	28.300
320.62	26.587
320.99	27.071
321.35	28.283
321.72	28.645
322.08	29.220
322.45	30.249
322.81	30.523
323.18	30.539
323.54	30.705
323.91	32.170
324.27	33.174
324.64	31.966
325.00	31.470
325.37	33.758
325.73	34.650
326.10	34.598
326.46	36.559
326.83	35.720
327.19	36.550
327.56	37.282
327.92	37.620
328.29	38.154
328.65	38.398
329.01	38.177
329.38	39.593
329.74	39.058
330.11	39.397
330.47	39.945
330.84	40.257
331.20	39.709
331.56	40.550
331.93	40.185
332.29	40.106
332.66	40.531
333.02	40.311
333.38	40.560
333.75	41.889
334.11	41.548
334.48	40.816
334.84	41.176
335.20	43.818
335.57	42.158
335.93	40.625
336.29	42.857
336.66	41.749
337.02	40.452
337.38	40.556
337.75	40.642
338.11	41.092
338.47	42.818
338.84	42.071
339.20	41.193
339.56	42.974
339.93	42.091
340.29	41.667
340.65	42.335
341.02	40.925
341.38	43.416
341.74	40.263
342.11	42.445
342.47	42.203
342.83	40.668
343.20	42.424
343.56	42.207
343.92	42.456
344.28	40.476
344.65	41.788
345.01	41.667
345.37	41.166
345.73	40.863
346.10	42.114
346.46	42.458
346.82	42.175
347.19	42.272
347.55	42.447
347.91	42.880
348.27	43.385
348.63	42.893
349.00	41.667
349.36	42.200
349.72	41.620
350.08	42.382
350.45	40.928
350.81	42.648
351.17	42.788
351.53	43.243
351.89	41.419
352.26	42.463
352.62	44.186
352.98	41.977
353.34	42.646
353.70	41.899
354.07	41.855
354.43	40.952
354.79	43.765
355.15	42.458
355.51	44.285
355.87	42.939
356.24	42.997
356.60	43.224
356.96	42.076
357.32	44.399
357.68	43.622
358.04	43.230
358.40	43.468
358.77	43.192
359.13	43.883
359.49	43.529
359.85	42.619
360.21	44.577
360.57	45.370
360.93	44.308
361.29	43.386
361.66	44.350
362.02	44.328
362.38	44.487
362.74	45.610
363.10	43.597
363.46	44.021
363.82	43.915
364.18	43.612
364.54	45.542
364.90	45.963
365.26	45.515
365.62	46.384
365.98	44.996
366.35	44.126
366.71	46.059
367.07	45.958
367.43	46.880
367.79	46.681
368.15	46.193
368.51	46.076
368.87	47.181
369.23	46.672
369.59	47.212
369.95	47.574
370.31	46.011
370.67	48.188
371.03	48.315
371.39	47.157
371.75	47.941
372.11	48.080
372.47	46.774
372.83	50.432
373.19	47.254
373.55	49.224
373.91	50.074
374.27	47.698
374.63	49.455
374.99	49.576
375.35	49.128
375.71	47.772
376.07	49.520
376.42	49.243
376.78	50.431
377.14	49.457
377.50	50.000
377.86	49.003
378.22	49.431
378.58	49.123
378.94	48.837
379.30	50.763
379.66	51.269
380.02	50.123
380.38	49.787
380.74	49.940
381.09	50.672
381.45	52.551
381.81	50.921
382.17	51.656
382.53	50.881
382.89	52.037
383.25	51.720
383.61	53.098
383.97	51.032
384.32	50.468
384.68	49.752
385.04	51.998
385.40	52.136
385.76	51.658
386.12	52.008
386.48	52.675
386.83	53.111
387.19	52.566
387.55	52.443
387.91	52.479
388.27	52.483
388.62	52.674
388.98	52.088
389.34	52.941
389.70	52.115
390.06	52.345
390.42	52.335
390.77	54.262
391.13	53.350
391.49	53.363
391.85	52.451
392.20	51.924
392.56	52.652
392.92	54.326
393.28	51.538
393.64	52.458
393.99	51.985
394.35	52.171
394.71	51.694
395.07	51.464
395.42	54.203
395.78	52.036
396.14	52.017
396.50	53.697
396.85	53.528
397.21	53.637
397.57	52.511
397.92	52.464
398.28	52.298
398.64	52.151
399.00	51.203
399.35	51.607
399.71	52.315
400.07	51.804
400.42	51.718
400.78	51.628
401.14	51.098
401.49	52.537
401.85	51.059
402.21	52.036
402.57	51.265
402.92	53.342
403.28	51.718
403.63	51.918
403.99	51.783
404.35	51.394
404.70	51.439
405.06	50.204
405.42	51.154
405.77	50.514
406.13	49.774
406.49	49.970
406.84	49.498
407.20	49.586
407.55	50.351
407.91	51.467
408.27	50.989
408.62	49.127
408.98	49.326
409.34	50.554
409.69	50.452
410.05	50.682
410.40	50.520
410.76	49.881
411.11	49.457
411.47	49.904
411.83	48.931
412.18	50.278
412.54	50.436
412.89	49.940
413.25	49.764
413.60	50.587
413.96	49.302
414.31	49.575
414.67	50.253
415.03	50.861
415.38	50.709
415.74	50.225
416.09	50.425
416.45	51.205
416.80	51.619
417.16	51.877
417.51	51.891
417.87	51.509
418.22	50.915
418.58	53.325
418.93	52.334
419.29	52.196
419.64	52.897
420.00	52.744
420.35	52.058
420.71	54.573
421.06	53.461
421.42	53.333
421.77	54.204
422.12	54.688
422.48	55.154
422.83	55.911
423.19	54.917
423.54	55.891
423.90	56.986
424.25	55.332
424.61	55.893
424.96	57.493
425.31	57.641
425.67	55.112
426.02	56.800
426.38	59.707
426.73	58.514
427.09	58.967
427.44	58.597
427.79	59.229
428.15	59.524
428.50	59.216
428.85	60.310
429.21	61.403
429.56	60.238
429.92	59.940
430.27	60.030
430.62	61.137
430.98	61.339
431.33	59.691
431.68	61.675
432.04	61.129
432.39	63.221
432.74	62.238
433.10	63.497
433.45	64.548
433.80	63.692
434.16	62.767
434.51	63.053
434.86	65.564
435.22	65.258
435.57	63.951
435.92	64.833
436.28	66.845
436.63	63.687
436.98	63.309
437.34	65.176
437.69	66.219
438.04	66.329
438.39	66.209
438.75	65.601
439.10	66.872
439.45	65.407
439.81	67.130
440.16	66.742
440.51	68.190
440.86	67.053
441.22	66.852
441.57	66.879
441.92	67.451
442.27	66.631
442.63	66.667
442.98	68.451
443.33	67.065
443.68	67.940
444.03	67.448
444.39	67.381
444.74	67.803
445.09	66.900
445.44	68.015
445.79	67.541
446.15	66.490
446.50	67.959
446.85	68.037
447.20	68.281
447.55	69.123
447.91	67.788
448.26	69.171
448.61	68.909
448.96	68.217
449.31	70.754
449.66	69.387
450.02	69.025
450.37	69.048
450.72	69.938
451.07	69.104
451.42	67.842
451.77	70.053
452.12	68.476
452.47	69.030
452.83	69.930
453.18	68.521
453.53	70.625
453.88	69.640
454.23	70.114
454.58	70.018
454.93	71.392
455.28	69.077
455.63	69.903
455.98	71.548
456.34	69.975
456.69	70.758
457.04	71.146
457.39	69.316
457.74	69.646
458.09	69.983
458.44	69.726
458.79	67.245
459.14	69.131
459.49	71.045
459.84	69.474
460.19	68.827
460.54	68.113
460.89	69.117
461.24	70.856
461.59	69.727
461.94	69.790
462.29	69.733
462.64	69.751
462.99	70.917
463.34	70.200
463.69	72.045
464.04	68.406
464.39	69.913
464.74	69.519
465.09	70.205
465.44	69.030
465.79	69.855
466.14	69.403
466.49	68.854
466.84	71.454
467.19	69.885
467.54	69.000
467.89	69.208
468.24	69.517
468.59	70.940
468.94	68.784
469.29	71.144
469.64	70.750
469.99	71.989
470.34	70.740
470.68	70.905
471.03	71.565
471.38	73.593
471.73	70.286
472.08	71.053
472.43	70.289
472.78	70.836
473.13	70.411
473.48	69.788
473.83	71.768
474.17	71.251
474.52	70.223
474.87	71.454
475.22	71.097
475.57	69.049
475.92	69.411
476.27	69.842
476.61	68.505
476.96	69.049
477.31	69.021
477.66	70.022
478.01	69.838
478.36	68.641
478.70	68.120
479.05	69.755
479.40	70.061
479.75	69.446
480.10	68.787
480.45	67.730
480.79	68.466
481.14	69.080
481.49	69.056
481.84	68.999
482.19	68.696
482.53	67.890
482.88	68.776
483.23	68.411
483.58	69.063
483.92	68.229
484.27	66.536
484.62	67.888
484.97	66.575
485.31	65.959
485.66	63.938
486.01	62.214
486.36	60.216
486.70	60.542
487.05	62.539
487.40	63.943
487.75	64.211
488.09	65.423
488.44	66.044
488.79	67.993
489.13	67.418
489.48	66.843
489.83	67.156
490.17	67.996
490.52	66.608
490.87	66.802
491.22	67.030
491.56	66.560
491.91	67.706
492.26	66.422
492.60	67.327
492.95	65.949
493.30	66.168
493.64	66.449
493.99	65.413
494.34	67.160
494.68	67.079
495.03	67.293
495.37	65.612
495.72	67.836
496.07	66.497
496.41	63.496
496.76	65.611
497.11	65.421
497.45	66.511
497.80	65.787
498.14	65.797
498.49	66.244
498.84	65.772
499.18	64.429
499.53	65.622
499.87	65.284
500.22	65.568
500.56	66.505
500.91	64.808
501.26	65.386
501.60	66.825
501.95	64.803
502.29	65.745
502.64	65.270
502.98	64.423
503.33	64.351
503.67	64.826
504.02	64.500
504.36	65.185
504.71	65.804
505.06	64.675
505.40	64.414
505.75	65.188
506.09	64.383
506.44	65.762
506.78	65.270
507.13	65.724
507.47	65.707
507.82	64.742
508.16	64.742
508.51	66.058
508.85	64.896
509.19	65.663
509.54	64.949
509.88	64.554
510.23	65.450
510.57	65.893
510.92	65.148
511.26	64.851
511.61	65.041
511.95	63.831
512.30	65.111
512.64	64.858
512.98	65.273
513.33	64.829
513.67	63.661
514.02	64.881
514.36	66.193
514.70	65.634
515.05	67.262
515.39	65.451
515.74	65.428
516.08	65.288
516.42	66.870
516.77	66.555
517.11	65.649
517.46	66.479
517.80	67.015
518.14	65.605
518.49	67.153
518.83	65.227
519.17	65.647
519.52	65.705
519.86	67.142
520.20	66.705
520.55	67.145
520.89	67.640
521.23	68.637
521.58	66.687
521.92	67.422
522.26	64.796
522.61	66.729
522.95	65.684
523.29	66.220
523.64	67.683
523.98	66.975
524.32	64.958
524.66	65.965
525.01	65.686
525.35	65.613
525.69	65.025
526.04	66.293
526.38	66.138
526.72	63.926
527.06	66.039
527.41	64.295
527.75	65.916
528.09	65.960
528.43	64.691
528.78	65.458
529.12	62.788
529.46	65.340
529.80	64.728
530.15	64.673
530.49	64.554
530.83	65.759
531.17	66.580
531.51	65.629
531.86	64.903
532.20	66.102
532.54	64.382
532.88	64.827
533.22	62.898
533.57	63.704
533.91	62.432
534.25	62.880
534.59	63.453
534.93	61.749
535.27	63.428
535.62	63.370
535.96	63.465
536.30	64.081
536.64	62.846
536.98	63.238
537.32	62.014
537.66	63.133
538.01	63.924
538.35	63.413
538.69	62.859
539.03	61.079
539.37	62.428
539.71	61.633
540.05	62.288
540.39	62.259
540.73	62.225
541.07	63.271
541.42	61.644
541.76	62.516
542.10	62.549
542.44	62.384
542.78	62.912
543.12	60.909
543.46	60.525
543.80	62.004
544.14	60.911
544.48	61.778
544.82	60.487
545.16	61.744
545.50	59.704
545.84	61.022
546.18	61.818
546.52	61.046
546.86	61.581
547.20	61.969
547.54	60.187
547.88	62.436
548.22	59.278
548.56	60.377
548.90	59.859
549.24	60.337
549.58	61.869
549.92	60.783
550.26	62.713
550.60	60.443
550.94	61.690
551.28	60.571
551.62	61.395
551.96	61.263
552.30	60.887
552.64	60.446
552.98	61.898
553.32	59.339
553.66	60.668
554.00	60.810
554.34	59.696
554.68	62.017
555.02	60.719
555.36	61.587
555.69	58.863
556.03	60.229
556.37	60.368
556.71	59.550
557.05	60.924
557.39	60.462
557.73	60.833
558.07	61.276
558.41	59.334
558.75	60.397
559.08	60.477
559.42	61.602
559.76	61.103
560.10	59.814
560.44	60.028
560.78	58.816
561.12	59.499
561.45	59.518
561.79	57.746
562.13	58.954
562.47	59.563
562.81	59.763
563.15	57.324
563.48	58.422
563.82	58.774
564.16	57.816
564.50	59.049
564.84	57.712
565.17	58.366
565.51	58.530
565.85	57.424
566.19	56.731
566.52	57.948
566.86	55.817
567.20	56.840
567.54	55.537
567.88	55.405
568.21	54.815
568.55	54.044
568.89	54.183
569.23	53.030
569.56	52.146
569.90	51.358
570.24	51.023
570.57	49.779
570.91	49.257
571.25	48.456
571.59	48.130
571.92	48.906
572.26	48.729
572.60	49.099
572.93	48.246
573.27	48.270
573.61	48.074
573.95	47.571
574.28	47.236
574.62	47.036
574.96	46.619
575.29	46.266
575.63	47.409
575.97	47.149
576.30	47.849
576.64	47.359
576.98	46.475
577.31	46.534
577.65	46.189
577.98	45.979
578.32	45.572
578.66	46.122
578.99	46.040
579.33	46.212
579.67	46.193
580.00	45.673
580.34	46.346
580.67	46.041
581.01	46.031
581.35	45.715
581.68	44.876
582.02	44.569
582.35	44.919
582.69	45.348
583.02	45.679
583.36	47.268
583.70	47.103
584.03	46.317
584.37	47.958
584.70	47.649
585.04	46.526
585.37	46.598
585.71	46.006
586.04	46.364
586.38	47.283
586.72	47.114
587.05	46.944
587.39	45.515
587.72	46.586
588.06	46.878
588.39	47.023
588.73	48.049
589.06	47.897
589.40	48.552
589.73	48.574
590.07	48.185
590.40	47.972
590.73	49.180
591.07	50.387
591.40	49.557
591.74	50.433
592.07	49.651
592.41	49.153
592.74	46.966
593.08	47.268
593.41	47.517
593.75	45.753
594.08	46.564
594.41	47.331
594.75	47.357
595.08	48.031
595.42	47.496
595.75	47.792
596.09	48.554
596.42	48.605
596.75	48.079
597.09	48.485
597.42	48.272
597.75	48.297
598.09	48.304
598.42	48.067
598.76	47.994
599.09	46.864
599.42	46.579
599.76	46.449
600.09	46.740
600.42	46.202
600.76	45.714
601.09	46.485
601.42	46.233
601.76	46.679
602.09	47.826
602.42	46.935
602.76	47.239
603.09	47.325
603.42	47.677
603.76	46.532
604.09	46.762
604.42	47.493
604.76	47.786
605.09	46.876
605.42	46.986
605.75	47.310
606.09	47.377
606.42	47.446
606.75	47.034
607.09	46.421
607.42	47.368
607.75	45.823
608.08	46.895
608.42	46.885
608.75	46.303
609.08	47.502
609.41	47.644
609.75	46.689
610.08	47.361
610.41	47.626
610.74	47.446
611.07	48.666
611.41	47.743
611.74	48.316
612.07	48.551
612.40	49.265
612.73	47.737
613.07	49.084
613.40	48.973
613.73	47.562
614.06	48.602
614.39	47.037
614.72	47.105
615.06	48.582
615.39	46.338
615.72	47.137
616.05	46.890
616.38	48.249
616.71	49.109
617.05	49.176
617.38	48.527
617.71	48.949
618.04	49.760
618.37	47.901
618.70	48.662
619.03	50.197
619.36	50.713
619.69	50.423
620.03	51.374
620.36	48.730
620.69	49.589
621.02	50.885
621.35	52.467
621.68	50.078
622.01	50.619
622.34	50.832
622.67	49.582
623.00	49.743
623.33	49.321
623.66	51.608
623.99	49.337
624.32	49.215
624.65	48.517
624.99	48.442
625.32	49.602
625.65	49.587
625.98	51.729
626.31	51.477
626.64	52.163
626.97	51.039
627.30	50.042
627.63	49.795
627.96	50.967
628.29	52.231
628.62	51.601
628.95	53.019
629.28	52.190
629.61	52.521
629.94	52.286
630.26	53.480
630.59	53.575
630.92	52.969
