SpectraSuite Data File
++++++++++++++++++++++++++++++++++++
Date: Tue May 12 19:42:41 PDT 2015
User: schluterlab
Dark Spectrum Present: Yes
Reference Spectrum Present: Yes
Number of Sampled Component Spectra: 1
Spectrometers: USB2E3373
Integration Time (usec): 3000 (USB2E3373)
Spectra Averaged: 3 (USB2E3373)
Boxcar Smoothing: 0 (USB2E3373)
Correct for Electrical Dark: No (USB2E3373)
Strobe/Lamp Enabled: No (USB2E3373)
Correct for Detector Non-linearity: No (USB2E3373)
Correct for Stray Light: No (USB2E3373)
Number of Pixels in Processed Spectrum: 2048
>>>>>Begin Processed Spectral Data<<<<<
178.53	0.000
178.91	-80.000
179.29	-183.333
179.67	500.000
180.04	0.000
180.42	0.000
180.80	-400.000
181.18	850.000
181.56	-400.000
181.94	183.333
182.31	900.000
182.69	-114.286
183.07	0.000
183.45	191.667
183.83	300.000
184.20	283.333
184.58	550.000
184.96	216.667
185.34	-133.333
185.72	-28.571
186.09	-116.667
186.47	-1200.000
186.85	-140.000
187.23	225.000
187.61	-128.571
187.98	-320.000
188.36	-200.000
188.74	-50.000
189.12	-33.333
189.49	-50.000
189.87	350.000
190.25	111.111
190.63	400.000
191.00	-0.000
191.38	0.000
191.76	300.000
192.14	-71.429
192.51	-20.000
192.89	160.000
193.27	-200.000
193.65	-233.333
194.02	-116.667
194.40	-200.000
194.78	-75.000
195.15	-71.429
195.53	200.000
195.91	260.000
196.29	-300.000
196.66	33.333
197.04	-28.571
197.42	220.000
197.79	-262.500
198.17	-66.667
198.55	-200.000
198.92	-111.111
199.30	350.000
199.68	-250.000
200.05	-900.000
200.43	-22.222
200.81	-8.333
201.18	183.333
201.56	100.000
201.94	-900.000
202.31	-50.000
202.69	11.111
203.07	-66.667
203.44	-150.000
203.82	0.000
204.19	150.000
204.57	-366.667
204.95	154.545
205.32	320.000
205.70	375.000
206.08	-500.000
206.45	-100.000
206.83	1400.000
207.20	-144.444
207.58	30.769
207.96	266.667
208.33	666.667
208.71	333.333
209.08	-150.000
209.46	-55.556
209.84	333.333
210.21	-333.333
210.59	250.000
210.96	144.444
211.34	100.000
211.71	650.000
212.09	0.000
212.46	-12.500
212.84	-150.000
213.22	185.714
213.59	-125.000
213.97	0.000
214.34	-350.000
214.72	-1000.000
215.09	350.000
215.47	33.333
215.84	-50.000
216.22	-400.000
216.59	200.000
216.97	-41.667
217.34	-16.667
217.72	61.111
218.09	375.000
218.47	-21.053
218.84	-50.000
219.22	-14.286
219.59	-50.000
219.97	-70.000
220.34	183.333
220.72	-9.091
221.09	-550.000
221.47	0.000
221.84	250.000
222.22	-250.000
222.59	-175.000
222.97	0.000
223.34	73.333
223.72	100.000
224.09	-266.667
224.46	161.538
224.84	0.000
225.21	-100.000
225.59	-225.000
225.96	10.000
226.34	116.667
226.71	190.000
227.08	-69.231
227.46	-28.571
227.83	-16.667
228.21	-550.000
228.58	150.000
228.95	5.263
229.33	-50.000
229.70	-133.333
230.08	-200.000
230.45	-666.667
230.82	-700.000
231.20	38.095
231.57	-20.000
231.95	-466.667
232.32	88.889
232.69	-600.000
233.07	18.750
233.44	-50.000
233.81	32.258
234.19	-180.000
234.56	-11.111
234.93	-200.000
235.31	7.407
235.68	3.704
236.05	0.000
236.43	-21.053
236.80	-36.364
237.17	0.000
237.55	-55.000
237.92	-6.977
238.29	-12.903
238.67	-10.714
239.04	-20.000
239.41	-1.961
239.79	2.000
240.16	7.500
240.53	-1.724
240.91	13.699
241.28	9.859
241.65	18.750
242.02	-10.526
242.40	-9.333
242.77	2.105
243.14	9.412
243.51	5.376
243.89	3.810
244.26	12.037
244.63	2.041
245.00	-0.893
245.38	0.840
245.75	5.932
246.12	6.250
246.49	0.800
246.87	3.279
247.24	0.000
247.61	9.272
247.98	7.865
248.36	12.579
248.73	6.818
249.10	11.667
249.47	10.417
249.84	4.569
250.22	5.208
250.59	5.618
250.96	10.909
251.33	12.736
251.70	12.844
252.08	12.554
252.45	9.796
252.82	5.907
253.19	9.728
253.56	12.941
253.94	8.537
254.31	11.871
254.68	9.375
255.05	13.576
255.42	11.636
255.79	10.265
256.16	9.375
256.54	14.545
256.91	15.385
257.28	12.987
257.65	9.180
258.02	13.514
258.39	13.595
258.76	13.150
259.14	11.765
259.51	10.704
259.88	12.968
260.25	11.364
260.62	11.517
260.99	9.192
261.36	10.345
261.73	13.600
262.10	11.717
262.47	13.774
262.85	12.853
263.22	10.484
263.59	17.426
263.96	11.749
264.33	7.547
264.70	12.285
265.07	11.330
265.44	13.583
265.81	12.289
266.18	13.115
266.55	12.857
266.92	14.955
267.29	15.111
267.66	10.000
268.03	15.269
268.40	11.213
268.77	12.249
269.14	11.555
269.51	12.670
269.88	14.530
270.25	9.283
270.62	12.185
270.99	10.105
271.36	9.492
271.73	14.167
272.10	10.996
272.47	10.200
272.84	9.979
273.21	10.647
273.58	10.000
273.95	12.550
274.32	13.733
274.69	14.090
275.06	13.321
275.43	10.000
275.80	11.472
276.17	10.277
276.54	15.209
276.91	14.395
277.28	12.959
277.65	11.531
278.02	10.985
278.39	16.152
278.76	13.222
279.13	12.880
279.50	12.274
279.87	13.019
280.23	13.479
280.60	9.364
280.97	13.005
281.34	11.525
281.71	9.236
282.08	11.628
282.45	10.582
282.82	11.953
283.19	13.300
283.56	13.481
283.92	13.744
284.29	11.844
284.66	12.566
285.03	8.748
285.40	12.500
285.77	10.016
286.14	12.044
286.51	10.611
286.87	11.994
287.24	11.058
287.61	11.883
287.98	11.737
288.35	11.163
288.72	12.538
289.08	10.377
289.45	12.012
289.82	9.627
290.19	11.212
290.56	12.735
290.93	13.294
291.29	12.057
291.66	10.815
292.03	11.191
292.40	11.223
292.77	10.350
293.13	10.426
293.50	11.157
293.87	10.264
294.24	9.691
294.60	11.202
294.97	9.695
295.34	10.959
295.71	9.293
296.08	8.607
296.44	10.145
296.81	8.926
297.18	11.255
297.55	8.543
297.91	9.518
298.28	8.824
298.65	9.702
299.02	9.371
299.38	8.673
299.75	9.653
300.12	10.432
300.48	10.446
300.85	8.435
301.22	11.178
301.59	8.881
301.95	10.488
302.32	9.478
302.69	9.037
303.05	9.681
303.42	9.903
303.79	8.315
304.15	10.306
304.52	8.156
304.89	8.568
305.25	8.716
305.62	9.091
305.99	8.623
306.35	8.166
306.72	8.932
307.09	8.923
307.45	8.198
307.82	10.245
308.19	9.571
308.55	9.388
308.92	8.792
309.29	9.310
309.65	9.391
310.02	8.910
310.38	10.128
310.75	10.041
311.12	9.563
311.48	9.764
311.85	9.220
312.22	10.434
312.58	10.574
312.95	10.472
313.31	9.341
313.68	9.732
314.05	11.519
314.41	9.528
314.78	8.543
315.14	10.774
315.51	11.023
315.87	11.816
316.24	10.979
316.61	10.971
316.97	10.588
317.34	11.483
317.70	11.204
318.07	12.150
318.43	13.327
318.80	12.568
319.16	11.650
319.53	13.396
319.89	12.027
320.26	13.668
320.62	15.698
320.99	14.082
321.35	15.217
321.72	14.949
322.08	15.743
322.45	16.174
322.81	16.256
323.18	16.587
323.54	16.209
323.91	16.129
324.27	17.358
324.64	16.963
325.00	17.197
325.37	18.705
325.73	17.062
326.10	18.301
326.46	19.130
326.83	20.141
327.19	20.087
327.56	20.955
327.92	20.052
328.29	22.222
328.65	22.316
329.01	20.459
329.38	21.763
329.74	23.770
330.11	22.367
330.47	21.508
330.84	21.147
331.20	22.921
331.56	22.547
331.93	22.964
332.29	22.017
332.66	24.141
333.02	23.584
333.38	24.816
333.75	22.873
334.11	22.966
334.48	23.524
334.84	23.850
335.20	23.814
335.57	25.613
335.93	22.977
336.29	24.314
336.66	24.954
337.02	25.204
337.38	24.623
337.75	25.545
338.11	26.162
338.47	25.534
338.84	23.757
339.20	25.390
339.56	24.138
339.93	24.414
340.29	25.476
340.65	25.662
341.02	24.181
341.38	25.419
341.74	25.801
342.11	26.348
342.47	26.399
342.83	25.932
343.20	26.790
343.56	26.136
343.92	25.372
344.28	25.300
344.65	24.486
345.01	26.394
345.37	25.726
345.73	26.270
346.10	26.361
346.46	25.712
346.82	27.103
347.19	26.409
347.55	27.041
347.91	26.044
348.27	26.285
348.63	27.658
349.00	27.880
349.36	26.298
349.72	27.422
350.08	27.823
350.45	26.282
350.81	27.168
351.17	27.183
351.53	27.295
351.89	28.584
352.26	28.537
352.62	28.536
352.98	27.448
353.34	27.569
353.70	27.819
354.07	29.736
354.43	27.212
354.79	28.033
355.15	28.249
355.51	29.258
355.87	28.726
356.24	29.739
356.60	28.881
356.96	26.856
357.32	29.465
357.68	28.958
358.04	29.173
358.40	30.442
358.77	29.880
359.13	31.084
359.49	29.120
359.85	30.935
360.21	29.262
360.57	30.303
360.93	31.512
361.29	29.361
361.66	31.625
362.02	30.612
362.38	31.779
362.74	31.975
363.10	30.995
363.46	31.678
363.82	32.312
364.18	31.113
364.54	32.290
364.90	31.926
365.26	32.042
365.62	32.097
365.98	33.133
366.35	32.980
366.71	32.860
367.07	32.620
367.43	31.625
367.79	32.413
368.15	34.099
368.51	35.206
368.87	33.700
369.23	33.989
369.59	34.338
369.95	32.861
370.31	33.561
370.67	34.662
371.03	35.759
371.39	34.063
371.75	34.770
372.11	35.704
372.47	35.338
372.83	36.669
373.19	36.069
373.55	35.928
373.91	36.439
374.27	37.528
374.63	37.187
374.99	36.164
375.35	35.922
375.71	37.877
376.07	37.668
376.42	36.999
376.78	37.213
377.14	39.455
377.50	38.509
377.86	38.719
378.22	37.913
378.58	38.684
378.94	38.376
379.30	38.674
379.66	38.156
380.02	39.860
380.38	39.059
380.74	39.341
381.09	39.644
381.45	39.810
381.81	40.306
382.17	40.130
382.53	41.683
382.89	40.603
383.25	40.520
383.61	41.386
383.97	41.650
384.32	41.419
384.68	42.082
385.04	41.502
385.40	42.236
385.76	42.315
386.12	41.848
386.48	43.640
386.83	43.450
387.19	43.359
387.55	42.487
387.91	43.489
388.27	42.866
388.62	43.847
388.98	43.639
389.34	42.746
389.70	44.359
390.06	43.960
390.42	44.828
390.77	45.339
391.13	46.259
391.49	46.226
391.85	45.309
392.20	45.677
392.56	44.925
392.92	45.331
393.28	44.883
393.64	45.535
393.99	45.000
394.35	45.101
394.71	46.358
395.07	45.557
395.42	45.651
395.78	46.573
396.14	46.169
396.50	46.766
396.85	47.389
397.21	46.248
397.57	45.030
397.92	46.183
398.28	46.643
398.64	45.905
399.00	46.605
399.35	46.131
399.71	47.186
400.07	46.387
400.42	47.308
400.78	48.049
401.14	46.402
401.49	46.721
401.85	47.873
402.21	46.701
402.57	46.748
402.92	47.676
403.28	47.529
403.63	47.372
403.99	47.094
404.35	47.452
404.70	47.498
405.06	47.985
405.42	47.365
405.77	46.790
406.13	46.476
406.49	47.066
406.84	47.447
407.20	46.840
407.55	48.163
407.91	47.622
408.27	47.274
408.62	46.945
408.98	46.976
409.34	47.695
409.69	47.090
410.05	47.474
410.40	47.078
410.76	47.509
411.11	46.412
411.47	48.027
411.83	47.006
412.18	47.186
412.54	45.860
412.89	46.826
413.25	48.276
413.60	47.959
413.96	47.249
414.31	46.272
414.67	49.831
415.03	47.856
415.38	47.563
415.74	48.086
416.09	46.864
416.45	47.700
416.80	47.775
417.16	49.859
417.51	48.647
417.87	48.769
418.22	47.794
418.58	48.721
418.93	47.518
419.29	48.779
419.64	48.420
420.00	47.413
420.35	47.709
420.71	48.656
421.06	48.735
421.42	48.181
421.77	47.868
422.12	48.198
422.48	49.058
422.83	48.754
423.19	48.294
423.54	48.381
423.90	48.764
424.25	50.453
424.61	48.968
424.96	49.816
425.31	50.181
425.67	49.515
426.02	50.311
426.38	49.421
426.73	47.913
427.09	49.770
427.44	48.951
427.79	49.752
428.15	48.320
428.50	49.937
428.85	48.428
429.21	49.552
429.56	49.448
429.92	49.540
430.27	49.120
430.62	50.027
430.98	49.275
431.33	50.167
431.68	49.617
432.04	50.690
432.39	49.317
432.74	48.577
433.10	51.001
433.45	51.108
433.80	50.714
434.16	50.518
434.51	49.666
434.86	50.574
435.22	50.349
435.57	51.517
435.92	50.031
436.28	50.498
436.63	50.089
436.98	51.358
437.34	50.736
437.69	51.914
438.04	51.382
438.39	53.068
438.75	51.692
439.10	53.452
439.45	53.209
439.81	51.492
440.16	52.257
440.51	50.805
440.86	51.326
441.22	51.876
441.57	52.479
441.92	53.727
442.27	53.429
442.63	52.709
442.98	54.768
443.33	53.173
443.68	53.300
444.03	53.918
444.39	53.670
444.74	53.578
445.09	55.372
445.44	53.061
445.79	54.962
446.15	54.519
446.50	54.598
446.85	54.455
447.20	52.681
447.55	54.159
447.91	55.614
448.26	54.540
448.61	54.985
448.96	55.293
449.31	53.828
449.66	53.511
450.02	54.734
450.37	54.800
450.72	54.758
451.07	56.163
451.42	55.797
451.77	54.351
452.12	55.388
452.47	55.217
452.83	56.413
453.18	55.098
453.53	56.368
453.88	56.094
454.23	53.994
454.58	55.418
454.93	54.973
455.28	55.669
455.63	54.191
455.98	55.140
456.34	54.655
456.69	56.127
457.04	54.724
457.39	55.181
457.74	55.436
458.09	54.636
458.44	56.591
458.79	54.358
459.14	55.456
459.49	54.586
459.84	55.529
460.19	54.784
460.54	53.662
460.89	54.059
461.24	53.831
461.59	55.899
461.94	55.227
462.29	54.073
462.64	55.501
462.99	55.620
463.34	54.432
463.69	56.173
464.04	55.741
464.39	55.370
464.74	53.731
465.09	55.048
465.44	54.169
465.79	54.452
466.14	54.535
466.49	53.837
466.84	53.808
467.19	55.556
467.54	54.443
467.89	54.278
468.24	53.788
468.59	54.385
468.94	54.943
469.29	54.602
469.64	55.799
469.99	54.218
470.34	55.304
470.68	53.538
471.03	53.577
471.38	55.572
471.73	54.869
472.08	55.445
472.43	55.325
472.78	55.547
473.13	55.579
473.48	55.256
473.83	54.954
474.17	53.836
474.52	54.923
474.87	55.619
475.22	54.701
475.57	54.524
475.92	52.814
476.27	53.888
476.61	53.014
476.96	54.653
477.31	55.822
477.66	53.922
478.01	55.091
478.36	55.129
478.70	54.423
479.05	55.427
479.40	54.616
479.75	54.683
480.10	54.600
480.45	55.183
480.79	54.645
481.14	54.823
481.49	53.933
481.84	55.606
482.19	53.805
482.53	53.922
482.88	53.838
483.23	54.824
483.58	54.208
483.92	52.764
484.27	54.356
484.62	53.748
484.97	52.812
485.31	52.591
485.66	52.515
486.01	51.956
486.36	53.090
486.70	52.408
487.05	52.997
487.40	52.411
487.75	52.161
488.09	51.222
488.44	51.945
488.79	52.408
489.13	52.369
489.48	51.988
489.83	51.225
490.17	52.086
490.52	51.147
490.87	53.215
491.22	51.972
491.56	52.470
491.91	51.857
492.26	53.136
492.60	53.316
492.95	52.207
493.30	51.908
493.64	52.079
493.99	54.261
494.34	53.218
494.68	51.239
495.03	51.876
495.37	52.357
495.72	52.584
496.07	51.166
496.41	51.334
496.76	51.194
497.11	51.797
497.45	52.034
497.80	51.765
498.14	51.795
498.49	52.322
498.84	50.786
499.18	51.220
499.53	53.531
499.87	52.739
500.22	52.208
500.56	53.323
500.91	53.120
501.26	51.024
501.60	51.172
501.95	52.712
502.29	52.078
502.64	50.075
502.98	50.782
503.33	50.325
503.67	52.425
504.02	51.788
504.36	51.515
504.71	51.489
505.06	51.741
505.40	51.635
505.75	52.133
506.09	52.004
506.44	51.985
506.78	50.910
507.13	52.172
507.47	52.133
507.82	51.618
508.16	51.670
508.51	52.516
508.85	51.429
509.19	50.905
509.54	52.521
509.88	51.669
510.23	52.697
510.57	51.562
510.92	51.417
511.26	52.039
511.61	52.340
511.95	51.475
512.30	53.101
512.64	51.496
512.98	53.692
513.33	51.934
513.67	52.216
514.02	51.983
514.36	52.728
514.70	53.127
515.05	52.866
515.39	53.576
515.74	53.947
516.08	51.852
516.42	53.884
516.77	52.919
517.11	53.089
517.46	52.530
517.80	55.329
518.14	53.384
518.49	54.981
518.83	53.048
519.17	52.828
519.52	53.904
519.86	54.592
520.20	53.185
520.55	53.460
520.89	55.803
521.23	54.375
521.58	54.233
521.92	53.738
522.26	54.433
522.61	54.061
522.95	55.342
523.29	53.374
523.64	54.206
523.98	54.839
524.32	54.343
524.66	54.793
525.01	55.533
525.35	53.830
525.69	53.407
526.04	55.743
526.38	53.941
526.72	54.583
527.06	55.556
527.41	53.792
527.75	54.630
528.09	53.960
528.43	53.650
528.78	53.599
529.12	54.589
529.46	53.156
529.80	54.255
530.15	54.135
530.49	54.114
530.83	54.808
531.17	54.167
531.51	54.747
531.86	52.311
532.20	52.742
532.54	54.604
532.88	54.618
533.22	55.603
533.57	53.310
533.91	54.164
534.25	54.243
534.59	53.095
534.93	53.660
535.27	53.199
535.62	52.600
535.96	53.175
536.30	52.610
536.64	53.577
536.98	53.392
537.32	54.018
537.66	52.639
538.01	52.872
538.35	52.364
538.69	53.008
539.03	53.569
539.37	52.548
539.71	53.261
540.05	53.039
540.39	52.578
540.73	52.015
541.07	52.941
541.42	51.319
541.76	52.014
542.10	52.296
542.44	52.962
542.78	51.173
543.12	51.336
543.46	50.969
543.80	51.608
544.14	51.183
544.48	52.491
544.82	51.526
545.16	52.971
545.50	54.294
545.84	52.012
546.18	51.835
546.52	51.576
546.86	51.186
547.20	52.803
547.54	50.038
547.88	50.570
548.22	51.406
548.56	52.149
548.90	50.456
549.24	50.585
549.58	51.118
549.92	51.203
550.26	50.965
550.60	51.626
550.94	51.190
551.28	49.837
551.62	50.614
551.96	50.399
552.30	51.008
552.64	51.240
552.98	49.257
553.32	49.167
553.66	49.090
554.00	50.039
554.34	51.875
554.68	50.239
555.02	49.841
555.36	51.787
555.69	49.424
556.03	48.485
556.37	49.737
556.71	49.472
557.05	49.297
557.39	50.602
557.73	48.664
558.07	48.983
558.41	49.561
558.75	50.539
559.08	50.298
559.42	49.080
559.76	49.537
560.10	49.715
560.44	48.298
560.78	48.234
561.12	48.009
561.45	49.702
561.79	48.678
562.13	49.815
562.47	48.471
562.81	48.143
563.15	47.833
563.48	47.865
563.82	48.326
564.16	47.605
564.50	47.350
564.84	47.626
565.17	47.353
565.51	47.924
565.85	47.676
566.19	48.156
566.52	47.885
566.86	47.678
567.20	47.838
567.54	47.288
567.88	46.663
568.21	47.831
568.55	47.255
568.89	47.198
569.23	45.331
569.56	46.621
569.90	47.152
570.24	46.414
570.57	45.071
570.91	46.033
571.25	45.971
571.59	45.180
571.92	44.713
572.26	44.122
572.60	45.029
572.93	44.303
573.27	43.251
573.61	44.197
573.95	43.678
574.28	44.028
574.62	43.245
574.96	42.764
575.29	43.160
575.63	42.834
575.97	42.581
576.30	42.655
576.64	42.834
576.98	43.292
577.31	43.053
577.65	43.470
577.98	42.723
578.32	42.523
578.66	42.205
578.99	44.074
579.33	42.419
579.67	42.384
580.00	42.420
580.34	43.035
580.67	42.167
581.01	42.740
581.35	42.123
581.68	42.243
582.02	41.875
582.35	42.252
582.69	42.055
583.02	42.145
583.36	41.258
583.70	42.286
584.03	42.460
584.37	42.307
584.70	41.447
585.04	41.211
585.37	41.273
585.71	41.843
586.04	42.387
586.38	42.141
586.72	42.155
587.05	42.680
587.39	41.918
587.72	41.650
588.06	41.772
588.39	42.682
588.73	41.193
589.06	41.680
589.40	42.063
589.73	42.820
590.07	41.309
590.40	41.756
590.73	41.774
591.07	42.338
591.40	42.439
591.74	42.957
592.07	41.643
592.41	43.112
592.74	42.522
593.08	41.360
593.41	41.138
593.75	41.692
594.08	41.938
594.41	40.806
594.75	41.073
595.08	42.072
595.42	40.856
595.75	41.250
596.09	42.674
596.42	41.311
596.75	42.909
597.09	41.325
597.42	41.342
597.75	41.417
598.09	41.760
598.42	40.984
598.76	41.166
599.09	40.966
599.42	40.480
599.76	41.036
600.09	41.677
600.42	40.352
600.76	39.992
601.09	40.431
601.42	39.654
601.76	40.260
602.09	40.888
602.42	41.772
602.76	41.318
603.09	41.253
603.42	41.312
603.76	40.999
604.09	41.061
604.42	41.176
604.76	41.031
605.09	40.104
605.42	41.469
605.75	40.384
606.09	40.444
606.42	39.720
606.75	40.187
607.09	40.812
607.42	40.523
607.75	40.358
608.08	40.037
608.42	40.446
608.75	40.720
609.08	39.021
609.41	39.762
609.75	39.758
610.08	39.535
610.41	40.763
610.74	40.192
611.07	40.190
611.41	39.507
611.74	41.676
612.07	40.792
612.40	40.891
612.73	40.220
613.07	40.106
613.40	39.735
613.73	39.977
614.06	39.169
614.39	40.480
614.72	39.020
615.06	40.126
615.39	38.857
615.72	38.410
616.05	38.783
616.38	39.324
616.71	39.490
617.05	39.070
617.38	39.484
617.71	39.125
618.04	40.604
618.37	38.980
618.70	39.742
619.03	40.464
619.36	40.280
619.69	39.580
620.03	40.580
620.36	40.816
620.69	40.207
621.02	40.459
621.35	40.851
621.68	40.864
622.01	40.553
622.34	40.201
622.67	40.051
623.00	38.984
623.33	40.000
623.66	40.956
623.99	39.793
624.32	39.793
624.65	37.266
624.99	38.750
625.32	38.705
625.65	38.110
625.98	40.833
626.31	38.788
626.64	39.910
626.97	41.360
627.30	40.833
627.63	39.628
627.96	39.199
628.29	39.866
628.62	40.722
628.95	40.232
629.28	39.463
629.61	40.857
629.94	41.805
630.26	39.644
630.59	41.675
630.92	39.621
631.25	38.994
631.58	40.116
631.91	38.155
632.24	38.698
632.57	41.141
632.90	40.467
633.23	41.935
633.56	40.377
633.89	40.633
634.22	40.385
634.55	38.896
