SpectraSuite Data File
++++++++++++++++++++++++++++++++++++
Date: Wed May 13 19:49:46 PDT 2015
User: schluterlab
Dark Spectrum Present: Yes
Reference Spectrum Present: Yes
Number of Sampled Component Spectra: 1
Spectrometers: USB2E3373
Integration Time (usec): 3000 (USB2E3373)
Spectra Averaged: 3 (USB2E3373)
Boxcar Smoothing: 0 (USB2E3373)
Correct for Electrical Dark: No (USB2E3373)
Strobe/Lamp Enabled: No (USB2E3373)
Correct for Detector Non-linearity: No (USB2E3373)
Correct for Stray Light: No (USB2E3373)
Number of Pixels in Processed Spectrum: 2048
>>>>>Begin Processed Spectral Data<<<<<
178.53	0.000
178.91	-1450.000
179.29	-1425.000
179.67	-244.444
180.04	-1375.000
180.42	3200.000
180.80	1140.000
181.18	-1050.000
181.56	757.143
181.94	0.000
182.31	-671.429
182.69	1700.000
183.07	-675.000
183.45	-566.667
183.83	545.455
184.20	-410.000
184.58	2700.000
184.96	4800.000
185.34	-860.000
185.72	-537.500
186.09	-2050.000
186.47	2700.000
186.85	2550.000
187.23	4600.000
187.61	-1633.333
187.98	1725.000
188.36	563.636
188.74	490.909
189.12	-1060.000
189.49	690.000
189.87	-5900.000
190.25	-1450.000
190.63	442.857
191.00	407.692
191.38	850.000
191.76	-1175.000
192.14	1600.000
192.51	637.500
192.89	916.667
193.27	600.000
193.65	-1150.000
194.02	510.000
194.40	920.000
194.78	550.000
195.15	575.000
195.53	680.000
195.91	-2050.000
196.29	400.000
196.66	321.053
197.04	-510.000
197.42	0.000
197.79	690.000
198.17	-4900.000
198.55	757.143
198.92	800.000
199.30	880.000
199.68	0.000
200.05	366.667
200.43	885.714
200.81	4500.000
201.18	1966.667
201.56	-1833.333
201.94	611.111
202.31	677.778
202.69	508.333
203.07	550.000
203.44	0.000
203.82	1375.000
204.19	871.429
204.57	478.571
204.95	687.500
205.32	1600.000
205.70	536.364
206.08	428.571
206.45	2650.000
206.83	356.250
207.20	800.000
207.58	820.000
207.96	366.667
208.33	737.500
208.71	-766.667
209.08	828.571
209.46	677.778
209.84	509.091
210.21	-1900.000
210.59	1650.000
210.96	-625.000
211.34	2450.000
211.71	680.000
212.09	950.000
212.46	0.000
212.84	1800.000
213.22	1600.000
213.59	-4800.000
213.97	783.333
214.34	842.857
214.72	672.727
215.09	1080.000
215.47	-2500.000
215.84	-2600.000
216.22	1833.333
216.59	442.857
216.97	1250.000
217.34	527.273
217.72	-850.000
218.09	0.000
218.47	-4200.000
218.84	577.778
219.22	857.143
219.59	2100.000
219.97	-614.286
220.34	1140.000
220.72	-1600.000
221.09	392.857
221.47	1450.000
221.84	-1150.000
222.22	0.000
222.59	1375.000
222.97	-2850.000
223.34	940.000
223.72	500.000
224.09	1260.000
224.46	2550.000
224.84	-5300.000
225.21	-1060.000
225.59	-5400.000
225.96	660.000
226.34	315.000
226.71	3250.000
227.08	625.000
227.46	590.000
227.83	-975.000
228.21	-2450.000
228.58	622.222
228.95	-2050.000
229.33	-2900.000
229.70	1500.000
230.08	885.714
230.45	-880.000
230.82	500.000
231.20	766.667
231.57	771.429
231.95	475.000
232.32	272.727
232.69	509.091
233.07	700.000
233.44	400.000
233.81	-1966.667
234.19	284.211
234.56	391.667
234.93	400.000
235.31	563.636
235.68	369.231
236.05	385.714
236.43	193.939
236.80	310.526
237.17	5100.000
237.55	280.952
237.92	235.714
238.29	280.952
238.67	216.129
239.04	244.828
239.41	202.778
239.79	139.130
240.16	164.286
240.53	179.545
240.91	133.333
241.28	156.000
241.65	136.000
242.02	120.290
242.40	120.968
242.77	128.333
243.14	101.075
243.51	93.258
243.89	95.294
244.26	91.111
244.63	100.000
245.00	104.255
245.38	93.069
245.75	82.243
246.12	83.486
246.49	83.212
246.87	78.400
247.24	86.923
247.61	81.429
247.98	78.431
248.36	67.568
248.73	73.248
249.10	70.064
249.47	63.842
249.84	70.053
250.22	68.449
250.59	76.331
250.96	69.192
251.33	66.825
251.70	70.297
252.08	65.714
252.45	57.399
252.82	60.870
253.19	64.681
253.56	60.000
253.94	66.805
254.31	60.547
254.68	62.308
255.05	59.041
255.42	60.976
255.79	63.235
256.16	54.152
256.54	55.830
256.91	59.075
257.28	57.554
257.65	56.436
258.02	56.522
258.39	55.836
258.76	58.194
259.14	55.952
259.51	51.976
259.88	56.522
260.25	55.287
260.62	52.312
260.99	52.795
261.36	54.955
261.73	58.739
262.10	55.523
262.47	56.338
262.85	52.646
263.22	53.276
263.59	52.707
263.96	53.297
264.33	50.653
264.70	52.105
265.07	53.453
265.44	54.293
265.81	49.392
266.18	53.015
266.55	49.512
266.92	51.106
267.29	49.769
267.66	48.624
268.03	47.955
268.40	51.636
268.77	49.165
269.14	48.874
269.51	47.856
269.88	51.049
270.25	50.564
270.62	49.213
270.99	49.677
271.36	47.425
271.73	49.065
272.10	51.087
272.47	49.677
272.84	50.000
273.21	50.314
273.58	48.253
273.95	44.654
274.32	46.281
274.69	48.608
275.06	43.504
275.43	47.447
275.80	45.491
276.17	46.232
276.54	49.688
276.91	47.036
277.28	45.313
277.65	47.582
278.02	47.205
278.39	46.875
278.76	47.455
279.13	45.849
279.50	46.555
279.87	44.422
280.23	45.908
280.60	46.228
280.97	46.396
281.34	47.257
281.71	44.909
282.08	46.065
282.45	43.636
282.82	45.115
283.19	42.959
283.56	42.632
283.92	45.854
284.29	44.268
284.66	43.920
285.03	44.304
285.40	43.134
285.77	41.414
286.14	42.660
286.51	43.167
286.87	43.590
287.24	44.625
287.61	41.894
287.98	43.831
288.35	40.887
288.72	41.745
289.08	40.532
289.45	42.010
289.82	41.951
290.19	38.776
290.56	40.276
290.93	38.369
291.29	40.644
291.66	39.676
292.03	39.680
292.40	40.969
292.77	37.278
293.13	38.358
293.50	37.464
293.87	37.778
294.24	37.185
294.60	37.263
294.97	36.047
295.34	37.800
295.71	37.216
296.08	37.607
296.44	33.700
296.81	35.667
297.18	35.230
297.55	32.982
297.91	33.113
298.28	36.011
298.65	34.987
299.02	34.914
299.38	34.529
299.75	31.671
300.12	34.100
300.48	33.000
300.85	34.525
301.22	34.650
301.59	32.955
301.95	33.375
302.32	32.606
302.69	32.497
303.05	32.121
303.42	31.358
303.79	32.729
304.15	31.585
304.52	31.402
304.89	31.127
305.25	30.742
305.62	30.578
305.99	33.412
306.35	31.320
306.72	31.951
307.09	30.855
307.45	30.405
307.82	29.799
308.19	31.788
308.55	32.686
308.92	30.612
309.29	30.940
309.65	30.435
310.02	30.655
310.38	31.183
310.75	32.735
311.12	31.934
311.48	31.557
311.85	32.180
312.22	31.113
312.58	31.393
312.95	33.052
313.31	30.097
313.68	33.264
314.05	33.531
314.41	32.663
314.78	31.219
315.14	31.678
315.51	32.441
315.87	33.267
316.24	33.466
316.61	33.138
316.97	33.659
317.34	32.681
317.70	34.034
318.07	33.879
318.43	35.714
318.80	34.114
319.16	35.499
319.53	35.460
319.89	36.857
320.26	35.800
320.62	36.905
320.99	37.273
321.35	38.182
321.72	38.090
322.08	37.808
322.45	39.502
322.81	39.438
323.18	39.210
323.54	39.796
323.91	39.811
324.27	40.822
324.64	42.125
325.00	40.577
325.37	42.948
325.73	43.627
326.10	42.807
326.46	43.459
326.83	45.211
327.19	44.321
327.56	45.470
327.92	45.582
328.29	47.826
328.65	46.869
329.01	47.022
329.38	46.809
329.74	47.553
330.11	49.764
330.47	49.679
330.84	49.357
331.20	48.452
331.56	49.083
331.93	50.370
332.29	49.068
332.66	50.177
333.02	49.909
333.38	49.684
333.75	49.109
334.11	48.932
334.48	49.956
334.84	50.276
335.20	51.364
335.57	50.952
335.93	50.804
336.29	50.824
336.66	50.676
337.02	50.588
337.38	52.315
337.75	49.109
338.11	50.940
338.47	51.013
338.84	50.596
339.20	51.560
339.56	51.642
339.93	52.091
340.29	49.638
340.65	51.426
341.02	52.094
341.38	50.890
341.74	49.298
342.11	50.218
342.47	50.837
342.83	51.284
343.20	50.563
343.56	50.126
343.92	51.053
344.28	49.915
344.65	52.193
345.01	49.495
345.37	49.743
345.73	51.015
346.10	50.213
346.46	51.017
346.82	49.671
347.19	49.708
347.55	49.507
347.91	50.566
348.27	51.849
348.63	50.669
349.00	49.757
349.36	50.575
349.72	50.281
350.08	50.729
350.45	50.692
350.81	50.203
351.17	49.919
351.53	48.812
351.89	48.597
352.26	50.197
352.62	51.243
352.98	49.190
353.34	49.384
353.70	49.836
354.07	50.161
354.43	46.667
354.79	49.236
355.15	49.322
355.51	50.759
355.87	51.673
356.24	50.326
356.60	49.479
356.96	51.327
357.32	50.450
357.68	50.630
358.04	48.931
358.40	49.327
358.77	48.592
359.13	49.803
359.49	50.431
359.85	49.127
360.21	49.841
360.57	50.739
360.93	50.769
361.29	49.509
361.66	50.155
362.02	49.254
362.38	49.962
362.74	49.107
363.10	48.853
363.46	49.376
363.82	49.358
364.18	49.927
364.54	50.817
364.90	50.708
365.26	50.588
365.62	49.963
365.98	50.110
366.35	48.926
366.71	50.036
367.07	49.745
367.43	49.855
367.79	49.322
368.15	51.221
368.51	50.436
368.87	51.035
369.23	49.159
369.59	50.398
369.95	48.971
370.31	49.003
370.67	49.420
371.03	50.787
371.39	49.927
371.75	50.515
372.11	49.147
372.47	50.953
372.83	51.369
373.19	50.072
373.55	51.293
373.91	50.957
374.27	49.897
374.63	49.600
374.99	49.859
375.35	49.546
375.71	50.103
376.07	50.686
376.42	49.862
376.78	49.901
377.14	50.068
377.50	51.589
377.86	48.271
378.22	50.253
378.58	48.308
378.94	50.031
379.30	50.445
379.66	49.683
380.02	50.983
380.38	50.030
380.74	49.760
381.09	49.328
381.45	49.600
381.81	50.553
382.17	50.828
382.53	50.629
382.89	50.000
383.25	49.031
383.61	50.248
383.97	50.407
384.32	50.156
384.68	49.504
385.04	49.908
385.40	49.226
385.76	49.939
386.12	50.972
386.48	50.598
386.83	50.481
387.19	50.897
387.55	50.278
387.91	49.879
388.27	49.356
388.62	50.891
388.98	49.140
389.34	51.189
389.70	48.927
390.06	50.063
390.42	50.584
390.77	49.746
391.13	50.351
391.49	49.365
391.85	48.822
392.20	50.032
392.56	49.306
392.92	49.794
393.28	49.231
393.64	49.041
393.99	48.503
394.35	49.194
394.71	49.498
395.07	48.972
395.42	49.629
395.78	50.636
396.14	48.169
396.50	50.063
396.85	50.604
397.21	48.644
397.57	51.023
397.92	49.519
398.28	49.103
398.64	49.582
399.00	49.245
399.35	49.069
399.71	48.380
400.07	49.083
400.42	50.061
400.78	49.095
401.14	48.659
401.49	49.313
401.85	49.546
402.21	48.204
402.57	49.661
402.92	50.946
403.28	49.532
403.63	49.196
403.99	49.172
404.35	48.788
404.70	49.041
405.06	49.272
405.42	50.031
405.77	48.800
406.13	47.686
406.49	49.143
406.84	48.494
407.20	48.109
407.55	49.011
407.91	48.667
408.27	50.160
408.62	48.525
408.98	48.407
409.34	48.954
409.69	50.129
410.05	47.955
410.40	48.440
410.76	48.507
411.11	48.794
411.47	48.243
411.83	48.076
412.18	48.237
412.54	48.506
412.89	47.892
413.25	48.111
413.60	49.043
413.96	48.027
414.31	47.752
414.67	48.606
415.03	48.543
415.38	48.776
415.74	47.781
416.09	49.118
416.45	48.126
416.80	48.711
417.16	49.196
417.51	49.237
417.87	47.463
418.22	47.445
418.58	47.644
418.93	48.219
419.29	47.549
419.64	49.244
420.00	47.744
420.35	48.406
420.71	48.536
421.06	46.957
421.42	48.070
421.77	47.197
422.12	48.119
422.48	45.440
422.83	47.350
423.19	47.514
423.54	47.243
423.90	47.884
424.25	47.906
424.61	47.440
424.96	46.939
425.31	46.567
425.67	46.180
426.02	47.600
426.38	49.084
426.73	48.215
427.09	46.505
427.44	46.981
427.79	47.096
428.15	47.440
428.50	47.221
428.85	48.272
429.21	47.267
429.56	47.538
429.92	46.754
430.27	46.624
430.62	46.237
430.98	47.016
431.33	46.443
431.68	47.906
432.04	46.113
432.39	48.087
432.74	46.379
433.10	47.765
433.45	48.105
433.80	46.840
434.16	45.780
434.51	46.368
434.86	47.605
435.22	46.637
435.57	47.477
435.92	46.811
436.28	47.390
436.63	47.075
436.98	46.880
437.34	46.571
437.69	47.141
438.04	47.892
438.39	47.761
438.75	47.821
439.10	47.318
439.45	47.934
439.81	46.344
440.16	45.680
440.51	47.276
440.86	47.539
441.22	47.108
441.57	47.187
441.92	46.878
442.27	46.771
442.63	45.603
442.98	46.986
443.33	46.304
443.68	46.515
444.03	45.925
444.39	45.229
444.74	46.753
445.09	46.361
445.44	45.927
445.79	45.621
446.15	46.797
446.50	46.311
446.85	45.786
447.20	46.303
447.55	46.119
447.91	46.442
448.26	45.965
448.61	47.315
448.96	47.231
449.31	46.625
449.66	47.046
450.02	46.574
450.37	45.578
450.72	45.403
451.07	45.765
451.42	45.471
451.77	46.976
452.12	45.381
452.47	45.709
452.83	46.445
453.18	46.333
453.53	45.702
453.88	46.131
454.23	46.324
454.58	46.881
454.93	46.217
455.28	46.010
455.63	47.027
455.98	46.548
456.34	46.231
456.69	46.337
457.04	46.811
457.39	45.061
457.74	45.908
458.09	46.061
458.44	46.237
458.79	44.740
459.14	45.485
459.49	46.235
459.84	44.931
460.19	45.728
460.54	44.734
460.89	44.926
461.24	46.205
461.59	45.787
461.94	45.438
462.29	46.231
462.64	45.565
462.99	45.543
463.34	45.667
463.69	45.591
464.04	45.159
464.39	45.043
464.74	45.514
465.09	44.451
465.44	44.875
465.79	44.463
466.14	43.459
466.49	44.661
466.84	46.351
467.19	44.961
467.54	45.625
467.89	43.938
468.24	45.608
468.59	44.750
468.94	45.205
469.29	45.051
469.64	45.047
469.99	46.617
470.34	46.433
470.68	45.474
471.03	46.599
471.38	44.753
471.73	44.903
472.08	45.526
472.43	45.226
472.78	45.227
473.13	44.608
473.48	43.945
473.83	45.976
474.17	44.306
474.52	44.603
474.87	44.016
475.22	44.283
475.57	43.525
475.92	44.132
476.27	44.419
476.61	44.898
476.96	43.595
477.31	43.956
477.66	43.928
478.01	42.551
478.36	43.998
478.70	42.991
479.05	43.930
479.40	43.705
479.75	42.857
480.10	42.942
480.45	42.408
480.79	41.902
481.14	43.249
481.49	43.237
481.84	41.930
482.19	42.662
482.53	42.339
482.88	41.926
483.23	43.692
483.58	42.675
483.92	43.768
484.27	41.569
484.62	41.853
484.97	41.033
485.31	42.089
485.66	40.708
486.01	39.370
486.36	38.044
486.70	37.756
487.05	38.047
487.40	39.070
487.75	39.403
488.09	39.854
488.44	40.627
488.79	41.917
489.13	41.482
489.48	41.517
489.83	42.641
490.17	42.306
490.52	41.497
490.87	41.610
491.22	41.155
491.56	40.957
491.91	41.647
492.26	40.882
492.60	41.152
492.95	40.833
493.30	41.262
493.64	41.717
493.99	40.947
494.34	41.073
494.68	40.614
495.03	41.306
495.37	41.554
495.72	41.228
496.07	41.671
496.41	40.133
496.76	40.281
497.11	40.162
497.45	40.755
497.80	40.739
498.14	40.870
498.49	40.488
498.84	41.659
499.18	40.476
499.53	40.218
499.87	41.053
500.22	39.520
500.56	41.408
500.91	40.337
501.26	40.872
501.60	40.816
501.95	39.780
502.29	40.675
502.64	41.015
502.98	40.252
503.33	39.534
503.67	39.629
504.02	39.663
504.36	40.103
504.71	40.156
505.06	40.434
505.40	39.815
505.75	39.103
506.09	39.699
506.44	40.602
506.78	39.795
507.13	41.090
507.47	40.051
507.82	39.767
508.16	40.679
508.51	39.827
508.85	40.169
509.19	40.357
509.54	40.204
509.88	39.876
510.23	39.332
510.57	40.248
510.92	39.513
511.26	39.466
511.61	39.938
511.95	38.361
512.30	39.502
512.64	39.764
512.98	40.300
513.33	39.989
513.67	39.007
514.02	38.961
514.36	39.869
514.70	39.790
515.05	39.933
515.39	40.213
515.74	39.471
516.08	39.128
516.42	39.678
516.77	40.635
517.11	39.179
517.46	39.673
517.80	39.373
518.14	39.027
518.49	38.973
518.83	38.239
519.17	39.319
519.52	39.219
519.86	39.361
520.20	38.728
520.55	39.497
520.89	39.538
521.23	39.747
521.58	39.196
521.92	39.069
522.26	38.011
522.61	39.065
522.95	38.367
523.29	40.170
523.64	38.841
523.98	39.926
524.32	38.299
524.66	39.086
525.01	38.725
525.35	38.910
525.69	38.424
526.04	38.629
526.38	37.584
526.72	39.325
527.06	38.983
527.41	37.562
527.75	39.035
528.09	39.178
528.43	38.432
528.78	38.660
529.12	37.091
529.46	37.661
529.80	38.490
530.15	38.692
530.49	36.800
530.83	38.924
531.17	39.556
531.51	39.300
531.86	38.387
532.20	39.113
532.54	38.949
532.88	39.217
533.22	36.540
533.57	37.346
533.91	36.845
534.25	36.938
534.59	36.730
534.93	37.299
535.27	36.874
535.62	37.057
535.96	37.665
536.30	38.080
536.64	38.184
536.98	36.894
537.32	37.261
537.66	36.133
538.01	37.854
538.35	36.846
538.69	38.034
539.03	36.842
539.37	36.933
539.71	35.774
540.05	36.797
540.39	36.877
540.73	36.287
541.07	37.378
541.42	36.660
541.76	38.516
542.10	37.710
542.44	36.821
542.78	37.022
543.12	35.637
543.46	36.918
543.80	37.476
544.14	35.944
544.48	36.444
544.82	35.920
545.16	37.476
545.50	37.082
545.84	37.097
546.18	36.902
546.52	37.440
546.86	37.182
547.20	37.896
547.54	36.339
547.88	36.926
548.22	35.616
548.56	35.409
548.90	34.699
549.24	36.970
549.58	36.630
549.92	35.577
550.26	36.506
550.60	36.030
550.94	36.479
551.28	35.845
551.62	36.952
551.96	36.491
552.30	37.406
552.64	36.714
552.98	36.610
553.32	35.334
553.66	36.401
554.00	36.376
554.34	36.232
554.68	35.908
555.02	34.344
555.36	35.699
555.69	35.183
556.03	34.993
556.37	35.880
556.71	35.130
557.05	35.854
557.39	35.199
557.73	36.274
558.07	35.823
558.41	34.877
558.75	36.297
559.08	36.092
559.42	35.601
559.76	36.250
560.10	35.974
560.44	34.941
560.78	34.531
561.12	34.828
561.45	35.137
561.79	34.608
562.13	35.077
562.47	36.134
562.81	35.635
563.15	34.849
563.48	34.483
563.82	34.834
564.16	34.663
564.50	34.310
564.84	35.082
565.17	35.006
565.51	35.272
565.85	33.947
566.19	33.250
566.52	33.629
566.86	34.057
567.20	34.434
567.54	33.676
567.88	33.188
568.21	33.280
568.55	32.760
568.89	33.414
569.23	32.442
569.56	32.753
569.90	31.849
570.24	31.683
570.57	31.622
570.91	30.866
571.25	31.130
571.59	30.604
571.92	30.069
572.26	30.878
572.60	31.502
572.93	30.855
573.27	30.790
573.61	30.402
573.95	30.698
574.28	29.698
574.62	30.418
574.96	29.773
575.29	29.753
575.63	29.980
575.97	30.122
576.30	30.138
576.64	30.503
576.98	29.485
577.31	30.199
577.65	30.033
577.98	29.493
578.32	29.210
578.66	29.203
578.99	29.126
579.33	29.412
579.67	29.287
580.00	29.801
580.34	30.138
580.67	29.827
581.01	29.615
581.35	29.577
581.68	28.752
582.02	29.281
582.35	29.150
582.69	28.994
583.02	28.981
583.36	30.021
583.70	29.296
584.03	29.885
584.37	30.040
584.70	30.329
585.04	29.770
585.37	29.893
585.71	29.441
586.04	29.693
586.38	29.781
586.72	29.992
587.05	28.932
587.39	29.789
587.72	29.812
588.06	29.322
588.39	29.849
588.73	29.246
589.06	30.227
589.40	30.404
589.73	30.306
590.07	30.854
590.40	29.741
590.73	30.757
591.07	31.827
591.40	30.915
591.74	31.342
592.07	31.065
592.41	30.632
592.74	29.588
593.08	30.346
593.41	29.484
593.75	29.013
594.08	29.232
594.41	30.399
594.75	29.723
595.08	29.707
595.42	29.772
595.75	29.772
596.09	30.229
596.42	30.373
596.75	30.182
597.09	30.519
597.42	29.005
597.75	30.530
598.09	30.130
598.42	30.284
598.76	29.672
599.09	29.494
599.42	29.148
599.76	29.758
600.09	29.035
600.42	28.451
600.76	29.071
601.09	29.107
601.42	30.213
601.76	29.336
602.09	29.960
602.42	29.817
602.76	30.189
603.09	29.583
603.42	30.262
603.76	29.230
604.09	28.848
604.42	29.923
604.76	29.355
605.09	30.188
605.42	29.585
605.75	30.050
606.09	30.053
606.42	29.587
606.75	28.909
607.09	28.966
607.42	29.268
607.75	28.734
608.08	29.179
608.42	29.807
608.75	29.711
609.08	29.278
609.41	28.605
609.75	29.919
610.08	30.396
610.41	29.283
610.74	29.707
611.07	30.336
611.41	30.128
611.74	30.568
612.07	30.901
612.40	30.693
612.73	29.579
613.07	30.927
613.40	30.121
613.73	29.156
614.06	30.269
614.39	29.523
614.72	29.737
615.06	29.254
615.39	29.989
615.72	29.959
616.05	29.293
616.38	29.739
616.71	30.819
617.05	30.212
617.38	30.186
617.71	30.390
618.04	29.988
618.37	30.219
618.70	30.989
619.03	30.724
619.36	30.686
619.69	30.845
620.03	31.662
620.36	30.348
620.69	31.644
621.02	31.711
621.35	30.305
621.68	30.997
622.01	31.502
622.34	31.165
622.67	30.722
623.00	30.154
623.33	30.450
623.66	30.236
623.99	31.075
624.32	31.027
624.65	30.297
624.99	30.666
625.32	30.920
625.65	30.428
625.98	31.284
626.31	30.871
626.64	31.184
626.97	31.671
627.30	30.341
627.63	31.255
627.96	31.960
628.29	30.709
628.62	31.839
628.95	32.170
629.28	32.482
629.61	33.089
629.94	32.000
630.26	31.268
630.59	31.268
