SpectraSuite Data File
++++++++++++++++++++++++++++++++++++
Date: Wed May 13 19:43:12 PDT 2015
User: schluterlab
Dark Spectrum Present: Yes
Reference Spectrum Present: Yes
Number of Sampled Component Spectra: 1
Spectrometers: USB2E3373
Integration Time (usec): 3000 (USB2E3373)
Spectra Averaged: 3 (USB2E3373)
Boxcar Smoothing: 0 (USB2E3373)
Correct for Electrical Dark: No (USB2E3373)
Strobe/Lamp Enabled: No (USB2E3373)
Correct for Detector Non-linearity: No (USB2E3373)
Correct for Stray Light: No (USB2E3373)
Number of Pixels in Processed Spectrum: 2048
>>>>>Begin Processed Spectral Data<<<<<
178.53	0.000
178.91	-1275.000
179.29	-1275.000
179.67	-238.889
180.04	-1450.000
180.42	2850.000
180.80	1120.000
181.18	-1125.000
181.56	785.714
181.94	0.000
182.31	-685.714
182.69	1866.667
183.07	-600.000
183.45	-577.778
183.83	590.909
184.20	-400.000
184.58	2200.000
184.96	5200.000
185.34	-740.000
185.72	-600.000
186.09	-1950.000
186.47	2150.000
186.85	2600.000
187.23	5200.000
187.61	-1400.000
187.98	1300.000
188.36	581.818
188.74	481.818
189.12	-860.000
189.49	520.000
189.87	-5000.000
190.25	-1275.000
190.63	428.571
191.00	430.769
191.38	883.333
191.76	-1100.000
192.14	1325.000
192.51	625.000
192.89	916.667
193.27	612.500
193.65	-1175.000
194.02	520.000
194.40	1000.000
194.78	540.000
195.15	508.333
195.53	670.000
195.91	-2100.000
196.29	306.250
196.66	310.526
197.04	-270.000
197.42	0.000
197.79	610.000
198.17	-5700.000
198.55	714.286
198.92	662.500
199.30	980.000
199.68	0.000
200.05	322.222
200.43	814.286
200.81	4300.000
201.18	1566.667
201.56	-1266.667
201.94	544.444
202.31	577.778
202.69	466.667
203.07	590.000
203.44	0.000
203.82	1325.000
204.19	828.571
204.57	435.714
204.95	650.000
205.32	1233.333
205.70	572.727
206.08	278.571
206.45	2500.000
206.83	418.750
207.20	850.000
207.58	760.000
207.96	305.556
208.33	650.000
208.71	-750.000
209.08	800.000
209.46	622.222
209.84	390.909
210.21	-1266.667
210.59	1325.000
210.96	-550.000
211.34	2800.000
211.71	670.000
212.09	1000.000
212.46	0.000
212.84	1800.000
213.22	1325.000
213.59	-5600.000
213.97	900.000
214.34	657.143
214.72	545.455
215.09	1200.000
215.47	-2550.000
215.84	-2000.000
216.22	1700.000
216.59	307.143
216.97	1300.000
217.34	527.273
217.72	-650.000
218.09	0.000
218.47	-4600.000
218.84	577.778
219.22	585.714
219.59	1500.000
219.97	-571.429
220.34	880.000
220.72	-1766.667
221.09	428.571
221.47	1300.000
221.84	-1016.667
222.22	0.000
222.59	1350.000
222.97	-2300.000
223.34	1140.000
223.72	446.154
224.09	1220.000
224.46	2250.000
224.84	-4400.000
225.21	-1020.000
225.59	-4000.000
225.96	600.000
226.34	290.000
226.71	2750.000
227.08	637.500
227.46	460.000
227.83	-950.000
228.21	-2050.000
228.58	711.111
228.95	-2500.000
229.33	-2450.000
229.70	1600.000
230.08	800.000
230.45	-940.000
230.82	466.667
231.20	866.667
231.57	528.571
231.95	425.000
232.32	250.000
232.69	400.000
233.07	771.429
233.44	323.077
233.81	-1433.333
234.19	231.579
234.56	366.667
234.93	383.333
235.31	363.636
235.68	276.923
236.05	400.000
236.43	145.455
236.80	273.684
237.17	3400.000
237.55	185.714
237.92	164.286
238.29	219.048
238.67	138.710
239.04	206.897
239.41	119.444
239.79	108.696
240.16	126.190
240.53	127.273
240.91	72.549
241.28	84.000
241.65	84.000
242.02	78.261
242.40	83.871
242.77	70.000
243.14	55.914
243.51	60.674
243.89	49.412
244.26	51.111
244.63	56.989
245.00	43.617
245.38	48.515
245.75	46.729
246.12	40.367
246.49	45.985
246.87	39.200
247.24	40.000
247.61	40.000
247.98	37.255
248.36	24.324
248.73	28.662
249.10	26.115
249.47	33.898
249.84	32.086
250.22	27.273
250.59	24.260
250.96	29.293
251.33	23.697
251.70	24.752
252.08	26.667
252.45	21.973
252.82	18.696
253.19	24.255
253.56	21.961
253.94	19.502
254.31	21.484
254.68	25.000
255.05	19.188
255.42	21.951
255.79	19.853
256.16	21.300
256.54	15.901
256.91	22.064
257.28	13.669
257.65	20.792
258.02	17.702
258.39	20.505
258.76	18.395
259.14	21.131
259.51	17.021
259.88	14.286
260.25	16.314
260.62	14.162
260.99	15.217
261.36	17.117
261.73	16.619
262.10	15.116
262.47	16.056
262.85	15.877
263.22	12.821
263.59	17.664
263.96	14.835
264.33	14.621
264.70	15.526
265.07	14.322
265.44	14.394
265.81	11.679
266.18	14.322
266.55	13.902
266.92	14.742
267.29	14.352
267.66	13.073
268.03	12.273
268.40	14.953
268.77	13.842
269.14	12.838
269.51	15.801
269.88	12.821
270.25	13.995
270.62	12.360
270.99	14.409
271.36	14.378
271.73	10.981
272.10	11.739
272.47	12.903
272.84	11.255
273.21	14.256
273.58	12.882
273.95	11.321
274.32	11.157
274.69	11.563
275.06	10.827
275.43	11.702
275.80	9.419
276.17	10.998
276.54	12.058
276.91	11.067
277.28	10.156
277.65	12.766
278.02	9.938
278.39	13.281
278.76	10.000
279.13	10.566
279.50	11.918
279.87	11.952
280.23	11.377
280.60	10.638
280.97	9.612
281.34	11.681
281.71	14.727
282.08	11.132
282.45	9.818
282.82	9.414
283.19	8.913
283.56	10.351
283.92	11.506
284.29	8.642
284.66	9.800
285.03	9.584
285.40	9.683
285.77	8.586
286.14	8.290
286.51	10.333
286.87	10.256
287.24	10.586
287.61	10.594
287.98	10.390
288.35	8.875
288.72	8.567
289.08	8.764
289.45	9.720
289.82	9.106
290.19	8.163
290.56	8.576
290.93	8.006
291.29	7.975
291.66	9.145
292.03	11.192
292.40	9.692
292.77	8.580
293.13	8.358
293.50	7.580
293.87	8.000
294.24	8.296
294.60	6.405
294.97	7.994
295.34	8.886
295.71	9.801
296.08	6.268
296.44	7.428
296.81	6.209
297.18	9.485
297.55	5.145
297.91	8.179
298.28	7.497
298.65	10.052
299.02	7.642
299.38	5.976
299.75	6.065
300.12	6.258
300.48	7.000
300.85	7.522
301.22	7.134
301.59	7.576
301.95	6.549
302.32	5.905
302.69	7.527
303.05	6.424
303.42	6.420
303.79	6.342
304.15	5.944
304.52	6.141
304.89	5.691
305.25	6.032
305.62	7.022
305.99	6.139
306.35	6.823
306.72	7.287
307.09	6.548
307.45	6.757
307.82	6.138
308.19	6.512
308.55	6.257
308.92	7.089
309.29	6.230
309.65	5.832
310.02	6.554
310.38	5.161
310.75	6.441
311.12	6.755
311.48	5.852
311.85	7.442
312.22	6.764
312.58	5.613
312.95	6.653
313.31	6.505
313.68	6.029
314.05	8.185
314.41	5.829
314.78	6.949
315.14	6.256
315.51	6.591
315.87	6.634
316.24	6.356
316.61	6.335
316.97	5.577
317.34	5.675
317.70	6.501
318.07	5.582
318.43	7.339
318.80	6.279
319.16	6.026
319.53	5.816
319.89	7.238
320.26	7.400
320.62	6.151
320.99	5.455
321.35	5.859
321.72	6.982
322.08	6.219
322.45	7.363
322.81	6.977
323.18	7.225
323.54	6.865
323.91	6.887
324.27	6.692
324.64	5.965
325.00	6.312
325.37	7.188
325.73	7.989
326.10	6.531
326.46	5.914
326.83	7.420
327.19	6.063
327.56	5.923
327.92	5.862
328.29	7.010
328.65	7.827
329.01	6.769
329.38	6.753
329.74	6.556
330.11	6.692
330.47	6.979
330.84	8.824
331.20	6.102
331.56	7.248
331.93	5.648
332.29	6.832
332.66	7.876
333.02	5.667
333.38	6.956
333.75	7.308
334.11	7.206
334.48	6.566
334.84	7.904
335.20	6.455
335.57	7.072
335.93	6.161
336.29	6.868
336.66	7.304
337.02	6.154
337.38	8.056
337.75	6.417
338.11	6.625
338.47	6.906
338.84	8.158
339.20	6.330
339.56	7.755
339.93	6.000
340.29	5.707
340.65	7.308
341.02	6.894
341.38	7.028
341.74	6.228
342.11	6.550
342.47	7.048
342.83	7.192
343.20	7.359
343.56	6.234
343.92	5.439
344.28	6.378
344.65	6.965
345.01	5.135
345.37	5.146
345.73	7.191
346.10	7.332
346.46	6.271
346.82	6.590
347.19	5.430
347.55	6.486
347.91	6.230
348.27	6.984
348.63	7.107
349.00	6.553
349.36	5.911
349.72	6.897
350.08	6.888
350.45	6.591
350.81	6.336
351.17	5.835
351.53	6.962
351.89	5.776
352.26	7.024
352.62	6.255
352.98	5.835
353.34	6.574
353.70	4.992
354.07	6.048
354.43	6.270
354.79	4.988
355.15	5.347
355.51	7.114
355.87	5.469
356.24	6.433
356.60	6.095
356.96	6.114
357.32	5.151
357.68	7.087
358.04	6.888
358.40	6.097
358.77	5.477
359.13	5.367
359.49	5.412
359.85	4.603
360.21	5.104
360.57	6.693
360.93	5.385
361.29	6.274
361.66	5.418
362.02	5.672
362.38	5.627
362.74	5.060
363.10	5.107
363.46	5.576
363.82	5.896
364.18	6.094
364.54	5.423
364.90	6.516
365.26	5.662
365.62	5.771
365.98	5.478
366.35	5.372
366.71	6.218
367.07	4.953
367.43	5.878
367.79	5.924
368.15	7.256
368.51	4.578
368.87	5.782
369.23	4.755
369.59	5.358
369.95	4.926
370.31	6.125
370.67	5.870
371.03	6.442
371.39	5.466
371.75	5.000
372.11	4.339
372.47	5.938
372.83	5.187
373.19	4.841
373.55	5.765
373.91	6.038
374.27	4.880
374.63	4.364
374.99	4.944
375.35	4.606
375.71	5.141
376.07	5.418
376.42	4.470
376.78	5.103
377.14	4.613
377.50	5.960
377.86	4.787
378.22	5.057
378.58	4.699
378.94	4.965
379.30	4.008
379.66	5.140
380.02	4.853
380.38	4.007
380.74	4.622
381.09	5.196
381.45	5.532
381.81	5.835
382.17	4.522
382.53	4.465
382.89	4.506
383.25	4.690
383.61	4.957
383.97	5.066
384.32	5.178
384.68	5.081
385.04	5.101
385.40	4.520
385.76	5.283
386.12	4.858
386.48	5.349
386.83	4.875
387.19	5.813
387.55	4.515
387.91	4.232
388.27	4.476
388.62	5.101
388.98	4.115
389.34	5.507
389.70	5.150
390.06	5.387
390.42	4.604
390.77	5.407
391.13	4.978
391.49	5.457
391.85	4.456
392.20	3.533
392.56	5.051
392.92	4.885
393.28	3.846
393.64	5.516
393.99	5.437
394.35	4.963
394.71	4.893
395.07	5.732
395.42	4.944
395.78	4.962
396.14	5.400
396.50	5.263
396.85	5.149
397.21	4.871
397.57	5.084
397.92	4.627
398.28	4.260
398.64	5.078
399.00	4.477
399.35	4.061
399.71	4.630
400.07	4.967
400.42	5.092
400.78	5.006
401.14	4.146
401.49	4.657
401.85	4.537
402.21	4.671
402.57	4.688
402.92	4.918
403.28	4.247
403.63	4.517
403.99	4.140
404.35	4.667
404.70	4.436
405.06	5.067
405.42	4.429
405.77	3.829
406.13	4.740
406.49	5.263
406.84	4.548
407.20	4.551
407.55	5.233
407.91	4.533
408.27	4.659
408.62	4.937
408.98	4.902
409.34	4.613
409.69	4.258
410.05	4.771
410.40	4.893
410.76	5.376
411.11	4.524
411.47	4.792
411.83	5.681
412.18	4.391
412.54	5.044
412.89	4.578
413.25	5.372
413.60	4.571
413.96	4.189
414.31	4.860
414.67	4.626
415.03	4.503
415.38	5.090
415.74	4.566
416.09	5.552
416.45	4.618
416.80	4.693
417.16	5.697
417.51	5.839
417.87	5.074
418.22	4.543
418.58	5.875
418.93	5.590
419.29	5.283
419.64	5.542
420.00	5.549
420.35	5.623
420.71	5.798
421.06	4.236
421.42	4.854
421.77	5.325
422.12	4.436
422.48	3.940
422.83	4.892
423.19	4.917
423.54	5.107
423.90	4.986
424.25	5.248
424.61	4.702
424.96	4.431
425.31	5.482
425.67	4.382
426.02	4.629
426.38	5.739
426.73	5.208
427.09	5.228
427.44	4.945
427.79	4.370
428.15	5.536
428.50	4.740
428.85	5.364
429.21	4.141
429.56	4.717
429.92	4.429
430.27	4.320
430.62	4.455
430.98	5.034
431.33	5.052
431.68	4.607
432.04	4.899
432.39	4.226
432.74	5.206
433.10	4.810
433.45	5.656
433.80	4.490
434.16	5.288
434.51	4.684
434.86	5.017
435.22	4.447
435.57	4.681
435.92	4.740
436.28	5.160
436.63	5.795
436.98	4.637
437.34	5.367
437.69	5.309
438.04	4.666
438.39	5.313
438.75	4.823
439.10	5.140
439.45	4.900
439.81	4.653
440.16	4.461
440.51	4.979
440.86	4.806
441.22	4.950
441.57	4.936
441.92	5.118
442.27	4.629
442.63	4.055
442.98	5.465
443.33	5.000
443.68	4.801
444.03	5.222
444.39	3.700
444.74	4.870
445.09	5.337
445.44	4.975
445.79	4.255
446.15	5.664
446.50	4.416
446.85	4.882
447.20	4.386
447.55	5.360
447.91	5.074
448.26	5.231
448.61	4.975
448.96	5.150
449.31	5.006
449.66	5.065
450.02	4.624
450.37	4.705
450.72	4.907
451.07	4.875
451.42	4.985
451.77	5.050
452.12	6.005
452.47	5.100
452.83	5.070
453.18	5.440
453.53	4.824
453.88	4.962
454.23	5.380
454.58	5.209
454.93	5.976
455.28	4.613
455.63	5.704
455.98	5.655
456.34	4.460
456.69	5.761
457.04	5.820
457.39	4.793
457.74	5.049
458.09	5.635
458.44	5.245
458.79	4.989
459.14	5.305
459.49	5.371
459.84	4.598
460.19	5.303
460.54	5.440
460.89	5.047
461.24	4.918
461.59	6.101
461.94	4.932
462.29	5.816
462.64	5.041
462.99	5.465
463.34	5.533
463.69	5.191
464.04	5.333
464.39	5.159
464.74	5.407
465.09	4.765
465.44	4.765
465.79	4.530
466.14	5.090
466.49	5.006
466.84	5.487
467.19	5.613
467.54	5.625
467.89	5.282
468.24	5.294
468.59	5.861
468.94	5.192
469.29	4.692
469.64	6.627
469.99	6.089
470.34	5.548
470.68	5.244
471.03	5.510
471.38	6.671
471.73	6.462
472.08	5.658
472.43	5.276
472.78	5.464
473.13	5.392
473.48	5.243
473.83	5.244
474.17	5.414
474.52	5.645
474.87	5.779
475.22	5.165
475.57	5.159
475.92	4.939
476.27	5.186
476.61	4.964
476.96	5.113
477.31	4.605
477.66	5.088
478.01	4.757
478.36	5.500
478.70	4.881
479.05	4.473
479.40	5.220
479.75	4.931
480.10	5.467
480.45	5.283
480.79	4.109
481.14	4.990
481.49	4.651
481.84	4.481
482.19	4.225
482.53	4.266
482.88	4.514
483.23	4.860
483.58	4.914
483.92	4.780
484.27	4.532
484.62	4.267
484.97	4.572
485.31	4.178
485.66	3.343
486.01	2.911
486.36	2.981
486.70	3.020
487.05	3.293
487.40	3.269
487.75	3.286
488.09	3.852
488.44	3.669
488.79	4.412
489.13	4.507
489.48	4.241
489.83	5.050
490.17	4.822
490.52	4.650
490.87	4.975
491.22	4.548
491.56	4.282
491.91	4.467
492.26	4.272
492.60	4.654
492.95	4.537
493.30	4.533
493.64	4.620
493.99	4.271
494.34	5.088
494.68	5.449
495.03	4.699
495.37	4.607
495.72	4.727
496.07	4.826
496.41	4.292
496.76	4.398
497.11	4.773
497.45	4.099
497.80	4.079
498.14	4.058
498.49	4.098
498.84	4.986
499.18	4.190
499.53	5.081
499.87	4.240
500.22	5.228
500.56	5.000
500.91	4.519
501.26	4.599
501.60	4.841
501.95	4.858
502.29	5.389
502.64	4.516
502.98	4.254
503.33	4.388
503.67	4.269
504.02	4.350
504.36	4.913
504.71	4.446
505.06	5.060
505.40	4.570
505.75	4.870
506.09	4.519
506.44	4.539
506.78	4.433
507.13	4.796
507.47	5.152
507.82	5.167
508.16	4.762
508.51	5.074
508.85	4.518
509.19	4.745
509.54	4.592
509.88	4.482
510.23	4.936
510.57	5.728
510.92	5.023
511.26	4.779
511.61	5.498
511.95	4.854
512.30	4.772
512.64	5.159
512.98	5.681
513.33	5.246
513.67	5.176
514.02	4.600
514.36	4.806
514.70	5.257
515.05	4.406
515.39	5.609
515.74	4.730
516.08	5.143
516.42	5.549
516.77	5.407
517.11	4.883
517.46	5.756
517.80	5.052
518.14	4.517
518.49	5.718
518.83	5.682
519.17	5.196
519.52	5.207
519.86	5.020
520.20	5.549
520.55	5.147
520.89	5.596
521.23	5.850
521.58	5.942
521.92	5.818
522.26	5.552
522.61	5.545
522.95	5.341
523.29	5.782
523.64	5.366
523.98	5.915
524.32	5.790
524.66	6.374
525.01	5.576
525.35	5.700
525.69	5.727
526.04	5.047
526.38	5.735
526.72	5.215
527.06	5.712
527.41	5.446
527.75	5.723
528.09	5.973
528.43	5.927
528.78	6.331
529.12	5.333
529.46	6.185
529.80	5.260
530.15	5.919
530.49	5.538
530.83	6.139
531.17	5.548
531.51	6.615
531.86	5.613
532.20	6.454
532.54	7.111
532.88	6.226
533.22	5.934
533.57	5.988
533.91	5.840
534.25	5.346
534.59	5.674
534.93	6.008
535.27	6.457
535.62	6.593
535.96	5.964
536.30	4.895
536.64	5.860
536.98	6.238
537.32	6.122
537.66	6.200
538.01	6.452
538.35	6.464
538.69	6.765
539.03	6.108
539.37	5.687
539.71	4.990
540.05	5.948
540.39	6.578
540.73	5.433
541.07	6.424
541.42	6.327
541.76	7.161
542.10	6.662
542.44	6.291
542.78	6.917
543.12	5.822
543.46	5.770
543.80	6.376
544.14	5.327
544.48	6.286
544.82	5.581
545.16	6.181
545.50	5.463
545.84	6.586
546.18	5.993
546.52	6.676
546.86	5.704
547.20	7.080
547.54	7.014
547.88	7.270
548.22	6.102
548.56	6.918
548.90	5.570
549.24	5.455
549.58	6.548
549.92	6.456
550.26	6.605
550.60	6.570
550.94	5.845
551.28	5.706
551.62	6.686
551.96	6.386
552.30	6.689
552.64	6.085
552.98	6.644
553.32	6.608
553.66	6.817
554.00	6.589
554.34	6.073
554.68	6.223
555.02	5.924
555.36	6.820
555.69	5.886
556.03	6.931
556.37	7.299
556.71	6.480
557.05	6.653
557.39	6.158
557.73	6.634
558.07	6.454
558.41	6.295
558.75	6.686
559.08	7.084
559.42	6.198
559.76	6.324
560.10	6.424
560.44	6.778
560.78	6.121
561.12	6.530
561.45	7.106
561.79	6.526
562.13	6.304
562.47	6.489
562.81	6.346
563.15	6.823
563.48	6.034
563.82	6.327
564.16	6.148
564.50	5.273
564.84	5.942
565.17	5.534
565.51	5.942
565.85	5.964
566.19	5.385
566.52	6.713
566.86	4.882
567.20	5.955
567.54	5.537
567.88	5.106
568.21	5.767
568.55	5.612
568.89	4.767
569.23	5.036
569.56	5.142
569.90	4.830
570.24	4.772
570.57	4.216
570.91	4.493
571.25	4.169
571.59	4.330
571.92	4.407
572.26	4.102
572.60	4.234
572.93	4.498
573.27	4.466
573.61	4.243
573.95	4.703
574.28	4.095
574.62	4.057
574.96	4.062
575.29	4.049
575.63	4.192
575.97	3.775
576.30	4.302
576.64	3.867
576.98	3.913
577.31	3.789
577.65	3.996
577.98	3.579
578.32	3.554
578.66	3.962
578.99	4.177
579.33	3.801
579.67	3.843
580.00	3.908
580.34	3.868
580.67	4.018
581.01	4.160
581.35	3.457
581.68	3.924
582.02	3.551
582.35	3.599
582.69	3.828
583.02	3.871
583.36	3.897
583.70	4.071
584.03	3.971
584.37	4.453
584.70	3.892
585.04	4.232
585.37	4.287
585.71	4.229
586.04	3.962
586.38	3.840
586.72	4.170
587.05	4.401
587.39	3.694
587.72	4.097
588.06	4.216
588.39	4.115
588.73	4.224
589.06	4.612
589.40	4.310
589.73	4.365
590.07	4.875
590.40	4.457
590.73	4.450
591.07	4.762
591.40	4.935
591.74	5.108
592.07	4.887
592.41	4.837
592.74	4.682
593.08	4.364
593.41	4.429
593.75	4.591
594.08	4.626
594.41	4.843
594.75	4.325
595.08	4.903
595.42	4.588
595.75	4.523
596.09	4.844
596.42	5.383
596.75	5.234
597.09	5.411
597.42	5.185
597.75	4.614
598.09	5.043
598.42	5.369
598.76	4.378
599.09	4.865
599.42	4.512
599.76	4.905
600.09	4.481
600.42	4.821
600.76	4.429
601.09	4.408
601.42	4.756
601.76	4.934
602.09	4.862
602.42	5.056
602.76	5.441
603.09	4.485
603.42	5.271
603.76	4.726
604.09	4.420
604.42	4.933
604.76	5.272
605.09	4.587
605.42	5.173
605.75	4.719
606.09	4.677
606.42	4.332
606.75	4.770
607.09	5.776
607.42	4.450
607.75	4.641
608.08	4.820
608.42	5.648
608.75	5.410
609.08	5.180
609.41	5.474
609.75	4.955
610.08	4.995
610.41	4.935
610.74	4.730
611.07	5.138
611.41	5.201
611.74	5.933
612.07	5.797
612.40	5.981
612.73	5.158
613.07	5.819
613.40	6.266
613.73	5.087
614.06	5.914
614.39	5.821
614.72	6.053
615.06	5.830
615.39	5.202
615.72	5.368
616.05	5.582
616.38	5.614
616.71	5.048
617.05	5.771
617.38	5.652
617.71	6.066
618.04	5.649
618.37	5.736
618.70	6.472
619.03	7.171
619.36	6.653
619.69	6.972
620.03	6.525
620.36	6.283
620.69	6.712
621.02	6.490
621.35	6.186
621.68	6.620
622.01	6.192
622.34	7.186
622.67	6.616
623.00	6.016
623.33	5.861
623.66	6.147
623.99	6.333
624.32	5.563
624.65	6.497
624.99	5.595
625.32	5.358
625.65	6.161
625.98	7.610
626.31	7.309
626.64	7.102
626.97	6.983
627.30	6.899
627.63	8.203
627.96	6.897
628.29	7.874
628.62	7.777
628.95	8.396
629.28	6.843
629.61	8.524
629.94	8.286
630.26	6.768
630.59	7.436
630.92	7.088
631.25	7.206
631.58	7.207
631.91	7.708
632.24	7.173
632.57	8.290
632.90	8.114
633.23	8.725
633.56	9.040
633.89	8.267
634.22	9.421
634.55	8.521
634.88	8.024
635.20	9.080
635.53	9.759
635.86	8.168
636.19	8.000
636.52	8.420
636.85	7.446
637.18	6.567
637.51	10.047
637.83	6.782
638.16	8.696
638.49	8.060
638.82	10.999
639.15	9.875
639.48	9.476
639.81	9.920
640.13	9.896
640.46	10.604
640.79	9.775
641.12	9.216
641.45	10.196
641.77	10.015
642.10	10.526
642.43	8.709
642.76	9.907
643.09	9.816
643.41	10.167
643.74	10.957
644.07	8.689
644.40	12.577
644.73	10.866
645.05	12.044
645.38	10.269
645.71	9.662
646.04	9.967
646.36	11.185
646.69	12.876
647.02	12.245
647.35	10.653
647.67	10.619
648.00	13.821
648.33	10.231
648.66	11.061
648.98	11.544
649.31	9.118
649.64	9.716
649.96	10.134
650.29	10.111
650.62	10.518
650.94	12.642
651.27	10.473
651.60	11.647
651.92	11.502
652.25	10.586
652.58	11.526
652.90	10.742
653.23	9.861
653.56	7.874
