SpectraSuite Data File
++++++++++++++++++++++++++++++++++++
Date: Wed May 13 19:30:48 PDT 2015
User: schluterlab
Dark Spectrum Present: Yes
Reference Spectrum Present: Yes
Number of Sampled Component Spectra: 1
Spectrometers: USB2E3373
Integration Time (usec): 3000 (USB2E3373)
Spectra Averaged: 3 (USB2E3373)
Boxcar Smoothing: 0 (USB2E3373)
Correct for Electrical Dark: No (USB2E3373)
Strobe/Lamp Enabled: No (USB2E3373)
Correct for Detector Non-linearity: No (USB2E3373)
Correct for Stray Light: No (USB2E3373)
Number of Pixels in Processed Spectrum: 2048
>>>>>Begin Processed Spectral Data<<<<<
178.53	0.000
178.91	-1425.000
179.29	-1400.000
179.67	-250.000
180.04	-1175.000
180.42	2600.000
180.80	1180.000
181.18	-1150.000
181.56	700.000
181.94	0.000
182.31	-728.571
182.69	1533.333
183.07	-687.500
183.45	-522.222
183.83	481.818
184.20	-440.000
184.58	2250.000
184.96	6200.000
185.34	-1000.000
185.72	-700.000
186.09	-2250.000
186.47	2900.000
186.85	2800.000
187.23	4600.000
187.61	-1800.000
187.98	1250.000
188.36	554.545
188.74	563.636
189.12	-1000.000
189.49	710.000
189.87	-5600.000
190.25	-1325.000
190.63	350.000
191.00	392.308
191.38	816.667
191.76	-1175.000
192.14	1625.000
192.51	612.500
192.89	1016.667
193.27	600.000
193.65	-1000.000
194.02	510.000
194.40	1060.000
194.78	630.000
195.15	550.000
195.53	660.000
195.91	-2100.000
196.29	431.250
196.66	321.053
197.04	-340.000
197.42	0.000
197.79	570.000
198.17	-5000.000
198.55	728.571
198.92	650.000
199.30	900.000
199.68	0.000
200.05	333.333
200.43	742.857
200.81	4800.000
201.18	1700.000
201.56	-1633.333
201.94	555.556
202.31	677.778
202.69	475.000
203.07	620.000
203.44	0.000
203.82	1475.000
204.19	885.714
204.57	450.000
204.95	650.000
205.32	1733.333
205.70	536.364
206.08	421.429
206.45	2800.000
206.83	325.000
207.20	933.333
207.58	860.000
207.96	266.667
208.33	725.000
208.71	-766.667
209.08	814.286
209.46	622.222
209.84	527.273
210.21	-1600.000
210.59	1475.000
210.96	-575.000
211.34	2400.000
211.71	640.000
212.09	916.667
212.46	0.000
212.84	1666.667
213.22	1500.000
213.59	-4500.000
213.97	866.667
214.34	842.857
214.72	563.636
215.09	1220.000
215.47	-2150.000
215.84	-3250.000
216.22	1633.333
216.59	378.571
216.97	1150.000
217.34	472.727
217.72	-616.667
218.09	0.000
218.47	-5100.000
218.84	655.556
219.22	700.000
219.59	2066.667
219.97	-628.571
220.34	1100.000
220.72	-1933.333
221.09	485.714
221.47	1500.000
221.84	-816.667
222.22	0.000
222.59	1450.000
222.97	-2750.000
223.34	1460.000
223.72	469.231
224.09	1160.000
224.46	2150.000
224.84	-5500.000
225.21	-1000.000
225.59	-5500.000
225.96	620.000
226.34	330.000
226.71	2600.000
227.08	725.000
227.46	530.000
227.83	-1400.000
228.21	-2550.000
228.58	677.778
228.95	-2350.000
229.33	-1900.000
229.70	1733.333
230.08	828.571
230.45	-1040.000
230.82	541.667
231.20	700.000
231.57	628.571
231.95	516.667
232.32	259.091
232.69	418.182
233.07	714.286
233.44	330.769
233.81	-1800.000
234.19	326.316
234.56	458.333
234.93	408.333
235.31	372.727
235.68	253.846
236.05	385.714
236.43	178.788
236.80	273.684
237.17	5800.000
237.55	290.476
237.92	228.571
238.29	285.714
238.67	222.581
239.04	275.862
239.41	197.222
239.79	143.478
240.16	159.524
240.53	163.636
240.91	133.333
241.28	132.000
241.65	136.000
242.02	111.594
242.40	109.677
242.77	135.000
243.14	100.000
243.51	115.730
243.89	101.176
244.26	103.333
244.63	100.000
245.00	96.809
245.38	100.000
245.75	88.785
246.12	76.147
246.49	91.971
246.87	92.800
247.24	95.385
247.61	76.429
247.98	77.778
248.36	68.243
248.73	70.701
249.10	78.344
249.47	74.011
249.84	67.914
250.22	74.332
250.59	66.272
250.96	67.677
251.33	70.142
251.70	74.752
252.08	64.286
252.45	59.193
252.82	59.565
253.19	68.936
253.56	58.824
253.94	69.295
254.31	60.547
254.68	61.538
255.05	55.351
255.42	60.569
255.79	57.353
256.16	63.538
256.54	59.364
256.91	59.431
257.28	53.957
257.65	57.756
258.02	57.453
258.39	54.890
258.76	53.512
259.14	55.060
259.51	54.407
259.88	52.174
260.25	56.193
260.62	49.711
260.99	56.832
261.36	53.754
261.73	53.295
262.10	49.709
262.47	52.394
262.85	51.253
263.22	49.858
263.59	52.422
263.96	49.725
264.33	49.869
264.70	48.684
265.07	46.547
265.44	48.485
265.81	43.309
266.18	48.241
266.55	43.902
266.92	47.912
267.29	47.222
267.66	44.037
268.03	47.045
268.40	40.888
268.77	43.675
269.14	40.991
269.51	44.921
269.88	46.387
270.25	42.212
270.62	44.719
270.99	43.441
271.36	42.275
271.73	42.523
272.10	43.043
272.47	45.161
272.84	41.991
273.21	44.235
273.58	41.485
273.95	41.509
274.32	38.017
274.69	40.257
275.06	39.961
275.43	43.617
275.80	39.279
276.17	40.733
276.54	40.333
276.91	38.735
277.28	37.305
277.65	39.265
278.02	39.130
278.39	40.820
278.76	37.091
279.13	37.170
279.50	37.244
279.87	38.845
280.23	37.924
280.60	38.104
280.97	37.893
281.34	37.168
281.71	36.182
282.08	40.499
282.45	36.727
282.82	38.544
283.19	35.472
283.56	38.772
283.92	37.902
284.29	35.802
284.66	38.113
285.03	36.709
285.40	36.972
285.77	35.017
286.14	35.751
286.51	38.333
286.87	36.581
287.24	36.319
287.61	34.831
287.98	37.662
288.35	35.975
288.72	34.735
289.08	35.681
289.45	33.937
289.82	34.959
290.19	33.595
290.56	34.150
290.93	33.082
291.29	32.975
291.66	31.121
292.03	34.302
292.40	34.214
292.77	35.059
293.13	32.836
293.50	33.236
293.87	33.481
294.24	32.444
294.60	29.403
294.97	31.395
295.34	31.453
295.71	33.381
296.08	30.342
296.44	31.087
296.81	30.911
297.18	29.810
297.55	29.024
297.91	29.156
298.28	30.254
298.65	30.940
299.02	29.249
299.38	28.818
299.75	26.550
300.12	28.736
300.48	28.250
300.85	28.237
301.22	28.408
301.59	27.146
301.95	27.960
302.32	28.755
302.69	27.718
303.05	27.152
303.42	27.284
303.79	26.614
304.15	26.573
304.52	26.651
304.89	25.552
305.25	27.958
305.62	26.501
305.99	27.037
306.35	25.839
306.72	26.345
307.09	26.193
307.45	27.365
307.82	24.665
308.19	26.711
308.55	26.429
308.92	27.175
309.29	26.082
309.65	26.299
310.02	24.736
310.38	23.871
310.75	26.716
311.12	26.510
311.48	26.437
311.85	25.786
312.22	26.223
312.58	25.572
312.95	25.977
313.31	25.340
313.68	26.507
314.05	27.416
314.41	26.231
314.78	24.572
315.14	24.826
315.51	25.953
315.87	25.644
316.24	25.521
316.61	25.926
316.97	24.755
317.34	24.266
317.70	25.908
318.07	26.949
318.43	24.560
318.80	25.305
319.16	25.706
319.53	24.109
319.89	26.571
320.26	26.900
320.62	26.389
320.99	26.465
321.35	25.657
321.72	26.078
322.08	27.542
322.45	28.259
322.81	27.907
323.18	27.649
323.54	27.180
323.91	26.698
324.27	27.055
324.64	27.027
325.00	27.683
325.37	28.662
325.73	28.187
326.10	28.067
326.46	26.523
326.83	29.077
327.19	29.035
327.56	28.049
327.92	28.434
328.29	30.612
328.65	29.282
329.01	29.332
329.38	28.677
329.74	28.901
330.11	28.652
330.47	28.742
330.84	29.963
331.20	29.144
331.56	29.358
331.93	29.722
332.29	28.039
332.66	30.177
333.02	29.890
333.38	30.172
333.75	29.857
334.11	29.982
334.48	30.435
334.84	28.952
335.20	29.545
335.57	29.646
335.93	29.643
336.29	29.487
336.66	31.109
337.02	28.869
337.38	29.630
337.75	28.075
338.11	29.454
338.47	28.729
338.84	31.072
339.20	29.083
339.56	30.839
339.93	29.091
340.29	29.801
340.65	29.590
341.02	30.366
341.38	30.694
341.74	29.649
342.11	29.956
342.47	29.692
342.83	30.308
343.20	30.043
343.56	29.823
343.92	31.140
344.28	30.867
344.65	30.610
345.01	30.724
345.37	29.760
345.73	30.372
346.10	29.753
346.46	30.339
346.82	29.572
347.19	30.744
347.55	30.460
347.91	31.715
348.27	31.717
348.63	30.100
349.00	29.450
349.36	30.542
349.72	31.275
350.08	29.417
350.45	30.431
350.81	29.163
351.17	30.794
351.53	30.631
351.89	31.023
352.26	30.308
352.62	31.355
352.98	31.361
353.34	30.896
353.70	29.787
354.07	31.613
354.43	30.952
354.79	30.169
355.15	30.646
355.51	32.054
355.87	32.082
356.24	31.759
356.60	30.954
356.96	30.732
357.32	30.908
357.68	32.913
358.04	31.829
358.40	30.879
358.77	30.751
359.13	31.255
359.49	31.294
359.85	31.032
360.21	31.818
360.57	33.463
360.93	31.692
361.29	31.746
361.66	31.037
362.02	32.015
362.38	32.091
362.74	32.366
363.10	31.828
363.46	31.034
363.82	32.729
364.18	31.791
364.54	32.615
364.90	31.870
365.26	32.574
365.62	32.286
365.98	32.725
366.35	31.877
366.71	33.767
367.07	33.285
367.43	32.438
367.79	33.476
368.15	32.974
368.51	32.631
368.87	32.762
369.23	33.577
369.59	33.382
369.95	33.088
370.31	32.835
370.67	32.899
371.03	33.783
371.39	33.746
371.75	33.971
372.11	32.148
372.47	35.117
372.83	34.582
373.19	33.960
373.55	34.812
373.91	35.346
374.27	33.471
374.63	34.327
374.99	35.523
375.35	34.403
375.71	33.927
376.07	35.528
376.42	35.901
376.78	34.725
377.14	35.617
377.50	35.629
377.86	33.976
378.22	35.398
378.58	34.148
378.94	34.695
379.30	35.051
379.66	36.548
380.02	35.749
380.38	35.033
380.74	35.354
381.09	36.797
381.45	35.526
381.81	36.486
382.17	35.924
382.53	36.478
382.89	36.358
383.25	36.710
383.61	37.299
383.97	36.398
384.32	36.556
384.68	36.183
385.04	37.492
385.40	36.409
385.76	36.794
386.12	38.083
386.48	38.200
386.83	39.641
387.19	39.394
387.55	38.837
387.91	38.513
388.27	38.197
388.62	38.783
388.98	38.022
389.34	39.049
389.70	38.627
390.06	39.987
390.42	39.559
390.77	40.204
391.13	40.651
391.49	40.165
391.85	39.402
392.20	38.233
392.56	40.972
392.92	40.318
393.28	39.290
393.64	39.748
393.99	39.401
394.35	39.392
394.71	39.586
395.07	39.688
395.42	40.173
395.78	41.667
396.14	40.534
396.50	41.103
396.85	40.687
397.21	40.136
397.57	40.980
397.92	41.106
398.28	39.238
398.64	41.458
399.00	41.298
399.35	40.609
399.71	40.104
400.07	41.928
400.42	41.534
400.78	40.772
401.14	42.195
401.49	41.313
401.85	40.895
402.21	41.078
402.57	42.690
402.92	42.308
403.28	42.099
403.63	42.698
403.99	42.102
404.35	41.273
404.70	41.607
405.06	41.526
405.42	41.734
405.77	42.000
406.13	41.422
406.49	41.632
406.84	41.465
407.20	41.844
407.55	42.246
407.91	42.933
408.27	43.204
408.62	42.565
408.98	42.218
409.34	42.558
409.69	42.710
410.05	41.760
410.40	43.425
410.76	43.011
411.11	42.762
411.47	41.597
411.83	43.494
412.18	42.362
412.54	42.217
412.89	42.349
413.25	42.208
413.60	42.866
413.96	41.894
414.31	42.710
414.67	41.952
415.03	43.841
415.38	43.557
415.74	42.251
416.09	43.893
416.45	44.378
416.80	42.036
417.16	42.493
417.51	43.663
417.87	43.417
418.22	43.091
418.58	42.931
418.93	42.936
419.29	42.839
419.64	43.577
420.00	41.707
420.35	43.304
420.71	42.977
421.06	41.706
421.42	42.515
421.77	42.601
422.12	42.280
422.48	41.608
422.83	43.098
423.19	42.486
423.54	42.774
423.90	42.899
424.25	42.379
424.61	43.036
424.96	41.808
425.31	42.303
425.67	41.180
426.02	41.657
426.38	42.857
426.73	42.188
427.09	42.188
427.44	42.898
427.79	41.748
428.15	43.571
428.50	42.188
428.85	42.729
429.21	41.414
429.56	41.317
429.92	41.117
430.27	41.311
430.62	40.963
430.98	41.930
431.33	40.412
431.68	41.466
432.04	40.256
432.39	42.204
432.74	42.130
433.10	42.162
433.45	41.983
433.80	40.965
434.16	40.385
434.51	41.053
434.86	41.904
435.22	42.023
435.57	41.945
435.92	41.896
436.28	42.586
436.63	42.439
436.98	40.641
437.34	41.383
437.69	41.715
438.04	40.922
438.39	41.612
438.75	42.243
439.10	41.620
439.45	41.677
439.81	41.390
440.16	40.599
440.51	41.125
440.86	41.980
441.22	41.379
441.57	40.605
441.92	40.583
442.27	41.765
442.63	41.338
442.98	41.465
443.33	40.652
443.68	41.559
444.03	40.166
444.39	40.019
444.74	41.234
445.09	40.431
445.44	41.607
445.79	40.426
446.15	39.968
446.50	40.603
446.85	40.185
447.20	40.948
447.55	40.424
447.91	40.154
448.26	41.068
448.61	40.249
448.96	41.085
449.31	41.282
449.66	41.024
450.02	40.836
450.37	39.683
450.72	40.835
451.07	40.098
451.42	39.453
451.77	41.221
452.12	40.069
452.47	40.485
452.83	40.035
453.18	38.631
453.53	41.868
453.88	40.047
454.23	39.570
454.58	39.976
454.93	41.767
455.28	40.399
455.63	40.231
455.98	40.655
456.34	39.636
456.69	40.827
457.04	40.681
457.39	39.275
457.74	39.814
458.09	39.505
458.44	39.168
458.79	38.829
459.14	38.318
459.49	39.405
459.84	39.224
460.19	38.303
460.54	38.368
460.89	38.892
461.24	39.284
461.59	39.686
461.94	38.841
462.29	39.169
462.64	38.609
462.99	38.256
463.34	39.400
463.69	38.899
464.04	38.203
464.39	37.971
464.74	37.908
465.09	38.359
465.44	37.618
465.79	37.360
466.14	36.672
466.49	36.374
466.84	36.894
467.19	36.814
467.54	37.938
467.89	38.776
468.24	36.358
468.59	38.645
468.94	36.652
469.29	38.496
469.64	37.617
469.99	38.024
470.34	37.186
470.68	37.716
471.03	37.687
471.38	39.194
471.73	37.508
472.08	38.355
472.43	36.621
472.78	38.512
473.13	36.072
473.48	36.704
473.83	36.402
474.17	36.590
474.52	36.911
474.87	36.953
475.22	36.100
475.57	35.411
475.92	35.847
476.27	35.795
476.61	35.576
476.96	35.734
477.31	35.374
477.66	37.144
478.01	35.860
478.36	35.854
478.70	35.047
479.05	35.570
479.40	35.517
479.75	35.079
480.10	34.841
480.45	35.126
480.79	34.448
481.14	34.834
481.49	35.074
481.84	33.973
482.19	34.303
482.53	34.266
482.88	34.667
483.23	35.374
483.58	34.531
483.92	33.880
484.27	33.508
484.62	33.966
484.97	33.228
485.31	32.945
485.66	31.686
486.01	30.287
486.36	29.407
486.70	28.917
487.05	30.740
487.40	30.516
487.75	30.860
488.09	31.362
488.44	31.521
488.79	32.839
489.13	33.270
489.48	32.545
489.83	32.456
490.17	34.020
490.52	32.817
490.87	32.655
491.22	33.652
491.56	32.301
491.91	32.713
492.26	32.154
492.60	32.350
492.95	31.946
493.30	32.336
493.64	32.991
493.99	31.848
494.34	33.025
494.68	32.601
495.03	32.425
495.37	32.341
495.72	32.456
496.07	32.854
496.41	30.664
496.76	31.926
497.11	31.292
497.45	31.812
497.80	31.382
498.14	32.077
498.49	32.634
498.84	31.352
499.18	31.714
499.53	31.624
499.87	31.221
500.22	31.795
500.56	33.301
500.91	31.106
501.26	30.820
501.60	31.846
501.95	30.522
502.29	31.912
502.64	31.006
502.98	31.978
503.33	31.216
503.67	30.998
504.02	30.496
504.36	30.838
504.71	31.119
505.06	30.120
505.40	30.919
505.75	30.376
506.09	29.592
506.44	32.067
506.78	31.417
507.13	31.550
507.47	30.859
507.82	30.800
508.16	31.155
508.51	31.659
508.85	30.089
509.19	30.408
509.54	31.786
509.88	30.036
510.23	30.231
510.57	31.424
510.92	30.761
511.26	29.702
511.61	30.135
511.95	29.958
512.30	30.965
512.64	30.951
512.98	30.815
513.33	30.032
513.67	29.669
514.02	30.141
514.36	31.021
514.70	29.718
515.05	30.229
515.39	30.510
515.74	30.293
516.08	31.638
516.42	30.855
516.77	30.936
517.11	29.967
517.46	30.587
517.80	30.952
518.14	29.936
518.49	30.105
518.83	30.114
519.17	30.485
519.52	29.711
519.86	30.291
520.20	29.942
520.55	30.940
520.89	31.022
521.23	31.484
521.58	30.072
521.92	31.292
522.26	30.262
522.61	30.654
522.95	30.018
523.29	30.067
523.64	30.671
523.98	30.992
524.32	29.855
524.66	30.186
525.01	29.718
525.35	29.430
525.69	29.926
526.04	30.218
526.38	31.300
526.72	29.877
527.06	29.692
527.41	29.146
527.75	30.161
528.09	29.801
528.43	30.210
528.78	29.441
529.12	29.091
529.46	29.945
529.80	29.950
530.15	29.782
530.49	29.415
530.83	29.241
531.17	30.157
531.51	30.934
531.86	30.258
532.20	29.726
532.54	29.853
532.88	29.718
533.22	29.232
533.57	29.877
533.91	29.139
534.25	28.493
534.59	28.554
534.93	29.090
535.27	29.330
535.62	28.877
535.96	29.253
536.30	29.307
536.64	29.878
536.98	29.529
537.32	27.650
537.66	29.267
538.01	29.954
538.35	28.765
538.69	28.973
539.03	27.875
539.37	28.243
539.71	28.192
540.05	29.608
540.39	28.904
540.73	28.590
541.07	28.748
541.42	29.159
541.76	28.129
542.10	28.978
542.44	29.272
542.78	28.458
543.12	27.191
543.46	28.131
543.80	29.343
544.14	27.599
544.48	27.810
544.82	27.518
545.16	28.302
545.50	27.442
545.84	27.957
546.18	28.081
546.52	28.630
546.86	28.247
547.20	29.198
547.54	28.724
547.88	28.571
548.22	27.273
548.56	26.918
548.90	27.017
549.24	27.138
549.58	28.240
549.92	29.121
550.26	28.338
550.60	28.492
550.94	27.324
551.28	27.579
551.62	28.469
551.96	28.000
552.30	28.464
552.64	27.857
552.98	28.339
553.32	27.579
553.66	28.153
554.00	27.728
554.34	28.019
554.68	28.326
555.02	28.279
555.36	27.766
555.69	26.387
556.03	27.995
556.37	26.535
556.71	27.558
557.05	28.571
557.39	28.062
557.73	27.594
558.07	28.571
558.41	27.858
558.75	28.068
559.08	29.083
559.42	28.042
559.76	27.059
560.10	26.909
560.44	27.044
560.78	25.948
561.12	27.375
561.45	27.249
561.79	26.500
562.13	26.761
562.47	27.527
562.81	27.685
563.15	27.224
563.48	26.592
563.82	27.136
564.16	26.750
564.50	26.497
564.84	26.549
565.17	26.577
565.51	26.518
565.85	26.459
566.19	25.235
566.52	26.662
566.86	26.160
567.20	26.828
567.54	25.685
567.88	25.258
568.21	25.767
568.55	24.975
568.89	25.049
569.23	24.599
569.56	24.211
569.90	24.038
570.24	23.430
570.57	22.611
570.91	22.721
571.25	22.390
571.59	22.327
571.92	22.408
572.26	22.241
572.60	22.733
572.93	22.819
573.27	23.100
573.61	22.585
573.95	22.145
574.28	21.658
574.62	21.914
574.96	21.362
575.29	21.726
575.63	22.205
575.97	22.234
576.30	21.853
576.64	21.986
576.98	21.415
577.31	21.673
577.65	21.260
577.98	21.130
578.32	21.009
578.66	21.426
578.99	21.342
579.33	21.375
579.67	20.871
580.00	21.266
580.34	21.927
580.67	21.532
581.01	21.453
581.35	21.109
581.68	20.736
582.02	20.500
582.35	20.868
582.69	20.618
583.02	20.799
583.36	21.789
583.70	21.603
584.03	21.499
584.37	21.765
584.70	21.212
585.04	21.918
585.37	21.202
585.71	21.405
586.04	20.899
586.38	21.578
586.72	21.845
587.05	21.462
587.39	21.319
587.72	21.567
588.06	21.131
588.39	21.838
588.73	21.825
589.06	22.530
589.40	22.357
589.73	22.351
590.07	22.206
590.40	22.068
590.73	22.951
591.07	22.914
591.40	22.691
591.74	23.593
592.07	22.993
592.41	22.489
592.74	22.172
593.08	21.985
593.41	21.923
593.75	21.174
594.08	21.723
594.41	21.527
594.75	21.664
595.08	21.976
595.42	21.856
595.75	21.688
596.09	22.719
596.42	22.593
596.75	22.710
597.09	23.074
597.42	22.007
597.75	22.596
598.09	23.130
598.42	22.466
598.76	21.565
599.09	21.589
599.42	21.215
599.76	22.401
600.09	21.676
600.42	21.476
600.76	21.750
601.09	21.639
601.42	21.956
601.76	21.480
602.09	21.858
602.42	22.014
602.76	22.451
603.09	22.502
603.42	22.725
603.76	21.875
604.09	21.753
604.42	21.851
604.76	22.649
605.09	22.674
605.42	21.505
605.75	21.813
606.09	21.309
606.42	21.823
606.75	21.443
607.09	22.771
607.42	21.908
607.75	21.561
608.08	22.145
608.42	22.636
608.75	22.362
609.08	21.924
609.41	22.465
609.75	22.201
610.08	22.526
610.41	22.439
610.74	22.375
611.07	23.320
611.41	23.356
611.74	23.027
612.07	23.551
612.40	23.347
612.73	23.105
613.07	23.330
613.40	22.696
613.73	22.811
614.06	22.849
614.39	23.020
614.72	23.158
615.06	23.004
615.39	22.505
615.72	23.057
616.05	22.488
616.38	22.957
616.71	23.575
617.05	23.969
617.38	23.331
617.71	23.303
618.04	23.197
618.37	23.182
618.70	23.211
619.03	24.868
619.36	23.897
619.69	23.732
620.03	23.764
620.36	24.733
620.69	24.932
621.02	25.147
621.35	23.649
621.68	24.377
622.01	25.000
622.34	24.735
622.67	24.487
623.00	23.991
623.33	25.018
623.66	23.660
623.99	24.890
624.32	24.679
624.65	24.153
624.99	23.654
625.32	23.316
625.65	23.817
625.98	25.826
626.31	25.816
626.64	26.041
626.97	25.021
627.30	24.855
627.63	25.841
627.96	26.241
628.29	25.634
628.62	27.081
628.95	28.208
629.28	26.369
629.61	26.306
629.94	25.810
630.26	26.120
630.59	24.881
