SpectraSuite Data File
++++++++++++++++++++++++++++++++++++
Date: Tue May 12 19:37:42 PDT 2015
User: schluterlab
Dark Spectrum Present: Yes
Reference Spectrum Present: Yes
Number of Sampled Component Spectra: 1
Spectrometers: USB2E3373
Integration Time (usec): 3000 (USB2E3373)
Spectra Averaged: 3 (USB2E3373)
Boxcar Smoothing: 0 (USB2E3373)
Correct for Electrical Dark: No (USB2E3373)
Strobe/Lamp Enabled: No (USB2E3373)
Correct for Detector Non-linearity: No (USB2E3373)
Correct for Stray Light: No (USB2E3373)
Number of Pixels in Processed Spectrum: 2048
>>>>>Begin Processed Spectral Data<<<<<
178.53	0.000
178.91	-170.000
179.29	-116.667
179.67	200.000
180.04	0.000
180.42	-20.000
180.80	-500.000
181.18	300.000
181.56	50.000
181.94	200.000
182.31	600.000
182.69	-14.286
183.07	0.000
183.45	225.000
183.83	80.000
184.20	116.667
184.58	400.000
184.96	216.667
185.34	-333.333
185.72	-28.571
186.09	-233.333
186.47	-1600.000
186.85	20.000
187.23	158.333
187.61	-42.857
187.98	-80.000
188.36	-50.000
188.74	50.000
189.12	11.111
189.49	-100.000
189.87	350.000
190.25	122.222
190.63	733.333
191.00	280.000
191.38	-333.333
191.76	160.000
192.14	0.000
192.51	-40.000
192.89	40.000
193.27	-140.000
193.65	-100.000
194.02	-50.000
194.40	1000.000
194.78	-175.000
195.15	-242.857
195.53	300.000
195.91	240.000
196.29	-400.000
196.66	-366.667
197.04	-128.571
197.42	140.000
197.79	-162.500
198.17	-50.000
198.55	-700.000
198.92	-155.556
199.30	300.000
199.68	-75.000
200.05	-1200.000
200.43	0.000
200.81	-50.000
201.18	216.667
201.56	-600.000
201.94	-1100.000
202.31	-33.333
202.69	0.000
203.07	-75.000
203.44	-425.000
203.82	0.000
204.19	237.500
204.57	-133.333
204.95	145.455
205.32	380.000
205.70	550.000
206.08	-500.000
206.45	60.000
206.83	1500.000
207.20	-155.556
207.58	46.154
207.96	300.000
208.33	700.000
208.71	666.667
209.08	-0.000
209.46	111.111
209.84	366.667
210.21	-600.000
210.59	-200.000
210.96	155.556
211.34	-275.000
211.71	1000.000
212.09	140.000
212.46	-212.500
212.84	-137.500
213.22	71.429
213.59	-175.000
213.97	0.000
214.34	0.000
214.72	-700.000
215.09	400.000
215.47	-40.000
215.84	0.000
216.22	-1000.000
216.59	700.000
216.97	-25.000
217.34	-16.667
217.72	-11.111
218.09	250.000
218.47	-42.105
218.84	-87.500
219.22	-21.429
219.59	-90.000
219.97	70.000
220.34	166.667
220.72	54.545
221.09	-850.000
221.47	0.000
221.84	750.000
222.22	-250.000
222.59	-325.000
222.97	30.435
223.34	126.667
223.72	342.857
224.09	-66.667
224.46	107.692
224.84	6.667
225.21	-250.000
225.59	-200.000
225.96	45.000
226.34	333.333
226.71	190.000
227.08	-30.769
227.46	14.286
227.83	16.667
228.21	50.000
228.58	50.000
228.95	-5.263
229.33	31.250
229.70	-200.000
230.08	33.333
230.45	-666.667
230.82	-500.000
231.20	4.762
231.57	-40.000
231.95	-500.000
232.32	77.778
232.69	-900.000
233.07	50.000
233.44	50.000
233.81	25.806
234.19	-100.000
234.56	-38.889
234.93	66.667
235.31	14.815
235.68	-22.222
236.05	-7.692
236.43	-78.947
236.80	-22.727
237.17	-78.571
237.55	-50.000
237.92	16.279
238.29	-3.226
238.67	-14.286
239.04	14.286
239.41	31.373
239.79	30.000
240.16	7.500
240.53	5.172
240.91	12.329
241.28	-4.225
241.65	17.187
242.02	-5.263
242.40	8.000
242.77	14.737
243.14	16.471
243.51	22.581
243.89	6.667
244.26	12.963
244.63	9.184
245.00	8.929
245.38	4.202
245.75	17.797
246.12	7.031
246.49	14.400
246.87	7.377
247.24	9.155
247.61	23.841
247.98	17.978
248.36	19.497
248.73	17.614
249.10	12.778
249.47	15.625
249.84	16.244
250.22	16.667
250.59	15.169
250.96	15.455
251.33	16.509
251.70	12.385
252.08	21.645
252.45	19.184
252.82	12.658
253.19	13.619
253.56	18.039
253.94	17.886
254.31	20.863
254.68	18.750
255.05	21.523
255.42	18.545
255.79	25.828
256.16	19.444
256.54	18.485
256.91	17.949
257.28	19.156
257.65	18.361
258.02	19.219
258.39	18.731
258.76	20.183
259.14	19.412
259.51	21.690
259.88	21.037
260.25	17.614
260.62	17.135
260.99	19.220
261.36	19.253
261.73	20.800
262.10	19.619
262.47	21.212
262.85	20.051
263.22	17.204
263.59	19.035
263.96	19.060
264.33	18.329
264.70	20.885
265.07	17.488
265.44	21.780
265.81	21.687
266.18	19.438
266.55	18.095
266.92	22.768
267.29	19.778
267.66	18.409
268.03	18.280
268.40	22.654
268.77	18.708
269.14	19.538
269.51	17.647
269.88	20.726
270.25	16.667
270.62	19.958
270.99	19.579
271.36	15.673
271.73	18.125
272.10	19.917
272.47	19.200
272.84	19.321
273.21	18.163
273.58	18.776
273.95	18.725
274.32	19.729
274.69	20.352
275.06	20.263
275.43	18.200
275.80	19.694
276.17	16.008
276.54	21.673
276.91	21.305
277.28	21.663
277.65	17.958
278.02	19.886
278.39	20.508
278.76	21.601
279.13	19.320
279.50	19.134
279.87	19.057
280.23	20.219
280.60	17.845
280.97	19.684
281.34	19.153
281.71	15.631
282.08	19.141
282.45	17.813
282.82	17.003
283.19	18.855
283.56	18.430
283.92	19.115
284.29	20.474
284.66	18.938
285.03	16.981
285.40	19.667
285.77	18.227
286.14	19.017
286.51	16.720
286.87	19.449
287.24	16.827
287.61	18.210
287.98	19.562
288.35	17.209
288.72	17.278
289.08	19.969
289.45	17.005
289.82	17.236
290.19	17.576
290.56	17.656
290.93	18.316
291.29	17.730
291.66	18.539
292.03	19.225
292.40	17.554
292.77	16.910
293.13	15.272
293.50	17.218
293.87	16.227
294.24	15.169
294.60	18.443
294.97	14.127
295.34	16.164
295.71	16.366
296.08	13.251
296.44	15.283
296.81	14.360
297.18	16.171
297.55	13.819
297.91	15.355
298.28	15.601
298.65	13.454
299.02	17.139
299.38	14.541
299.75	14.801
300.12	14.388
300.48	15.728
300.85	15.526
301.22	14.663
301.59	13.260
301.95	14.512
302.32	14.459
302.69	12.723
303.05	13.459
303.42	15.217
303.79	12.921
304.15	14.270
304.52	14.525
304.89	13.754
305.25	14.564
305.62	14.545
305.99	13.326
306.35	13.647
306.72	15.904
307.09	13.711
307.45	14.347
307.82	13.447
308.19	13.751
308.55	13.608
308.92	13.453
309.29	13.912
309.65	15.377
310.02	14.570
310.38	13.433
310.75	13.012
311.12	13.428
311.48	14.491
311.85	12.563
312.22	14.463
312.58	13.998
312.95	15.195
313.31	13.569
313.68	14.499
314.05	14.896
314.41	13.360
314.78	14.070
315.14	13.614
315.51	14.300
315.87	14.063
316.24	14.936
316.61	14.466
316.97	13.431
317.34	13.301
317.70	13.819
318.07	13.211
318.43	13.611
318.80	13.024
319.16	13.514
319.53	14.906
319.89	13.920
320.26	14.749
320.62	13.372
320.99	14.184
321.35	13.241
321.72	13.939
322.08	15.050
322.45	15.089
322.81	15.172
323.18	14.286
323.54	15.071
323.91	13.947
324.27	14.272
324.64	12.371
325.00	14.195
325.37	14.838
325.73	13.595
326.10	13.310
326.46	14.506
326.83	14.160
327.19	14.760
327.56	15.208
327.92	13.628
328.29	15.681
328.65	14.878
329.01	14.862
329.38	14.784
329.74	15.227
330.11	12.209
330.47	13.780
330.84	14.192
331.20	14.418
331.56	13.585
331.93	13.449
332.29	14.061
332.66	15.461
333.02	14.578
333.38	15.625
333.75	13.815
334.11	14.919
334.48	13.864
334.84	13.803
335.20	12.892
335.57	14.623
335.93	14.512
336.29	14.442
336.66	14.663
337.02	13.599
337.38	14.623
337.75	14.182
338.11	15.314
338.47	13.928
338.84	14.457
339.20	14.207
339.56	14.166
339.93	14.054
340.29	13.781
340.65	14.247
341.02	13.906
341.38	15.446
341.74	15.125
342.11	13.351
342.47	14.685
342.83	13.877
343.20	13.263
343.56	14.336
343.92	13.473
344.28	13.979
344.65	14.127
345.01	13.850
345.37	13.590
345.73	13.609
346.10	14.693
346.46	11.562
346.82	12.914
347.19	13.625
347.55	14.286
347.91	12.776
348.27	11.710
348.63	14.002
349.00	15.109
349.36	14.180
349.72	13.465
350.08	14.894
350.45	13.588
350.81	13.543
351.17	12.932
351.53	13.285
351.89	12.608
352.26	13.008
352.62	12.837
352.98	13.389
353.34	13.617
353.70	12.922
354.07	14.250
354.43	12.771
354.79	12.869
355.15	12.914
355.51	14.670
355.87	14.238
356.24	13.807
356.60	12.604
356.96	13.902
357.32	12.757
357.68	13.604
358.04	12.885
358.40	14.730
358.77	13.173
359.13	13.735
359.49	12.400
359.85	13.110
360.21	12.213
360.57	13.078
360.93	13.143
361.29	12.383
361.66	12.618
362.02	13.658
362.38	13.908
362.74	13.221
363.10	13.122
363.46	13.469
363.82	12.787
364.18	12.945
364.54	12.595
364.90	13.185
365.26	12.519
365.62	12.415
365.98	12.969
366.35	13.011
366.71	13.144
367.07	12.841
367.43	12.491
367.79	13.663
368.15	13.195
368.51	13.333
368.87	12.775
369.23	12.869
369.59	12.279
369.95	12.072
370.31	13.258
370.67	13.534
371.03	13.777
371.39	12.689
371.75	12.333
372.11	12.667
372.47	12.249
372.83	12.783
373.19	12.952
373.55	13.024
373.91	12.197
374.27	13.687
374.63	13.402
374.99	12.152
375.35	12.554
375.71	12.267
376.07	13.498
376.42	13.209
376.78	11.777
377.14	12.640
377.50	13.885
377.86	13.440
378.22	13.276
378.58	12.829
378.94	12.836
379.30	12.741
379.66	12.676
380.02	12.715
380.38	12.850
380.74	12.803
381.09	12.834
381.45	12.190
381.81	13.010
382.17	14.463
382.53	13.215
382.89	12.893
383.25	12.429
383.61	12.015
383.97	12.801
384.32	12.645
384.68	13.218
385.04	12.540
385.40	12.716
385.76	13.599
386.12	12.607
386.48	12.329
386.83	12.179
387.19	13.410
387.55	12.241
387.91	11.776
388.27	12.988
388.62	12.824
388.98	13.168
389.34	11.971
389.70	13.269
390.06	13.201
390.42	12.306
390.77	12.274
391.13	12.362
391.49	12.668
391.85	13.373
392.20	12.805
392.56	11.853
392.92	13.111
393.28	12.507
393.64	11.590
393.99	11.688
394.35	11.486
394.71	11.788
395.07	11.737
395.42	11.683
395.78	11.895
396.14	11.925
396.50	12.807
396.85	12.360
397.21	12.549
397.57	12.113
397.92	12.977
398.28	13.010
398.64	12.063
399.00	12.478
399.35	12.603
399.71	12.216
400.07	13.897
400.42	13.397
400.78	13.372
401.14	12.879
401.49	13.054
401.85	13.778
402.21	13.198
402.57	11.784
402.92	11.952
403.28	12.419
403.63	12.628
403.99	13.012
404.35	11.338
404.70	12.603
405.06	12.833
405.42	12.882
405.77	13.020
406.13	12.664
406.49	12.114
406.84	13.076
407.20	12.949
407.55	12.492
407.91	12.517
408.27	12.633
408.62	12.669
408.98	12.999
409.34	11.652
409.69	12.575
410.05	12.500
410.40	12.396
410.76	12.204
411.11	12.346
411.47	12.721
411.83	12.943
412.18	12.762
412.54	12.354
412.89	11.982
413.25	12.978
413.60	12.883
413.96	12.557
414.31	12.938
414.67	13.302
415.03	11.895
415.38	12.326
415.74	13.499
416.09	13.025
416.45	13.234
416.80	12.726
417.16	12.976
417.51	12.630
417.87	13.748
418.22	12.366
418.58	13.476
418.93	13.411
419.29	12.212
419.64	13.324
420.00	12.901
420.35	13.999
420.71	12.932
421.06	13.368
421.42	13.802
421.77	13.398
422.12	12.995
422.48	12.678
422.83	13.678
423.19	13.235
423.54	12.462
423.90	12.917
424.25	13.112
424.61	12.645
424.96	14.066
425.31	12.862
425.67	13.394
426.02	12.236
426.38	11.647
426.73	13.209
427.09	12.935
427.44	13.210
427.79	14.047
428.15	13.063
428.50	12.940
428.85	13.534
429.21	14.047
429.56	13.094
429.92	12.385
430.27	12.960
430.62	13.359
430.98	13.434
431.33	13.793
431.68	13.512
432.04	13.924
432.39	12.597
432.74	12.966
433.10	13.159
433.45	12.983
433.80	13.631
434.16	13.119
434.51	13.378
434.86	12.749
435.22	13.504
435.57	13.391
435.92	12.260
436.28	12.391
436.63	13.298
436.98	14.074
437.34	13.500
437.69	13.148
438.04	13.041
438.39	13.642
438.75	13.046
439.10	14.821
439.45	13.992
439.81	12.825
440.16	13.420
440.51	12.639
440.86	11.995
441.22	13.282
441.57	12.821
441.92	13.418
442.27	13.371
442.63	13.488
442.98	13.692
443.33	13.631
443.68	13.311
444.03	13.144
444.39	13.535
444.74	12.765
445.09	14.168
445.44	13.178
445.79	13.323
446.15	13.236
446.50	13.765
446.85	13.146
447.20	13.621
447.55	12.624
447.91	13.463
448.26	14.184
448.61	14.018
448.96	13.838
449.31	13.502
449.66	13.257
450.02	13.728
450.37	13.305
450.72	13.824
451.07	13.250
451.42	13.570
451.77	12.547
452.12	13.596
452.47	13.889
452.83	13.200
453.18	13.639
453.53	14.435
453.88	13.146
454.23	14.441
454.58	14.295
454.93	13.079
455.28	13.374
455.63	13.645
455.98	13.959
456.34	13.999
456.69	13.541
457.04	13.976
457.39	14.419
457.74	13.970
458.09	14.001
458.44	14.470
458.79	13.369
459.14	14.192
459.49	14.268
459.84	14.269
460.19	13.759
460.54	13.447
460.89	13.471
461.24	15.000
461.59	14.574
461.94	14.596
462.29	13.659
462.64	14.206
462.99	14.068
463.34	14.212
463.69	14.540
464.04	13.791
464.39	13.955
464.74	13.692
465.09	14.984
465.44	13.917
465.79	13.418
466.14	13.663
466.49	14.337
466.84	13.575
467.19	15.205
467.54	13.594
467.89	14.566
468.24	13.384
468.59	14.463
468.94	13.248
469.29	14.533
469.64	14.442
469.99	13.987
470.34	13.720
470.68	13.769
471.03	14.088
471.38	14.136
471.73	14.608
472.08	14.662
472.43	15.491
472.78	13.851
473.13	14.737
473.48	14.730
473.83	13.672
474.17	14.610
474.52	14.668
474.87	15.720
475.22	15.693
475.57	14.512
475.92	14.156
476.27	15.009
476.61	15.012
476.96	14.819
477.31	15.011
477.66	15.049
478.01	13.891
478.36	14.441
478.70	14.817
479.05	14.626
479.40	14.262
479.75	14.807
480.10	15.043
480.45	15.393
480.79	14.946
481.14	14.760
481.49	14.344
481.84	14.141
482.19	14.049
482.53	14.951
482.88	14.692
483.23	14.623
483.58	15.050
483.92	15.327
484.27	14.956
484.62	16.030
484.97	14.719
485.31	14.230
485.66	13.846
486.01	13.792
486.36	13.420
486.70	13.582
487.05	14.010
487.40	13.884
487.75	13.856
488.09	13.283
488.44	14.074
488.79	14.373
489.13	15.087
489.48	15.150
489.83	15.210
490.17	15.612
490.52	14.627
490.87	15.381
491.22	15.138
491.56	15.563
491.91	15.412
492.26	15.502
492.60	15.969
492.95	15.092
493.30	15.578
493.64	15.264
493.99	16.119
494.34	15.155
494.68	14.668
495.03	15.010
495.37	15.763
495.72	15.401
496.07	15.213
496.41	15.366
496.76	15.234
497.11	15.608
497.45	16.374
497.80	16.096
498.14	15.470
498.49	15.910
498.84	15.461
499.18	15.516
499.53	15.940
499.87	15.515
500.22	15.481
500.56	15.908
500.91	16.623
501.26	15.801
501.60	16.259
501.95	16.018
502.29	15.239
502.64	15.182
502.98	15.598
503.33	15.277
503.67	15.875
504.02	16.752
504.36	15.562
504.71	15.266
505.06	15.908
505.40	16.783
505.75	15.850
506.09	15.980
506.44	16.255
506.78	15.203
507.13	15.147
507.47	16.177
507.82	16.071
508.16	15.702
508.51	16.794
508.85	15.824
509.19	15.634
509.54	16.374
509.88	15.650
510.23	16.685
510.57	16.014
510.92	16.553
511.26	15.681
511.61	16.781
511.95	16.831
512.30	16.812
512.64	16.716
512.98	16.361
513.33	15.475
513.67	16.347
514.02	17.127
514.36	17.438
514.70	16.454
515.05	17.744
515.39	18.130
515.74	16.980
516.08	16.196
516.42	17.464
516.77	17.267
517.11	16.514
517.46	17.239
517.80	17.167
518.14	17.774
518.49	18.111
518.83	17.380
519.17	17.609
519.52	18.301
519.86	17.479
520.20	17.389
520.55	17.689
520.89	18.489
521.23	17.234
521.58	18.254
521.92	17.757
522.26	18.557
522.61	18.020
522.95	18.082
523.29	17.476
523.64	17.707
523.98	19.086
524.32	18.451
524.66	17.879
525.01	18.351
525.35	18.399
525.69	18.445
526.04	17.970
526.38	18.300
526.72	18.542
527.06	17.862
527.41	17.364
527.75	18.162
528.09	18.246
528.43	18.710
528.78	18.169
529.12	18.288
529.46	17.940
529.80	18.039
530.15	18.416
530.49	18.689
530.83	17.643
531.17	18.432
531.51	18.273
531.86	18.627
532.20	18.254
532.54	19.281
532.88	17.527
533.22	17.960
533.57	18.483
533.91	17.963
534.25	17.923
534.59	18.707
534.93	16.991
535.27	17.980
535.62	17.151
535.96	18.562
536.30	17.815
536.64	17.454
536.98	19.690
537.32	19.048
537.66	18.402
538.01	17.231
538.35	18.327
538.69	17.197
539.03	18.529
539.37	18.449
539.71	19.348
540.05	18.234
540.39	18.446
540.73	18.388
541.07	19.118
541.42	17.819
541.76	17.842
542.10	18.149
542.44	18.208
542.78	18.109
543.12	17.256
543.46	19.225
543.80	18.156
544.14	18.853
544.48	18.246
544.82	18.524
545.16	18.696
545.50	19.141
545.84	19.020
546.18	18.652
546.52	18.524
546.86	18.363
547.20	18.561
547.54	17.892
547.88	18.803
548.22	18.917
548.56	18.041
548.90	19.368
549.24	19.152
549.58	19.821
549.92	18.571
550.26	19.537
550.60	19.112
550.94	19.206
551.28	18.293
551.62	19.247
551.96	19.169
552.30	18.450
552.64	18.482
552.98	19.539
553.32	18.485
553.66	18.589
554.00	19.305
554.34	19.219
554.68	18.979
555.02	18.254
555.36	19.380
555.69	18.447
556.03	18.477
556.37	19.430
556.71	18.778
557.05	18.828
557.39	19.438
557.73	19.654
558.07	18.388
558.41	18.755
558.75	20.332
559.08	21.532
559.42	18.562
559.76	20.388
560.10	19.560
560.44	18.211
560.78	18.407
561.12	17.881
561.45	18.676
561.79	18.796
562.13	19.644
562.47	19.495
562.81	19.333
563.15	17.567
563.48	17.453
563.82	18.413
564.16	16.836
564.50	17.837
564.84	19.773
565.17	18.598
565.51	19.282
565.85	18.732
566.19	18.650
566.52	19.283
566.86	19.057
567.20	18.297
567.54	17.869
567.88	17.476
568.21	18.347
568.55	17.714
568.89	16.868
569.23	17.219
569.56	17.103
569.90	17.216
570.24	16.588
570.57	16.328
570.91	16.667
571.25	16.426
571.59	15.902
571.92	15.504
572.26	15.242
572.60	15.555
572.93	16.045
573.27	15.542
573.61	15.846
573.95	15.502
574.28	15.283
574.62	15.050
574.96	15.254
575.29	15.488
575.63	15.292
575.97	14.894
576.30	15.732
576.64	15.601
576.98	14.777
577.31	15.799
577.65	15.073
577.98	15.056
578.32	15.083
578.66	14.796
578.99	15.283
579.33	14.958
579.67	15.728
580.00	15.343
580.34	15.684
580.67	15.183
581.01	15.417
581.35	15.148
581.68	15.185
582.02	14.489
582.35	14.928
582.69	15.316
583.02	14.976
583.36	14.797
583.70	15.429
584.03	15.248
584.37	15.786
584.70	15.376
585.04	15.182
585.37	14.490
585.71	15.081
586.04	15.536
586.38	15.800
586.72	15.926
587.05	16.090
587.39	15.906
587.72	15.310
588.06	15.699
588.39	15.191
588.73	15.709
589.06	15.947
589.40	16.508
589.73	15.931
590.07	15.989
590.40	15.975
590.73	16.368
591.07	16.364
591.40	16.217
591.74	16.791
592.07	16.953
592.41	16.917
592.74	16.873
593.08	16.191
593.41	15.564
593.75	16.077
594.08	16.518
594.41	16.353
594.75	16.445
595.08	16.206
595.42	16.072
595.75	16.136
596.09	16.613
596.42	16.364
596.75	17.591
597.09	16.371
597.42	16.753
597.75	17.355
598.09	16.573
598.42	16.564
598.76	16.439
599.09	16.513
599.42	16.326
599.76	16.124
600.09	16.370
600.42	15.469
600.76	16.667
601.09	15.922
601.42	16.304
601.76	16.315
602.09	16.967
602.42	16.717
602.76	16.187
603.09	17.015
603.42	16.482
603.76	15.695
604.09	15.998
604.42	16.874
604.76	17.161
605.09	16.722
605.42	16.919
605.75	16.629
606.09	16.711
606.42	16.535
606.75	16.607
607.09	17.397
607.42	17.026
607.75	16.529
608.08	16.511
608.42	16.537
608.75	16.758
609.08	16.406
609.41	17.107
609.75	17.378
610.08	16.486
610.41	17.048
610.74	17.492
611.07	16.446
611.41	16.649
611.74	17.465
612.07	17.299
612.40	17.939
612.73	17.245
613.07	17.264
613.40	17.366
613.73	16.667
614.06	17.272
614.39	17.750
614.72	17.355
615.06	17.623
615.39	17.263
615.72	17.693
616.05	16.522
616.38	17.378
616.71	17.289
617.05	17.399
617.38	17.871
617.71	17.636
618.04	18.265
618.37	17.789
618.70	17.799
619.03	18.057
619.36	18.851
619.69	18.118
620.03	19.069
620.36	18.443
620.69	17.664
621.02	18.448
621.35	18.638
621.68	19.442
622.01	20.232
622.34	19.598
622.67	19.562
623.00	18.837
623.33	19.134
623.66	20.319
623.99	18.581
624.32	18.507
624.65	18.672
624.99	18.359
625.32	18.404
625.65	18.014
625.98	20.750
626.31	19.481
626.64	20.090
626.97	19.669
627.30	20.648
627.63	20.558
627.96	19.739
628.29	19.981
628.62	20.206
628.95	21.119
629.28	20.558
629.61	19.958
629.94	20.332
630.26	21.025
630.59	20.524
630.92	19.283
631.25	21.788
631.58	20.233
631.91	20.501
632.24	20.947
632.57	22.949
632.90	24.108
633.23	23.613
