SpectraSuite Data File
++++++++++++++++++++++++++++++++++++
Date: Wed May 13 19:45:10 PDT 2015
User: schluterlab
Dark Spectrum Present: Yes
Reference Spectrum Present: Yes
Number of Sampled Component Spectra: 1
Spectrometers: USB2E3373
Integration Time (usec): 3000 (USB2E3373)
Spectra Averaged: 3 (USB2E3373)
Boxcar Smoothing: 0 (USB2E3373)
Correct for Electrical Dark: No (USB2E3373)
Strobe/Lamp Enabled: No (USB2E3373)
Correct for Detector Non-linearity: No (USB2E3373)
Correct for Stray Light: No (USB2E3373)
Number of Pixels in Processed Spectrum: 2048
>>>>>Begin Processed Spectral Data<<<<<
178.53	0.000
178.91	-1600.000
179.29	-1225.000
179.67	-277.778
180.04	-1150.000
180.42	2500.000
180.80	1120.000
181.18	-1225.000
181.56	728.571
181.94	0.000
182.31	-657.143
182.69	1933.333
183.07	-575.000
183.45	-522.222
183.83	490.909
184.20	-420.000
184.58	2450.000
184.96	5300.000
185.34	-940.000
185.72	-625.000
186.09	-2550.000
186.47	2850.000
186.85	2450.000
187.23	4600.000
187.61	-1800.000
187.98	1575.000
188.36	572.727
188.74	445.455
189.12	-1080.000
189.49	550.000
189.87	-5000.000
190.25	-1250.000
190.63	385.714
191.00	384.615
191.38	800.000
191.76	-1150.000
192.14	1325.000
192.51	587.500
192.89	983.333
193.27	637.500
193.65	-1125.000
194.02	440.000
194.40	960.000
194.78	560.000
195.15	483.333
195.53	660.000
195.91	-2400.000
196.29	300.000
196.66	305.263
197.04	-410.000
197.42	0.000
197.79	620.000
198.17	-4600.000
198.55	571.429
198.92	737.500
199.30	960.000
199.68	0.000
200.05	305.556
200.43	857.143
200.81	3900.000
201.18	1766.667
201.56	-1733.333
201.94	644.444
202.31	600.000
202.69	416.667
203.07	620.000
203.44	0.000
203.82	1075.000
204.19	700.000
204.57	471.429
204.95	575.000
205.32	1566.667
205.70	472.727
206.08	435.714
206.45	2200.000
206.83	325.000
207.20	1000.000
207.58	880.000
207.96	305.556
208.33	712.500
208.71	-916.667
209.08	885.714
209.46	555.556
209.84	609.091
210.21	-1600.000
210.59	1600.000
210.96	-375.000
211.34	2650.000
211.71	560.000
212.09	916.667
212.46	0.000
212.84	1900.000
213.22	1450.000
213.59	-4400.000
213.97	816.667
214.34	685.714
214.72	545.455
215.09	1000.000
215.47	-2300.000
215.84	-2300.000
216.22	1833.333
216.59	414.286
216.97	1200.000
217.34	609.091
217.72	-716.667
218.09	0.000
218.47	-4500.000
218.84	600.000
219.22	728.571
219.59	1400.000
219.97	-642.857
220.34	1020.000
220.72	-1866.667
221.09	364.286
221.47	1375.000
221.84	-866.667
222.22	0.000
222.59	1200.000
222.97	-2650.000
223.34	1160.000
223.72	430.769
224.09	1080.000
224.46	2250.000
224.84	-5000.000
225.21	-1040.000
225.59	-4600.000
225.96	570.000
226.34	315.000
226.71	2850.000
227.08	650.000
227.46	550.000
227.83	-1050.000
228.21	-2100.000
228.58	644.444
228.95	-2950.000
229.33	-2400.000
229.70	1566.667
230.08	757.143
230.45	-880.000
230.82	441.667
231.20	883.333
231.57	700.000
231.95	466.667
232.32	277.273
232.69	418.182
233.07	657.143
233.44	400.000
233.81	-1800.000
234.19	247.368
234.56	383.333
234.93	341.667
235.31	518.182
235.68	369.231
236.05	378.571
236.43	187.879
236.80	189.474
237.17	5400.000
237.55	271.429
237.92	207.143
238.29	290.476
238.67	174.194
239.04	200.000
239.41	180.556
239.79	126.087
240.16	147.619
240.53	136.364
240.91	113.725
241.28	106.000
241.65	120.000
242.02	97.101
242.40	103.226
242.77	95.000
243.14	87.097
243.51	92.135
243.89	81.176
244.26	77.778
244.63	80.645
245.00	78.723
245.38	67.327
245.75	67.290
246.12	67.890
246.49	65.693
246.87	68.000
247.24	73.077
247.61	62.143
247.98	59.477
248.36	56.081
248.73	49.045
249.10	64.331
249.47	50.847
249.84	50.802
250.22	48.663
250.59	57.396
250.96	49.495
251.33	48.815
251.70	53.465
252.08	47.619
252.45	42.601
252.82	46.087
253.19	47.660
253.56	44.706
253.94	47.718
254.31	42.187
254.68	44.231
255.05	41.697
255.42	46.748
255.79	43.382
256.16	43.321
256.54	38.869
256.91	43.416
257.28	34.892
257.65	40.264
258.02	40.683
258.39	38.486
258.76	42.140
259.14	41.369
259.51	34.043
259.88	37.578
260.25	37.462
260.62	34.682
260.99	40.994
261.36	36.637
261.73	36.390
262.10	34.884
262.47	37.746
262.85	36.769
263.22	33.333
263.59	38.746
263.96	36.538
264.33	36.292
264.70	37.895
265.07	36.317
265.44	36.111
265.81	34.307
266.18	37.437
266.55	35.122
266.92	31.941
267.29	34.491
267.66	33.716
268.03	35.227
268.40	34.813
268.77	33.413
269.14	33.784
269.51	36.117
269.88	35.897
270.25	34.537
270.62	32.809
270.99	35.269
271.36	33.047
271.73	31.776
272.10	30.217
272.47	35.914
272.84	35.281
273.21	32.914
273.58	34.498
273.95	31.237
274.32	30.165
274.69	32.548
275.06	30.709
275.43	35.319
275.80	32.665
276.17	32.587
276.54	34.096
276.91	31.818
277.28	31.250
277.65	30.174
278.02	33.333
278.39	35.352
278.76	32.727
279.13	32.453
279.50	32.216
279.87	30.478
280.23	34.731
280.60	32.689
280.97	31.608
281.34	30.796
281.71	30.000
282.08	31.478
282.45	30.182
282.82	30.018
283.19	29.412
283.56	31.228
283.92	31.641
284.29	28.748
284.66	31.579
285.03	28.752
285.40	29.401
285.77	28.956
286.14	30.052
286.51	27.667
286.87	31.282
287.24	30.293
287.61	28.732
287.98	30.357
288.35	29.319
288.72	28.505
289.08	27.543
289.45	25.700
289.82	28.943
290.19	25.903
290.56	27.565
290.93	26.284
291.29	27.607
291.66	26.106
292.03	26.163
292.40	28.194
292.77	25.888
293.13	27.164
293.50	26.676
293.87	26.667
294.24	24.444
294.60	26.201
294.97	23.837
295.34	23.695
295.71	25.710
296.08	25.356
296.44	24.622
296.81	23.514
297.18	25.745
297.55	21.768
297.91	21.636
298.28	25.167
298.65	25.196
299.02	24.242
299.38	24.436
299.75	21.968
300.12	23.372
300.48	22.500
300.85	23.181
301.22	22.293
301.59	22.475
301.95	22.670
302.32	22.850
302.69	22.103
303.05	21.818
303.42	23.333
303.79	22.650
304.15	20.629
304.52	19.815
304.89	21.022
305.25	20.998
305.62	20.725
305.99	20.897
306.35	21.253
306.72	23.094
307.09	22.752
307.45	21.509
307.82	20.647
308.19	21.302
308.55	22.114
308.92	20.838
309.29	21.014
309.65	20.785
310.02	21.459
310.38	21.290
310.75	20.697
311.12	20.676
311.48	21.839
311.85	22.537
312.22	21.852
312.58	21.518
312.95	21.859
313.31	20.194
313.68	22.557
314.05	23.669
314.41	22.513
314.78	22.356
315.14	22.840
315.51	22.245
315.87	23.168
316.24	22.046
316.61	22.807
316.97	22.896
317.34	22.994
317.70	23.040
318.07	23.965
318.43	25.734
318.80	25.398
319.16	23.917
319.53	24.578
319.89	27.238
320.26	26.000
320.62	25.794
320.99	27.071
321.35	27.172
321.72	28.029
322.08	29.121
322.45	30.348
322.81	27.810
323.18	30.539
323.54	29.128
323.91	30.189
324.27	30.497
324.64	31.221
325.00	31.109
325.37	32.211
325.73	33.573
326.10	34.157
326.46	33.423
326.83	35.203
327.19	34.757
327.56	35.540
327.92	36.395
328.29	36.202
328.65	37.661
329.01	37.455
329.38	38.853
329.74	37.858
330.11	39.020
330.47	39.118
330.84	39.798
331.20	37.887
331.56	38.991
331.93	39.167
332.29	39.663
332.66	40.885
333.02	39.945
333.38	40.650
333.75	40.107
334.11	38.879
334.48	40.550
334.84	41.176
335.20	41.364
335.57	40.798
335.93	40.268
336.29	40.842
336.66	40.216
337.02	39.367
337.38	40.926
337.75	40.463
338.11	41.182
338.47	41.621
338.84	40.513
339.20	41.101
339.56	41.788
339.93	43.000
340.29	41.214
340.65	41.444
341.02	42.670
341.38	42.527
341.74	41.053
342.11	42.795
342.47	42.996
342.83	42.380
343.20	42.338
343.56	41.533
343.92	41.754
344.28	42.347
344.65	42.734
345.01	41.414
345.37	40.995
345.73	42.555
346.10	42.711
346.46	42.627
346.82	41.845
347.19	42.356
347.55	41.297
347.91	42.961
348.27	41.660
348.63	42.475
349.00	41.181
349.36	43.842
349.72	41.860
350.08	42.869
350.45	43.369
350.81	42.486
351.17	43.598
351.53	42.506
351.89	43.234
352.26	44.594
352.62	42.903
352.98	42.301
353.34	43.057
353.70	42.717
354.07	42.742
354.43	40.714
354.79	41.673
355.15	41.181
355.51	43.885
355.87	43.510
356.24	43.648
356.60	42.662
356.96	43.926
357.32	43.254
357.68	43.150
358.04	41.647
358.40	42.597
358.77	42.801
359.13	42.699
359.49	42.824
359.85	42.222
360.21	42.743
360.57	44.125
360.93	42.692
361.29	42.479
361.66	42.028
362.02	44.627
362.38	43.802
362.74	42.485
363.10	42.635
363.46	43.287
363.82	43.311
364.18	44.126
364.54	42.645
364.90	43.130
365.26	44.779
365.62	44.558
365.98	42.805
366.35	42.550
366.71	44.252
367.07	43.554
367.43	44.702
367.79	44.968
368.15	44.971
368.51	43.532
368.87	44.968
369.23	43.380
369.59	45.257
369.95	43.603
370.31	44.801
370.67	44.493
371.03	46.292
371.39	45.700
371.75	46.324
372.11	43.812
372.47	46.481
372.83	47.406
373.19	45.231
373.55	46.194
373.91	46.686
374.27	44.192
374.63	46.473
374.99	45.975
375.35	44.452
375.71	45.990
376.07	46.639
376.42	46.974
376.78	45.991
377.14	45.658
377.50	46.623
377.86	46.410
378.22	45.828
378.58	44.674
378.94	45.757
379.30	47.074
379.66	47.018
380.02	46.622
380.38	45.234
380.74	48.259
381.09	47.494
381.45	48.801
381.81	47.543
382.17	48.917
382.53	47.799
382.89	47.901
383.25	48.280
383.61	48.327
383.97	48.093
384.32	47.973
384.68	48.203
385.04	47.757
385.40	49.164
385.76	47.789
386.12	48.899
386.48	49.339
386.83	50.417
387.19	49.598
387.55	49.845
387.91	50.060
388.27	48.620
388.62	50.645
388.98	49.570
389.34	50.939
389.70	50.337
390.06	51.204
390.42	51.492
390.77	50.954
391.13	50.734
391.49	51.079
391.85	50.668
392.20	51.861
392.56	49.747
392.92	52.560
393.28	51.302
393.64	52.278
393.99	52.108
394.35	52.357
394.71	51.506
395.07	52.150
395.42	52.905
395.78	52.226
396.14	53.321
396.50	53.258
396.85	53.783
397.21	53.083
397.57	53.131
397.92	54.387
398.28	52.466
398.64	53.524
399.00	53.945
399.35	53.582
399.71	53.935
400.07	55.529
400.42	54.663
400.78	55.187
401.14	54.878
401.49	55.642
401.85	54.446
402.21	53.952
402.57	54.596
402.92	56.936
403.28	56.590
403.63	56.498
403.99	55.924
404.35	57.333
404.70	55.695
405.06	56.843
405.42	57.580
405.77	56.343
406.13	56.490
406.49	56.889
406.84	57.236
407.20	56.678
407.55	57.945
407.91	59.467
408.27	59.732
408.62	58.820
408.98	59.007
409.34	59.102
409.69	59.355
410.05	59.727
410.40	59.511
410.76	59.857
411.11	58.806
411.47	59.105
411.83	60.171
412.18	59.493
412.54	61.955
412.89	59.880
413.25	60.449
413.60	61.272
413.96	60.595
414.31	61.604
414.67	63.054
415.03	62.185
415.38	62.436
415.74	62.379
416.09	61.855
416.45	63.655
416.80	62.260
417.16	64.544
417.51	63.238
417.87	62.749
418.22	64.164
418.58	63.912
418.93	63.022
419.29	63.399
419.64	65.050
420.00	64.024
420.35	63.014
420.71	64.854
421.06	64.379
421.42	63.158
421.77	65.807
422.12	65.244
422.48	62.817
422.83	64.997
423.19	64.254
423.54	64.655
423.90	65.159
424.25	65.271
424.61	64.643
424.96	66.122
425.31	65.006
425.67	63.876
426.02	66.114
426.38	66.484
426.73	65.886
427.09	66.383
427.44	66.417
427.79	66.302
428.15	66.071
428.50	66.296
428.85	66.985
429.21	66.648
429.56	67.652
429.92	66.633
430.27	66.534
430.62	66.718
430.98	66.373
431.33	66.289
431.68	68.168
432.04	65.815
432.39	69.103
432.74	68.582
433.10	67.572
433.45	68.980
433.80	69.124
434.16	68.162
434.51	68.053
434.86	68.415
435.22	69.205
435.57	69.422
435.92	69.631
436.28	70.522
436.63	69.702
436.98	70.349
437.34	69.112
437.69	70.887
438.04	69.983
438.39	69.254
438.75	71.644
439.10	69.944
439.45	70.012
439.81	69.909
440.16	69.509
440.51	69.596
440.86	70.874
441.22	70.801
441.57	70.966
441.92	69.806
442.27	70.667
442.63	69.879
442.98	72.000
443.33	69.837
443.68	69.231
444.03	69.839
444.39	70.789
444.74	69.589
445.09	70.296
445.44	70.749
445.79	70.905
446.15	70.778
446.50	71.675
446.85	70.555
447.20	72.004
447.55	70.631
447.91	70.932
448.26	71.007
448.61	71.114
448.96	71.927
449.31	71.260
449.66	70.456
450.02	70.418
450.37	70.918
450.72	72.194
451.07	72.700
451.42	71.429
451.77	72.225
452.12	71.940
452.47	71.517
452.83	73.077
453.18	71.760
453.53	72.233
453.88	72.652
454.23	71.010
454.58	72.865
454.93	72.791
455.28	70.948
455.63	72.998
455.98	74.762
456.34	72.111
456.69	73.200
457.04	74.118
457.39	72.063
457.74	70.865
458.09	72.168
458.44	72.520
458.79	70.174
459.14	71.388
459.49	71.629
459.84	71.911
460.19	71.420
460.54	70.081
460.89	71.311
461.24	72.010
461.59	72.400
461.94	72.750
462.29	72.582
462.64	72.112
462.99	71.958
463.34	72.133
463.69	71.732
464.04	71.478
464.39	70.957
464.74	72.846
465.09	72.557
465.44	70.637
465.79	71.980
466.14	70.115
466.49	71.468
466.84	72.563
467.19	71.756
467.54	73.250
467.89	72.089
468.24	72.600
468.59	72.833
468.94	70.373
469.29	73.136
469.64	73.427
469.99	74.019
470.34	73.316
470.68	74.713
471.03	73.265
471.38	75.747
471.73	72.085
472.08	73.684
472.43	73.555
472.78	72.745
473.13	72.786
473.48	73.096
473.83	72.012
474.17	71.313
474.52	73.449
474.87	73.438
475.22	73.302
475.57	70.983
475.92	72.119
476.27	72.322
476.61	72.035
476.96	72.237
477.31	71.376
477.66	73.742
478.01	71.249
478.36	72.343
478.70	72.222
479.05	72.630
479.40	72.569
479.75	73.665
480.10	72.515
480.45	71.347
480.79	71.715
481.14	72.309
481.49	72.378
481.84	72.291
482.19	72.194
482.53	70.963
482.88	72.034
483.23	71.963
483.58	70.382
483.92	72.118
484.27	69.673
484.62	71.466
484.97	69.570
485.31	71.644
485.66	69.444
486.01	67.189
486.36	65.759
486.70	65.337
487.05	66.802
487.40	67.518
487.75	67.662
488.09	68.881
488.44	68.546
488.79	69.765
489.13	70.435
489.48	70.636
489.83	71.385
490.17	71.328
490.52	70.815
490.87	71.190
491.22	70.987
491.56	69.567
491.91	71.615
492.26	70.372
492.60	70.691
492.95	71.001
493.30	70.514
493.64	71.955
493.99	71.495
494.34	70.120
494.68	71.429
495.03	71.758
495.37	70.498
495.72	71.491
496.07	72.111
496.41	69.292
496.76	70.844
497.11	70.374
497.45	70.750
497.80	71.161
498.14	71.981
498.49	71.805
498.84	70.997
499.18	72.000
499.53	71.035
499.87	72.041
500.22	69.948
500.56	72.816
500.91	71.010
501.26	72.167
501.60	72.568
501.95	70.211
502.29	71.603
502.64	71.881
502.98	71.529
503.33	70.475
503.67	71.462
504.02	69.972
504.36	70.941
504.71	70.982
505.06	70.217
505.40	71.366
505.75	70.106
506.09	71.331
506.44	73.014
506.78	71.018
507.13	72.590
507.47	71.212
507.82	72.492
508.16	71.884
508.51	72.349
508.85	72.195
509.19	72.908
509.54	71.122
509.88	71.716
510.23	71.517
510.57	73.942
510.92	72.967
511.26	71.069
511.61	71.784
511.95	71.764
512.30	71.898
512.64	72.112
512.98	72.937
513.33	72.056
513.67	71.238
514.02	71.916
514.36	73.785
514.70	71.444
515.05	73.731
515.39	73.920
515.74	72.804
516.08	72.666
516.42	73.474
516.77	74.916
517.11	73.252
517.46	73.702
517.80	73.926
518.14	73.480
518.49	75.379
518.83	73.409
519.17	73.961
519.52	73.345
519.86	74.672
520.20	73.931
520.55	75.583
520.89	75.791
521.23	75.573
521.58	74.550
521.92	74.158
522.26	72.971
522.61	74.579
522.95	73.972
523.29	76.202
523.64	74.634
523.98	76.833
524.32	74.789
524.66	75.286
525.01	74.510
525.35	75.031
525.69	74.200
526.04	75.327
526.38	74.924
526.72	73.742
527.06	76.208
527.41	73.700
527.75	76.977
528.09	77.071
528.43	76.864
528.78	74.862
529.12	74.485
529.46	75.566
529.80	75.433
530.15	74.891
530.49	73.415
530.83	76.076
531.17	77.219
531.51	77.626
531.86	76.129
532.20	76.662
532.54	75.657
532.88	76.059
533.22	75.078
533.57	75.802
533.91	73.931
534.25	75.395
534.59	75.595
534.93	74.836
535.27	74.955
535.62	75.031
535.96	76.146
536.30	76.287
536.64	76.175
536.98	76.709
537.32	76.498
537.66	76.933
538.01	77.288
538.35	75.889
538.69	76.133
539.03	77.583
539.37	76.741
539.71	75.113
540.05	77.190
540.39	76.944
540.73	77.167
541.07	76.768
541.42	77.691
541.76	78.774
542.10	76.973
542.44	77.616
542.78	78.458
543.12	75.240
543.46	77.705
543.80	77.814
544.14	75.546
544.48	76.444
544.82	76.203
545.16	78.074
545.50	75.643
545.84	76.613
546.18	78.182
546.52	78.527
546.86	80.137
547.20	78.894
547.54	77.956
547.88	77.551
548.22	76.152
548.56	77.170
548.90	76.248
549.24	77.239
549.58	78.786
549.92	77.473
550.26	80.966
550.60	77.109
550.94	78.310
551.28	79.151
551.62	80.590
551.96	78.386
552.30	78.840
552.64	77.755
552.98	77.898
553.32	78.152
553.66	79.482
554.00	79.410
554.34	76.881
554.68	80.186
555.02	77.927
555.36	79.054
555.69	77.199
556.03	77.658
556.37	79.400
556.71	77.422
557.05	78.291
557.39	77.397
557.73	79.817
558.07	80.131
558.41	80.391
558.75	79.647
559.08	79.344
559.42	81.935
559.76	79.706
560.10	77.016
560.44	78.616
560.78	77.778
561.12	77.243
561.45	78.031
561.79	77.324
562.13	78.135
562.47	78.620
562.81	80.753
563.15	77.458
563.48	78.117
563.82	78.408
564.16	78.221
564.50	77.214
564.84	77.876
565.17	79.215
565.51	78.658
565.85	78.046
566.19	77.082
566.52	78.974
566.86	76.733
567.20	78.538
567.54	78.253
567.88	76.154
568.21	77.302
568.55	75.531
568.89	75.389
569.23	74.242
569.56	74.130
569.90	73.962
570.24	74.130
570.57	72.560
570.91	71.138
571.25	71.433
571.59	71.134
571.92	71.544
572.26	71.259
572.60	71.652
572.93	70.825
573.27	72.316
573.61	71.915
573.95	71.214
574.28	70.226
574.62	70.797
574.96	69.821
575.29	69.180
575.63	70.681
575.97	69.669
576.30	69.676
576.64	70.836
576.98	70.418
577.31	70.171
577.65	70.315
577.98	70.165
578.32	68.527
578.66	70.147
578.99	70.372
579.33	70.564
579.67	69.156
580.00	70.223
580.34	70.123
580.67	69.865
581.01	70.205
581.35	70.178
581.68	70.337
582.02	68.900
582.35	69.946
582.69	69.604
583.02	69.910
583.36	70.602
583.70	71.578
584.03	70.951
584.37	71.568
584.70	71.787
585.04	70.303
585.37	70.760
585.71	70.700
586.04	70.669
586.38	72.179
586.72	72.604
587.05	69.818
587.39	70.501
587.72	70.910
588.06	71.825
588.39	70.782
588.73	71.898
589.06	73.045
589.40	73.502
589.73	72.369
590.07	72.028
590.40	72.379
590.73	74.122
591.07	73.708
591.40	74.019
591.74	75.281
592.07	72.557
592.41	74.204
592.74	72.697
593.08	71.919
593.41	73.141
593.75	70.425
594.08	71.740
594.41	73.241
594.75	73.752
595.08	72.727
595.42	72.434
595.75	72.863
596.09	73.526
596.42	72.574
596.75	73.702
597.09	73.506
597.42	72.470
597.75	73.264
598.09	73.783
598.42	73.711
598.76	72.477
599.09	72.026
599.42	72.380
599.76	71.852
600.09	71.949
600.42	71.549
600.76	71.107
601.09	72.204
601.42	73.059
601.76	72.600
602.09	73.360
602.42	73.049
602.76	73.075
603.09	72.738
603.42	72.355
603.76	71.456
604.09	71.733
604.42	72.727
604.76	74.188
605.09	73.788
605.42	71.740
605.75	73.344
606.09	72.102
606.42	74.499
606.75	72.128
607.09	71.913
607.42	72.657
607.75	71.941
608.08	73.209
608.42	73.196
608.75	72.543
609.08	72.618
609.41	73.108
609.75	73.082
610.08	74.411
610.41	73.464
610.74	74.409
611.07	75.198
611.41	73.062
611.74	73.957
612.07	76.035
612.40	76.076
612.73	73.737
613.07	76.347
613.40	75.935
613.73	73.414
614.06	74.785
614.39	73.466
614.72	74.421
615.06	73.582
615.39	74.469
615.72	73.006
616.05	73.312
616.38	75.653
616.71	76.366
617.05	77.032
617.38	75.105
617.71	76.396
618.04	76.142
618.37	74.571
618.70	76.416
619.03	77.566
619.36	77.189
619.69	76.690
620.03	78.022
620.36	77.005
620.69	76.644
621.02	78.245
621.35	78.543
621.68	78.193
622.01	78.638
622.34	77.080
622.67	78.935
623.00	78.797
623.33	77.127
623.66	78.771
623.99	78.130
624.32	76.676
624.65	76.130
624.99	76.133
625.32	78.204
625.65	77.611
625.98	78.786
626.31	79.238
626.64	78.939
626.97	79.052
627.30	79.219
627.63	79.163
627.96	79.142
628.29	79.965
628.62	81.610
628.95	81.321
629.28	80.657
629.61	82.126
629.94	82.286
630.26	80.362
630.59	80.172
630.92	80.172
