SpectraSuite Data File
++++++++++++++++++++++++++++++++++++
Date: Wed May 13 19:56:45 PDT 2015
User: schluterlab
Dark Spectrum Present: Yes
Reference Spectrum Present: Yes
Number of Sampled Component Spectra: 1
Spectrometers: USB2E3373
Integration Time (usec): 3000 (USB2E3373)
Spectra Averaged: 3 (USB2E3373)
Boxcar Smoothing: 0 (USB2E3373)
Correct for Electrical Dark: No (USB2E3373)
Strobe/Lamp Enabled: No (USB2E3373)
Correct for Detector Non-linearity: No (USB2E3373)
Correct for Stray Light: No (USB2E3373)
Number of Pixels in Processed Spectrum: 2048
>>>>>Begin Processed Spectral Data<<<<<
178.53	0.000
178.91	-1300.000
179.29	-1250.000
179.67	-238.889
180.04	-1375.000
180.42	2700.000
180.80	1040.000
181.18	-900.000
181.56	728.571
181.94	0.000
182.31	-628.571
182.69	1666.667
183.07	-550.000
183.45	-544.444
183.83	581.818
184.20	-370.000
184.58	2250.000
184.96	5500.000
185.34	-780.000
185.72	-650.000
186.09	-2550.000
186.47	2300.000
186.85	2300.000
187.23	4200.000
187.61	-1600.000
187.98	1200.000
188.36	527.273
188.74	490.909
189.12	-780.000
189.49	590.000
189.87	-5300.000
190.25	-1075.000
190.63	435.714
191.00	400.000
191.38	900.000
191.76	-1250.000
192.14	1475.000
192.51	737.500
192.89	1000.000
193.27	637.500
193.65	-1325.000
194.02	550.000
194.40	760.000
194.78	440.000
195.15	491.667
195.53	690.000
195.91	-2700.000
196.29	356.250
196.66	342.105
197.04	-390.000
197.42	0.000
197.79	590.000
198.17	-4900.000
198.55	785.714
198.92	700.000
199.30	920.000
199.68	0.000
200.05	327.778
200.43	828.571
200.81	4300.000
201.18	1733.333
201.56	-1533.333
201.94	666.667
202.31	633.333
202.69	433.333
203.07	560.000
203.44	0.000
203.82	1300.000
204.19	857.143
204.57	514.286
204.95	562.500
205.32	1433.333
205.70	490.909
206.08	371.429
206.45	2550.000
206.83	375.000
207.20	916.667
207.58	900.000
207.96	300.000
208.33	662.500
208.71	-933.333
209.08	757.143
209.46	555.556
209.84	509.091
210.21	-1600.000
210.59	1550.000
210.96	-375.000
211.34	3250.000
211.71	610.000
212.09	766.667
212.46	0.000
212.84	1866.667
213.22	1125.000
213.59	-4100.000
213.97	850.000
214.34	842.857
214.72	581.818
215.09	860.000
215.47	-2450.000
215.84	-2550.000
216.22	1566.667
216.59	464.286
216.97	1425.000
217.34	490.909
217.72	-783.333
218.09	0.000
218.47	-4900.000
218.84	700.000
219.22	771.429
219.59	1766.667
219.97	-628.571
220.34	880.000
220.72	-1566.667
221.09	428.571
221.47	1500.000
221.84	-1033.333
222.22	0.000
222.59	1600.000
222.97	-2750.000
223.34	1240.000
223.72	453.846
224.09	1160.000
224.46	2650.000
224.84	-5400.000
225.21	-1140.000
225.59	-5200.000
225.96	580.000
226.34	310.000
226.71	2800.000
227.08	637.500
227.46	590.000
227.83	-1225.000
228.21	-2750.000
228.58	611.111
228.95	-2300.000
229.33	-2450.000
229.70	1600.000
230.08	700.000
230.45	-1080.000
230.82	425.000
231.20	900.000
231.57	800.000
231.95	475.000
232.32	259.091
232.69	490.909
233.07	614.286
233.44	384.615
233.81	-1800.000
234.19	378.947
234.56	491.667
234.93	483.333
235.31	463.636
235.68	300.000
236.05	450.000
236.43	203.030
236.80	289.474
237.17	5300.000
237.55	257.143
237.92	239.286
238.29	280.952
238.67	206.452
239.04	237.931
239.41	211.111
239.79	141.304
240.16	180.952
240.53	168.182
240.91	168.627
241.28	160.000
241.65	182.000
242.02	134.783
242.40	150.000
242.77	143.333
243.14	107.527
243.51	113.483
243.89	105.882
244.26	103.333
244.63	96.774
245.00	108.511
245.38	100.000
245.75	99.065
246.12	99.083
246.49	93.431
246.87	100.000
247.24	96.154
247.61	90.714
247.98	92.810
248.36	87.162
248.73	92.357
249.10	91.083
249.47	77.401
249.84	88.235
250.22	81.818
250.59	85.207
250.96	87.374
251.33	84.360
251.70	87.624
252.08	82.857
252.45	73.543
252.82	83.478
253.19	80.000
253.56	73.725
253.94	79.668
254.31	76.953
254.68	79.231
255.05	74.908
255.42	78.862
255.79	75.735
256.16	79.422
256.54	73.145
256.91	76.157
257.28	72.662
257.65	77.228
258.02	71.739
258.39	74.763
258.76	69.565
259.14	70.833
259.51	67.781
259.88	70.497
260.25	75.831
260.62	71.965
260.99	78.882
261.36	72.372
261.73	72.206
262.10	74.419
262.47	74.930
262.85	73.816
263.22	67.806
263.59	72.650
263.96	66.758
264.33	67.624
264.70	68.947
265.07	68.031
265.44	70.455
265.81	69.100
266.18	74.623
266.55	69.756
266.92	71.744
267.29	69.213
267.66	70.413
268.03	67.045
268.40	72.664
268.77	69.928
269.14	67.342
269.51	66.366
269.88	69.231
270.25	69.526
270.62	66.292
270.99	67.527
271.36	67.597
271.73	71.028
272.10	67.609
272.47	70.108
272.84	65.801
273.21	65.409
273.58	68.777
273.95	66.457
274.32	63.430
274.69	68.308
275.06	62.402
275.43	67.021
275.80	65.731
276.17	65.580
276.54	65.281
276.91	65.613
277.28	63.867
277.65	62.282
278.02	66.046
278.39	65.234
278.76	62.364
279.13	67.170
279.50	63.128
279.87	64.542
280.23	65.669
280.60	62.669
280.97	63.216
281.34	63.363
281.71	61.273
282.08	63.724
282.45	61.818
282.82	62.700
283.19	62.210
283.56	61.228
283.92	59.729
284.29	64.021
284.66	62.069
285.03	58.409
285.40	62.500
285.77	60.774
286.14	60.794
286.51	61.333
286.87	61.709
287.24	57.655
287.61	59.390
287.98	57.468
288.35	55.626
288.72	57.165
289.08	55.399
289.45	58.649
289.82	58.049
290.19	56.672
290.56	56.815
290.93	53.625
291.29	53.988
291.66	54.867
292.03	56.977
292.40	53.157
292.77	52.367
293.13	51.493
293.50	53.936
293.87	52.444
294.24	50.370
294.60	50.655
294.97	50.727
295.34	52.609
295.71	50.710
296.08	48.006
296.44	50.206
296.81	48.481
297.18	50.949
297.55	46.702
297.91	48.945
298.28	51.138
298.65	47.258
299.02	50.593
299.38	47.809
299.75	45.148
300.12	47.126
300.48	45.625
300.85	46.609
301.22	47.261
301.59	46.717
301.95	46.599
302.32	47.240
302.69	44.325
303.05	45.212
303.42	45.802
303.79	44.394
304.15	44.755
304.52	44.264
304.89	43.670
305.25	43.735
305.62	43.941
305.99	44.864
306.35	44.072
306.72	44.731
307.09	44.506
307.45	44.257
307.82	42.969
308.19	43.488
308.55	43.689
308.92	43.394
309.29	41.499
309.65	42.100
310.02	41.755
310.38	41.720
310.75	43.717
311.12	42.272
311.48	41.797
311.85	42.662
312.22	41.831
312.58	40.125
312.95	41.394
313.31	39.320
313.68	43.347
314.05	42.209
314.41	42.211
314.78	40.987
315.14	40.814
315.51	41.401
315.87	42.475
316.24	40.218
316.61	40.448
316.97	40.607
317.34	40.215
317.70	41.300
318.07	42.156
318.43	41.683
318.80	41.987
319.16	41.525
319.53	39.962
319.89	41.333
320.26	41.100
320.62	41.369
320.99	41.313
321.35	40.303
321.72	42.813
322.08	41.165
322.45	41.393
322.81	40.601
323.18	40.848
323.54	40.538
323.91	40.849
324.27	40.153
324.64	40.075
325.00	38.954
325.37	41.583
325.73	40.395
326.10	40.688
326.46	39.964
326.83	41.070
327.19	39.283
327.56	39.808
327.92	40.595
328.29	40.905
328.65	39.779
329.01	40.433
329.38	39.038
329.74	39.335
330.11	40.905
330.47	40.404
330.84	39.798
331.20	38.980
331.56	40.550
331.93	39.907
332.29	38.154
332.66	39.381
333.02	39.671
333.38	39.837
333.75	39.394
334.11	39.146
334.48	38.332
334.84	40.257
335.20	40.091
335.57	39.438
335.93	39.107
336.29	38.828
336.66	40.216
337.02	37.466
337.38	40.370
337.75	39.127
338.11	38.854
338.47	38.582
338.84	39.780
339.20	38.349
339.56	40.146
339.93	37.909
340.29	37.953
340.65	37.611
341.02	38.394
341.38	38.879
341.74	36.842
342.11	37.817
342.47	38.238
342.83	38.014
343.20	36.190
343.56	37.995
343.92	37.544
344.28	37.245
344.65	36.715
345.01	36.869
345.37	38.508
345.73	37.479
346.10	37.681
346.46	37.458
346.82	37.479
347.19	36.508
347.55	37.521
347.91	37.702
348.27	37.223
348.63	36.873
349.00	36.812
349.36	37.438
349.72	36.488
350.08	35.656
350.45	36.941
350.81	36.881
351.17	36.143
351.53	36.036
351.89	34.983
352.26	37.096
352.62	37.771
352.98	36.467
353.34	36.237
353.70	35.106
354.07	34.839
354.43	35.873
354.79	35.076
355.15	35.515
355.51	37.010
355.87	35.918
356.24	35.261
356.60	35.605
356.96	36.042
357.32	36.468
357.68	36.457
358.04	36.025
358.40	36.263
358.77	35.446
359.13	34.886
359.49	35.294
359.85	34.683
360.21	35.646
360.57	35.953
360.93	35.231
361.29	33.711
361.66	34.056
362.02	34.478
362.38	34.144
362.74	34.821
363.10	34.345
363.46	34.409
363.82	34.467
364.18	33.847
364.54	34.695
364.90	35.127
365.26	34.559
365.62	34.551
365.98	34.916
366.35	33.739
366.71	33.767
367.07	33.139
367.43	35.051
367.79	34.118
368.15	33.836
368.51	33.576
368.87	33.833
369.23	34.967
369.59	34.902
369.95	34.044
370.31	34.473
370.67	33.116
371.03	34.232
371.39	33.746
371.75	34.338
372.11	32.504
372.47	34.091
372.83	33.934
373.19	32.803
373.55	35.403
373.91	34.242
374.27	32.440
374.63	33.382
374.99	33.616
375.35	33.217
375.71	32.762
376.07	32.990
376.42	33.563
376.78	33.333
377.14	32.429
377.50	33.775
377.86	32.380
378.22	32.680
378.58	31.892
378.94	33.375
379.30	32.952
379.66	32.043
380.02	33.231
380.38	32.301
380.74	32.353
381.09	33.068
381.45	33.128
381.81	32.002
382.17	32.357
382.53	32.327
382.89	33.272
383.25	32.083
383.61	33.333
383.97	32.458
384.32	32.127
384.68	31.970
385.04	32.084
385.40	31.331
385.76	31.327
386.12	31.023
386.48	32.788
386.83	31.944
387.19	32.529
387.55	32.653
387.91	32.648
388.27	31.760
388.62	32.329
388.98	31.818
389.34	31.790
389.70	32.495
390.06	31.812
390.42	32.685
390.77	31.679
391.13	32.865
391.49	31.916
391.85	32.209
392.20	31.609
392.56	31.439
392.92	31.666
393.28	31.302
393.64	30.875
393.99	32.193
394.35	31.576
394.71	31.179
395.07	31.028
395.42	31.273
395.78	31.234
396.14	30.975
396.50	31.830
396.85	31.914
397.21	31.319
397.57	31.432
397.92	31.070
398.28	30.774
398.64	30.645
399.00	31.729
399.35	30.626
399.71	30.498
400.07	30.633
400.42	31.350
400.78	31.544
401.14	30.976
401.49	31.403
401.85	31.397
402.21	30.299
402.57	31.462
402.92	31.463
403.28	30.731
403.63	31.436
403.99	30.701
404.35	31.333
404.70	30.695
405.06	30.052
405.42	31.192
405.77	29.886
406.13	30.361
406.49	29.805
406.84	31.364
407.20	30.437
407.55	30.887
407.91	31.133
408.27	31.589
408.62	30.343
408.98	30.882
409.34	30.566
409.69	29.548
410.05	31.289
410.40	31.988
410.76	30.645
411.11	29.493
411.47	30.224
411.83	30.360
412.18	30.674
412.54	30.635
412.89	31.566
413.25	30.342
413.60	30.883
413.96	30.115
414.31	30.073
414.67	30.545
415.03	30.000
415.38	31.572
415.74	30.032
416.09	30.830
416.45	30.455
416.80	30.866
417.16	30.697
417.51	31.918
417.87	30.122
418.22	30.221
418.58	31.762
418.93	30.713
419.29	30.172
419.64	30.668
420.00	30.732
420.35	30.841
420.71	31.082
421.06	30.370
421.42	29.942
421.77	30.157
422.12	29.534
422.48	29.304
422.83	30.635
423.19	30.221
423.54	29.948
423.90	30.899
424.25	28.978
424.61	29.524
424.96	30.554
425.31	30.066
425.67	29.775
426.02	30.000
426.38	30.586
426.73	29.901
427.09	30.395
427.44	29.730
427.79	29.787
428.15	30.655
428.50	30.310
428.85	30.215
429.21	29.597
429.56	29.860
429.92	30.196
430.27	29.494
430.62	29.339
430.98	29.839
431.33	29.330
431.68	29.948
432.04	29.606
432.39	29.526
432.74	30.401
433.10	29.825
433.45	29.971
433.80	29.767
434.16	30.449
434.51	29.632
434.86	29.190
435.22	29.461
435.57	30.881
435.92	29.666
436.28	30.071
436.63	30.740
436.98	30.395
437.34	30.352
437.69	30.338
438.04	29.511
438.39	30.627
438.75	30.331
439.10	29.944
439.45	30.579
439.81	29.547
440.16	29.362
440.51	30.287
440.86	30.863
441.22	30.200
441.57	30.414
441.92	29.632
442.27	29.548
442.63	29.384
442.98	30.141
443.33	29.239
443.68	29.633
444.03	30.551
444.39	29.406
444.74	30.141
445.09	29.811
445.44	29.579
445.79	30.381
446.15	29.381
446.50	29.779
446.85	28.726
447.20	29.628
447.55	29.927
447.91	29.675
448.26	29.716
448.61	29.226
448.96	30.122
449.31	30.484
449.66	29.432
450.02	29.638
450.37	29.365
450.72	30.118
451.07	29.129
451.42	27.964
451.77	30.123
452.12	28.984
452.47	30.908
452.83	30.012
453.18	30.012
453.53	29.746
453.88	29.238
454.23	30.424
454.58	30.164
454.93	30.451
455.28	30.611
455.63	30.583
455.98	30.714
456.34	30.151
456.69	30.432
457.04	30.217
457.39	30.333
457.74	29.948
458.09	29.845
458.44	30.103
458.79	28.742
459.14	30.643
459.49	30.006
459.84	30.249
460.19	29.994
460.54	28.588
460.89	30.170
461.24	30.055
461.59	29.518
461.94	29.285
462.29	30.208
462.64	29.866
462.99	28.757
463.34	29.333
463.69	29.894
464.04	30.841
464.39	29.507
464.74	29.649
465.09	28.890
465.44	29.197
465.79	29.866
466.14	29.283
466.49	29.422
466.84	29.247
467.19	29.270
467.54	30.250
467.89	28.752
468.24	29.552
468.59	29.853
468.94	28.406
469.29	30.141
469.64	30.254
469.99	29.973
470.34	29.326
470.68	29.526
471.03	28.912
471.38	30.090
471.73	28.714
472.08	30.395
472.43	29.020
472.78	28.769
473.13	29.461
473.48	29.463
473.83	29.329
474.17	29.371
474.52	29.218
474.87	29.422
475.22	29.367
475.57	28.694
475.92	29.102
476.27	27.959
476.61	28.682
476.96	28.477
477.31	28.048
477.66	29.595
478.01	28.646
478.36	28.874
478.70	27.778
479.05	28.647
479.40	28.864
479.75	28.266
480.10	27.982
480.45	28.367
480.79	27.950
481.14	28.474
481.49	28.714
481.84	27.343
482.19	27.669
482.53	28.394
482.88	28.199
483.23	28.972
483.58	28.207
483.92	27.835
484.27	27.582
484.62	27.069
484.97	27.395
485.31	28.836
485.66	28.343
486.01	28.500
486.36	27.635
486.70	27.105
487.05	27.289
487.40	27.630
487.75	26.917
488.09	27.722
488.44	27.185
488.79	27.378
489.13	27.311
489.48	27.284
489.83	27.320
490.17	28.146
490.52	27.236
490.87	27.499
491.22	27.876
491.56	27.016
491.91	28.106
492.26	27.056
492.60	27.696
492.95	26.707
493.30	27.150
493.64	27.252
493.99	27.623
494.34	27.567
494.68	27.244
495.03	28.008
495.37	27.129
495.72	28.119
496.07	27.471
496.41	26.814
496.76	27.353
497.11	27.645
497.45	27.014
497.80	27.207
498.14	26.763
498.49	27.122
498.84	27.804
499.18	27.333
499.53	27.635
499.87	27.773
500.22	27.979
500.56	28.252
500.91	27.308
501.26	26.743
501.60	28.002
501.95	26.489
502.29	28.163
502.64	27.514
502.98	27.536
503.33	26.828
503.67	27.100
504.02	27.643
504.36	27.422
504.71	27.308
505.06	26.699
505.40	27.078
505.75	27.146
506.09	27.745
506.44	27.775
506.78	27.521
507.13	28.016
507.47	27.273
507.82	27.508
508.16	28.217
508.51	28.108
508.85	26.614
509.19	26.939
509.54	26.888
509.88	27.563
510.23	26.735
510.57	27.657
510.92	27.343
511.26	26.824
511.61	27.801
511.95	26.722
512.30	26.511
512.64	27.136
512.98	27.438
513.33	27.302
513.67	26.147
514.02	26.190
514.36	27.307
514.70	26.729
515.05	26.548
515.39	26.809
515.74	27.646
516.08	26.663
516.42	26.804
516.77	27.425
517.11	26.415
517.46	27.201
517.80	27.120
518.14	26.809
518.49	26.546
518.83	26.420
519.17	27.079
519.52	26.712
519.86	27.382
520.20	27.630
520.55	27.887
520.89	26.946
521.23	27.322
521.58	27.011
521.92	27.250
522.26	26.419
522.61	26.480
522.95	26.397
523.29	26.598
523.64	26.463
523.98	27.234
524.32	26.960
524.66	26.879
525.01	26.532
525.35	25.836
525.69	27.032
526.04	27.227
526.38	27.212
526.72	26.074
527.06	26.365
527.41	25.248
527.75	27.331
528.09	27.296
528.43	26.195
528.78	26.798
529.12	26.848
529.46	27.189
529.80	27.228
530.15	27.290
530.49	26.585
530.83	26.266
531.17	27.219
531.51	27.367
531.86	26.323
532.20	27.705
532.54	27.162
532.88	26.893
533.22	27.171
533.57	27.778
533.91	27.634
534.25	27.400
534.59	27.090
534.93	26.115
535.27	26.856
535.62	27.595
535.96	27.809
536.30	26.192
536.64	28.010
536.98	27.074
537.32	26.860
537.66	26.400
538.01	27.781
538.35	26.955
538.69	27.696
539.03	27.225
539.37	25.367
539.71	26.442
540.05	25.621
540.39	27.309
540.73	26.779
541.07	27.579
541.42	26.875
541.76	27.742
542.10	27.878
542.44	27.748
542.78	28.458
543.12	26.615
543.46	27.410
543.80	27.261
544.14	26.701
544.48	28.063
544.82	27.004
545.16	27.131
545.50	27.314
545.84	26.344
546.18	27.340
546.52	27.529
546.86	27.079
547.20	26.837
547.54	28.123
547.88	28.125
548.22	27.958
548.56	27.358
548.90	26.953
549.24	26.667
549.58	27.763
549.92	26.580
550.26	27.202
550.60	26.694
550.94	26.408
551.28	25.823
551.62	27.318
551.96	26.807
552.30	27.986
552.64	26.978
552.98	27.254
553.32	27.107
553.66	27.198
554.00	27.042
554.34	27.398
554.68	28.398
555.02	27.645
555.36	26.931
555.69	26.861
556.03	27.254
556.37	27.012
556.71	26.739
557.05	27.171
557.39	27.362
557.73	26.888
558.07	27.846
558.41	27.352
558.75	27.112
559.08	28.486
559.42	27.135
559.76	27.059
560.10	26.909
560.44	26.625
560.78	27.545
561.12	27.177
561.45	27.966
561.79	26.632
562.13	26.559
562.47	27.869
562.81	28.173
563.15	27.090
563.48	27.785
563.82	27.006
564.16	27.338
564.50	26.107
564.84	26.612
565.17	27.413
565.51	27.540
565.85	27.348
566.19	26.738
566.52	27.676
566.86	27.728
567.20	27.182
567.54	27.112
567.88	27.213
568.21	28.360
568.55	27.300
568.89	27.529
569.23	26.916
569.56	27.530
569.90	28.189
570.24	27.664
570.57	27.202
570.91	26.697
571.25	26.838
571.59	27.158
571.92	27.477
572.26	27.614
572.60	28.168
572.93	26.897
573.27	26.945
573.61	27.331
573.95	27.519
574.28	27.563
574.62	27.235
574.96	26.547
575.29	26.358
575.63	26.728
575.97	26.868
576.30	26.792
576.64	26.687
576.98	26.592
577.31	27.079
577.65	26.927
577.98	26.980
578.32	26.906
578.66	27.107
578.99	27.414
579.33	26.918
579.67	26.782
580.00	27.020
580.34	26.981
580.67	27.015
581.01	27.029
581.35	27.347
581.68	27.357
582.02	27.497
582.35	27.577
582.69	27.383
583.02	27.140
583.36	27.369
583.70	27.622
584.03	26.933
584.37	26.877
584.70	27.142
585.04	27.177
585.37	27.353
585.71	27.397
586.04	27.132
586.38	26.985
586.72	27.755
587.05	27.330
587.39	26.649
587.72	27.184
588.06	26.601
588.39	27.654
588.73	27.427
589.06	27.703
589.40	27.576
589.73	26.927
590.07	26.975
590.40	27.256
590.73	27.088
591.07	27.554
591.40	27.077
591.74	28.095
592.07	26.963
592.41	27.160
592.74	27.416
593.08	27.249
593.41	27.713
593.75	26.858
594.08	27.288
594.41	27.854
594.75	26.691
595.08	26.736
595.42	27.285
595.75	26.603
596.09	27.676
596.42	27.505
596.75	27.142
597.09	27.186
597.42	27.150
597.75	27.038
598.09	27.217
598.42	26.761
598.76	27.077
599.09	27.176
599.42	27.365
599.76	27.635
600.09	27.577
600.42	27.064
600.76	26.821
601.09	26.958
601.42	27.131
601.76	27.287
602.09	26.680
602.42	27.189
602.76	27.610
603.09	27.105
603.42	27.919
603.76	26.982
604.09	27.181
604.42	27.884
604.76	27.415
605.09	27.785
605.42	26.507
605.75	27.235
606.09	26.922
606.42	27.135
606.75	26.960
607.09	27.250
607.42	27.257
607.75	26.709
608.08	26.748
608.42	27.342
608.75	27.638
609.08	27.105
609.41	26.702
609.75	26.441
610.08	27.286
610.41	26.769
610.74	27.720
611.07	28.014
611.41	27.036
611.74	27.300
612.07	27.019
612.40	27.964
612.73	26.895
613.07	27.209
613.40	27.435
613.73	27.373
614.06	27.097
614.39	27.163
614.72	27.000
615.06	27.048
615.39	27.017
615.72	27.198
616.05	26.422
616.38	27.349
616.71	27.910
617.05	26.737
617.38	27.300
617.71	27.748
618.04	27.704
618.37	26.671
618.70	27.442
619.03	28.026
619.36	27.088
619.69	27.958
620.03	28.091
620.36	28.008
620.69	27.808
621.02	27.655
621.35	27.565
621.68	26.947
622.01	27.554
622.34	27.837
622.67	27.757
623.00	27.513
623.33	26.948
623.66	27.377
623.99	27.099
624.32	26.890
624.65	27.260
624.99	27.479
625.32	26.647
625.65	26.972
625.98	27.748
626.31	27.916
626.64	26.612
626.97	27.431
627.30	27.764
627.63	27.153
627.96	27.418
628.29	26.684
628.62	27.356
628.95	29.717
629.28	27.737
629.61	28.231
629.94	27.048
630.26	26.501
630.59	27.645
