SpectraSuite Data File
++++++++++++++++++++++++++++++++++++
Date: Wed May 13 19:21:43 PDT 2015
User: schluterlab
Dark Spectrum Present: Yes
Reference Spectrum Present: Yes
Number of Sampled Component Spectra: 1
Spectrometers: USB2E3373
Integration Time (usec): 3000 (USB2E3373)
Spectra Averaged: 3 (USB2E3373)
Boxcar Smoothing: 0 (USB2E3373)
Correct for Electrical Dark: No (USB2E3373)
Strobe/Lamp Enabled: No (USB2E3373)
Correct for Detector Non-linearity: No (USB2E3373)
Correct for Stray Light: No (USB2E3373)
Number of Pixels in Processed Spectrum: 2048
>>>>>Begin Processed Spectral Data<<<<<
178.53	0.000
178.91	-1425.000
179.29	-1475.000
179.67	-261.111
180.04	-1400.000
180.42	3250.000
180.80	1160.000
181.18	-1300.000
181.56	928.571
181.94	0.000
182.31	-885.714
182.69	1866.667
183.07	-800.000
183.45	-677.778
183.83	627.273
184.20	-500.000
184.58	2400.000
184.96	6700.000
185.34	-1080.000
185.72	-800.000
186.09	-2750.000
186.47	2800.000
186.85	2600.000
187.23	5500.000
187.61	-1933.333
187.98	1400.000
188.36	590.909
188.74	645.455
189.12	-940.000
189.49	610.000
189.87	-5100.000
190.25	-1350.000
190.63	478.571
191.00	530.769
191.38	900.000
191.76	-1400.000
192.14	1725.000
192.51	725.000
192.89	1083.333
193.27	562.500
193.65	-1325.000
194.02	660.000
194.40	1220.000
194.78	520.000
195.15	566.667
195.53	700.000
195.91	-2450.000
196.29	387.500
196.66	384.211
197.04	-430.000
197.42	0.000
197.79	640.000
198.17	-6000.000
198.55	757.143
198.92	875.000
199.30	960.000
199.68	0.000
200.05	366.667
200.43	885.714
200.81	5900.000
201.18	2100.000
201.56	-1900.000
201.94	600.000
202.31	644.444
202.69	491.667
203.07	610.000
203.44	0.000
203.82	1225.000
204.19	885.714
204.57	442.857
204.95	812.500
205.32	1900.000
205.70	590.909
206.08	485.714
206.45	3200.000
206.83	431.250
207.20	1183.333
207.58	920.000
207.96	344.444
208.33	775.000
208.71	-866.667
209.08	828.571
209.46	700.000
209.84	554.545
210.21	-1666.667
210.59	1625.000
210.96	-587.500
211.34	2800.000
211.71	610.000
212.09	900.000
212.46	0.000
212.84	1766.667
213.22	1450.000
213.59	-4900.000
213.97	1050.000
214.34	928.571
214.72	654.545
215.09	1100.000
215.47	-2600.000
215.84	-3150.000
216.22	1833.333
216.59	407.143
216.97	1775.000
217.34	600.000
217.72	-1050.000
218.09	0.000
218.47	-6200.000
218.84	744.444
219.22	885.714
219.59	1733.333
219.97	-714.286
220.34	1040.000
220.72	-1766.667
221.09	507.143
221.47	1775.000
221.84	-1016.667
222.22	0.000
222.59	1325.000
222.97	-2750.000
223.34	1400.000
223.72	461.538
224.09	1200.000
224.46	2400.000
224.84	-6500.000
225.21	-1220.000
225.59	-5300.000
225.96	640.000
226.34	370.000
226.71	2850.000
227.08	637.500
227.46	600.000
227.83	-1275.000
228.21	-2350.000
228.58	677.778
228.95	-2500.000
229.33	-2700.000
229.70	2000.000
230.08	885.714
230.45	-1100.000
230.82	533.333
231.20	1000.000
231.57	885.714
231.95	541.667
232.32	290.909
232.69	545.455
233.07	871.429
233.44	446.154
233.81	-2000.000
234.19	363.158
234.56	566.667
234.93	550.000
235.31	618.182
235.68	507.692
236.05	500.000
236.43	209.091
236.80	363.158
237.17	5800.000
237.55	252.381
237.92	282.143
238.29	352.381
238.67	212.903
239.04	265.517
239.41	200.000
239.79	171.739
240.16	188.095
240.53	200.000
240.91	150.980
241.28	156.000
241.65	144.000
242.02	152.174
242.40	135.484
242.77	160.000
243.14	113.978
243.51	123.596
243.89	117.647
244.26	114.444
244.63	110.753
245.00	117.021
245.38	115.842
245.75	88.785
246.12	100.000
246.49	94.161
246.87	104.000
247.24	100.000
247.61	90.000
247.98	81.699
248.36	93.243
248.73	87.261
249.10	88.535
249.47	85.311
249.84	83.422
250.22	73.797
250.59	88.166
250.96	85.859
251.33	80.569
251.70	79.208
252.08	76.190
252.45	71.749
252.82	75.652
253.19	79.574
253.56	75.686
253.94	78.838
254.31	76.172
254.68	76.154
255.05	72.325
255.42	78.862
255.79	76.103
256.16	73.646
256.54	73.852
256.91	68.327
257.28	71.942
257.65	70.297
258.02	68.323
258.39	68.139
258.76	71.572
259.14	65.476
259.51	66.261
259.88	65.217
260.25	70.091
260.62	69.364
260.99	67.391
261.36	70.270
261.73	67.335
262.10	68.895
262.47	65.070
262.85	62.396
263.22	64.957
263.59	64.957
263.96	63.462
264.33	62.402
264.70	63.421
265.07	62.404
265.44	66.414
265.81	58.394
266.18	63.819
266.55	66.585
266.92	63.636
267.29	63.889
267.66	62.615
268.03	60.909
268.40	61.449
268.77	63.246
269.14	60.811
269.51	61.851
269.88	63.869
270.25	60.497
270.62	61.124
270.99	61.720
271.36	60.730
271.73	64.019
272.10	60.435
272.47	62.366
272.84	62.121
273.21	63.103
273.58	59.170
273.95	57.862
274.32	58.884
274.69	59.957
275.06	58.858
275.43	60.851
275.80	61.122
276.17	59.063
276.54	62.786
276.91	57.115
277.28	58.008
277.65	59.188
278.02	61.284
278.39	58.984
278.76	57.636
279.13	58.868
279.50	58.845
279.87	56.574
280.23	57.285
280.60	56.673
280.97	57.116
281.34	56.283
281.71	60.000
282.08	60.077
282.45	54.909
282.82	57.549
283.19	55.793
283.56	55.789
283.92	55.838
284.29	56.085
284.66	56.443
285.03	56.781
285.40	52.465
285.77	55.556
286.14	54.404
286.51	56.333
286.87	52.308
287.24	54.397
287.61	52.327
287.98	53.734
288.35	52.773
288.72	51.558
289.08	51.800
289.45	51.895
289.82	50.894
290.19	51.648
290.56	49.464
290.93	49.547
291.29	51.534
291.66	48.820
292.03	50.000
292.40	50.367
292.77	49.704
293.13	47.463
293.50	48.980
293.87	46.519
294.24	45.926
294.60	47.598
294.97	46.512
295.34	47.250
295.71	47.017
296.08	45.157
296.44	44.704
296.81	42.933
297.18	43.767
297.55	42.216
297.91	43.140
298.28	45.515
298.65	44.778
299.02	45.718
299.38	44.887
299.75	42.318
300.12	42.529
300.48	42.125
300.85	42.540
301.22	40.382
301.59	40.909
301.95	42.065
302.32	43.004
302.69	39.307
303.05	42.061
303.42	39.012
303.79	40.430
304.15	41.958
304.52	41.599
304.89	40.302
305.25	39.675
305.62	40.657
305.99	41.204
306.35	40.492
306.72	40.022
307.09	41.842
307.45	40.878
307.82	39.286
308.19	39.404
308.55	39.590
308.92	39.957
309.29	39.493
309.65	39.343
310.02	39.112
310.38	39.677
310.75	39.916
311.12	40.123
311.48	39.185
311.85	40.881
312.22	39.646
312.58	40.333
312.95	40.444
313.31	38.738
313.68	40.956
314.05	41.223
314.41	41.508
314.78	40.987
315.14	40.318
315.51	40.783
315.87	42.772
316.24	41.509
316.61	41.715
316.97	43.346
317.34	41.683
317.70	44.551
318.07	42.926
318.43	44.227
318.80	46.298
319.16	43.879
319.53	44.090
319.89	45.619
320.26	46.200
320.62	46.627
320.99	47.475
321.35	46.768
321.72	47.844
322.08	49.260
322.45	50.945
322.81	50.678
323.18	52.312
323.54	51.206
323.91	53.019
324.27	53.346
324.64	52.656
325.00	52.209
325.37	55.687
325.73	56.553
326.10	54.810
326.46	56.541
326.83	57.636
327.19	58.668
327.56	60.192
327.92	61.417
328.29	61.668
328.65	62.431
329.01	61.913
329.38	62.350
329.74	61.958
330.11	65.127
330.47	64.555
330.84	63.879
331.20	63.479
331.56	63.761
331.93	65.833
332.29	63.531
332.66	65.398
333.02	64.717
333.38	64.950
333.75	64.973
334.11	64.502
334.48	64.862
334.84	66.544
335.20	65.455
335.57	65.730
335.93	64.911
336.29	65.659
336.66	67.087
337.02	66.154
337.38	67.315
337.75	66.934
338.11	67.771
338.47	67.587
338.84	67.644
339.20	66.606
339.56	68.431
339.93	68.000
340.29	66.757
340.65	67.647
341.02	67.539
341.38	66.815
341.74	67.018
342.11	68.210
342.47	68.194
342.83	67.808
343.20	67.273
343.56	66.639
343.92	66.491
344.28	66.667
344.65	68.272
345.01	65.741
345.37	68.268
345.73	67.682
346.10	68.798
346.46	67.119
346.82	67.710
347.19	66.249
347.55	66.420
347.91	67.961
348.27	69.926
348.63	67.057
349.00	66.505
349.36	66.913
349.72	65.437
350.08	66.126
350.45	66.395
350.81	64.744
351.17	68.720
351.53	68.141
351.89	66.584
352.26	67.245
352.62	67.442
352.98	66.613
353.34	68.036
353.70	67.840
354.07	66.452
354.43	66.825
354.79	65.326
355.15	66.640
355.51	68.825
355.87	69.714
356.24	67.915
356.60	67.522
356.96	67.820
357.32	67.048
357.68	68.425
358.04	66.508
358.40	68.884
358.77	67.293
359.13	67.719
359.49	67.451
359.85	68.333
360.21	69.458
360.57	67.315
360.93	68.846
361.29	66.591
361.66	67.337
362.02	67.612
362.38	68.365
362.74	67.634
363.10	68.098
363.46	67.792
363.82	69.539
364.18	67.695
364.54	70.059
364.90	67.918
365.26	68.824
365.62	70.636
365.98	68.809
366.35	69.699
366.71	68.980
367.07	68.536
367.43	70.247
367.79	70.807
368.15	70.115
368.51	69.113
368.87	69.736
369.23	70.519
369.59	70.818
369.95	69.853
370.31	68.732
370.67	68.043
371.03	72.809
371.39	68.950
371.75	71.250
372.11	69.630
372.47	70.821
372.83	72.839
373.19	69.798
373.55	72.949
373.91	72.312
374.27	70.584
374.63	70.618
374.99	71.328
375.35	70.830
375.71	69.294
376.07	72.702
376.42	70.770
376.78	70.245
377.14	70.692
377.50	73.113
377.86	70.678
378.22	71.049
378.58	70.739
378.94	70.773
379.30	71.565
379.66	71.320
380.02	71.560
380.38	71.160
380.74	72.449
381.09	72.311
381.45	73.325
381.81	72.052
382.17	72.866
382.53	71.447
382.89	72.346
383.25	73.796
383.61	73.978
383.97	73.171
384.32	72.926
384.68	72.553
385.04	72.649
385.40	72.817
385.76	72.850
386.12	72.280
386.48	73.820
386.83	75.305
387.19	74.212
387.55	74.459
387.91	73.700
388.27	72.287
388.62	73.694
388.98	73.833
389.34	74.218
389.70	72.900
390.06	74.081
390.42	72.957
390.77	73.601
391.13	75.239
391.49	73.731
391.85	72.884
392.20	73.565
392.56	75.505
392.92	73.514
393.28	73.964
393.64	74.101
393.99	73.122
394.35	73.635
394.71	72.961
395.07	72.586
395.42	74.660
395.78	73.728
396.14	72.688
396.50	74.311
396.85	75.016
397.21	73.058
397.57	74.644
397.92	74.579
398.28	72.478
398.64	73.536
399.00	72.636
399.35	74.055
399.71	73.727
400.07	74.098
400.42	74.724
400.78	73.643
401.14	74.329
401.49	73.075
401.85	72.656
402.21	72.814
402.57	72.548
402.92	73.897
403.28	74.766
403.63	73.948
403.99	75.732
404.35	73.515
404.70	74.520
405.06	72.801
405.42	74.485
405.77	72.743
406.13	71.558
406.49	73.743
406.84	72.888
407.20	73.168
407.55	73.580
407.91	75.467
408.27	74.282
408.62	72.908
408.98	72.917
409.34	72.817
409.69	74.194
410.05	73.916
410.40	73.517
410.76	72.999
411.11	72.919
411.47	73.419
411.83	74.343
412.18	73.408
412.54	73.101
412.89	72.048
413.25	73.022
413.60	72.514
413.96	71.767
414.31	72.053
414.67	72.560
415.03	73.311
415.38	72.938
415.74	73.376
416.09	73.089
416.45	73.427
416.80	72.769
417.16	73.592
417.51	73.590
417.87	71.869
418.22	73.565
418.58	72.111
418.93	73.710
419.29	72.311
419.64	72.040
420.00	71.829
420.35	71.652
420.71	73.700
421.06	71.718
421.42	72.573
421.77	71.749
422.12	71.421
422.48	70.426
422.83	73.209
423.19	70.442
423.54	71.561
423.90	71.478
424.25	70.966
424.61	70.655
424.96	72.886
425.31	71.595
425.67	69.944
426.02	71.371
426.38	72.772
426.73	70.743
427.09	71.550
427.44	70.098
427.79	71.363
428.15	71.607
428.50	69.807
428.85	70.441
429.21	69.575
429.56	71.021
429.92	70.911
430.27	70.705
430.62	69.278
430.98	70.317
431.33	69.381
431.68	70.628
432.04	68.903
432.39	70.817
432.74	70.856
433.10	71.703
433.45	70.379
433.80	70.177
434.16	69.658
434.51	69.000
434.86	69.156
435.22	70.928
435.57	71.003
435.92	69.046
436.28	71.767
436.63	70.254
436.98	69.720
437.34	70.662
437.69	69.312
438.04	70.883
438.39	70.806
438.75	69.494
439.10	71.229
439.45	69.421
439.81	69.547
440.16	69.283
440.51	70.299
440.86	69.485
441.22	70.133
441.57	70.488
441.92	70.778
442.27	70.344
442.63	69.036
442.98	71.775
443.33	69.891
443.68	68.095
444.03	69.449
444.39	69.426
444.74	70.292
445.09	69.865
445.44	69.163
445.79	68.629
446.15	68.819
446.50	68.928
446.85	68.756
447.20	69.352
447.55	70.798
447.91	70.546
448.26	69.950
448.61	69.135
448.96	69.657
449.31	70.472
449.66	68.711
450.02	68.078
450.37	69.274
450.72	69.882
451.07	69.470
451.42	68.328
451.77	69.524
452.12	68.649
452.47	69.465
452.83	70.513
453.18	69.254
453.53	70.625
453.88	69.640
454.23	69.755
454.58	69.534
454.93	71.647
455.28	67.955
455.63	68.871
455.98	69.583
456.34	69.598
456.69	69.881
457.04	69.536
457.39	67.680
457.74	67.615
458.09	68.028
458.44	68.814
458.79	65.835
459.14	68.397
459.49	68.885
459.84	67.590
460.19	67.236
460.54	65.972
460.89	67.526
461.24	69.702
461.59	69.088
461.94	67.633
462.29	68.605
462.64	66.688
462.99	66.363
463.34	67.133
463.69	69.543
464.04	67.478
464.39	67.014
464.74	66.667
465.09	67.431
465.44	66.316
465.79	66.107
466.14	66.338
466.49	66.685
466.84	67.426
467.19	66.566
467.54	67.688
467.89	66.206
468.24	66.667
468.59	68.132
468.94	66.402
469.29	67.866
469.64	67.537
469.99	68.606
470.34	67.900
470.68	69.397
471.03	67.347
471.38	70.049
471.73	67.422
472.08	67.434
472.43	67.588
472.78	68.400
473.13	66.752
473.48	67.353
473.83	67.622
474.17	66.459
474.52	66.749
474.87	66.959
475.22	66.628
475.57	64.696
475.92	65.799
476.27	65.389
476.61	66.078
476.96	64.926
477.31	66.353
477.66	66.521
478.01	63.147
478.36	65.891
478.70	64.071
479.05	65.335
479.40	65.302
479.75	65.175
480.10	63.966
480.45	63.589
480.79	62.972
481.14	64.188
481.49	63.787
481.84	63.740
482.19	64.698
482.53	64.541
482.88	64.076
483.23	62.757
483.58	64.104
483.92	62.371
484.27	61.786
484.62	62.716
484.97	62.121
485.31	62.329
485.66	59.980
486.01	57.738
486.36	56.043
486.70	56.351
487.05	57.059
487.40	59.448
487.75	59.858
488.09	60.813
488.44	61.574
488.79	63.183
489.13	62.147
489.48	62.887
489.83	62.192
490.17	63.218
490.52	61.736
490.87	62.144
491.22	61.528
491.56	61.412
491.91	62.308
492.26	60.818
492.60	61.060
492.95	61.132
493.30	61.729
493.64	62.203
493.99	61.328
494.34	62.026
494.68	61.447
495.03	61.043
495.37	60.214
495.72	62.086
496.07	62.042
496.41	60.088
496.76	60.642
497.11	60.108
497.45	60.084
497.80	60.509
498.14	61.208
498.49	60.829
498.84	61.266
499.18	59.857
499.53	60.019
499.87	60.531
500.22	59.680
500.56	60.583
500.91	60.769
501.26	60.123
501.60	60.750
501.95	58.845
502.29	61.012
502.64	59.730
502.98	58.626
503.33	59.232
503.67	58.886
504.02	60.430
504.36	57.932
504.71	59.453
505.06	59.036
505.40	59.212
505.75	58.486
506.09	58.260
506.44	59.793
506.78	58.987
507.13	59.667
507.47	59.545
507.82	59.676
508.16	58.764
508.51	60.223
508.85	58.640
509.19	58.776
509.54	59.184
509.88	60.278
510.23	58.663
510.57	59.133
510.92	59.503
511.26	57.965
511.61	57.884
511.95	57.046
512.30	58.696
512.64	59.215
512.98	59.164
513.33	59.154
513.67	57.951
514.02	58.063
514.36	58.820
514.70	58.771
515.05	58.338
515.39	57.768
515.74	57.545
516.08	58.580
516.42	58.435
516.77	57.748
517.11	58.324
517.46	58.352
517.80	58.885
518.14	57.730
518.49	58.401
518.83	56.989
519.17	57.794
519.52	57.329
519.86	58.129
520.20	58.439
520.55	59.186
520.89	60.523
521.23	59.530
521.58	58.884
521.92	59.767
522.26	56.010
522.61	59.128
522.95	57.950
523.29	57.334
523.64	59.207
523.98	57.486
524.32	58.022
524.66	58.208
525.01	57.475
525.35	57.931
525.69	56.650
526.04	57.134
526.38	57.596
526.72	56.626
527.06	58.632
527.41	55.322
527.75	57.814
528.09	57.739
528.43	57.425
528.78	57.775
529.12	55.576
529.46	57.012
529.80	57.054
530.15	56.822
530.49	55.077
530.83	55.380
531.17	57.768
531.51	58.236
531.86	56.710
532.20	57.432
532.54	56.887
532.88	55.841
533.22	54.716
533.57	55.494
533.91	54.786
534.25	55.529
534.59	56.376
534.93	54.670
535.27	55.582
535.62	54.335
535.96	55.242
536.30	54.927
536.64	55.184
536.98	55.740
537.32	54.707
537.66	56.067
538.01	55.497
538.35	53.523
538.69	55.010
539.03	53.541
539.37	53.994
539.71	53.402
540.05	54.837
540.39	54.817
540.73	53.493
541.07	55.548
541.42	55.643
541.76	54.581
542.10	54.851
542.44	53.841
542.78	55.204
543.12	52.335
543.46	55.410
543.80	54.717
544.14	52.246
544.48	54.413
544.82	52.790
545.16	54.912
545.50	52.635
545.84	53.965
546.18	54.613
546.52	53.820
546.86	54.296
547.20	54.214
547.54	52.639
547.88	54.018
548.22	52.055
548.56	52.013
548.90	52.241
549.24	52.997
549.58	53.820
549.92	52.953
550.26	54.332
550.60	52.974
550.94	53.803
551.28	52.451
551.62	54.206
551.96	52.702
552.30	53.652
552.64	53.617
552.98	52.203
553.32	52.731
553.66	52.965
554.00	52.780
554.34	52.105
554.68	53.290
555.02	52.539
555.36	51.427
555.69	51.759
556.03	52.692
556.37	51.910
556.71	51.364
557.05	51.681
557.39	51.714
557.73	52.152
558.07	53.735
558.41	53.111
558.75	51.359
559.08	52.871
559.42	52.986
559.76	50.662
560.10	50.250
560.44	50.943
560.78	49.701
561.12	50.858
561.45	49.804
561.79	50.231
562.13	50.905
562.47	50.888
562.81	51.395
563.15	49.766
563.48	50.398
563.82	50.228
564.16	49.313
564.50	48.503
564.84	48.862
565.17	50.515
565.51	49.521
565.85	49.619
566.19	49.405
566.52	50.412
566.86	49.066
567.20	48.467
567.54	48.801
567.88	48.343
568.21	48.254
568.55	47.118
568.89	47.179
569.23	46.212
569.56	45.020
569.90	45.094
570.24	44.098
570.57	43.897
570.91	43.051
571.25	43.576
571.59	43.240
571.92	43.059
572.26	43.356
572.60	43.544
572.93	42.759
573.27	43.390
573.61	42.574
573.95	42.558
574.28	41.985
574.62	42.177
574.96	41.481
575.29	42.071
575.63	42.683
575.97	41.968
576.30	42.485
576.64	42.532
576.98	41.906
577.31	42.167
577.65	41.759
577.98	41.154
578.32	40.667
578.66	41.216
578.99	41.406
579.33	41.636
579.67	41.182
580.00	41.836
580.34	41.528
580.67	41.598
581.01	41.714
581.35	41.235
581.68	40.673
582.02	40.021
582.35	40.452
582.69	40.155
583.02	40.845
583.36	41.157
583.70	42.008
584.03	41.614
584.37	42.899
584.70	42.294
585.04	41.707
585.37	40.634
585.71	41.189
586.04	41.556
586.38	41.536
586.72	42.392
587.05	40.397
587.39	41.161
587.72	41.407
588.06	41.676
588.39	41.564
588.73	41.742
589.06	42.350
589.40	42.290
589.73	42.344
590.07	43.203
590.40	42.163
590.73	43.872
591.07	43.630
591.40	44.327
591.74	44.545
592.07	43.935
592.41	43.076
592.74	42.097
593.08	41.006
593.41	40.588
593.75	40.787
594.08	41.737
594.41	41.393
594.75	42.144
595.08	41.052
595.42	41.331
595.75	41.987
596.09	42.696
596.42	42.122
596.75	41.790
597.09	43.853
597.42	41.737
597.75	42.260
598.09	41.739
598.42	41.581
598.76	41.265
599.09	40.593
599.42	40.502
599.76	40.959
600.09	40.546
600.42	40.321
600.76	40.393
601.09	40.583
601.42	40.791
601.76	41.176
602.09	41.542
602.42	41.441
602.76	41.959
603.09	41.660
603.42	40.531
603.76	40.663
604.09	41.062
604.42	41.826
604.76	42.176
605.09	42.246
605.42	41.727
605.75	41.101
606.09	41.155
606.42	41.357
606.75	40.647
607.09	41.189
607.42	40.436
607.75	40.717
608.08	41.337
608.42	41.820
608.75	41.975
609.08	40.796
609.41	41.361
609.75	41.544
610.08	41.753
610.41	41.527
610.74	42.053
611.07	42.737
611.41	42.002
611.74	42.182
612.07	42.857
612.40	42.497
612.73	41.947
613.07	42.672
613.40	42.443
613.73	40.745
614.06	41.935
614.39	40.587
614.72	41.158
615.06	42.595
615.39	42.091
615.72	41.360
616.05	41.467
616.38	42.079
616.71	42.162
617.05	43.934
617.38	42.754
617.71	42.643
618.04	43.089
618.37	42.164
618.70	43.248
619.03	42.632
619.36	42.227
619.69	43.169
620.03	45.604
620.36	43.850
620.69	44.589
621.02	45.059
621.35	44.558
621.68	43.614
622.01	44.272
622.34	44.781
622.67	44.106
623.00	42.920
623.33	43.817
623.66	43.317
623.99	44.330
624.32	42.939
624.65	43.432
624.99	42.139
625.32	43.157
625.65	43.727
625.98	44.658
626.31	43.779
626.64	44.735
626.97	44.971
627.30	44.223
627.63	45.037
627.96	44.828
628.29	45.844
628.62	45.471
628.95	46.698
629.28	46.077
629.61	45.738
629.94	46.000
630.26	46.425
