SpectraSuite Data File
++++++++++++++++++++++++++++++++++++
Date: Wed May 13 19:35:20 PDT 2015
User: schluterlab
Dark Spectrum Present: Yes
Reference Spectrum Present: Yes
Number of Sampled Component Spectra: 1
Spectrometers: USB2E3373
Integration Time (usec): 3000 (USB2E3373)
Spectra Averaged: 3 (USB2E3373)
Boxcar Smoothing: 0 (USB2E3373)
Correct for Electrical Dark: No (USB2E3373)
Strobe/Lamp Enabled: No (USB2E3373)
Correct for Detector Non-linearity: No (USB2E3373)
Correct for Stray Light: No (USB2E3373)
Number of Pixels in Processed Spectrum: 2048
>>>>>Begin Processed Spectral Data<<<<<
178.53	0.000
178.91	-1275.000
179.29	-1400.000
179.67	-266.667
180.04	-1375.000
180.42	2850.000
180.80	980.000
181.18	-1225.000
181.56	728.571
181.94	0.000
182.31	-771.429
182.69	1966.667
183.07	-612.500
183.45	-611.111
183.83	536.364
184.20	-460.000
184.58	2400.000
184.96	5300.000
185.34	-980.000
185.72	-850.000
186.09	-2750.000
186.47	2500.000
186.85	2600.000
187.23	5700.000
187.61	-1866.667
187.98	1200.000
188.36	609.091
188.74	609.091
189.12	-920.000
189.49	570.000
189.87	-5900.000
190.25	-1275.000
190.63	435.714
191.00	492.308
191.38	1016.667
191.76	-1350.000
192.14	1525.000
192.51	725.000
192.89	966.667
193.27	700.000
193.65	-1250.000
194.02	630.000
194.40	1020.000
194.78	560.000
195.15	475.000
195.53	740.000
195.91	-2250.000
196.29	331.250
196.66	305.263
197.04	-430.000
197.42	0.000
197.79	730.000
198.17	-5900.000
198.55	871.429
198.92	675.000
199.30	1080.000
199.68	0.000
200.05	333.333
200.43	885.714
200.81	4500.000
201.18	1666.667
201.56	-1833.333
201.94	644.444
202.31	700.000
202.69	450.000
203.07	600.000
203.44	0.000
203.82	1200.000
204.19	842.857
204.57	435.714
204.95	662.500
205.32	1833.333
205.70	572.727
206.08	435.714
206.45	3100.000
206.83	393.750
207.20	916.667
207.58	780.000
207.96	361.111
208.33	787.500
208.71	-933.333
209.08	785.714
209.46	722.222
209.84	527.273
210.21	-1666.667
210.59	1525.000
210.96	-612.500
211.34	2450.000
211.71	630.000
212.09	800.000
212.46	0.000
212.84	1633.333
213.22	1375.000
213.59	-6000.000
213.97	950.000
214.34	828.571
214.72	590.909
215.09	1220.000
215.47	-2550.000
215.84	-2700.000
216.22	1800.000
216.59	421.429
216.97	1300.000
217.34	600.000
217.72	-700.000
218.09	0.000
218.47	-5200.000
218.84	622.222
219.22	728.571
219.59	1866.667
219.97	-657.143
220.34	880.000
220.72	-1766.667
221.09	542.857
221.47	1900.000
221.84	-883.333
222.22	0.000
222.59	1425.000
222.97	-2850.000
223.34	1080.000
223.72	400.000
224.09	1420.000
224.46	2600.000
224.84	-5200.000
225.21	-1160.000
225.59	-5800.000
225.96	720.000
226.34	305.000
226.71	2800.000
227.08	700.000
227.46	620.000
227.83	-1300.000
228.21	-2550.000
228.58	644.444
228.95	-2900.000
229.33	-2400.000
229.70	2033.333
230.08	928.571
230.45	-860.000
230.82	550.000
231.20	983.333
231.57	728.571
231.95	516.667
232.32	272.727
232.69	481.818
233.07	685.714
233.44	415.385
233.81	-1566.667
234.19	305.263
234.56	441.667
234.93	366.667
235.31	490.909
235.68	346.154
236.05	385.714
236.43	193.939
236.80	342.105
237.17	5200.000
237.55	280.952
237.92	192.857
238.29	228.571
238.67	209.677
239.04	206.897
239.41	166.667
239.79	132.609
240.16	121.429
240.53	131.818
240.91	100.000
241.28	112.000
241.65	84.000
242.02	107.246
242.40	80.645
242.77	93.333
243.14	76.344
243.51	77.528
243.89	67.059
244.26	55.556
244.63	54.839
245.00	55.319
245.38	54.455
245.75	52.336
246.12	48.624
246.49	57.664
246.87	60.800
247.24	50.769
247.61	48.571
247.98	43.791
248.36	33.108
248.73	32.484
249.10	38.854
249.47	41.243
249.84	39.037
250.22	34.759
250.59	31.361
250.96	33.838
251.33	39.336
251.70	33.663
252.08	34.286
252.45	28.251
252.82	30.870
253.19	31.064
253.56	28.627
253.94	26.141
254.31	27.344
254.68	25.385
255.05	23.985
255.42	26.016
255.79	23.897
256.16	27.076
256.54	22.968
256.91	29.537
257.28	23.741
257.65	24.752
258.02	23.602
258.39	21.136
258.76	22.074
259.14	25.000
259.51	20.365
259.88	20.807
260.25	22.961
260.62	24.277
260.99	19.255
261.36	20.721
261.73	23.496
262.10	18.023
262.47	21.972
262.85	21.727
263.22	17.094
263.59	21.937
263.96	19.780
264.33	18.799
264.70	16.053
265.07	20.205
265.44	21.970
265.81	16.302
266.18	21.357
266.55	19.024
266.92	20.885
267.29	17.361
267.66	19.266
268.03	17.273
268.40	16.822
268.77	15.752
269.14	17.342
269.51	18.736
269.88	19.580
270.25	17.381
270.62	17.079
270.99	19.570
271.36	17.811
271.73	17.290
272.10	20.217
272.47	16.774
272.84	17.316
273.21	19.287
273.58	15.502
273.95	16.143
274.32	15.909
274.69	16.274
275.06	13.386
275.43	16.383
275.80	15.230
276.17	16.497
276.54	17.464
276.91	16.403
277.28	15.625
277.65	15.861
278.02	15.114
278.39	14.258
278.76	17.273
279.13	16.981
279.50	16.015
279.87	13.944
280.23	14.970
280.60	14.120
280.97	13.494
281.34	15.752
281.71	16.545
282.08	15.355
282.45	12.545
282.82	15.631
283.19	13.904
283.56	15.439
283.92	13.875
284.29	14.991
284.66	13.612
285.03	13.382
285.40	12.852
285.77	14.646
286.14	13.299
286.51	13.167
286.87	13.162
287.24	12.378
287.61	13.002
287.98	15.097
288.35	12.995
288.72	14.174
289.08	13.615
289.45	12.191
289.82	13.333
290.19	12.873
290.56	13.783
290.93	11.027
291.29	11.043
291.66	13.274
292.03	14.244
292.40	14.391
292.77	10.799
293.13	11.343
293.50	13.557
293.87	12.000
294.24	11.111
294.60	10.771
294.97	11.773
295.34	13.117
295.71	12.784
296.08	11.823
296.44	11.142
296.81	10.964
297.18	13.821
297.55	9.103
297.91	9.894
298.28	11.780
298.65	10.966
299.02	11.989
299.38	10.359
299.75	9.838
300.12	10.600
300.48	9.250
300.85	9.741
301.22	9.554
301.59	9.470
301.95	10.831
302.32	10.270
302.69	10.275
303.05	10.303
303.42	9.877
303.79	8.381
304.15	9.091
304.52	8.575
304.89	9.872
305.25	9.049
305.62	9.966
305.99	11.570
306.35	9.060
306.72	10.874
307.09	10.211
307.45	10.923
307.82	8.371
308.19	10.044
308.55	10.248
308.92	8.700
309.29	8.553
309.65	8.802
310.02	8.985
310.38	8.817
310.75	9.187
311.12	9.417
311.48	9.509
311.85	9.539
312.22	9.677
312.58	10.083
312.95	8.976
313.31	8.447
313.68	9.459
314.05	10.848
314.41	9.548
314.78	8.359
315.14	9.434
315.51	9.887
315.87	9.505
316.24	8.640
316.61	7.310
316.97	9.100
317.34	7.632
317.70	8.795
318.07	8.855
318.43	8.904
318.80	9.653
319.16	8.945
319.53	9.568
319.89	9.905
320.26	9.400
320.62	9.028
320.99	10.909
321.35	10.808
321.72	9.856
322.08	10.168
322.45	10.547
322.81	10.756
323.18	10.886
323.54	9.369
323.91	10.660
324.27	10.899
324.64	9.786
325.00	9.378
325.37	9.645
325.73	10.503
326.10	9.797
326.46	9.946
326.83	10.095
327.19	9.479
327.56	9.843
327.92	10.324
328.29	10.559
328.65	10.589
329.01	10.560
329.38	10.361
329.74	10.342
330.11	9.896
330.47	11.295
330.84	11.489
331.20	9.745
331.56	11.376
331.93	10.463
332.29	10.825
332.66	11.327
333.02	10.878
333.38	10.569
333.75	11.765
334.11	11.388
334.48	11.446
334.84	10.386
335.20	11.455
335.57	9.610
335.93	9.286
336.29	10.531
336.66	10.370
337.02	9.231
337.38	9.630
337.75	10.428
338.11	10.654
338.47	9.945
338.84	11.182
339.20	10.275
339.56	10.584
339.93	10.000
340.29	11.322
340.65	10.784
341.02	10.995
341.38	9.520
341.74	10.965
342.11	10.393
342.47	9.515
342.83	10.188
343.20	11.429
343.56	10.025
343.92	10.175
344.28	10.544
344.65	9.888
345.01	10.101
345.37	9.091
345.73	10.660
346.10	10.401
346.46	10.339
346.82	9.967
347.19	8.354
347.55	9.852
347.91	9.223
348.27	11.175
348.63	10.033
349.00	9.628
349.36	8.539
349.72	10.505
350.08	9.157
350.45	9.601
350.81	9.992
351.17	9.319
351.53	9.664
351.89	8.498
352.26	10.260
352.62	9.944
352.98	10.454
353.34	10.107
353.70	9.656
354.07	9.919
354.43	8.730
354.79	8.206
355.15	8.540
355.51	9.992
355.87	9.714
356.24	9.202
356.60	9.142
356.96	9.976
357.32	8.667
357.68	9.449
358.04	8.472
358.40	9.660
358.77	9.155
359.13	8.287
359.49	7.843
359.85	7.698
360.21	8.373
360.57	9.183
360.93	9.231
361.29	9.297
361.66	8.282
362.02	9.552
362.38	9.658
362.74	8.780
363.10	7.328
363.46	8.877
363.82	8.919
364.18	8.590
364.54	9.584
364.90	9.703
365.26	8.309
365.62	8.985
365.98	8.619
366.35	7.521
366.71	9.328
367.07	8.303
367.43	8.345
367.79	9.208
368.15	9.626
368.51	8.067
368.87	8.922
369.23	7.608
369.59	8.834
369.95	7.794
370.31	9.046
370.67	7.826
371.03	8.914
371.39	9.329
371.75	8.015
372.11	8.748
372.47	8.724
372.83	9.006
373.19	6.792
373.55	8.352
373.91	8.837
374.27	8.110
374.63	7.782
374.99	8.475
375.35	7.676
375.71	7.951
376.07	8.711
376.42	7.772
376.78	9.079
377.14	8.548
377.50	8.079
377.86	8.311
378.22	8.913
378.58	7.519
378.94	7.731
379.30	7.316
379.66	7.805
380.02	8.047
380.38	7.529
380.74	7.263
381.09	8.007
381.45	7.990
381.81	7.432
382.17	7.389
382.53	7.484
382.89	7.963
383.25	7.630
383.61	7.931
383.97	7.880
384.32	7.985
384.68	7.125
385.04	6.884
385.40	8.111
385.76	7.678
386.12	7.772
386.48	8.496
386.83	7.248
387.19	8.349
387.55	7.483
387.91	7.860
388.27	7.541
388.62	7.806
388.98	7.432
389.34	8.073
389.70	7.480
390.06	8.238
390.42	7.717
390.77	7.952
391.13	7.594
391.49	7.487
391.85	7.638
392.20	5.994
392.56	7.386
392.92	7.240
393.28	6.331
393.64	7.674
393.99	8.491
394.35	7.878
394.71	7.654
395.07	7.788
395.42	7.046
395.78	7.697
396.14	8.007
396.50	7.832
396.85	7.947
397.21	7.213
397.57	7.502
397.92	7.572
398.28	6.839
398.64	6.989
399.00	7.666
399.35	6.937
399.71	7.350
400.07	8.338
400.42	7.423
400.78	7.358
401.14	6.951
401.49	8.060
401.85	7.139
402.21	7.126
402.57	6.848
402.92	7.062
403.28	8.495
403.63	7.116
403.99	7.643
404.35	7.394
404.70	7.134
405.06	6.639
405.42	7.798
405.77	6.514
406.13	6.772
406.49	7.215
406.84	7.265
407.20	6.797
407.55	7.020
407.91	7.267
408.27	6.382
408.62	7.465
408.98	7.353
409.34	7.011
409.69	7.677
410.05	7.187
410.40	7.095
410.76	7.168
411.11	7.901
411.47	7.157
411.83	7.086
412.18	6.741
412.54	7.410
412.89	7.289
413.25	7.379
413.60	7.659
413.96	7.286
414.31	6.865
414.67	6.907
415.03	8.675
415.38	7.539
415.74	6.945
416.09	7.315
416.45	6.827
416.80	7.270
417.16	8.311
417.51	7.963
417.87	7.193
418.22	7.634
418.58	7.553
418.93	8.108
419.29	7.002
419.64	8.312
420.00	7.561
420.35	7.536
420.71	7.830
421.06	7.100
421.42	7.719
421.77	7.679
422.12	6.738
422.48	6.584
422.83	7.105
423.19	7.459
423.54	6.849
423.90	7.884
424.25	7.649
424.61	7.202
424.96	7.522
425.31	7.641
425.67	7.753
426.02	7.371
426.38	8.303
426.73	6.963
427.09	7.112
427.44	7.361
427.79	7.591
428.15	7.798
428.50	7.139
428.85	8.105
429.21	6.902
429.56	6.636
429.92	7.046
430.27	6.902
430.62	6.400
430.98	7.109
431.33	7.216
431.68	7.853
432.04	7.561
432.39	7.196
432.74	7.660
433.10	7.357
433.45	7.580
433.80	6.652
434.16	7.318
434.51	7.105
434.86	8.039
435.22	7.893
435.57	7.416
435.92	7.490
436.28	7.888
436.63	7.892
436.98	6.926
437.34	7.573
437.69	7.935
438.04	7.083
438.39	7.284
438.75	8.077
439.10	8.045
439.45	8.264
439.81	7.613
440.16	6.663
440.51	7.323
440.86	7.412
441.22	6.897
441.57	7.696
441.92	7.369
442.27	7.481
442.63	7.267
442.98	8.113
443.33	8.098
443.68	7.486
444.03	7.662
444.39	7.011
444.74	7.413
445.09	7.493
445.44	7.217
445.79	7.422
446.15	8.205
446.50	7.701
446.85	7.143
447.20	6.986
447.55	7.259
447.91	7.391
448.26	7.179
448.61	7.349
448.96	8.638
449.31	8.268
449.66	7.597
450.02	7.242
450.37	7.086
450.72	6.994
451.07	6.764
451.42	7.781
451.77	7.692
452.12	7.679
452.47	7.960
452.83	8.159
453.18	7.946
453.53	8.472
453.88	7.088
454.23	7.233
454.58	7.813
454.93	8.837
455.28	7.606
455.63	7.949
455.98	8.512
456.34	7.663
456.69	7.577
457.04	7.740
457.39	7.832
457.74	7.255
458.09	7.763
458.44	7.526
458.79	6.562
459.14	7.844
459.49	7.647
459.84	7.479
460.19	7.189
460.54	7.697
460.89	7.625
461.24	7.832
461.59	8.483
461.94	7.275
462.29	7.240
462.64	8.105
462.99	8.133
463.34	8.867
463.69	7.692
464.04	8.464
464.39	7.652
464.74	8.140
465.09	7.660
465.44	7.812
465.79	7.830
466.14	7.663
466.49	7.119
466.84	8.231
467.19	8.268
467.54	7.813
467.89	7.803
468.24	8.202
468.59	7.875
468.94	8.369
469.29	7.841
469.64	8.568
469.99	7.984
470.34	7.266
470.68	8.118
471.03	8.367
471.38	8.826
471.73	8.394
472.08	8.553
472.43	7.663
472.78	7.176
473.13	7.959
473.48	7.928
473.83	7.683
474.17	6.907
474.52	8.002
474.87	7.939
475.22	7.951
475.57	7.953
475.92	7.807
476.27	7.610
476.61	7.998
476.96	7.477
477.31	7.064
477.66	7.330
478.01	7.266
478.36	7.668
478.70	7.061
479.05	7.774
479.40	6.960
479.75	7.422
480.10	7.107
480.45	7.473
480.79	7.262
481.14	7.534
481.49	7.167
481.84	7.042
482.19	7.451
482.53	7.064
482.88	7.538
483.23	7.523
483.58	7.734
483.92	7.170
484.27	6.797
484.62	6.552
484.97	6.819
485.31	6.438
485.66	5.531
486.01	5.122
486.36	4.963
486.70	4.813
487.05	5.548
487.40	5.746
487.75	6.161
488.09	6.551
488.44	6.137
488.79	7.016
489.13	6.494
489.48	6.892
489.83	6.690
490.17	7.058
490.52	6.909
490.87	7.191
491.22	7.549
491.56	7.289
491.91	7.027
492.26	6.752
492.60	7.143
492.95	6.829
493.30	6.729
493.64	6.766
493.99	7.057
494.34	7.586
494.68	7.280
495.03	7.801
495.37	6.747
495.72	6.871
496.07	7.100
496.41	6.770
496.76	6.948
497.11	6.934
497.45	7.313
497.80	6.958
498.14	6.957
498.49	6.732
498.84	7.383
499.18	7.095
499.53	7.170
499.87	7.223
500.22	7.395
500.56	7.379
500.91	6.587
501.26	7.207
501.60	7.499
501.95	7.379
502.29	7.310
502.64	7.030
502.98	7.200
503.33	7.038
503.67	7.517
504.02	7.577
504.36	7.674
504.71	6.497
505.06	8.000
505.40	6.612
505.75	7.232
506.09	7.240
506.44	7.104
506.78	7.501
507.13	7.118
507.47	7.121
507.82	7.447
508.16	7.092
508.51	7.763
508.85	7.795
509.19	7.653
509.54	7.449
509.88	7.007
510.23	7.198
510.57	7.895
510.92	7.457
511.26	7.400
511.61	7.780
511.95	7.829
512.30	7.264
512.64	7.630
512.98	8.574
513.33	7.495
513.67	7.311
514.02	7.522
514.36	7.919
514.70	7.858
515.05	7.808
515.39	7.628
515.74	8.221
516.08	8.385
516.42	7.825
516.77	8.751
517.11	7.270
517.46	8.239
517.80	7.898
518.14	7.528
518.49	7.818
518.83	7.386
519.17	7.621
519.52	8.149
519.86	8.329
520.20	8.497
520.55	8.737
520.89	7.847
521.23	8.987
521.58	8.103
521.92	9.247
522.26	7.322
522.61	8.411
522.95	8.226
523.29	8.521
523.64	8.963
523.98	7.948
524.32	8.866
524.66	9.080
525.01	9.130
525.35	8.674
525.69	8.498
526.04	8.660
526.38	8.237
526.72	8.834
527.06	8.035
527.41	8.045
527.75	8.810
528.09	8.157
528.43	8.795
528.78	8.666
529.12	8.061
529.46	8.879
529.80	8.601
530.15	9.283
530.49	8.431
530.83	8.797
531.17	9.661
531.51	9.468
531.86	9.742
532.20	8.801
532.54	9.673
532.88	8.922
533.22	8.807
533.57	8.765
533.91	8.669
534.25	8.505
534.59	8.420
534.93	8.685
535.27	8.992
535.62	8.242
535.96	9.040
536.30	8.773
536.64	8.628
536.98	9.224
537.32	8.558
537.66	8.867
538.01	8.887
538.35	9.244
538.69	9.636
539.03	8.642
539.37	7.987
539.71	7.777
540.05	9.346
540.39	8.771
540.73	8.797
541.07	9.280
541.42	9.067
541.76	9.548
542.10	9.314
542.44	8.013
542.78	10.211
543.12	8.253
543.46	9.115
543.80	8.979
544.14	8.023
544.48	8.190
544.82	8.531
545.16	9.174
545.50	7.648
545.84	9.274
546.18	9.158
546.52	9.016
546.86	8.110
547.20	9.440
547.54	9.486
547.88	9.247
548.22	9.215
548.56	8.868
548.90	8.451
549.24	8.956
549.58	9.482
549.92	9.135
550.26	9.730
550.60	9.405
550.94	8.873
551.28	9.071
551.62	10.208
551.96	8.842
552.30	9.761
552.64	9.195
552.98	8.610
553.32	9.508
553.66	9.884
554.00	9.403
554.34	8.972
554.68	9.800
555.02	9.097
555.36	10.508
555.69	9.269
556.03	9.556
556.37	9.277
556.71	9.345
557.05	8.754
557.39	8.887
557.73	8.963
558.07	8.629
558.41	8.466
558.75	9.552
559.08	9.396
559.42	9.751
559.76	9.853
560.10	9.636
560.44	9.224
560.78	8.982
561.12	8.839
561.45	9.518
561.79	9.822
562.13	8.853
562.47	8.470
562.81	9.972
563.15	9.632
563.48	9.218
563.82	8.806
564.16	8.829
564.50	8.398
564.84	9.608
565.17	7.915
565.51	8.946
565.85	9.137
566.19	8.265
566.52	8.486
566.86	8.318
567.20	8.550
567.54	8.790
567.88	8.256
568.21	8.148
568.55	8.241
568.89	7.733
569.23	7.799
569.56	7.166
569.90	6.943
570.24	6.746
570.57	6.392
570.91	6.561
571.25	6.609
571.59	6.156
571.92	6.250
572.26	6.672
572.60	6.787
572.93	6.627
573.27	6.832
573.61	6.672
573.95	6.460
574.28	6.156
574.62	5.928
574.96	6.093
575.29	5.723
575.63	6.326
575.97	6.274
576.30	6.506
576.64	6.040
576.98	6.150
577.31	5.776
577.65	5.711
577.98	5.730
578.32	5.620
578.66	5.828
578.99	6.209
579.33	5.834
579.67	6.008
580.00	6.090
580.34	5.766
580.67	5.861
581.01	6.341
581.35	5.625
581.68	5.951
582.02	5.597
582.35	5.353
582.69	5.799
583.02	5.880
583.36	6.179
583.70	6.294
584.03	6.270
584.37	6.377
584.70	6.191
585.04	6.458
585.37	6.174
585.71	6.344
586.04	6.523
586.38	6.296
586.72	6.600
587.05	6.031
587.39	6.016
587.72	6.364
588.06	6.270
588.39	6.722
588.73	6.571
589.06	6.918
589.40	6.397
589.73	7.145
590.07	6.441
590.40	6.759
590.73	6.831
591.07	7.448
591.40	7.423
591.74	7.186
592.07	7.897
592.41	7.441
592.74	6.704
593.08	6.762
593.41	6.802
593.75	6.496
594.08	6.872
594.41	7.070
594.75	6.802
595.08	7.087
595.42	7.250
595.75	6.838
596.09	7.135
596.42	7.623
596.75	7.936
597.09	7.879
597.42	7.631
597.75	7.417
598.09	8.087
598.42	7.904
598.76	7.175
599.09	6.651
599.42	6.987
599.76	6.955
600.09	6.594
600.42	6.574
600.76	7.107
601.09	7.395
601.42	6.621
601.76	7.211
602.09	7.194
602.42	7.166
602.76	7.699
603.09	7.042
603.42	7.146
603.76	7.050
604.09	7.173
604.42	7.379
604.76	7.929
605.09	7.995
605.42	7.567
605.75	7.575
606.09	7.157
606.42	7.070
606.75	7.466
607.09	7.576
607.42	6.461
607.75	7.004
608.08	7.034
608.42	7.530
608.75	7.484
609.08	7.817
609.41	7.806
609.75	7.813
610.08	7.823
610.41	7.495
610.74	7.096
611.07	8.004
611.41	7.802
611.74	8.245
612.07	8.540
612.40	8.185
612.73	7.737
613.07	8.621
613.40	8.162
613.73	7.446
614.06	7.366
614.39	8.757
614.72	8.368
615.06	8.246
615.39	8.015
615.72	8.129
616.05	8.028
616.38	8.560
616.71	8.254
617.05	8.716
617.38	9.260
617.71	8.168
618.04	8.894
618.37	8.043
618.70	8.214
619.03	9.408
619.36	9.776
619.69	9.085
620.03	9.547
620.36	9.759
620.69	9.178
621.02	10.103
621.35	9.084
621.68	9.190
622.01	10.139
622.34	10.287
622.67	9.962
623.00	8.804
623.33	8.578
623.66	9.364
623.99	10.236
624.32	8.702
624.65	9.181
624.99	8.074
625.32	8.472
625.65	8.415
625.98	10.223
626.31	10.809
626.64	9.796
626.97	9.643
627.30	9.393
627.63	10.418
627.96	11.270
628.29	10.936
628.62	12.077
628.95	11.981
629.28	9.672
629.61	10.724
629.94	10.381
630.26	11.439
630.59	10.105
630.92	10.632
631.25	10.958
631.58	11.211
631.91	10.953
632.24	10.549
632.57	11.542
632.90	10.417
633.23	12.192
633.56	11.638
633.89	11.212
634.22	11.578
634.55	13.018
634.88	11.257
635.20	13.142
635.53	11.687
635.86	11.757
636.19	11.529
636.52	11.534
636.85	12.944
637.18	11.060
637.51	12.175
637.83	10.604
638.16	12.404
638.49	12.217
638.82	12.895
639.15	12.125
639.48	12.718
639.81	13.003
640.13	13.151
640.46	12.215
640.79	15.588
641.12	12.517
641.45	11.732
641.77	13.402
642.10	13.158
642.43	12.913
642.76	13.467
643.09	14.571
643.41	13.961
643.74	16.512
644.07	13.110
644.40	16.104
644.73	15.591
645.05	15.689
645.38	12.480
645.71	13.205
646.04	15.449
646.36	13.689
646.69	16.388
647.02	14.796
647.35	13.746
647.67	13.982
648.00	17.398
648.33	13.201
648.66	12.424
648.98	14.243
649.31	12.855
649.64	14.499
