SpectraSuite Data File
++++++++++++++++++++++++++++++++++++
Date: Tue May 12 19:58:37 PDT 2015
User: schluterlab
Dark Spectrum Present: Yes
Reference Spectrum Present: Yes
Number of Sampled Component Spectra: 1
Spectrometers: USB2E3373
Integration Time (usec): 3000 (USB2E3373)
Spectra Averaged: 3 (USB2E3373)
Boxcar Smoothing: 0 (USB2E3373)
Correct for Electrical Dark: No (USB2E3373)
Strobe/Lamp Enabled: No (USB2E3373)
Correct for Detector Non-linearity: No (USB2E3373)
Correct for Stray Light: No (USB2E3373)
Number of Pixels in Processed Spectrum: 2048
>>>>>Begin Processed Spectral Data<<<<<
178.53	0.000
178.91	-190.000
179.29	-133.333
179.67	500.000
180.04	0.000
180.42	-520.000
180.80	-400.000
181.18	1100.000
181.56	-550.000
181.94	450.000
182.31	2300.000
182.69	-185.714
183.07	0.000
183.45	300.000
183.83	520.000
184.20	400.000
184.58	1000.000
184.96	350.000
185.34	-300.000
185.72	-28.571
186.09	-166.667
186.47	-1800.000
186.85	-200.000
187.23	241.667
187.61	-185.714
187.98	-400.000
188.36	1100.000
188.74	-600.000
189.12	-166.667
189.49	-210.000
189.87	725.000
190.25	211.111
190.63	700.000
191.00	160.000
191.38	-433.333
191.76	320.000
192.14	-285.714
192.51	-210.000
192.89	-320.000
193.27	-320.000
193.65	-700.000
194.02	-300.000
194.40	900.000
194.78	-225.000
195.15	-314.286
195.53	566.667
195.91	380.000
196.29	-525.000
196.66	-300.000
197.04	-357.143
197.42	220.000
197.79	-200.000
198.17	-108.333
198.55	-500.000
198.92	-144.444
199.30	1200.000
199.68	-400.000
200.05	-1100.000
200.43	-33.333
200.81	-133.333
201.18	450.000
201.56	-750.000
201.94	-1400.000
202.31	-133.333
202.69	-166.667
203.07	-150.000
203.44	-700.000
203.82	0.000
204.19	375.000
204.57	-666.667
204.95	190.909
205.32	340.000
205.70	550.000
206.08	-2100.000
206.45	-460.000
206.83	2600.000
207.20	-311.111
207.58	0.000
207.96	533.333
208.33	1000.000
208.71	566.667
209.08	600.000
209.46	-44.444
209.84	633.333
210.21	-700.000
210.59	950.000
210.96	355.556
211.34	-625.000
211.71	850.000
212.09	-260.000
212.46	-350.000
212.84	-225.000
213.22	214.286
213.59	-150.000
213.97	0.000
214.34	-350.000
214.72	-2100.000
215.09	900.000
215.47	-40.000
215.84	-62.500
216.22	-1100.000
216.59	1200.000
216.97	-158.333
217.34	-216.667
217.72	-5.556
218.09	375.000
218.47	-31.579
218.84	-262.500
219.22	-100.000
219.59	-180.000
219.97	-120.000
220.34	466.667
220.72	145.455
221.09	-750.000
221.47	0.000
221.84	300.000
222.22	-350.000
222.59	-300.000
222.97	-47.826
223.34	180.000
223.72	442.857
224.09	-400.000
224.46	184.615
224.84	-93.333
225.21	-400.000
225.59	-300.000
225.96	5.000
226.34	566.667
226.71	210.000
227.08	-153.846
227.46	-142.857
227.83	0.000
228.21	-300.000
228.58	383.333
228.95	-57.895
229.33	-75.000
229.70	-383.333
230.08	-200.000
230.45	-666.667
230.82	-1700.000
231.20	-47.619
231.57	-460.000
231.95	-800.000
232.32	122.222
232.69	-1350.000
233.07	12.500
233.44	-175.000
233.81	-12.903
234.19	-560.000
234.56	-66.667
234.93	-183.333
235.31	7.407
235.68	-33.333
236.05	-23.077
236.43	-36.842
236.80	-54.545
237.17	28.571
237.55	-60.000
237.92	2.326
238.29	-3.226
238.67	0.000
239.04	37.143
239.41	1.961
239.79	8.000
240.16	-5.000
240.53	-10.345
240.91	13.699
241.28	21.127
241.65	23.437
242.02	29.825
242.40	13.333
242.77	23.158
243.14	36.471
243.51	24.731
243.89	16.190
244.26	34.259
244.63	38.776
245.00	31.250
245.38	28.571
245.75	33.898
246.12	32.813
246.49	35.200
246.87	30.328
247.24	34.507
247.61	30.464
247.98	33.146
248.36	42.767
248.73	39.773
249.10	33.889
249.47	35.417
249.84	34.518
250.22	32.292
250.59	37.640
250.96	40.000
251.33	40.566
251.70	42.661
252.08	44.589
252.45	36.735
252.82	34.177
253.19	45.525
253.56	43.529
253.94	42.683
254.31	41.367
254.68	41.667
255.05	43.377
255.42	38.182
255.79	47.020
256.16	45.139
256.54	40.303
256.91	42.628
257.28	41.234
257.65	37.705
258.02	43.243
258.39	43.202
258.76	43.731
259.14	38.529
259.51	43.099
259.88	44.957
260.25	41.761
260.62	38.202
260.99	44.290
261.36	42.816
261.73	42.400
262.10	44.142
262.47	43.802
262.85	44.216
263.22	41.129
263.59	45.308
263.96	39.687
264.33	39.353
264.70	42.506
265.07	41.872
265.44	40.984
265.81	42.892
266.18	42.389
266.55	40.952
266.92	43.750
267.29	40.444
267.66	44.091
268.03	41.720
268.40	41.876
268.77	41.203
269.14	42.857
269.51	40.950
269.88	41.667
270.25	40.506
270.62	44.748
270.99	44.000
271.36	41.501
271.73	41.250
272.10	40.249
272.47	39.600
272.84	36.518
273.21	39.875
273.58	38.776
273.95	40.637
274.32	42.166
274.69	41.487
275.06	39.775
275.43	39.800
275.80	41.874
276.17	41.107
276.54	41.825
276.91	42.994
277.28	41.006
277.65	40.076
278.02	40.530
278.39	40.653
278.76	42.086
279.13	40.429
279.50	41.336
279.87	39.245
280.23	40.255
280.60	38.516
280.97	39.543
281.34	40.169
281.71	37.123
282.08	41.145
282.45	40.917
282.82	40.236
283.19	40.067
283.56	42.833
283.92	39.810
284.29	39.594
284.66	38.761
285.03	37.050
285.40	38.333
285.77	39.409
286.14	39.620
286.51	38.746
286.87	38.574
287.24	37.821
287.61	38.735
287.98	38.498
288.35	36.589
288.72	38.073
289.08	36.478
289.45	35.569
289.82	33.696
290.19	35.758
290.56	35.456
290.93	37.223
291.29	35.319
291.66	34.551
292.03	37.159
292.40	35.252
292.77	34.402
293.13	34.655
293.50	34.986
293.87	33.981
294.24	33.006
294.60	34.290
294.97	32.133
295.34	32.192
295.71	32.316
296.08	30.874
296.44	32.411
296.81	32.471
297.18	32.212
297.55	30.779
297.91	31.091
298.28	30.563
298.65	30.660
299.02	31.936
299.38	28.827
299.75	31.145
300.12	30.096
300.48	29.695
300.85	30.196
301.22	30.048
301.59	30.657
301.95	29.634
302.32	28.554
302.69	29.727
303.05	28.571
303.42	29.106
303.79	28.202
304.15	29.898
304.52	28.939
304.89	29.763
305.25	30.505
305.62	30.455
305.99	27.100
306.35	29.866
306.72	28.431
307.09	27.312
307.45	27.616
307.82	29.776
308.19	29.043
308.55	28.903
308.92	29.555
309.29	28.556
309.65	28.896
310.02	28.721
310.38	28.571
310.75	28.074
311.12	28.891
311.48	29.394
311.85	29.382
312.22	29.132
312.58	28.399
312.95	27.721
313.31	28.220
313.68	28.997
314.05	30.785
314.41	29.077
314.78	31.558
315.14	29.775
315.51	29.394
315.87	30.176
316.24	29.674
316.61	30.194
316.97	30.392
317.34	31.005
317.70	30.812
318.07	31.533
318.43	31.569
318.80	31.512
319.16	31.034
319.53	32.170
319.89	31.534
320.26	32.153
320.62	32.849
320.99	34.082
321.35	31.621
321.72	34.545
322.08	32.772
322.45	32.150
322.81	34.187
323.18	35.187
323.54	35.735
323.91	34.535
324.27	36.355
324.64	34.677
325.00	36.488
325.37	37.320
325.73	35.493
326.10	36.778
326.46	39.166
326.83	37.907
327.19	37.031
327.56	40.318
327.92	37.413
328.29	39.606
328.65	38.889
329.01	39.358
329.38	38.935
329.74	40.483
330.11	39.702
330.47	41.527
330.84	39.850
331.20	39.094
331.56	41.509
331.93	39.707
332.29	40.611
332.66	40.416
333.02	41.226
333.38	40.993
333.75	41.263
334.11	40.958
334.48	40.787
334.84	40.282
335.20	41.092
335.57	41.871
335.93	40.372
336.29	41.590
336.66	42.896
337.02	41.160
337.38	41.321
337.75	43.455
338.11	43.118
338.47	43.825
338.84	42.265
339.20	43.263
339.56	41.938
339.93	42.162
340.29	42.702
340.65	42.648
341.02	42.693
341.38	42.189
341.74	42.082
342.11	43.413
342.47	41.696
342.83	42.064
343.20	41.645
343.56	43.269
343.92	43.395
344.28	40.652
344.65	42.209
345.01	41.551
345.37	42.906
345.73	41.860
346.10	43.993
346.46	44.435
346.82	43.585
347.19	42.893
347.55	43.622
347.91	43.325
348.27	44.398
348.63	44.166
349.00	45.326
349.36	42.951
349.72	44.335
350.08	43.944
350.45	43.043
350.81	43.435
351.17	42.586
351.53	41.063
351.89	45.509
352.26	41.951
352.62	44.235
352.98	43.515
353.34	42.857
353.70	43.457
354.07	43.740
354.43	44.240
354.79	45.000
355.15	42.938
355.51	46.292
355.87	45.379
356.24	44.444
356.60	44.240
356.96	43.839
357.32	46.667
357.68	45.505
358.04	44.895
358.40	45.254
358.77	44.659
359.13	44.900
359.49	44.400
359.85	44.924
360.21	44.885
360.57	44.258
360.93	45.922
361.29	46.340
361.66	45.347
362.02	46.075
362.38	47.708
362.74	47.656
363.10	44.796
363.46	45.297
363.82	44.717
364.18	46.329
364.54	46.565
364.90	46.370
365.26	46.051
365.62	46.556
365.98	48.276
366.35	47.882
366.71	47.199
367.07	46.642
367.43	46.137
367.79	47.384
368.15	47.368
368.51	47.566
368.87	47.871
369.23	48.978
369.59	46.985
369.95	47.243
370.31	47.955
370.67	47.519
371.03	47.988
371.39	48.112
371.75	46.062
372.11	47.630
372.47	47.068
372.83	47.845
373.19	50.452
373.55	47.380
373.91	48.333
374.27	49.007
374.63	47.644
374.99	48.097
375.35	49.274
375.71	49.928
376.07	47.915
376.42	47.856
376.78	48.223
377.14	48.883
377.50	49.453
377.86	49.582
378.22	49.406
378.58	48.553
378.94	48.919
379.30	49.614
379.66	48.464
380.02	49.905
380.38	50.763
380.74	49.658
381.09	49.365
381.45	50.984
381.81	50.255
382.17	49.837
382.53	50.559
382.89	49.391
383.25	50.856
383.61	49.332
383.97	50.032
384.32	49.355
384.68	50.383
385.04	49.650
385.40	49.776
385.76	49.905
386.12	51.155
386.48	49.772
386.83	50.165
387.19	50.575
387.55	50.065
387.91	50.592
388.27	51.504
388.62	50.518
388.98	50.891
389.34	50.228
389.70	51.346
390.06	51.947
390.42	50.642
390.77	51.241
391.13	50.358
391.49	52.224
391.85	49.434
392.20	51.617
392.56	51.473
392.92	51.330
393.28	50.808
393.64	50.538
393.99	50.974
394.35	50.292
394.71	50.331
395.07	51.658
395.42	49.714
395.78	50.806
396.14	50.566
396.50	49.612
396.85	50.760
397.21	50.259
397.57	50.099
397.92	50.700
398.28	49.221
398.64	50.603
399.00	50.087
399.35	50.410
399.71	49.222
400.07	49.413
400.42	51.154
400.78	51.248
401.14	48.864
401.49	50.219
401.85	52.127
402.21	51.079
402.57	49.066
402.92	50.332
403.28	50.000
403.63	49.295
403.99	49.339
404.35	48.471
404.70	49.778
405.06	50.093
405.42	49.122
405.77	49.227
406.13	48.387
406.49	48.896
406.84	50.498
407.20	49.442
407.55	48.564
407.91	48.951
408.27	50.133
408.62	48.232
408.98	49.614
409.34	48.528
409.69	49.097
410.05	47.927
410.40	48.298
410.76	49.253
411.11	47.899
411.47	48.163
411.83	47.585
412.18	48.102
412.54	48.189
412.89	47.539
413.25	47.900
413.60	48.342
413.96	47.508
414.31	46.526
414.67	48.211
415.03	47.441
415.38	48.677
415.74	47.616
416.09	48.380
416.45	48.054
416.80	46.871
417.16	48.590
417.51	47.120
417.87	47.538
418.22	47.059
418.58	47.823
418.93	47.518
419.29	46.879
419.64	48.695
420.00	46.889
420.35	46.328
420.71	47.951
421.06	46.204
421.42	47.428
421.77	46.468
422.12	47.076
422.48	46.602
422.83	46.322
423.19	47.000
423.54	44.960
423.90	47.219
424.25	46.647
424.61	46.194
424.96	46.130
425.31	46.739
425.67	46.485
426.02	45.652
426.38	45.560
426.73	45.296
427.09	45.962
427.44	46.605
427.79	46.720
428.15	45.720
428.50	45.415
428.85	47.017
429.21	46.683
429.56	45.028
429.92	44.024
430.27	45.013
430.62	46.295
430.98	45.083
431.33	45.384
431.68	45.897
432.04	46.318
432.39	43.316
432.74	44.529
433.10	46.210
433.45	45.028
433.80	45.417
434.16	44.304
434.51	44.649
434.86	45.378
435.22	45.052
435.57	44.525
435.92	43.777
436.28	45.081
436.63	44.902
436.98	44.691
437.34	46.513
437.69	45.062
438.04	43.810
438.39	44.909
438.75	44.123
439.10	45.179
439.45	46.598
439.81	44.063
440.16	44.527
440.51	44.052
440.86	43.813
441.22	43.300
441.57	43.989
441.92	44.395
442.27	44.971
442.63	43.228
442.98	45.721
443.33	44.066
443.68	43.649
444.03	43.351
444.39	42.842
444.74	44.133
445.09	44.628
445.44	42.449
445.79	44.552
446.15	42.974
446.50	42.799
446.85	43.179
447.20	43.217
447.55	43.048
447.91	43.092
448.26	43.145
448.61	42.779
448.96	43.111
449.31	42.797
449.66	41.889
450.02	42.189
450.37	42.588
450.72	42.849
451.07	43.309
451.42	43.939
451.77	41.677
452.12	42.920
452.47	43.428
452.83	42.030
453.18	42.404
453.53	42.782
453.88	42.374
454.23	41.214
454.58	42.232
454.93	40.191
455.28	41.005
455.63	41.585
455.98	42.640
456.34	41.192
456.69	41.368
457.04	40.486
457.39	41.760
457.74	40.771
458.09	40.821
458.44	42.060
458.79	41.166
459.14	40.489
459.49	41.210
459.84	41.558
460.19	40.275
460.54	39.836
460.89	40.294
461.24	41.039
461.59	40.252
461.94	41.617
462.29	40.414
462.64	39.276
462.99	41.987
463.34	40.073
463.69	40.741
464.04	39.962
464.39	40.514
464.74	38.482
465.09	39.228
465.44	39.592
465.79	39.230
466.14	39.857
466.49	40.452
466.84	39.066
467.19	39.311
467.54	37.401
467.89	38.602
468.24	38.447
468.59	38.743
468.94	39.274
469.29	38.685
469.64	39.023
469.99	38.284
470.34	38.967
470.68	38.846
471.03	37.007
471.38	38.594
471.73	39.099
472.08	38.861
472.43	38.520
472.78	37.999
473.13	39.649
473.48	37.275
473.83	39.168
474.17	37.759
474.52	37.240
474.87	36.679
475.22	38.818
475.57	37.192
475.92	37.521
476.27	37.492
476.61	36.879
476.96	37.344
477.31	37.614
477.66	37.478
478.01	37.081
478.36	36.619
478.70	39.324
479.05	36.912
479.40	36.926
479.75	37.689
480.10	37.771
480.45	37.173
480.79	37.208
481.14	37.322
481.49	37.018
481.84	37.424
482.19	36.000
482.53	35.882
482.88	35.892
483.23	36.583
483.58	36.485
483.92	36.281
484.27	35.528
484.62	37.199
484.97	35.281
485.31	34.996
485.66	34.586
486.01	34.767
486.36	35.283
486.70	36.169
487.05	36.331
487.40	35.851
487.75	35.528
488.09	35.370
488.44	35.184
488.79	35.130
489.13	33.707
489.48	34.364
489.83	35.321
490.17	35.162
490.52	34.417
490.87	36.152
491.22	35.750
491.56	35.277
491.91	34.890
492.26	35.747
492.60	35.867
492.95	35.729
493.30	35.651
493.64	34.483
493.99	34.908
494.34	35.378
494.68	34.143
495.03	34.128
495.37	34.972
495.72	35.285
496.07	34.888
496.41	33.597
496.76	33.477
497.11	35.598
497.45	34.505
497.80	34.839
498.14	34.108
498.49	34.864
498.84	34.329
499.18	34.354
499.53	34.424
499.87	34.767
500.22	34.026
500.56	34.328
500.91	35.081
501.26	34.541
501.60	33.384
501.95	35.107
502.29	33.864
502.64	32.404
502.98	34.427
503.33	33.849
503.67	34.201
504.02	33.606
504.36	33.898
504.71	33.777
505.06	34.065
505.40	33.834
505.75	33.702
506.09	33.478
506.44	33.852
506.78	33.994
507.13	33.713
507.47	33.518
507.82	33.817
508.16	33.352
508.51	35.011
508.85	33.901
509.19	33.406
509.54	33.541
509.88	33.372
510.23	33.989
510.57	33.504
510.92	33.617
511.26	33.946
511.61	33.619
511.95	33.603
512.30	33.391
512.64	33.490
512.98	33.550
513.33	31.829
513.67	32.455
514.02	32.933
514.36	33.867
514.70	34.730
515.05	34.024
515.39	34.504
515.74	33.772
516.08	32.015
516.42	33.499
516.77	33.851
517.11	33.823
517.46	34.041
517.80	33.950
518.14	34.282
518.49	34.282
518.83	34.695
519.17	34.190
519.52	33.542
519.86	33.882
520.20	33.376
520.55	34.008
520.89	34.413
521.23	33.601
521.58	33.135
521.92	33.178
522.26	33.402
522.61	33.379
522.95	34.452
523.29	32.389
523.64	33.514
523.98	33.333
524.32	33.670
524.66	33.923
525.01	33.608
525.35	33.789
525.69	33.173
526.04	34.179
526.38	33.790
526.72	33.681
527.06	34.529
527.41	33.451
527.75	33.525
528.09	33.380
528.43	33.664
528.78	33.194
529.12	33.356
529.46	33.023
529.80	32.948
530.15	33.495
530.49	33.473
530.83	32.610
531.17	33.263
531.51	32.905
531.86	33.613
532.20	31.457
532.54	33.957
532.88	33.309
533.22	32.974
533.57	32.966
533.91	32.966
534.25	32.451
534.59	33.425
534.93	31.699
535.27	32.256
535.62	32.951
535.96	32.938
536.30	32.777
536.64	32.117
536.98	32.965
537.32	33.705
537.66	32.331
538.01	33.800
538.35	32.873
538.69	32.272
539.03	32.733
539.37	31.802
539.71	32.754
540.05	33.792
540.39	32.317
540.73	31.868
541.07	31.912
541.42	32.217
541.76	32.590
542.10	31.923
542.44	33.382
542.78	32.918
543.12	31.119
543.46	31.595
543.80	32.666
544.14	32.760
544.48	30.807
544.82	31.228
545.16	31.159
545.50	32.387
545.84	31.968
546.18	31.236
546.52	32.360
546.86	32.058
547.20	31.818
547.54	30.553
547.88	32.123
548.22	30.802
548.56	32.911
548.90	31.930
549.24	31.213
549.58	32.265
549.92	31.955
550.26	32.510
550.60	30.214
550.94	32.063
551.28	31.382
551.62	32.596
551.96	30.990
552.30	30.930
552.64	30.053
552.98	32.021
553.32	30.909
553.66	31.563
554.00	33.050
554.34	31.328
554.68	32.137
555.02	31.429
555.36	32.724
555.69	30.899
556.03	31.855
556.37	31.958
556.71	31.146
557.05	31.484
557.39	30.843
557.73	31.682
558.07	31.455
558.41	30.806
558.75	31.452
559.08	33.957
559.42	32.776
559.76	32.266
560.10	32.029
560.44	30.404
560.78	30.203
561.12	30.353
561.45	31.101
561.79	30.617
562.13	30.541
562.47	31.422
562.81	30.023
563.15	30.494
563.48	30.562
563.82	30.713
564.16	29.971
564.50	29.585
564.84	30.120
565.17	30.043
565.51	30.683
565.85	30.000
566.19	31.524
566.52	30.896
566.86	31.489
567.20	30.739
567.54	30.440
567.88	30.643
568.21	30.832
568.55	30.560
568.89	31.209
569.23	30.873
569.56	30.943
569.90	31.006
570.24	31.009
570.57	31.339
570.91	30.568
571.25	30.785
571.59	30.918
571.92	30.078
572.26	30.207
572.60	29.506
572.93	30.026
573.27	29.916
573.61	30.115
573.95	30.156
574.28	30.152
574.62	28.847
574.96	29.335
575.29	28.859
575.63	29.330
575.97	29.373
576.30	29.931
576.64	28.831
576.98	29.421
577.31	29.718
577.65	30.002
577.98	29.238
578.32	29.307
578.66	29.724
578.99	30.302
579.33	29.200
579.67	29.369
580.00	29.335
580.34	29.792
580.67	29.298
581.01	29.838
581.35	29.129
581.68	29.012
582.02	29.091
582.35	29.497
582.69	29.704
583.02	29.801
583.36	29.288
583.70	30.178
584.03	29.354
584.37	29.632
584.70	28.965
585.04	29.071
585.37	29.364
585.71	29.758
586.04	29.881
586.38	29.692
586.72	30.026
587.05	29.281
587.39	29.630
587.72	29.814
588.06	29.296
588.39	29.419
588.73	28.513
589.06	28.896
589.40	29.884
589.73	29.806
590.07	29.191
590.40	29.023
590.73	29.738
591.07	29.264
591.40	28.780
591.74	28.871
592.07	28.892
592.41	30.319
592.74	29.484
593.08	29.151
593.41	29.345
593.75	29.525
594.08	29.782
594.41	29.503
594.75	30.266
595.08	29.451
595.42	29.290
595.75	29.508
596.09	29.984
596.42	28.541
596.75	30.227
597.09	28.591
597.42	29.376
597.75	29.362
598.09	29.448
598.42	29.579
598.76	29.281
599.09	28.403
599.42	28.442
599.76	29.188
600.09	29.537
600.42	28.828
600.76	28.599
601.09	28.980
601.42	28.422
601.76	28.977
602.09	29.367
602.42	29.396
602.76	29.276
603.09	29.373
603.42	29.387
603.76	29.627
604.09	29.323
604.42	29.498
604.76	29.712
605.09	28.909
605.42	28.910
605.75	29.191
606.09	29.511
606.42	29.396
606.75	29.085
607.09	29.478
607.42	28.821
607.75	28.512
608.08	29.186
608.42	29.340
608.75	28.564
609.08	28.622
609.41	29.549
609.75	29.015
610.08	29.096
610.41	29.466
610.74	29.120
611.07	28.609
611.41	28.480
611.74	29.706
612.07	28.850
612.40	28.691
612.73	28.819
613.07	29.184
613.40	28.752
613.73	28.809
614.06	28.689
614.39	28.764
614.72	29.280
615.06	29.047
615.39	28.060
615.72	28.331
616.05	29.159
616.38	27.817
616.71	28.669
617.05	28.455
617.38	28.581
617.71	29.458
618.04	29.172
618.37	29.758
618.70	28.804
619.03	29.007
619.36	29.971
619.69	28.227
620.03	29.596
620.36	29.705
620.69	28.307
621.02	29.375
621.35	29.191
621.68	29.073
622.01	29.590
622.34	29.564
622.67	29.848
623.00	28.829
623.33	28.268
623.66	30.199
623.99	29.266
624.32	30.103
624.65	28.672
624.99	28.828
625.32	29.700
625.65	27.222
625.98	29.833
626.31	28.312
626.64	29.550
626.97	29.779
627.30	29.444
627.63	29.209
627.96	27.281
628.29	28.298
628.62	30.309
628.95	29.145
629.28	28.719
629.61	29.049
629.94	30.809
630.26	29.916
630.59	30.366
630.92	27.292
631.25	29.162
631.58	28.605
