SpectraSuite Data File
++++++++++++++++++++++++++++++++++++
Date: Wed May 13 19:43:22 PDT 2015
User: schluterlab
Dark Spectrum Present: Yes
Reference Spectrum Present: Yes
Number of Sampled Component Spectra: 1
Spectrometers: USB2E3373
Integration Time (usec): 3000 (USB2E3373)
Spectra Averaged: 3 (USB2E3373)
Boxcar Smoothing: 0 (USB2E3373)
Correct for Electrical Dark: No (USB2E3373)
Strobe/Lamp Enabled: No (USB2E3373)
Correct for Detector Non-linearity: No (USB2E3373)
Correct for Stray Light: No (USB2E3373)
Number of Pixels in Processed Spectrum: 2048
>>>>>Begin Processed Spectral Data<<<<<
178.53	0.000
178.91	-1325.000
179.29	-1575.000
179.67	-222.222
180.04	-1025.000
180.42	2950.000
180.80	1140.000
181.18	-1300.000
181.56	742.857
181.94	0.000
182.31	-600.000
182.69	1700.000
183.07	-462.500
183.45	-511.111
183.83	500.000
184.20	-420.000
184.58	2000.000
184.96	5000.000
185.34	-800.000
185.72	-600.000
186.09	-2300.000
186.47	2500.000
186.85	2550.000
187.23	5300.000
187.61	-1633.333
187.98	1375.000
188.36	590.909
188.74	490.909
189.12	-960.000
189.49	490.000
189.87	-5300.000
190.25	-1450.000
190.63	371.429
191.00	400.000
191.38	983.333
191.76	-1175.000
192.14	1400.000
192.51	650.000
192.89	1016.667
193.27	687.500
193.65	-1175.000
194.02	480.000
194.40	1140.000
194.78	570.000
195.15	508.333
195.53	610.000
195.91	-1950.000
196.29	362.500
196.66	331.579
197.04	-390.000
197.42	0.000
197.79	670.000
198.17	-5400.000
198.55	528.571
198.92	787.500
199.30	920.000
199.68	0.000
200.05	327.778
200.43	842.857
200.81	4200.000
201.18	1400.000
201.56	-1800.000
201.94	622.222
202.31	644.444
202.69	450.000
203.07	530.000
203.44	0.000
203.82	1250.000
204.19	757.143
204.57	485.714
204.95	675.000
205.32	1700.000
205.70	481.818
206.08	464.286
206.45	2750.000
206.83	418.750
207.20	950.000
207.58	960.000
207.96	305.556
208.33	762.500
208.71	-750.000
209.08	714.286
209.46	600.000
209.84	527.273
210.21	-1933.333
210.59	1475.000
210.96	-512.500
211.34	3000.000
211.71	620.000
212.09	850.000
212.46	0.000
212.84	1600.000
213.22	1150.000
213.59	-4800.000
213.97	983.333
214.34	800.000
214.72	600.000
215.09	1000.000
215.47	-2300.000
215.84	-2900.000
216.22	1733.333
216.59	342.857
216.97	1375.000
217.34	563.636
217.72	-800.000
218.09	0.000
218.47	-4700.000
218.84	588.889
219.22	742.857
219.59	1566.667
219.97	-557.143
220.34	860.000
220.72	-2066.667
221.09	464.286
221.47	1425.000
221.84	-1050.000
222.22	0.000
222.59	1400.000
222.97	-2550.000
223.34	1200.000
223.72	423.077
224.09	1040.000
224.46	2450.000
224.84	-5200.000
225.21	-1280.000
225.59	-5300.000
225.96	580.000
226.34	310.000
226.71	3050.000
227.08	625.000
227.46	470.000
227.83	-1175.000
228.21	-1950.000
228.58	577.778
228.95	-2350.000
229.33	-2050.000
229.70	1566.667
230.08	957.143
230.45	-660.000
230.82	475.000
231.20	733.333
231.57	642.857
231.95	441.667
232.32	245.455
232.69	381.818
233.07	842.857
233.44	338.462
233.81	-1500.000
234.19	284.211
234.56	441.667
234.93	350.000
235.31	454.545
235.68	284.615
236.05	342.857
236.43	157.576
236.80	215.789
237.17	5300.000
237.55	252.381
237.92	207.143
238.29	233.333
238.67	167.742
239.04	186.207
239.41	122.222
239.79	126.087
240.16	121.429
240.53	138.636
240.91	109.804
241.28	122.000
241.65	110.000
242.02	79.710
242.40	88.710
242.77	106.667
243.14	77.419
243.51	69.663
243.89	75.294
244.26	68.889
244.63	64.516
245.00	60.638
245.38	69.307
245.75	57.944
246.12	55.963
246.49	64.234
246.87	64.800
247.24	57.692
247.61	57.143
247.98	42.484
248.36	52.027
248.73	48.408
249.10	49.682
249.47	44.633
249.84	43.316
250.22	39.572
250.59	49.112
250.96	43.434
251.33	44.550
251.70	48.515
252.08	38.095
252.45	38.565
252.82	37.826
253.19	40.851
253.56	41.176
253.94	42.739
254.31	33.984
254.68	37.308
255.05	36.162
255.42	36.585
255.79	34.559
256.16	35.018
256.54	32.155
256.91	33.452
257.28	29.137
257.65	33.333
258.02	34.472
258.39	31.861
258.76	29.766
259.14	32.143
259.51	28.267
259.88	30.124
260.25	29.305
260.62	27.457
260.99	28.571
261.36	30.330
261.73	28.367
262.10	26.744
262.47	29.577
262.85	27.855
263.22	23.932
263.59	31.909
263.96	27.747
264.33	26.632
264.70	28.684
265.07	31.714
265.44	30.808
265.81	25.547
266.18	26.633
266.55	26.341
266.92	23.587
267.29	28.935
267.66	26.606
268.03	26.364
268.40	26.402
268.77	23.866
269.14	25.676
269.51	26.637
269.88	24.009
270.25	25.508
270.62	27.416
270.99	27.097
271.36	27.039
271.73	26.636
272.10	27.609
272.47	25.376
272.84	23.810
273.21	25.577
273.58	26.419
273.95	21.803
274.32	23.760
274.69	24.625
275.06	21.654
275.43	26.170
275.80	22.645
276.17	25.458
276.54	24.948
276.91	23.715
277.28	21.680
277.65	23.791
278.02	20.911
278.39	23.242
278.76	22.182
279.13	22.642
279.50	23.091
279.87	23.506
280.23	23.353
280.60	23.211
280.97	23.290
281.34	24.071
281.71	22.727
282.08	24.568
282.45	22.000
282.82	23.979
283.19	19.430
283.56	22.456
283.92	22.335
284.29	22.399
284.66	21.960
285.03	20.976
285.40	22.711
285.77	22.727
286.14	21.416
286.51	23.167
286.87	21.368
287.24	22.801
287.61	23.596
287.98	22.078
288.35	21.395
288.72	21.028
289.08	22.222
289.45	20.264
289.82	21.626
290.19	19.937
290.56	20.827
290.93	17.825
291.29	19.172
291.66	19.764
292.03	22.238
292.40	21.292
292.77	18.491
293.13	20.149
293.50	19.534
293.87	20.296
294.24	18.519
294.60	16.739
294.97	19.622
295.34	18.759
295.71	18.182
296.08	19.373
296.44	18.569
296.81	17.041
297.18	18.699
297.55	16.095
297.91	17.546
298.28	18.072
298.65	16.971
299.02	17.260
299.38	16.999
299.75	16.577
300.12	16.220
300.48	15.375
300.85	17.386
301.22	16.561
301.59	17.551
301.95	17.380
302.32	15.661
302.69	18.280
303.05	16.606
303.42	15.185
303.79	15.402
304.15	15.734
304.52	15.064
304.89	15.099
305.25	16.125
305.62	15.855
305.99	15.939
306.35	16.890
306.72	16.256
307.09	16.648
307.45	18.356
307.82	15.625
308.19	16.446
308.55	17.260
308.92	14.608
309.29	14.678
309.65	15.589
310.02	17.019
310.38	17.204
310.75	16.790
311.12	16.070
311.48	17.346
311.85	16.876
312.22	15.817
312.58	16.216
312.95	18.057
313.31	15.146
313.68	17.256
314.05	18.442
314.41	17.889
314.78	17.019
315.14	17.279
315.51	17.508
315.87	19.208
316.24	17.676
316.61	18.031
316.97	19.178
317.34	16.732
317.70	19.312
318.07	18.672
318.43	19.961
318.80	20.056
319.16	19.774
319.53	19.137
319.89	21.143
320.26	22.200
320.62	19.246
320.99	21.212
321.35	21.111
321.72	22.177
322.08	22.804
322.45	23.085
322.81	21.996
323.18	24.374
323.54	23.191
323.91	24.245
324.27	24.761
324.64	22.926
325.00	24.166
325.37	25.933
325.73	25.494
326.10	25.772
326.46	25.538
326.83	27.524
327.19	26.985
327.56	27.700
327.92	27.034
328.29	27.418
328.65	29.098
329.01	28.971
329.38	27.197
329.74	27.793
330.11	28.464
330.47	29.201
330.84	29.779
331.20	28.233
331.56	29.358
331.93	29.537
332.29	29.814
332.66	30.000
333.02	30.073
333.38	29.720
333.75	30.570
334.11	30.516
334.48	28.838
334.84	30.239
335.20	29.909
335.57	28.740
335.93	29.018
336.29	29.396
336.66	30.748
337.02	28.778
337.38	29.907
337.75	29.768
338.11	29.364
338.47	30.571
338.84	29.331
339.20	30.826
339.56	30.839
339.93	29.727
340.29	29.982
340.65	29.323
341.02	30.017
341.38	29.537
341.74	30.088
342.11	30.393
342.47	29.692
342.83	29.880
343.20	29.784
343.56	29.486
343.92	29.825
344.28	29.422
344.65	28.977
345.01	28.704
345.37	28.473
345.73	29.611
346.10	29.668
346.46	30.085
346.82	30.066
347.19	29.490
347.55	28.571
347.91	29.045
348.27	29.252
348.63	31.020
349.00	29.450
349.36	29.885
349.72	28.308
350.08	28.687
350.45	29.699
350.81	28.757
351.17	27.958
351.53	29.238
351.89	27.723
352.26	29.676
352.62	29.912
352.98	28.930
353.34	28.677
353.70	29.460
354.07	29.194
354.43	28.968
354.79	28.479
355.15	28.093
355.51	30.456
355.87	29.878
356.24	30.293
356.60	29.270
356.96	30.249
357.32	28.945
357.68	29.843
358.04	28.820
358.40	29.691
358.77	29.812
359.13	27.782
359.49	29.961
359.85	27.857
360.21	29.346
360.57	30.506
360.93	29.923
361.29	29.252
361.66	28.793
362.02	29.925
362.38	29.430
362.74	28.571
363.10	28.497
363.46	30.081
363.82	29.101
364.18	28.488
364.54	29.569
364.90	30.241
365.26	30.221
365.62	29.584
365.98	28.926
366.35	28.295
366.71	29.501
367.07	29.789
367.43	30.044
367.79	30.050
368.15	30.316
368.51	28.634
368.87	30.764
369.23	30.066
369.59	30.123
369.95	30.809
370.31	30.769
370.67	30.000
371.03	32.434
371.39	30.466
371.75	31.618
372.11	30.797
372.47	31.965
372.83	30.764
373.19	30.419
373.55	30.968
373.91	31.885
374.27	31.271
374.63	30.327
374.99	31.427
375.35	30.705
375.71	31.049
376.07	32.373
376.42	31.912
376.78	32.936
377.14	30.936
377.50	30.861
377.86	30.186
378.22	31.416
378.58	31.266
378.94	30.798
379.30	32.252
379.66	32.805
380.02	32.064
380.38	30.662
380.74	31.573
381.09	33.313
381.45	31.776
381.81	32.985
382.17	32.930
382.53	32.767
382.89	32.716
383.25	32.645
383.61	34.015
383.97	33.709
384.32	33.812
384.68	32.776
385.04	33.313
385.40	32.446
385.76	33.415
386.12	33.679
386.48	34.172
386.83	34.702
387.19	34.632
387.55	34.694
387.91	33.495
388.27	33.906
388.62	34.173
388.98	33.538
389.34	34.856
389.70	34.764
390.06	35.741
390.42	35.279
390.77	34.478
391.13	35.099
391.49	34.581
391.85	34.946
392.20	34.763
392.56	35.543
392.92	36.021
393.28	35.207
393.64	36.091
393.99	35.614
394.35	35.236
394.71	34.944
395.07	35.452
395.42	36.279
395.78	37.405
396.14	36.499
396.50	37.970
396.85	37.254
397.21	36.005
397.57	37.260
397.92	37.861
398.28	36.155
398.64	36.679
399.00	37.269
399.35	37.225
399.71	36.690
400.07	37.966
400.42	36.564
400.78	38.058
401.14	37.561
401.49	38.209
401.85	37.387
402.21	37.605
402.57	37.816
402.92	38.903
403.28	38.226
403.63	37.809
403.99	38.790
404.35	38.788
404.70	38.729
405.06	37.391
405.42	39.239
405.77	37.943
406.13	37.810
406.49	39.267
406.84	39.043
407.20	38.948
407.55	39.375
407.91	40.667
408.27	40.013
408.62	39.374
408.98	39.338
409.34	40.037
409.69	40.387
410.05	39.901
410.40	40.306
410.76	40.502
411.11	39.144
411.47	39.744
411.83	39.951
412.18	40.383
412.54	40.411
412.89	40.000
413.25	39.965
413.60	40.272
413.96	39.344
414.31	40.158
414.67	40.241
415.03	40.199
415.38	40.786
415.74	41.158
416.09	41.803
416.45	41.098
416.80	41.176
417.16	42.292
417.51	42.203
417.87	39.820
418.22	40.946
418.58	39.509
418.93	41.953
419.29	41.120
419.64	41.499
420.00	41.159
420.35	41.217
420.71	42.499
421.06	40.990
421.42	41.754
421.77	40.303
422.12	40.988
422.48	40.583
422.83	41.642
423.19	41.215
423.54	42.310
423.90	42.029
424.25	42.546
424.61	40.952
424.96	42.507
425.31	41.860
425.67	40.112
426.02	41.543
426.38	42.491
426.73	40.960
427.09	41.094
427.44	41.403
427.79	42.266
428.15	41.310
428.50	41.837
428.85	43.325
429.21	41.524
429.56	42.354
429.92	41.369
430.27	41.857
430.62	41.270
430.98	40.996
431.33	41.598
431.68	41.571
432.04	41.374
432.39	42.490
432.74	42.490
433.10	41.822
433.45	42.974
433.80	41.242
434.16	42.949
434.51	41.474
434.86	42.702
435.22	41.857
435.57	42.614
435.92	42.657
436.28	43.060
436.63	42.384
436.98	42.072
437.34	42.815
437.69	41.657
438.04	42.046
438.39	42.687
438.75	42.069
439.10	42.905
439.45	42.385
439.81	43.142
440.16	42.462
440.51	41.476
440.86	42.328
441.22	41.935
441.57	42.463
441.92	42.323
442.27	42.142
442.63	42.127
442.98	42.648
443.33	42.011
443.68	41.766
444.03	41.581
444.39	41.967
444.74	41.829
445.09	41.725
445.44	41.279
445.79	41.910
446.15	42.139
446.50	40.549
446.85	40.339
447.20	41.815
447.55	42.937
447.91	41.975
448.26	42.181
448.61	41.492
448.96	42.414
449.31	41.226
449.66	41.362
450.02	42.061
450.37	41.043
450.72	41.794
451.07	41.012
451.42	41.155
451.77	42.278
452.12	41.628
452.47	41.294
452.83	42.483
453.18	41.626
453.53	42.672
453.88	41.819
454.23	42.259
454.58	41.672
454.93	42.085
455.28	40.835
455.63	42.658
455.98	42.679
456.34	41.080
456.69	42.455
457.04	42.663
457.39	41.379
457.74	41.730
458.09	42.093
458.44	42.360
458.79	40.564
459.14	40.576
459.49	41.506
459.84	40.166
460.19	40.719
460.54	40.567
460.89	40.538
461.24	42.562
461.59	42.127
461.94	40.259
462.29	42.077
462.64	41.417
462.99	40.338
463.34	41.800
463.69	42.276
464.04	40.986
464.39	41.275
464.74	41.176
465.09	41.435
465.44	40.997
465.79	40.324
466.14	40.832
466.49	40.044
466.84	40.806
467.19	40.676
467.54	41.750
467.89	40.876
468.24	39.965
468.59	42.491
468.94	39.707
469.29	41.131
469.64	42.436
469.99	42.760
470.34	40.885
470.68	42.457
471.03	39.592
471.38	41.904
471.73	41.972
472.08	42.632
472.43	40.389
472.78	41.014
473.13	41.207
473.48	41.511
473.83	41.159
474.17	41.070
474.52	41.873
474.87	42.615
475.22	41.497
475.57	40.731
475.92	40.945
476.27	39.628
476.61	41.864
476.96	41.946
477.31	41.078
477.66	40.591
478.01	41.244
478.36	41.724
478.70	41.693
479.05	41.587
479.40	41.351
479.75	40.976
480.10	40.755
480.45	41.076
480.79	41.328
481.14	40.705
481.49	40.769
481.84	40.741
482.19	41.072
482.53	41.101
482.88	40.949
483.23	41.308
483.58	40.491
483.92	40.581
484.27	38.562
484.62	40.000
484.97	39.968
485.31	40.445
485.66	37.832
486.01	37.343
486.36	36.787
486.70	36.493
487.05	37.055
487.40	38.560
487.75	38.472
488.09	39.915
488.44	40.260
488.79	41.338
489.13	40.642
489.48	39.763
489.83	39.965
490.17	41.035
490.52	41.187
490.87	40.434
491.22	40.382
491.56	39.863
491.91	39.972
492.26	40.560
492.60	40.737
492.95	39.850
493.30	40.654
493.64	40.784
493.99	40.529
494.34	40.009
494.68	40.980
495.03	40.742
495.37	40.437
495.72	40.302
496.07	41.021
496.41	40.088
496.76	39.666
497.11	40.522
497.45	41.267
497.80	40.547
498.14	40.918
498.49	41.805
498.84	40.844
499.18	39.667
499.53	40.693
499.87	40.587
500.22	40.038
500.56	41.990
500.91	40.240
501.26	40.872
501.60	40.532
501.95	39.918
502.29	41.050
502.64	41.061
502.98	40.673
503.33	40.128
503.67	39.814
504.02	40.131
504.36	40.477
504.71	40.156
505.06	40.000
505.40	40.399
505.75	39.248
506.09	40.622
506.44	40.898
506.78	40.672
507.13	41.343
507.47	40.909
507.82	41.743
508.16	40.679
508.51	41.705
508.85	40.914
509.19	40.867
509.54	41.122
509.88	39.928
510.23	41.183
510.57	41.022
510.92	41.119
511.26	40.904
511.61	40.923
511.95	40.397
512.30	40.191
512.64	40.946
512.98	41.961
513.33	42.827
513.67	40.608
514.02	41.017
514.36	41.070
514.70	41.616
515.05	41.550
515.39	41.615
515.74	40.372
516.08	41.084
516.42	42.064
516.77	42.419
517.11	40.455
517.46	41.084
517.80	42.334
518.14	42.270
518.49	43.524
518.83	41.534
519.17	40.993
519.52	41.313
519.86	40.844
520.20	41.850
520.55	42.190
520.89	43.796
521.23	42.581
521.58	41.777
521.92	42.192
522.26	41.062
522.61	42.555
522.95	42.296
523.29	42.179
523.64	42.988
523.98	42.637
524.32	42.099
524.66	42.754
525.01	41.667
525.35	42.503
525.69	41.256
526.04	43.614
526.38	41.123
526.72	42.270
527.06	43.189
527.41	41.584
527.75	43.344
528.09	42.132
528.43	41.619
528.78	42.409
529.12	41.273
529.46	42.437
529.80	40.718
530.15	43.302
530.49	40.554
530.83	42.152
531.17	43.603
531.51	44.423
531.86	42.839
532.20	43.611
532.54	42.921
532.88	42.811
533.22	42.286
533.57	41.420
533.91	41.902
534.25	42.284
534.59	41.062
534.93	41.820
535.27	41.883
535.62	42.186
535.96	42.750
536.30	42.339
536.64	43.078
536.98	43.198
537.32	42.791
537.66	43.267
538.01	42.067
538.35	42.017
538.69	42.948
539.03	41.196
539.37	40.958
539.71	42.126
540.05	41.503
540.39	42.990
540.73	41.332
541.07	42.180
541.42	42.466
541.76	41.484
542.10	41.850
542.44	42.715
542.78	43.281
543.12	41.459
543.46	41.377
543.80	43.006
544.14	40.886
544.48	42.540
544.82	41.309
545.16	42.615
545.50	42.159
545.84	41.532
546.18	42.088
546.52	43.359
546.86	42.612
547.20	43.088
547.54	41.416
547.88	43.048
548.22	40.473
548.56	41.635
548.90	40.205
549.24	41.751
549.58	42.838
549.92	43.063
550.26	44.318
550.60	40.871
550.94	42.887
551.28	40.600
551.62	41.625
551.96	41.544
552.30	42.799
552.64	42.191
552.98	42.847
553.32	42.549
553.66	42.127
554.00	41.524
554.34	41.615
554.68	42.847
555.02	42.948
555.36	41.475
555.69	41.204
556.03	41.655
556.37	41.269
556.71	40.314
557.05	41.667
557.39	40.168
557.73	42.131
558.07	42.350
558.41	40.955
558.75	41.734
559.08	41.163
559.42	42.404
559.76	42.206
560.10	41.113
560.44	41.859
560.78	40.186
561.12	39.578
561.45	40.808
561.79	39.881
562.13	40.174
562.47	41.598
562.81	41.841
563.15	40.000
563.48	41.180
563.82	40.313
564.16	39.699
564.50	40.234
564.84	40.582
565.17	40.026
565.51	40.703
565.85	40.292
566.19	39.825
566.52	40.152
566.86	39.662
567.20	40.802
567.54	38.870
567.88	39.381
568.21	39.841
568.55	38.473
568.89	38.424
569.23	38.324
569.56	37.004
569.90	37.170
570.24	36.921
570.57	35.906
570.91	35.003
571.25	35.423
571.59	35.582
571.92	35.455
572.26	35.702
572.60	36.006
572.93	35.562
573.27	35.936
573.61	35.260
573.95	35.297
574.28	34.774
574.62	34.961
574.96	33.763
575.29	34.675
575.63	34.604
575.97	34.626
576.30	34.493
576.64	34.622
576.98	34.784
577.31	34.612
577.65	34.397
577.98	34.037
578.32	33.578
578.66	34.109
578.99	34.467
579.33	34.326
579.67	33.860
580.00	34.260
580.34	34.836
580.67	33.987
581.01	34.540
581.35	33.442
581.68	33.625
582.02	33.619
582.35	33.852
582.69	33.788
583.02	34.003
583.36	34.148
583.70	34.965
584.03	34.770
584.37	35.257
584.70	34.875
585.04	33.684
585.37	33.784
585.71	34.305
586.04	34.380
586.38	34.483
586.72	34.852
587.05	34.420
587.39	33.536
587.72	34.218
588.06	34.472
588.39	34.540
588.73	34.438
589.06	35.650
589.40	35.556
589.73	35.656
590.07	34.982
590.40	35.659
590.73	35.636
591.07	36.752
591.40	36.567
591.74	36.797
592.07	36.257
592.41	36.627
592.74	34.644
593.08	34.144
593.41	34.736
593.75	33.666
594.08	33.590
594.41	34.358
594.75	34.566
595.08	35.183
595.42	34.956
595.75	34.473
596.09	34.961
596.42	34.971
596.75	35.880
597.09	36.147
597.42	34.528
597.75	35.015
598.09	35.522
598.42	35.524
598.76	35.022
599.09	34.626
599.42	34.352
599.76	34.407
600.09	34.718
600.42	33.674
600.76	34.464
601.09	34.026
601.42	33.904
601.76	34.915
602.09	34.704
602.42	34.554
602.76	34.865
603.09	34.540
603.42	35.103
603.76	34.413
604.09	34.122
604.42	34.285
604.76	35.175
605.09	35.692
605.42	34.074
605.75	34.685
606.09	34.404
606.42	34.287
606.75	33.845
607.09	34.115
607.42	34.104
607.75	33.629
608.08	34.303
608.42	35.141
608.75	34.806
609.08	34.274
609.41	35.174
609.75	34.778
610.08	34.826
610.41	34.823
610.74	34.484
611.07	35.820
611.41	34.642
611.74	36.149
612.07	35.870
612.40	35.729
612.73	35.158
613.07	36.261
613.40	35.071
613.73	34.557
614.06	35.323
614.39	34.347
614.72	34.526
615.06	35.137
615.39	34.660
615.72	35.481
616.05	34.556
616.38	34.908
616.71	35.511
617.05	35.984
617.38	35.177
617.71	35.976
618.04	35.998
618.37	35.719
618.70	35.096
619.03	36.908
619.36	36.660
619.69	37.183
620.03	37.569
620.36	36.698
620.69	36.918
621.02	36.799
621.35	36.727
621.68	36.604
622.01	37.771
622.34	37.973
622.67	37.262
623.00	36.977
623.33	36.955
623.66	36.741
623.99	36.156
624.32	36.733
624.65	36.370
624.99	35.269
625.32	36.133
625.65	37.040
625.98	37.048
626.31	37.170
626.64	37.959
626.97	37.822
627.30	37.074
627.63	37.736
627.96	37.931
628.29	37.708
628.62	38.243
628.95	39.528
629.28	38.321
629.61	39.138
629.94	38.952
630.26	39.466
630.59	37.083
630.92	37.644
