SpectraSuite Data File
++++++++++++++++++++++++++++++++++++
Date: Wed May 13 19:49:39 PDT 2015
User: schluterlab
Dark Spectrum Present: Yes
Reference Spectrum Present: Yes
Number of Sampled Component Spectra: 1
Spectrometers: USB2E3373
Integration Time (usec): 3000 (USB2E3373)
Spectra Averaged: 3 (USB2E3373)
Boxcar Smoothing: 0 (USB2E3373)
Correct for Electrical Dark: No (USB2E3373)
Strobe/Lamp Enabled: No (USB2E3373)
Correct for Detector Non-linearity: No (USB2E3373)
Correct for Stray Light: No (USB2E3373)
Number of Pixels in Processed Spectrum: 2048
>>>>>Begin Processed Spectral Data<<<<<
178.53	0.000
178.91	-1600.000
179.29	-1425.000
179.67	-261.111
180.04	-1450.000
180.42	2950.000
180.80	880.000
181.18	-1200.000
181.56	700.000
181.94	0.000
182.31	-714.286
182.69	1666.667
183.07	-612.500
183.45	-611.111
183.83	490.909
184.20	-470.000
184.58	2650.000
184.96	5400.000
185.34	-780.000
185.72	-650.000
186.09	-2350.000
186.47	2550.000
186.85	2600.000
187.23	4700.000
187.61	-1966.667
187.98	1550.000
188.36	590.909
188.74	490.909
189.12	-1000.000
189.49	600.000
189.87	-4100.000
190.25	-1275.000
190.63	485.714
191.00	453.846
191.38	750.000
191.76	-1350.000
192.14	1350.000
192.51	662.500
192.89	1033.333
193.27	600.000
193.65	-1350.000
194.02	540.000
194.40	1080.000
194.78	660.000
195.15	491.667
195.53	700.000
195.91	-2750.000
196.29	356.250
196.66	378.947
197.04	-500.000
197.42	0.000
197.79	640.000
198.17	-5300.000
198.55	714.286
198.92	762.500
199.30	1000.000
199.68	0.000
200.05	305.556
200.43	900.000
200.81	4100.000
201.18	1966.667
201.56	-1666.667
201.94	511.111
202.31	622.222
202.69	416.667
203.07	490.000
203.44	0.000
203.82	1175.000
204.19	671.429
204.57	421.429
204.95	775.000
205.32	1566.667
205.70	554.545
206.08	457.143
206.45	3050.000
206.83	368.750
207.20	950.000
207.58	880.000
207.96	277.778
208.33	762.500
208.71	-950.000
209.08	857.143
209.46	588.889
209.84	472.727
210.21	-1700.000
210.59	1500.000
210.96	-550.000
211.34	3050.000
211.71	670.000
212.09	700.000
212.46	0.000
212.84	1766.667
213.22	1325.000
213.59	-4100.000
213.97	900.000
214.34	814.286
214.72	600.000
215.09	800.000
215.47	-2400.000
215.84	-2800.000
216.22	1733.333
216.59	428.571
216.97	1150.000
217.34	554.545
217.72	-716.667
218.09	0.000
218.47	-5800.000
218.84	588.889
219.22	914.286
219.59	1966.667
219.97	-657.143
220.34	1060.000
220.72	-1800.000
221.09	442.857
221.47	1425.000
221.84	-983.333
222.22	0.000
222.59	1325.000
222.97	-2850.000
223.34	1280.000
223.72	430.769
224.09	1040.000
224.46	2500.000
224.84	-5000.000
225.21	-960.000
225.59	-5800.000
225.96	520.000
226.34	310.000
226.71	2800.000
227.08	700.000
227.46	600.000
227.83	-1325.000
228.21	-2300.000
228.58	600.000
228.95	-3000.000
229.33	-2400.000
229.70	1833.333
230.08	842.857
230.45	-740.000
230.82	466.667
231.20	800.000
231.57	814.286
231.95	475.000
232.32	254.545
232.69	418.182
233.07	828.571
233.44	415.385
233.81	-2033.333
234.19	347.368
234.56	566.667
234.93	425.000
235.31	490.909
235.68	400.000
236.05	400.000
236.43	178.788
236.80	257.895
237.17	4500.000
237.55	280.952
237.92	239.286
238.29	290.476
238.67	180.645
239.04	213.793
239.41	163.889
239.79	130.435
240.16	154.762
240.53	168.182
240.91	111.765
241.28	108.000
241.65	126.000
242.02	95.652
242.40	93.548
242.77	128.333
243.14	81.720
243.51	93.258
243.89	82.353
244.26	77.778
244.63	70.968
245.00	64.894
245.38	58.416
245.75	73.832
246.12	60.550
246.49	68.613
246.87	69.600
247.24	66.154
247.61	58.571
247.98	49.020
248.36	53.378
248.73	47.134
249.10	49.682
249.47	54.802
249.84	49.733
250.22	45.455
250.59	50.888
250.96	52.525
251.33	47.393
251.70	49.505
252.08	43.810
252.45	43.049
252.82	38.261
253.19	42.979
253.56	41.961
253.94	46.473
254.31	46.094
254.68	41.923
255.05	41.697
255.42	37.805
255.79	41.544
256.16	43.321
256.54	38.163
256.91	40.569
257.28	37.050
257.65	37.294
258.02	36.646
258.39	35.962
258.76	39.465
259.14	36.905
259.51	35.258
259.88	36.957
260.25	36.858
260.62	34.971
260.99	40.373
261.36	37.538
261.73	35.530
262.10	35.174
262.47	39.155
262.85	33.426
263.22	30.484
263.59	40.171
263.96	35.440
264.33	35.509
264.70	36.053
265.07	33.504
265.44	32.071
265.81	29.927
266.18	35.176
266.55	32.439
266.92	35.627
267.29	34.491
267.66	34.404
268.03	34.545
268.40	31.776
268.77	30.310
269.14	31.081
269.51	30.926
269.88	31.469
270.25	30.926
270.62	31.685
270.99	34.409
271.36	32.833
271.73	32.477
272.10	29.348
272.47	34.194
272.84	31.818
273.21	32.704
273.58	31.878
273.95	29.350
274.32	30.579
274.69	31.478
275.06	29.331
275.43	31.702
275.80	29.659
276.17	28.921
276.54	30.561
276.91	30.237
277.28	29.883
277.65	31.915
278.02	28.778
278.39	31.836
278.76	28.182
279.13	30.566
279.50	29.981
279.87	28.088
280.23	29.741
280.60	29.207
280.97	26.802
281.34	29.204
281.71	28.727
282.08	29.175
282.45	29.273
282.82	27.176
283.19	26.560
283.56	29.123
283.92	27.073
284.29	29.630
284.66	28.494
285.03	27.125
285.40	27.817
285.77	27.778
286.14	26.425
286.51	27.000
286.87	26.325
287.24	29.642
287.61	26.485
287.98	29.058
288.35	26.624
288.72	27.726
289.08	25.665
289.45	24.053
289.82	26.992
290.19	23.705
290.56	24.655
290.93	24.622
291.29	23.773
291.66	25.221
292.03	27.616
292.40	25.110
292.77	24.704
293.13	24.478
293.50	24.490
293.87	23.704
294.24	23.556
294.60	22.999
294.97	23.692
295.34	23.977
295.71	23.153
296.08	22.650
296.44	21.320
296.81	22.061
297.18	23.577
297.55	20.053
297.91	20.976
298.28	23.293
298.65	21.410
299.02	21.476
299.38	23.373
299.75	20.889
300.12	19.413
300.48	21.000
300.85	19.975
301.22	20.510
301.59	21.212
301.95	20.529
302.32	21.438
302.69	22.103
303.05	20.848
303.42	19.630
303.79	18.800
304.15	20.280
304.52	18.656
304.89	20.325
305.25	18.213
305.62	18.800
305.99	20.071
306.35	20.470
306.72	19.395
307.09	19.201
307.45	19.932
307.82	18.638
308.19	18.433
308.55	20.173
308.92	19.441
309.29	18.796
309.65	18.028
310.02	20.296
310.38	19.892
310.75	19.641
311.12	18.936
311.48	19.854
311.85	19.916
312.22	18.418
312.58	20.166
312.95	19.113
313.31	18.738
313.68	19.647
314.05	20.809
314.41	20.402
314.78	19.335
315.14	20.159
315.51	20.597
315.87	18.713
316.24	19.067
316.61	20.955
316.97	19.472
317.34	19.178
317.70	21.415
318.07	21.752
318.43	20.548
318.80	22.118
319.16	21.375
319.53	19.794
319.89	21.905
320.26	23.400
320.62	22.718
320.99	23.838
321.35	23.030
321.72	23.614
322.08	24.778
322.45	25.672
322.81	26.550
323.18	27.649
323.54	26.531
323.91	28.396
324.27	27.916
324.64	28.798
325.00	28.674
325.37	30.300
325.73	30.700
326.10	32.833
326.46	32.437
326.83	32.614
327.19	32.707
327.56	33.275
327.92	34.383
328.29	36.291
328.65	35.820
329.01	36.913
329.38	36.725
329.74	37.304
330.11	38.454
330.47	37.833
330.84	39.063
331.20	37.887
331.56	40.183
331.93	39.167
332.29	38.864
332.66	39.912
333.02	39.945
333.38	40.831
333.75	40.374
334.11	42.705
334.48	40.728
334.84	40.809
335.20	42.727
335.57	42.248
335.93	41.429
336.29	41.850
336.66	42.290
337.02	43.167
337.38	42.963
337.75	43.316
338.11	43.599
338.47	44.475
338.84	43.630
339.20	43.394
339.56	44.982
339.93	43.182
340.29	44.293
340.65	44.385
341.02	44.415
341.38	44.573
341.74	43.772
342.11	45.153
342.47	44.053
342.83	43.750
343.20	45.714
343.56	43.218
343.92	45.263
344.28	46.088
344.65	45.830
345.01	44.276
345.37	44.340
345.73	45.008
346.10	45.865
346.46	45.763
346.82	44.316
347.19	44.027
347.55	45.074
347.91	46.521
348.27	44.864
348.63	46.154
349.00	44.579
349.36	44.171
349.72	45.068
350.08	45.300
350.45	45.321
350.81	45.248
351.17	45.057
351.53	46.110
351.89	44.802
352.26	46.251
352.62	46.672
352.98	46.921
353.34	47.247
353.70	45.745
354.07	47.742
354.43	45.000
354.79	46.420
355.15	46.369
355.51	47.482
355.87	48.898
356.24	47.801
356.60	46.832
356.96	47.627
357.32	47.261
357.68	48.110
358.04	47.743
358.40	48.377
358.77	47.496
359.13	47.751
359.49	46.745
359.85	48.095
360.21	48.086
360.57	48.794
360.93	49.077
361.29	49.131
361.66	47.523
362.02	48.060
362.38	48.821
362.74	48.512
363.10	48.409
363.46	49.817
363.82	49.433
364.18	49.486
364.54	50.000
364.90	50.354
365.26	50.074
365.62	50.475
365.98	49.379
366.35	48.997
366.71	50.976
367.07	49.599
367.43	52.032
367.79	53.034
368.15	52.083
368.51	50.727
368.87	51.963
369.23	51.792
369.59	52.353
369.95	52.574
370.31	52.920
370.67	52.101
371.03	53.858
371.39	52.988
371.75	54.044
372.11	52.845
372.47	54.252
372.83	54.971
373.19	53.829
373.55	53.806
373.91	56.186
374.27	52.234
374.63	55.127
374.99	55.155
375.35	54.501
375.71	55.449
376.07	55.693
376.42	57.497
376.78	55.931
377.14	56.242
377.50	57.616
377.86	56.715
378.22	57.649
378.58	57.018
378.94	57.700
379.30	56.997
379.66	58.503
380.02	57.740
380.38	58.652
380.74	59.184
381.09	58.068
381.45	60.234
381.81	60.381
382.17	60.255
382.53	60.189
382.89	60.000
383.25	60.976
383.61	62.392
383.97	61.476
384.32	61.260
384.68	62.144
385.04	60.971
385.40	61.176
385.76	61.978
386.12	62.565
386.48	62.555
386.83	64.208
387.19	64.688
387.55	64.007
387.91	64.268
388.27	64.316
388.62	64.843
388.98	64.619
389.34	66.583
389.70	64.746
390.06	66.286
390.42	65.953
390.77	65.712
391.13	68.220
391.49	66.942
391.85	67.409
392.20	66.751
392.56	68.308
392.92	67.863
393.28	67.811
393.64	67.086
393.99	68.540
394.35	69.851
394.71	69.448
395.07	69.346
395.42	69.468
395.78	70.102
396.14	70.205
396.50	70.802
396.85	71.265
397.21	69.729
397.57	70.800
397.92	72.236
398.28	71.581
398.64	71.744
399.00	72.971
399.35	73.378
399.71	72.338
400.07	73.448
400.42	73.742
400.78	74.125
401.14	74.634
401.49	76.478
401.85	74.652
402.21	74.431
402.57	76.064
402.92	76.923
403.28	76.202
403.63	77.475
403.99	78.217
404.35	76.667
404.70	76.918
405.06	77.228
405.42	77.667
405.77	77.943
406.13	77.370
406.49	78.238
406.84	77.200
407.20	78.605
407.55	80.281
407.91	82.000
408.27	81.110
408.62	79.711
408.98	80.331
409.34	80.873
409.69	81.742
410.05	81.660
410.40	81.957
410.76	81.123
411.11	81.363
411.47	79.489
411.83	82.651
412.18	82.313
412.54	83.188
412.89	82.470
413.25	82.822
413.60	84.620
413.96	82.757
414.31	84.022
414.67	85.615
415.03	85.232
415.38	84.472
415.74	84.502
416.09	87.329
416.45	87.282
416.80	84.865
417.16	86.595
417.51	87.525
417.87	86.769
418.22	87.571
418.58	85.862
418.93	86.794
419.29	86.505
419.64	88.980
420.00	88.049
420.35	87.246
420.71	89.181
421.06	87.888
421.42	88.596
421.77	88.957
422.12	88.321
422.48	87.804
422.83	90.856
423.19	88.066
423.54	91.236
423.90	89.971
424.25	90.396
424.61	90.952
424.96	91.720
425.31	89.756
425.67	88.933
426.02	90.629
426.38	94.200
426.73	91.164
427.09	91.489
427.44	93.387
427.79	93.387
428.15	92.500
428.50	91.984
428.85	93.206
429.21	93.760
429.56	93.313
429.92	91.948
430.27	92.453
430.62	92.883
430.98	92.735
431.33	92.062
431.68	94.450
432.04	92.492
432.39	95.717
432.74	96.529
433.10	95.982
433.45	96.268
433.80	95.288
434.16	94.498
434.51	92.895
434.86	94.698
435.22	97.276
435.57	97.082
435.92	95.787
436.28	97.924
436.63	95.806
436.98	95.707
437.34	98.092
437.69	97.433
438.04	98.201
438.39	97.075
438.75	97.618
439.10	98.994
439.45	98.347
439.81	99.094
440.16	96.781
440.51	97.715
440.86	98.089
441.22	98.443
441.57	98.726
441.92	98.311
442.27	97.524
442.63	97.420
442.98	98.817
443.33	96.087
443.68	98.296
444.03	99.463
444.39	98.004
444.74	97.781
445.09	98.868
445.44	98.742
445.79	98.516
446.15	96.718
446.50	98.546
446.85	99.178
447.20	98.164
447.55	99.665
447.91	98.511
448.26	98.887
448.61	99.265
448.96	100.720
449.31	100.281
449.66	98.762
450.02	99.164
450.37	99.036
450.72	101.805
451.07	99.756
451.42	98.784
451.77	99.883
452.12	99.249
452.47	98.881
452.83	101.166
453.18	100.244
453.53	99.505
453.88	100.650
454.23	99.821
454.58	99.818
454.93	101.907
455.28	99.065
455.63	101.699
455.98	103.512
456.34	101.696
456.69	101.190
457.04	100.681
457.39	99.825
457.74	99.942
458.09	98.677
458.44	99.658
458.79	97.939
459.14	99.605
459.49	99.475
459.84	97.784
460.19	99.529
460.54	97.627
460.89	99.177
461.24	100.243
461.59	100.058
461.94	99.014
462.29	101.246
462.64	97.639
462.99	100.520
463.34	99.467
463.69	99.625
464.04	98.145
464.39	97.101
464.74	97.267
465.09	98.010
465.44	97.008
465.79	96.924
466.14	95.895
466.49	96.329
466.84	98.015
467.19	98.008
467.54	99.312
467.89	97.179
468.24	97.789
468.59	97.131
468.94	98.167
469.29	99.229
469.64	100.201
469.99	100.947
470.34	100.396
470.68	100.934
471.03	98.639
471.38	101.737
471.73	100.133
472.08	100.132
472.43	99.812
472.78	98.025
473.13	98.845
473.48	98.564
473.83	98.780
474.17	96.391
474.52	99.380
474.87	98.190
475.22	96.866
475.57	97.098
475.92	98.566
476.27	97.182
476.61	98.069
476.96	97.856
477.31	97.802
477.66	98.906
478.01	95.452
478.36	98.043
478.70	97.923
479.05	98.988
479.40	97.236
479.75	98.221
480.10	96.769
480.45	95.764
480.79	96.082
481.14	97.505
481.49	97.674
481.84	96.525
482.19	95.502
482.53	94.587
482.88	96.231
483.23	97.196
483.58	96.133
483.92	96.813
484.27	93.987
484.62	95.690
484.97	94.758
485.31	95.034
485.66	89.479
486.01	86.054
486.36	83.548
486.70	84.462
487.05	86.378
487.40	90.245
487.75	91.676
488.09	93.995
488.44	95.364
488.79	97.649
489.13	96.562
489.48	97.512
489.83	95.166
490.17	96.756
490.52	94.508
490.87	94.844
491.22	95.362
491.56	94.123
491.91	93.718
492.26	93.845
492.60	93.825
492.95	93.078
493.30	93.645
493.64	94.914
493.99	94.011
494.34	95.005
494.68	94.368
495.03	94.737
495.37	92.601
495.72	95.273
496.07	94.014
496.41	92.124
496.76	92.304
497.11	92.571
497.45	92.641
497.80	93.282
498.14	93.430
498.49	95.707
498.84	94.056
499.18	93.714
499.53	93.970
499.87	93.709
500.22	91.898
500.56	96.165
500.91	94.327
501.26	93.789
501.60	94.210
501.95	90.697
502.29	92.877
502.64	94.041
502.98	91.912
503.33	90.905
503.67	91.740
504.02	90.365
504.36	90.360
504.71	92.574
505.06	92.386
505.40	91.833
505.75	91.369
506.09	91.885
506.44	93.537
506.78	92.255
507.13	94.902
507.47	92.576
507.82	92.401
508.16	93.769
508.51	93.861
508.85	91.807
509.19	92.959
509.54	92.755
509.88	92.324
510.23	93.728
510.57	94.427
510.92	93.889
511.26	91.161
511.61	92.739
511.95	92.797
512.30	92.683
512.64	92.262
512.98	92.926
513.33	93.255
513.67	92.743
514.02	92.045
514.36	93.555
514.70	93.304
515.05	92.248
515.39	95.177
515.74	94.313
516.08	94.410
516.42	93.674
516.77	93.924
517.11	94.173
517.46	93.736
517.80	95.412
518.14	94.673
518.49	94.632
518.83	93.466
519.17	92.032
519.52	94.341
519.86	94.124
520.20	94.277
520.55	94.195
520.89	95.316
521.23	94.753
521.58	93.697
521.92	95.101
522.26	93.838
522.61	95.950
522.95	94.966
523.29	94.400
523.64	94.573
523.98	96.057
524.32	94.029
524.66	93.806
525.01	95.159
525.35	94.300
525.69	94.828
526.04	95.514
526.38	93.350
526.72	93.006
527.06	95.543
527.41	91.337
527.75	97.106
528.09	96.339
528.43	94.264
528.78	92.624
529.12	91.818
529.46	94.121
529.80	95.111
530.15	93.520
530.49	92.246
530.83	94.557
531.17	96.606
531.51	96.952
531.86	95.355
532.20	93.677
532.54	93.722
532.88	92.940
533.22	93.129
533.57	91.667
533.91	91.331
534.25	93.317
534.59	91.946
534.93	92.088
535.27	92.215
535.62	92.674
535.96	93.597
536.30	93.071
536.64	92.724
536.98	93.298
537.32	93.614
537.66	94.200
538.01	94.602
538.35	92.954
538.69	93.108
539.03	90.773
539.37	93.291
539.71	91.380
540.05	91.569
540.39	92.558
540.73	89.974
541.07	93.186
541.42	93.738
541.76	90.645
542.10	92.173
542.44	92.914
542.78	92.161
543.12	89.955
543.46	90.951
543.80	91.997
544.14	89.666
544.48	90.984
544.82	90.186
545.16	90.631
545.50	90.103
545.84	91.196
546.18	92.391
546.52	93.668
546.86	92.234
547.20	90.964
547.54	90.247
547.88	90.434
548.22	88.543
548.56	89.245
548.90	89.309
549.24	89.562
549.58	92.701
549.92	90.728
550.26	91.193
550.60	90.526
550.94	91.268
551.28	90.563
551.62	92.667
551.96	90.175
552.30	89.215
552.64	91.413
552.98	90.983
553.32	90.020
553.66	89.162
554.00	90.254
554.34	87.785
554.68	92.775
555.02	89.915
555.36	90.118
555.69	88.701
556.03	88.896
556.37	90.655
556.71	90.109
557.05	89.286
557.39	89.503
557.73	88.779
558.07	91.443
558.41	90.376
558.75	89.273
559.08	89.485
559.42	92.819
559.76	90.221
560.10	88.722
560.44	89.308
560.78	87.492
561.12	86.148
561.45	85.724
561.79	85.959
562.13	88.867
562.47	88.934
562.81	89.331
563.15	86.488
563.48	87.069
563.82	87.345
564.16	86.527
564.50	88.216
564.84	85.272
565.17	87.645
565.51	86.262
565.85	85.914
566.19	85.410
566.52	87.080
566.86	84.629
567.20	84.788
567.54	84.361
567.88	81.206
568.21	83.704
568.55	82.356
568.89	82.198
569.23	78.832
569.56	77.935
569.90	77.321
570.24	77.897
570.57	76.131
570.91	74.240
571.25	73.780
571.59	75.081
571.92	75.288
572.26	74.148
572.60	76.697
572.93	75.772
573.27	74.800
573.61	74.707
573.95	73.385
574.28	73.392
574.62	72.741
574.96	72.162
575.29	72.308
575.63	72.713
575.97	73.028
576.30	74.084
576.64	72.833
576.98	72.460
577.31	72.551
577.65	71.531
577.98	71.331
578.32	70.334
578.66	71.258
578.99	71.262
579.33	72.259
579.67	71.953
580.00	72.740
580.34	73.327
580.67	72.323
581.01	70.924
581.35	70.014
581.68	70.281
582.02	68.777
582.35	69.783
582.69	70.305
583.02	70.705
583.36	72.723
583.70	73.526
584.03	73.406
584.37	73.702
584.70	74.478
585.04	72.138
585.37	72.530
585.71	71.429
586.04	71.249
586.38	72.858
586.72	72.328
587.05	71.095
587.39	71.055
587.72	71.451
588.06	71.958
588.39	72.044
588.73	72.866
589.06	74.634
589.40	74.579
589.73	74.798
590.07	73.843
590.40	74.205
590.73	76.034
591.07	77.208
591.40	76.044
591.74	76.234
592.07	75.044
592.41	75.238
592.74	73.483
593.08	71.486
593.41	71.686
593.75	70.206
594.08	71.203
594.41	71.545
594.75	73.641
595.08	72.083
595.42	72.890
595.75	72.899
596.09	73.338
596.42	73.713
596.75	75.644
597.09	75.022
597.42	72.344
597.75	74.817
598.09	73.478
598.42	73.411
598.76	73.571
599.09	70.315
599.42	70.342
599.76	71.303
600.09	69.253
600.42	70.124
600.76	70.000
601.09	70.091
601.42	71.575
601.76	72.258
602.09	72.016
602.42	71.975
602.76	72.793
603.09	72.148
603.42	71.925
603.76	71.761
604.09	71.850
604.42	72.075
604.76	72.881
605.09	72.564
605.42	70.928
605.75	72.061
606.09	70.923
606.42	72.374
606.75	71.547
607.09	71.787
607.42	71.416
607.75	70.886
608.08	71.298
608.42	72.613
608.75	72.137
609.08	72.202
609.41	72.822
609.75	71.748
610.08	73.233
610.41	71.229
610.74	72.327
611.07	73.320
611.41	73.405
611.74	73.906
612.07	74.275
612.40	73.767
612.73	72.263
613.07	74.300
613.40	73.723
613.73	73.676
614.06	73.495
614.39	71.736
614.72	72.684
615.06	72.269
615.39	71.975
615.72	71.319
616.05	70.494
616.38	72.874
616.71	73.990
617.05	74.323
617.38	74.624
617.71	73.934
618.04	74.639
618.37	73.743
618.70	74.922
619.03	74.408
619.36	75.628
619.69	76.197
620.03	75.687
620.36	74.933
620.69	76.575
621.02	77.581
621.35	79.561
621.68	77.882
622.01	77.477
622.34	77.458
622.67	77.719
623.00	76.009
623.33	75.268
623.66	76.769
623.99	75.920
624.32	74.465
624.65	75.424
624.99	75.283
625.32	75.091
625.65	75.282
625.98	79.554
626.31	75.117
626.64	77.878
626.97	79.717
627.30	77.556
627.63	78.425
627.96	80.067
628.29	79.878
628.62	80.146
628.95	80.566
629.28	79.653
629.61	78.918
629.94	80.286
630.26	80.172
