SpectraSuite Data File
++++++++++++++++++++++++++++++++++++
Date: Wed May 13 19:36:55 PDT 2015
User: schluterlab
Dark Spectrum Present: Yes
Reference Spectrum Present: Yes
Number of Sampled Component Spectra: 1
Spectrometers: USB2E3373
Integration Time (usec): 3000 (USB2E3373)
Spectra Averaged: 3 (USB2E3373)
Boxcar Smoothing: 0 (USB2E3373)
Correct for Electrical Dark: No (USB2E3373)
Strobe/Lamp Enabled: No (USB2E3373)
Correct for Detector Non-linearity: No (USB2E3373)
Correct for Stray Light: No (USB2E3373)
Number of Pixels in Processed Spectrum: 2048
>>>>>Begin Processed Spectral Data<<<<<
178.53	0.000
178.91	-1625.000
179.29	-1400.000
179.67	-238.889
180.04	-975.000
180.42	2700.000
180.80	1200.000
181.18	-1175.000
181.56	614.286
181.94	0.000
182.31	-642.857
182.69	1866.667
183.07	-750.000
183.45	-611.111
183.83	581.818
184.20	-530.000
184.58	2650.000
184.96	5700.000
185.34	-940.000
185.72	-675.000
186.09	-2500.000
186.47	2700.000
186.85	2700.000
187.23	4900.000
187.61	-1700.000
187.98	1275.000
188.36	554.545
188.74	518.182
189.12	-960.000
189.49	580.000
189.87	-4500.000
190.25	-1325.000
190.63	400.000
191.00	438.462
191.38	866.667
191.76	-1400.000
192.14	1725.000
192.51	662.500
192.89	1000.000
193.27	787.500
193.65	-1200.000
194.02	500.000
194.40	980.000
194.78	600.000
195.15	566.667
195.53	720.000
195.91	-2450.000
196.29	462.500
196.66	342.105
197.04	-460.000
197.42	0.000
197.79	710.000
198.17	-5800.000
198.55	785.714
198.92	712.500
199.30	1060.000
199.68	0.000
200.05	300.000
200.43	857.143
200.81	5300.000
201.18	1900.000
201.56	-1733.333
201.94	644.444
202.31	644.444
202.69	450.000
203.07	420.000
203.44	0.000
203.82	1175.000
204.19	857.143
204.57	364.286
204.95	687.500
205.32	1566.667
205.70	545.455
206.08	435.714
206.45	2750.000
206.83	431.250
207.20	1033.333
207.58	960.000
207.96	316.667
208.33	1000.000
208.71	-866.667
209.08	785.714
209.46	666.667
209.84	527.273
210.21	-1400.000
210.59	1450.000
210.96	-562.500
211.34	2500.000
211.71	730.000
212.09	733.333
212.46	0.000
212.84	1966.667
213.22	1600.000
213.59	-4500.000
213.97	816.667
214.34	742.857
214.72	618.182
215.09	1100.000
215.47	-2350.000
215.84	-2900.000
216.22	2033.333
216.59	428.571
216.97	1750.000
217.34	500.000
217.72	-900.000
218.09	0.000
218.47	-5800.000
218.84	633.333
219.22	728.571
219.59	1866.667
219.97	-628.571
220.34	1000.000
220.72	-1633.333
221.09	485.714
221.47	1600.000
221.84	-933.333
222.22	0.000
222.59	1475.000
222.97	-2700.000
223.34	1260.000
223.72	453.846
224.09	1240.000
224.46	2200.000
224.84	-5000.000
225.21	-1120.000
225.59	-5000.000
225.96	560.000
226.34	320.000
226.71	3000.000
227.08	650.000
227.46	520.000
227.83	-1200.000
228.21	-2450.000
228.58	700.000
228.95	-2300.000
229.33	-2600.000
229.70	2100.000
230.08	714.286
230.45	-800.000
230.82	525.000
231.20	816.667
231.57	714.286
231.95	458.333
232.32	286.364
232.69	427.273
233.07	785.714
233.44	423.077
233.81	-1866.667
234.19	284.211
234.56	475.000
234.93	416.667
235.31	400.000
235.68	361.538
236.05	364.286
236.43	181.818
236.80	273.684
237.17	4300.000
237.55	271.429
237.92	203.571
238.29	247.619
238.67	174.194
239.04	213.793
239.41	150.000
239.79	108.696
240.16	140.476
240.53	125.000
240.91	98.039
241.28	94.000
241.65	84.000
242.02	97.101
242.40	80.645
242.77	90.000
243.14	60.215
243.51	73.034
243.89	63.529
244.26	57.778
244.63	58.065
245.00	58.511
245.38	58.416
245.75	46.729
246.12	47.706
246.49	48.175
246.87	53.600
247.24	49.231
247.61	42.857
247.98	45.752
248.36	31.757
248.73	35.032
249.10	37.580
249.47	38.418
249.84	36.898
250.22	33.155
250.59	40.237
250.96	30.303
251.33	34.597
251.70	33.663
252.08	30.952
252.45	30.493
252.82	27.391
253.19	32.766
253.56	30.980
253.94	31.535
254.31	28.906
254.68	30.000
255.05	33.579
255.42	28.049
255.79	24.632
256.16	28.159
256.54	23.322
256.91	27.758
257.28	19.065
257.65	22.772
258.02	26.087
258.39	22.713
258.76	22.074
259.14	22.917
259.51	18.237
259.88	17.702
260.25	23.263
260.62	21.098
260.99	19.565
261.36	20.120
261.73	18.052
262.10	19.767
262.47	21.127
262.85	21.727
263.22	16.239
263.59	18.803
263.96	18.132
264.33	21.932
264.70	18.684
265.07	19.182
265.44	18.182
265.81	17.032
266.18	20.854
266.55	18.537
266.92	14.988
267.29	16.667
267.66	17.661
268.03	18.182
268.40	16.121
268.77	17.184
269.14	15.541
269.51	18.059
269.88	20.280
270.25	16.479
270.62	15.056
270.99	21.290
271.36	18.884
271.73	17.757
272.10	14.783
272.47	18.495
272.84	17.316
273.21	17.400
273.58	15.284
273.95	15.933
274.32	15.909
274.69	17.773
275.06	14.173
275.43	16.383
275.80	13.828
276.17	14.257
276.54	17.464
276.91	15.810
277.28	14.648
277.65	16.054
278.02	14.907
278.39	17.578
278.76	15.818
279.13	16.226
279.50	17.132
279.87	15.339
280.23	14.571
280.60	13.733
280.97	14.787
281.34	13.451
281.71	15.818
282.08	16.699
282.45	13.818
282.82	13.677
283.19	11.765
283.56	15.088
283.92	15.567
284.29	12.522
284.66	15.608
285.03	11.573
285.40	13.556
285.77	14.815
286.14	12.263
286.51	15.000
286.87	13.162
287.24	15.309
287.61	13.162
287.98	13.961
288.35	13.154
288.72	13.551
289.08	15.023
289.45	12.850
289.82	13.496
290.19	12.873
290.56	12.251
290.93	11.178
291.29	12.423
291.66	11.799
292.03	15.407
292.40	12.922
292.77	12.722
293.13	12.836
293.50	10.496
293.87	11.704
294.24	11.852
294.60	11.354
294.97	12.791
295.34	12.553
295.71	11.080
296.08	11.396
296.44	10.316
296.81	11.361
297.18	11.247
297.55	7.916
297.91	11.741
298.28	13.387
298.65	11.619
299.02	10.540
299.38	10.624
299.75	8.356
300.12	9.195
300.48	9.625
300.85	10.111
301.22	10.573
301.59	10.101
301.95	11.587
302.32	9.756
302.69	11.111
303.05	9.818
303.42	10.370
303.79	9.626
304.15	9.324
304.52	9.502
304.89	9.175
305.25	9.397
305.62	10.306
305.99	11.334
306.35	8.501
306.72	9.865
307.09	10.433
307.45	11.036
307.82	9.710
308.19	9.823
308.55	8.306
308.92	9.882
309.29	8.448
309.65	8.590
310.02	9.831
310.38	8.817
310.75	8.553
311.12	10.850
311.48	9.509
311.85	9.644
312.22	9.053
312.58	8.212
312.95	9.081
313.31	9.126
313.68	9.252
314.05	10.454
314.41	8.342
314.78	8.560
315.14	9.235
315.51	9.372
315.87	10.000
316.24	7.845
316.61	9.162
316.97	9.002
317.34	8.708
317.70	9.178
318.07	8.373
318.43	9.295
318.80	9.372
319.16	9.887
319.53	7.598
319.89	9.714
320.26	10.400
320.62	8.135
320.99	10.303
321.35	10.000
321.72	10.472
322.08	10.958
322.45	10.448
322.81	10.078
323.18	10.501
323.54	10.111
323.91	8.962
324.27	9.273
324.64	9.226
325.00	8.927
325.37	9.281
325.73	10.862
326.10	9.267
326.46	8.423
326.83	9.750
327.19	9.308
327.56	8.885
327.92	8.311
328.29	9.494
328.65	9.853
329.01	9.477
329.38	8.418
329.74	8.957
330.11	8.671
330.47	10.927
330.84	10.294
331.20	8.925
331.56	9.541
331.93	9.444
332.29	9.317
332.66	10.000
333.02	9.689
333.38	10.027
333.75	9.447
334.11	9.609
334.48	8.962
334.84	8.824
335.20	9.455
335.57	9.157
335.93	8.214
336.29	8.791
336.66	9.829
337.02	8.688
337.38	9.537
337.75	8.556
338.11	9.221
338.47	9.024
338.84	8.983
339.20	8.716
339.56	9.672
339.93	8.545
340.29	9.149
340.65	9.715
341.02	10.209
341.38	8.986
341.74	8.684
342.11	9.694
342.47	8.899
342.83	9.332
343.20	10.043
343.56	9.267
343.92	9.035
344.28	8.844
344.65	8.684
345.01	7.407
345.37	7.633
345.73	8.883
346.10	8.099
346.46	9.068
346.82	7.908
347.19	7.686
347.55	7.635
347.91	9.385
348.27	8.463
348.63	8.361
349.00	8.576
349.36	8.374
349.72	8.581
350.08	8.185
350.45	8.950
350.81	8.448
351.17	8.509
351.53	8.436
351.89	7.838
352.26	8.682
352.62	8.099
352.98	8.023
353.34	8.217
353.70	7.447
354.07	8.306
354.43	7.937
354.79	7.723
355.15	8.220
355.51	8.233
355.87	8.163
356.24	8.306
356.60	8.340
356.96	8.045
357.32	7.768
357.68	8.661
358.04	7.997
358.40	7.601
358.77	7.668
359.13	7.182
359.49	8.000
359.85	7.460
360.21	7.257
360.57	8.716
360.93	6.846
361.29	7.861
361.66	6.889
362.02	8.731
362.38	7.452
362.74	7.366
363.10	7.106
363.46	7.483
363.82	7.256
364.18	7.562
364.54	8.024
364.90	8.286
365.26	7.941
365.62	7.743
365.98	7.232
366.35	6.877
366.71	7.158
367.07	7.283
367.43	6.967
367.79	7.923
368.15	8.693
368.51	7.413
368.87	7.495
369.23	7.535
369.59	8.327
369.95	7.353
370.31	7.051
370.67	7.609
371.03	8.015
371.39	6.997
371.75	7.279
372.11	7.610
372.47	8.065
372.83	7.925
373.19	7.442
373.55	7.761
373.91	7.879
374.27	7.560
374.63	6.473
374.99	7.556
375.35	6.560
375.71	6.854
376.07	7.613
376.42	7.359
376.78	7.621
377.14	6.988
377.50	7.483
377.86	6.582
378.22	7.016
378.58	6.454
378.94	6.474
379.30	6.234
379.66	6.916
380.02	7.371
380.38	6.315
380.74	7.563
381.09	6.846
381.45	7.191
381.81	6.941
382.17	7.389
382.53	6.415
382.89	7.037
383.25	6.316
383.61	6.568
383.97	6.942
384.32	6.800
384.68	6.691
385.04	7.376
385.40	6.563
385.76	6.511
386.12	6.347
386.48	7.489
386.83	6.543
387.19	6.926
387.55	6.741
387.91	7.013
388.27	6.499
388.62	6.945
388.98	6.020
389.34	8.135
389.70	6.744
390.06	7.351
390.42	6.680
390.77	7.061
391.13	6.892
391.49	7.424
391.85	6.556
392.20	5.931
392.56	6.692
392.92	6.592
393.28	4.911
393.64	7.434
393.99	6.964
394.35	5.955
394.71	7.026
395.07	6.417
395.42	6.242
395.78	6.361
396.14	7.138
396.50	8.083
396.85	6.802
397.21	5.795
397.57	7.006
397.92	7.272
398.28	5.774
398.64	7.228
399.00	6.044
399.35	6.261
399.71	6.713
400.07	7.392
400.42	6.748
400.78	6.755
401.14	5.732
401.49	6.388
401.85	6.292
402.21	6.048
402.57	6.354
402.92	6.810
403.28	6.558
403.63	6.312
403.99	6.306
404.35	6.788
404.70	6.415
405.06	5.999
405.42	6.800
405.77	5.771
406.13	7.054
406.49	6.446
406.84	6.261
407.20	5.496
407.55	6.573
407.91	6.600
408.27	5.616
408.62	6.863
408.98	6.250
409.34	6.827
409.69	6.968
410.05	6.258
410.40	5.872
410.76	6.153
411.11	6.876
411.47	6.773
411.83	6.781
412.18	6.246
412.54	6.787
412.89	6.928
413.25	5.903
413.60	6.115
413.96	6.254
414.31	6.561
414.67	6.464
415.03	6.623
415.38	7.088
415.74	6.174
416.09	7.054
416.45	6.627
416.80	6.213
417.16	7.239
417.51	7.432
417.87	6.101
418.22	6.751
418.58	6.843
418.93	6.695
419.29	6.556
419.64	6.612
420.00	6.159
420.35	6.377
420.71	6.993
421.06	6.325
421.42	6.959
421.77	6.614
422.12	6.289
422.48	5.559
422.83	6.465
423.19	6.133
423.54	5.804
423.90	6.551
424.25	6.477
424.61	6.488
424.96	5.656
425.31	6.977
425.67	5.955
426.02	6.686
426.38	6.838
426.73	5.910
427.09	6.930
427.44	6.268
427.79	6.038
428.15	7.262
428.50	6.027
428.85	7.092
429.21	6.240
429.56	5.910
429.92	5.939
430.27	5.710
430.62	5.632
430.98	5.501
431.33	6.186
431.68	6.178
432.04	6.603
432.39	6.225
432.74	6.403
433.10	6.565
433.45	6.706
433.80	5.876
434.16	6.143
434.51	6.263
434.86	6.670
435.22	6.170
435.57	6.383
435.92	6.261
436.28	6.940
436.63	6.843
436.98	6.239
437.34	6.857
437.69	6.768
438.04	5.958
438.39	6.507
438.75	6.450
439.10	6.480
439.45	6.080
439.81	6.042
440.16	6.042
440.51	6.503
440.86	6.254
441.22	6.730
441.57	6.210
441.92	5.937
442.27	6.243
442.63	6.319
442.98	7.268
443.33	6.739
443.68	6.247
444.03	6.052
444.39	5.501
444.74	6.277
445.09	6.631
445.44	5.631
445.79	6.383
446.15	6.829
446.50	6.193
446.85	6.218
447.20	6.068
447.55	6.533
447.91	6.067
448.26	6.733
448.61	6.557
448.96	6.423
449.31	6.749
449.66	6.472
450.02	5.627
450.37	6.122
450.72	6.261
451.07	5.789
451.42	5.714
451.77	6.988
452.12	6.351
452.47	6.841
452.83	5.886
453.18	6.846
453.53	7.297
453.88	6.556
454.23	6.814
454.58	6.663
454.93	6.675
455.28	6.234
455.63	6.493
455.98	7.857
456.34	6.595
456.69	7.076
457.04	7.059
457.39	6.838
457.74	6.152
458.09	6.671
458.44	6.727
458.79	6.508
459.14	6.603
459.49	6.363
459.84	6.205
460.19	6.246
460.54	6.771
460.89	6.363
461.24	6.375
461.59	7.670
461.94	6.412
462.29	7.418
462.64	6.063
462.99	6.636
463.34	7.733
463.69	6.817
464.04	6.203
464.39	6.667
464.74	6.833
465.09	6.454
465.44	6.704
465.79	6.264
466.14	7.225
466.49	6.340
466.84	6.713
467.19	6.820
467.54	7.188
467.89	6.783
468.24	6.923
468.59	7.509
468.94	6.353
469.29	7.198
469.64	7.697
469.99	6.292
470.34	6.803
470.68	6.466
471.03	6.531
471.38	6.949
471.73	7.062
472.08	7.368
472.43	6.470
472.78	6.452
473.13	7.060
473.48	7.491
473.83	6.951
474.17	5.725
474.52	7.196
474.87	7.064
475.22	6.849
475.57	6.233
475.92	5.948
476.27	6.201
476.61	6.122
476.96	5.553
477.31	6.279
477.66	5.799
478.01	6.064
478.36	6.610
478.70	5.607
479.05	6.017
479.40	6.704
479.75	6.050
480.10	5.567
480.45	6.140
480.79	6.020
481.14	5.773
481.49	6.170
481.84	6.401
482.19	5.679
482.53	5.963
482.88	6.794
483.23	5.607
483.58	6.142
483.92	5.389
484.27	5.185
484.62	5.776
484.97	5.794
485.31	5.582
485.66	4.646
486.01	4.366
486.36	4.286
486.70	4.319
487.05	4.578
487.40	4.545
487.75	4.545
488.09	5.005
488.44	5.037
488.79	5.895
489.13	5.844
489.48	5.424
489.83	5.006
490.17	5.787
490.52	5.890
490.87	6.106
491.22	5.775
491.56	5.421
491.91	5.817
492.26	5.972
492.60	6.498
492.95	5.192
493.30	5.935
493.64	5.133
493.99	5.200
494.34	5.689
494.68	6.227
495.03	5.545
495.37	5.770
495.72	5.799
496.07	6.079
496.41	5.531
496.76	5.277
497.11	5.448
497.45	5.822
497.80	5.998
498.14	5.894
498.49	5.805
498.84	6.136
499.18	5.667
499.53	5.366
499.87	5.871
500.22	5.747
500.56	6.117
500.91	5.577
501.26	6.306
501.60	6.028
501.95	5.729
502.29	6.092
502.64	5.819
502.98	6.078
503.33	5.987
503.67	6.218
504.02	5.239
504.36	6.036
504.71	5.765
505.06	6.313
505.40	5.834
505.75	5.448
506.09	5.734
506.44	5.525
506.78	5.943
507.13	5.906
507.47	5.758
507.82	6.028
508.16	5.927
508.51	6.393
508.85	5.362
509.19	6.224
509.54	6.531
509.88	5.976
510.23	6.272
510.57	6.605
510.92	6.370
511.26	6.269
511.61	6.120
511.95	5.324
512.30	5.779
512.64	5.911
512.98	5.949
513.33	6.478
513.67	6.510
514.02	5.249
514.36	6.718
514.70	6.032
515.05	5.689
515.39	6.113
515.74	6.025
516.08	6.819
516.42	6.493
516.77	7.191
517.11	5.827
517.46	6.095
517.80	6.388
518.14	6.080
518.49	6.126
518.83	6.989
519.17	6.409
519.52	6.282
519.86	6.731
520.20	6.243
520.55	6.882
520.89	6.691
521.23	7.479
521.58	6.843
521.92	6.675
522.26	6.772
522.61	6.417
522.95	6.384
523.29	6.512
523.64	6.707
523.98	6.408
524.32	6.212
524.66	6.915
525.01	6.434
525.35	6.939
525.69	6.835
526.04	6.355
526.38	6.833
526.72	6.687
527.06	6.968
527.41	5.446
527.75	6.688
528.09	6.744
528.43	7.457
528.78	6.884
529.12	6.242
529.46	7.226
529.80	7.178
530.15	7.290
530.49	6.154
530.83	7.405
531.17	7.115
531.51	7.977
531.86	7.161
532.20	8.018
532.54	7.111
532.88	7.189
533.22	7.183
533.57	6.543
533.91	7.164
534.25	6.987
534.59	6.833
534.93	7.139
535.27	6.880
535.62	7.326
535.96	6.968
536.30	6.103
536.64	8.049
536.98	7.697
537.32	7.242
537.66	6.800
538.01	7.373
538.35	7.628
538.69	7.530
539.03	6.368
539.37	6.262
539.71	5.250
540.05	6.993
540.39	6.047
540.73	6.727
541.07	7.722
541.42	7.241
541.76	7.548
542.10	7.762
542.44	6.623
542.78	7.708
543.12	6.718
543.46	7.541
543.80	7.547
544.14	7.381
544.48	7.619
544.82	7.441
545.16	7.092
545.50	7.519
545.84	7.527
546.18	7.340
546.52	7.983
546.86	6.873
547.20	7.552
547.54	7.214
547.88	7.972
548.22	7.472
548.56	7.233
548.90	6.658
549.24	7.003
549.58	7.435
549.92	7.143
550.26	7.955
550.60	7.746
550.94	7.606
551.28	6.072
551.62	7.189
551.96	7.088
552.30	7.440
552.64	6.761
552.98	7.932
553.32	7.485
553.66	7.566
554.00	8.030
554.34	7.729
554.68	8.369
555.02	6.982
555.36	7.655
555.69	6.834
556.03	7.873
556.37	6.958
556.71	6.685
557.05	7.213
557.39	7.838
557.73	6.775
558.07	7.324
558.41	7.525
558.75	7.127
559.08	7.755
559.42	7.029
559.76	7.500
560.10	6.781
560.44	7.338
560.78	6.653
561.12	7.256
561.45	8.409
561.79	7.053
562.13	7.243
562.47	7.309
562.81	7.322
563.15	7.960
563.48	7.095
563.82	6.719
564.16	6.736
564.50	6.576
564.84	7.206
565.17	7.143
565.51	7.220
565.85	7.741
566.19	7.138
566.52	6.523
566.86	6.811
567.20	6.958
567.54	7.135
567.88	6.029
568.21	7.354
568.55	6.168
568.89	5.642
569.23	6.150
569.56	6.235
569.90	6.302
570.24	5.633
570.57	5.440
570.91	5.624
571.25	5.497
571.59	6.009
571.92	5.530
572.26	5.777
572.60	5.435
572.93	5.397
573.27	5.886
573.61	5.583
573.95	5.762
574.28	5.503
574.62	5.345
574.96	5.137
575.29	5.262
575.63	5.716
575.97	5.181
576.30	5.736
576.64	5.231
576.98	5.323
577.31	5.129
577.65	5.320
577.98	4.966
578.32	5.183
578.66	5.094
578.99	5.364
579.33	5.205
579.67	5.084
580.00	4.963
580.34	5.434
580.67	5.318
581.01	5.734
581.35	5.011
581.68	5.152
582.02	4.863
582.35	5.407
582.69	5.135
583.02	5.420
583.36	5.580
583.70	5.420
584.03	5.329
584.37	5.771
584.70	5.303
585.04	5.431
585.37	5.405
585.71	5.310
586.04	5.509
586.38	5.277
586.72	6.076
587.05	5.406
587.39	5.383
587.72	5.720
588.06	5.256
588.39	5.953
588.73	5.485
589.06	5.827
589.40	5.960
589.73	6.054
590.07	6.263
590.40	6.321
590.73	6.245
591.07	6.716
591.40	6.537
591.74	6.494
592.07	6.719
592.41	6.656
592.74	5.693
593.08	5.996
593.41	5.947
593.75	5.559
594.08	5.732
594.41	6.115
594.75	5.804
595.08	6.228
595.42	6.200
595.75	5.912
596.09	6.684
596.42	6.562
596.75	6.669
597.09	7.576
597.42	6.366
597.75	6.123
598.09	6.696
598.42	6.830
598.76	5.999
599.09	6.233
599.42	6.150
599.76	6.003
600.09	5.574
600.42	6.136
600.76	6.393
601.09	5.902
601.42	6.317
601.76	6.148
602.09	5.889
602.42	6.489
602.76	6.570
603.09	6.294
603.42	6.013
603.76	6.250
604.09	5.816
604.42	6.441
604.76	7.507
605.09	6.772
605.42	6.584
605.75	6.623
606.09	5.897
606.42	6.293
606.75	6.636
607.09	6.237
607.42	6.547
607.75	6.371
608.08	6.470
608.42	6.634
608.75	6.312
609.08	6.198
609.41	6.759
609.75	6.717
610.08	6.880
610.41	6.331
610.74	6.433
611.07	6.818
611.41	7.066
611.74	7.441
612.07	7.505
612.40	6.768
612.73	6.684
613.07	7.220
613.40	7.267
613.73	7.027
614.06	7.312
614.39	6.712
614.72	7.158
615.06	7.458
615.39	6.423
615.72	7.055
616.05	6.964
616.38	7.449
616.71	6.888
617.05	7.362
617.38	7.336
617.71	6.787
618.04	7.332
618.37	6.919
618.70	6.783
619.03	7.632
619.36	6.993
619.69	7.324
620.03	7.486
620.36	8.222
620.69	8.082
621.02	8.186
621.35	7.048
621.68	7.632
622.01	7.663
622.34	7.489
622.67	8.289
623.00	7.924
623.33	7.720
623.66	7.577
623.99	7.511
624.32	7.989
624.65	7.768
624.99	7.649
625.32	7.386
625.65	7.588
625.98	7.148
626.31	8.709
626.64	8.163
626.97	8.645
627.30	7.980
627.63	8.285
627.96	8.831
628.29	8.486
628.62	9.149
628.95	9.906
629.28	9.307
629.61	9.624
629.94	8.952
630.26	7.912
630.59	8.389
630.92	8.142
631.25	8.588
631.58	9.610
631.91	9.229
632.24	8.333
632.57	9.444
632.90	10.197
633.23	9.396
633.56	10.395
633.89	9.966
634.22	9.762
634.55	10.533
634.88	10.180
635.20	9.080
635.53	11.205
635.86	8.663
636.19	9.176
636.52	9.573
636.85	10.767
637.18	9.447
637.51	10.757
637.83	8.755
638.16	9.335
638.49	9.950
638.82	11.252
639.15	10.375
639.48	10.973
639.81	11.126
640.13	11.198
640.46	10.738
640.79	10.700
641.12	9.491
641.45	10.335
641.77	10.604
642.10	9.795
642.43	11.562
642.76	11.455
643.09	11.196
643.41	11.077
643.74	11.265
644.07	11.738
644.40	11.963
644.73	12.126
645.05	12.203
645.38	9.953
645.71	11.916
646.04	10.631
646.36	13.356
646.69	13.043
647.02	13.435
647.35	11.856
647.67	11.150
648.00	14.146
648.33	11.716
648.66	10.758
648.98	12.594
649.31	8.819
649.64	11.360
649.96	12.966
650.29	11.374
650.62	10.680
650.94	14.749
651.27	11.993
651.60	11.980
