SpectraSuite Data File
++++++++++++++++++++++++++++++++++++
Date: Wed May 13 19:13:37 PDT 2015
User: schluterlab
Dark Spectrum Present: Yes
Reference Spectrum Present: Yes
Number of Sampled Component Spectra: 1
Spectrometers: USB2E3373
Integration Time (usec): 3000 (USB2E3373)
Spectra Averaged: 3 (USB2E3373)
Boxcar Smoothing: 0 (USB2E3373)
Correct for Electrical Dark: No (USB2E3373)
Strobe/Lamp Enabled: No (USB2E3373)
Correct for Detector Non-linearity: No (USB2E3373)
Correct for Stray Light: No (USB2E3373)
Number of Pixels in Processed Spectrum: 2048
>>>>>Begin Processed Spectral Data<<<<<
178.53	0.000
178.91	-1650.000
179.29	-1275.000
179.67	-261.111
180.04	-1275.000
180.42	3000.000
180.80	1020.000
181.18	-1275.000
181.56	742.857
181.94	0.000
182.31	-742.857
182.69	1800.000
183.07	-750.000
183.45	-533.333
183.83	563.636
184.20	-480.000
184.58	2700.000
184.96	6000.000
185.34	-780.000
185.72	-650.000
186.09	-2350.000
186.47	2800.000
186.85	3000.000
187.23	5800.000
187.61	-2066.667
187.98	1475.000
188.36	618.182
188.74	627.273
189.12	-1120.000
189.49	620.000
189.87	-5400.000
190.25	-1275.000
190.63	514.286
191.00	461.538
191.38	783.333
191.76	-1300.000
192.14	1475.000
192.51	687.500
192.89	916.667
193.27	787.500
193.65	-1525.000
194.02	580.000
194.40	1180.000
194.78	640.000
195.15	500.000
195.53	730.000
195.91	-2550.000
196.29	343.750
196.66	347.368
197.04	-510.000
197.42	0.000
197.79	650.000
198.17	-6100.000
198.55	828.571
198.92	712.500
199.30	940.000
199.68	0.000
200.05	311.111
200.43	814.286
200.81	4900.000
201.18	1800.000
201.56	-1700.000
201.94	655.556
202.31	633.333
202.69	516.667
203.07	620.000
203.44	0.000
203.82	1300.000
204.19	871.429
204.57	407.143
204.95	750.000
205.32	1400.000
205.70	627.273
206.08	464.286
206.45	2700.000
206.83	425.000
207.20	1083.333
207.58	920.000
207.96	338.889
208.33	925.000
208.71	-933.333
209.08	928.571
209.46	688.889
209.84	536.364
210.21	-1633.333
210.59	1675.000
210.96	-537.500
211.34	2500.000
211.71	670.000
212.09	683.333
212.46	0.000
212.84	2233.333
213.22	1350.000
213.59	-5200.000
213.97	1000.000
214.34	914.286
214.72	672.727
215.09	1080.000
215.47	-2750.000
215.84	-2450.000
216.22	2066.667
216.59	421.429
216.97	1450.000
217.34	554.545
217.72	-733.333
218.09	0.000
218.47	-5000.000
218.84	722.222
219.22	800.000
219.59	1766.667
219.97	-757.143
220.34	1100.000
220.72	-2066.667
221.09	414.286
221.47	1650.000
221.84	-1066.667
222.22	0.000
222.59	1400.000
222.97	-2850.000
223.34	1340.000
223.72	500.000
224.09	1240.000
224.46	2000.000
224.84	-5700.000
225.21	-1000.000
225.59	-4100.000
225.96	560.000
226.34	355.000
226.71	2550.000
227.08	800.000
227.46	600.000
227.83	-1350.000
228.21	-2400.000
228.58	700.000
228.95	-2250.000
229.33	-2550.000
229.70	1566.667
230.08	728.571
230.45	-820.000
230.82	558.333
231.20	883.333
231.57	871.429
231.95	475.000
232.32	259.091
232.69	327.273
233.07	771.429
233.44	415.385
233.81	-1566.667
234.19	310.526
234.56	508.333
234.93	458.333
235.31	454.545
235.68	415.385
236.05	371.429
236.43	184.848
236.80	247.368
237.17	3400.000
237.55	285.714
237.92	189.286
238.29	247.619
238.67	190.323
239.04	165.517
239.41	161.111
239.79	130.435
240.16	138.095
240.53	136.364
240.91	109.804
241.28	100.000
241.65	94.000
242.02	94.203
242.40	77.419
242.77	85.000
243.14	61.290
243.51	66.292
243.89	71.765
244.26	55.556
244.63	54.839
245.00	52.128
245.38	48.515
245.75	49.533
246.12	36.697
246.49	48.905
246.87	53.600
247.24	48.462
247.61	46.429
247.98	32.680
248.36	29.054
248.73	28.662
249.10	37.580
249.47	32.768
249.84	29.412
250.22	28.877
250.59	20.118
250.96	28.283
251.33	28.436
251.70	30.198
252.08	26.190
252.45	21.973
252.82	23.043
253.19	28.936
253.56	24.314
253.94	22.822
254.31	22.656
254.68	24.231
255.05	18.081
255.42	21.138
255.79	21.324
256.16	22.383
256.54	16.608
256.91	18.861
257.28	15.468
257.65	17.492
258.02	20.186
258.39	17.035
258.76	15.719
259.14	20.238
259.51	17.325
259.88	13.354
260.25	19.033
260.62	15.318
260.99	15.839
261.36	17.417
261.73	14.900
262.10	16.860
262.47	16.620
262.85	13.649
263.22	14.245
263.59	16.239
263.96	15.659
264.33	14.621
264.70	15.000
265.07	16.113
265.44	12.879
265.81	14.842
266.18	12.814
266.55	14.390
266.92	14.251
267.29	15.278
267.66	13.073
268.03	15.455
268.40	14.720
268.77	12.888
269.14	11.937
269.51	13.995
269.88	13.753
270.25	9.255
270.62	14.831
270.99	15.054
271.36	12.017
271.73	13.551
272.10	11.522
272.47	13.548
272.84	13.853
273.21	12.788
273.58	10.480
273.95	9.224
274.32	10.950
274.69	13.276
275.06	11.811
275.43	10.000
275.80	10.220
276.17	11.405
276.54	10.395
276.91	11.660
277.28	10.742
277.65	11.025
278.02	8.903
278.39	13.672
278.76	11.091
279.13	11.698
279.50	11.546
279.87	9.363
280.23	11.178
280.60	9.091
280.97	9.242
281.34	11.681
281.71	11.636
282.08	10.749
282.45	9.636
282.82	9.769
283.19	8.021
283.56	11.579
283.92	11.675
284.29	9.700
284.66	9.800
285.03	10.127
285.40	8.627
285.77	8.418
286.14	8.981
286.51	10.500
286.87	11.111
287.24	10.261
287.61	8.828
287.98	10.390
288.35	8.875
288.72	8.411
289.08	9.703
289.45	10.873
289.82	8.943
290.19	8.006
290.56	8.576
290.93	7.855
291.29	7.822
291.66	8.112
292.03	11.047
292.40	9.838
292.77	7.544
293.13	9.403
293.50	8.455
293.87	6.815
294.24	6.667
294.60	5.822
294.97	7.413
295.34	7.616
295.71	7.812
296.08	7.692
296.44	8.253
296.81	7.926
297.18	9.485
297.55	7.388
297.91	6.728
298.28	8.166
298.65	8.877
299.02	7.510
299.38	7.171
299.75	6.199
300.12	6.386
300.48	5.125
300.85	7.275
301.22	7.261
301.59	6.061
301.95	8.312
302.32	6.804
302.69	6.332
303.05	6.182
303.42	6.790
303.79	7.135
304.15	6.760
304.52	5.910
304.89	6.039
305.25	7.077
305.62	7.022
305.99	5.903
306.35	6.264
306.72	7.511
307.09	7.214
307.45	7.883
307.82	5.246
308.19	7.506
308.55	7.120
308.92	5.800
309.29	5.702
309.65	4.984
310.02	6.131
310.38	6.022
310.75	5.597
311.12	6.346
311.48	5.643
311.85	5.975
312.22	6.764
312.58	5.925
312.95	7.075
313.31	5.049
313.68	5.509
314.05	6.706
314.41	6.131
314.78	5.740
315.14	5.958
315.51	6.179
315.87	6.139
316.24	5.263
316.61	5.653
316.97	4.892
317.34	5.773
317.70	5.927
318.07	5.582
318.43	5.773
318.80	6.092
319.16	5.650
319.53	5.159
319.89	6.476
320.26	6.500
320.62	5.556
320.99	5.859
321.35	6.263
321.72	6.263
322.08	5.824
322.45	6.468
322.81	6.105
323.18	6.069
323.54	5.473
323.91	6.887
324.27	4.493
324.64	4.007
325.00	5.320
325.37	5.187
325.73	5.745
326.10	5.296
326.46	4.301
326.83	5.695
327.19	4.953
327.56	4.530
327.92	5.162
328.29	6.122
328.65	5.801
329.01	5.054
329.38	4.163
329.74	5.633
330.11	4.430
330.47	5.693
330.84	6.158
331.20	5.009
331.56	5.046
331.93	3.704
332.29	6.034
332.66	5.929
333.02	5.576
333.38	5.691
333.75	5.526
334.11	5.783
334.48	4.703
334.84	5.790
335.20	5.818
335.57	5.168
335.93	4.018
336.29	4.670
336.66	5.320
337.02	3.982
337.38	5.278
337.75	4.545
338.11	5.282
338.47	3.959
338.84	5.683
339.20	4.312
339.56	6.296
339.93	4.273
340.29	5.254
340.65	5.526
341.02	5.497
341.38	4.448
341.74	4.825
342.11	5.677
342.47	4.934
342.83	4.966
343.20	6.061
343.56	5.392
343.92	3.596
344.28	5.187
344.65	5.073
345.01	3.956
345.37	4.545
345.73	5.415
346.10	4.518
346.46	4.576
346.82	5.684
347.19	4.344
347.55	4.351
347.91	5.097
348.27	4.437
348.63	5.184
349.00	4.369
349.36	5.008
349.72	5.934
350.08	4.781
350.45	4.557
350.81	4.630
351.17	4.943
351.53	4.341
351.89	4.125
352.26	5.130
352.62	4.892
352.98	5.348
353.34	4.273
353.70	3.519
354.07	4.758
354.43	4.683
354.79	4.827
355.15	4.230
355.51	4.716
355.87	4.408
356.24	4.967
356.60	3.849
356.96	4.505
357.32	4.824
357.68	4.724
358.04	5.226
358.40	5.780
358.77	4.695
359.13	3.867
359.49	4.235
359.85	2.698
360.21	3.828
360.57	5.525
360.93	4.231
361.29	4.082
361.66	3.638
362.02	4.104
362.38	4.487
362.74	4.539
363.10	3.479
363.46	3.668
363.82	3.930
364.18	4.185
364.54	4.681
364.90	4.603
365.26	3.235
365.62	4.237
365.98	3.506
366.35	3.295
366.71	4.772
367.07	3.642
367.43	4.064
367.79	4.283
368.15	4.957
368.51	3.779
368.87	4.354
369.23	4.316
369.59	4.127
369.95	3.309
370.31	3.989
370.67	4.348
371.03	5.019
371.39	4.227
371.75	4.044
372.11	3.983
372.47	4.545
372.83	4.107
373.19	3.685
373.55	4.065
373.91	4.786
374.27	4.055
374.63	2.909
374.99	4.661
375.35	3.419
375.71	3.153
376.07	4.115
376.42	3.783
376.78	4.374
377.14	3.935
377.50	4.371
377.86	4.056
378.22	4.109
378.58	3.070
378.94	3.708
379.30	3.308
379.66	3.363
380.02	3.870
380.38	3.279
380.74	4.202
381.09	4.095
381.45	3.811
381.81	3.747
382.17	4.331
382.53	3.019
382.89	3.580
383.25	3.440
383.61	3.284
383.97	3.815
384.32	3.618
384.68	3.656
385.04	3.196
385.40	3.529
385.76	3.501
386.12	3.368
386.48	3.650
386.83	3.592
387.19	3.834
387.55	3.463
387.91	3.507
388.27	3.250
388.62	3.503
388.98	2.948
389.34	4.130
389.70	4.108
390.06	4.246
390.42	3.567
390.77	3.817
391.13	3.638
391.49	3.934
391.85	3.374
392.20	2.397
392.56	3.914
392.92	3.355
393.28	2.189
393.64	4.137
393.99	3.604
394.35	3.164
394.71	3.764
395.07	2.928
395.42	3.276
395.78	3.626
396.14	3.662
396.50	4.386
396.85	3.560
397.21	3.144
397.57	2.790
397.92	3.365
398.28	3.195
398.64	4.540
399.00	3.246
399.35	2.594
399.71	4.167
400.07	3.548
400.42	3.988
400.78	3.860
401.14	3.293
401.49	3.821
401.85	2.541
402.21	3.114
402.57	3.023
402.92	3.909
403.28	3.998
403.63	3.218
403.99	3.121
404.35	3.697
404.70	3.777
405.06	3.553
405.42	2.620
405.77	2.629
406.13	3.217
406.49	3.134
406.84	4.017
407.20	2.719
407.55	3.957
407.91	3.667
408.27	2.680
408.62	4.034
408.98	2.757
409.34	3.690
409.69	3.742
410.05	3.717
410.40	3.486
410.76	2.748
411.11	4.041
411.47	3.770
411.83	3.910
412.18	3.154
412.54	3.113
412.89	3.855
413.25	2.952
413.60	3.521
413.96	3.218
414.31	3.524
414.67	3.676
415.03	3.642
415.38	3.930
415.74	2.958
416.09	3.592
416.45	3.548
416.80	3.635
417.16	3.351
417.51	3.318
417.87	3.276
418.22	4.164
418.58	4.390
418.93	3.624
419.29	3.819
419.64	4.219
420.00	3.476
420.35	4.290
420.71	3.467
421.06	2.983
421.42	3.684
421.77	3.756
422.12	2.583
422.48	2.267
422.83	3.087
423.19	3.425
423.54	2.902
423.90	3.130
424.25	3.797
424.61	3.214
424.96	3.732
425.31	3.267
425.67	3.483
426.02	3.314
426.38	3.907
426.73	2.926
427.09	3.222
427.44	3.220
427.79	2.703
428.15	3.690
428.50	3.160
428.85	3.516
429.21	2.485
429.56	3.421
429.92	2.969
430.27	3.029
430.62	2.509
430.98	3.114
431.33	2.784
431.68	3.141
432.04	3.674
432.39	2.913
432.74	3.651
433.10	3.226
433.45	3.324
433.80	2.993
434.16	2.938
434.51	2.947
434.86	3.136
435.22	3.391
435.57	2.979
435.92	3.218
436.28	3.855
436.63	4.084
436.98	2.576
437.34	3.936
437.69	3.617
438.04	2.923
438.39	3.104
438.75	3.544
439.10	3.240
439.45	3.542
439.81	2.961
440.16	3.727
440.51	3.632
440.86	3.532
441.22	3.115
441.57	2.972
441.92	3.122
442.27	3.122
442.63	2.949
442.98	3.324
443.33	3.750
443.68	2.943
444.03	2.684
444.39	1.947
444.74	3.571
445.09	3.396
445.44	3.499
445.79	3.117
446.15	3.970
446.50	3.016
446.85	3.340
447.20	2.703
447.55	3.071
447.91	3.034
448.26	2.615
448.61	2.826
448.96	3.599
449.31	3.150
449.66	3.433
450.02	2.284
450.37	2.778
450.72	2.651
451.07	3.352
451.42	3.161
451.77	3.817
452.12	3.349
452.47	3.234
452.83	2.972
453.18	3.973
453.53	3.587
453.88	2.658
454.23	4.065
454.58	3.331
454.93	3.751
455.28	2.369
455.63	3.337
455.98	4.107
456.34	3.141
456.69	3.632
457.04	3.529
457.39	2.805
457.74	3.598
458.09	3.393
458.44	3.250
458.79	3.037
459.14	3.160
459.49	3.970
459.84	2.659
460.19	4.125
460.54	3.183
460.89	3.456
461.24	3.339
461.59	4.300
461.94	2.713
462.29	3.976
462.64	2.553
462.99	3.513
463.34	4.667
463.69	3.377
464.04	3.826
464.39	3.710
464.74	3.327
465.09	3.378
465.44	3.102
465.79	2.852
466.14	3.120
466.49	2.725
466.84	3.736
467.19	3.681
467.54	4.250
467.89	3.361
468.24	3.723
468.59	3.602
468.94	3.360
469.29	3.278
469.64	4.418
469.99	3.924
470.34	3.633
470.68	4.741
471.03	3.265
471.38	4.239
471.73	4.330
472.08	4.276
472.43	2.827
472.78	3.489
473.13	4.172
473.48	4.120
473.83	3.537
474.17	2.987
474.52	3.412
474.87	3.736
475.22	3.018
475.57	3.278
475.92	2.815
476.27	2.988
476.61	2.923
476.96	2.969
477.31	3.140
477.66	2.845
478.01	2.666
478.36	3.279
478.70	2.960
479.05	3.088
479.40	2.661
479.75	3.203
480.10	2.833
480.45	2.856
480.79	2.676
481.14	2.348
481.49	3.037
481.84	2.378
482.19	2.999
482.53	2.936
482.88	2.699
483.23	2.430
483.58	2.912
483.92	3.046
484.27	1.917
484.62	2.500
484.97	2.207
485.31	2.021
485.66	1.450
486.01	1.179
486.36	0.999
486.70	1.226
487.05	1.286
487.40	1.558
487.75	1.533
488.09	2.032
488.44	1.901
488.79	2.025
489.13	2.177
489.48	2.529
489.83	2.331
490.17	2.367
490.52	2.613
490.87	2.804
491.22	2.410
491.56	2.050
491.91	2.885
492.26	2.389
492.60	2.627
492.95	2.245
493.30	1.869
493.64	2.053
493.99	2.461
494.34	2.960
494.68	3.159
495.03	3.008
495.37	2.839
495.72	2.339
496.07	2.413
496.41	2.212
496.76	2.814
497.11	2.521
497.45	2.701
497.80	2.975
498.14	1.932
498.49	2.634
498.84	2.780
499.18	2.286
499.53	2.659
499.87	3.215
500.22	3.062
500.56	2.670
500.91	2.548
501.26	2.703
501.60	2.800
501.95	2.521
502.29	2.905
502.64	2.514
502.98	2.618
503.33	2.834
503.67	2.691
504.02	2.760
504.36	2.574
504.71	2.394
505.06	3.325
505.40	2.917
505.75	2.604
506.09	2.721
506.44	2.467
506.78	2.874
507.13	2.373
507.47	3.030
507.82	2.837
508.16	2.736
508.51	2.588
508.85	3.078
509.19	2.551
509.54	2.602
509.88	2.834
510.23	3.085
510.57	3.302
510.92	2.641
511.26	3.237
511.61	3.320
511.95	2.871
512.30	2.651
512.64	3.332
512.98	3.055
513.33	3.051
513.67	3.202
514.02	2.706
514.36	3.058
514.70	3.154
515.05	2.566
515.39	2.973
515.74	2.759
516.08	3.689
516.42	3.607
516.77	3.623
517.11	2.719
517.46	3.330
517.80	3.136
518.14	2.316
518.49	3.326
518.83	3.523
519.17	2.887
519.52	3.565
519.86	3.309
520.20	3.931
520.55	3.411
520.89	3.771
521.23	4.101
521.58	4.322
521.92	4.042
522.26	3.417
522.61	2.991
522.95	3.683
523.29	2.861
523.64	3.902
523.98	2.896
524.32	3.619
524.66	4.089
525.01	3.615
525.35	3.160
525.69	3.079
526.04	3.863
526.38	3.661
526.72	3.742
527.06	3.766
527.41	3.156
527.75	3.923
528.09	3.789
528.43	3.187
528.78	4.118
529.12	3.273
529.46	3.735
529.80	4.022
530.15	3.988
530.49	3.815
530.83	4.177
531.17	4.634
531.51	4.994
531.86	3.871
532.20	4.302
532.54	4.164
532.88	3.594
533.22	3.123
533.57	3.457
533.91	3.131
534.25	3.402
534.59	3.112
534.93	3.569
535.27	3.259
535.62	4.090
535.96	4.018
536.30	3.242
536.64	3.735
536.98	4.180
537.32	3.752
537.66	3.533
538.01	4.016
538.35	4.266
538.69	4.212
539.03	3.704
539.37	3.387
539.71	2.981
540.05	4.118
540.39	3.588
540.73	3.881
541.07	4.478
541.42	3.979
541.76	4.645
542.10	4.140
542.44	3.709
542.78	4.611
543.12	3.263
543.46	4.459
543.80	4.424
544.14	3.659
544.48	3.746
544.82	3.977
545.16	3.839
545.50	3.663
545.84	4.772
546.18	4.579
546.52	4.818
546.86	3.436
547.20	4.046
547.54	4.810
547.88	4.783
548.22	3.923
548.56	4.151
548.90	3.969
549.24	3.771
549.58	4.366
549.92	3.640
550.26	4.190
550.60	3.942
550.94	3.732
551.28	2.780
551.62	4.529
551.96	3.579
552.30	4.505
552.64	4.192
552.98	4.271
553.32	4.383
553.66	4.567
554.00	3.706
554.34	4.072
554.68	4.077
555.02	3.456
555.36	4.175
555.69	3.586
556.03	3.769
556.37	3.479
556.71	3.411
557.05	3.431
557.39	4.409
557.73	4.446
558.07	3.481
558.41	3.111
558.75	3.821
559.08	4.325
559.42	4.157
559.76	3.971
560.10	3.854
560.44	3.983
560.78	3.726
561.12	4.354
561.45	3.977
561.79	4.087
562.13	3.622
562.47	3.893
562.81	3.487
563.15	4.080
563.48	4.111
563.82	4.044
564.16	3.728
564.50	2.409
564.84	3.666
565.17	3.475
565.51	3.195
565.85	3.871
566.19	3.569
566.52	3.737
566.86	3.677
567.20	3.774
567.54	2.797
567.88	2.336
568.21	3.280
568.55	2.477
568.89	2.578
569.23	2.228
569.56	2.389
569.90	2.151
570.24	1.938
570.57	2.074
570.91	1.842
571.25	1.884
571.59	1.944
571.92	1.584
572.26	1.935
572.60	1.922
572.93	1.799
573.27	1.686
573.61	1.647
573.95	1.835
574.28	1.332
574.62	1.579
574.96	1.458
575.29	1.528
575.63	1.626
575.97	1.640
576.30	1.567
576.64	1.238
576.98	1.142
577.31	1.456
577.65	1.194
577.98	1.206
578.32	1.132
578.66	1.279
578.99	1.461
579.33	1.428
579.67	1.338
580.00	1.510
580.34	1.566
580.67	1.465
581.01	1.754
581.35	1.207
581.68	1.116
582.02	0.962
582.35	1.013
582.69	1.175
583.02	1.276
583.36	1.314
583.70	1.424
584.03	1.411
584.37	1.845
584.70	1.202
585.04	1.566
585.37	1.584
585.71	1.621
586.04	1.595
586.38	1.594
586.72	2.044
587.05	1.630
587.39	1.583
587.72	1.623
588.06	1.387
588.39	1.674
588.73	1.731
589.06	1.745
589.40	1.818
589.73	2.077
590.07	2.278
590.40	1.754
590.73	2.225
591.07	2.646
591.40	2.657
591.74	2.424
592.07	2.356
592.41	2.770
592.74	1.798
593.08	2.065
593.41	1.993
593.75	1.749
594.08	2.313
594.41	2.227
594.75	2.107
595.08	2.076
595.42	2.452
595.75	2.101
596.09	2.441
596.42	2.436
596.75	2.322
597.09	3.117
597.42	2.108
597.75	2.199
598.09	3.043
598.42	2.534
598.76	2.229
599.09	2.128
599.42	2.183
599.76	2.196
600.09	2.040
600.42	2.337
600.76	1.786
601.09	2.040
601.42	2.283
601.76	2.619
602.09	2.095
602.42	2.707
602.76	2.257
603.09	2.439
603.42	2.577
603.76	2.134
604.09	2.133
604.42	2.242
604.76	2.995
605.09	2.315
605.42	2.437
605.75	2.401
606.09	2.074
606.42	2.207
606.75	2.572
607.09	3.391
607.42	2.268
607.75	1.983
608.08	2.518
608.42	3.317
608.75	2.931
609.08	2.313
609.41	2.999
609.75	2.906
610.08	3.252
610.41	2.235
610.74	2.223
611.07	2.915
611.41	3.337
611.74	4.022
612.07	3.261
612.40	3.200
612.73	3.316
613.07	3.556
613.40	3.054
613.73	2.674
614.06	3.387
614.39	3.880
614.72	3.789
615.06	3.676
615.39	2.866
615.72	3.476
616.05	3.190
616.38	3.168
616.71	3.622
617.05	3.475
617.38	3.909
617.71	3.664
618.04	4.087
618.37	3.371
618.70	3.796
619.03	3.750
619.36	4.141
619.69	3.732
620.03	4.396
620.36	4.412
620.69	5.000
621.02	4.720
621.35	3.681
621.68	3.894
622.01	4.025
622.34	5.144
622.67	4.259
623.00	3.742
623.33	3.931
623.66	4.360
623.99	3.756
624.32	4.779
624.65	4.096
624.99	3.399
625.32	4.055
625.65	4.132
625.98	4.458
626.31	4.899
626.64	5.796
626.97	4.323
627.30	3.824
627.63	5.168
627.96	4.878
628.29	5.512
628.62	6.313
628.95	6.415
629.28	6.022
629.61	5.866
629.94	4.952
630.26	4.862
630.59	6.387
630.92	6.034
631.25	4.541
631.58	6.106
631.91	5.578
632.24	4.852
632.57	5.771
632.90	6.360
633.23	6.488
633.56	6.102
633.89	7.022
634.22	6.583
634.55	7.692
634.88	5.269
635.20	7.168
635.53	7.349
635.86	5.322
636.19	6.118
636.52	4.960
636.85	5.956
637.18	5.876
637.51	7.092
637.83	4.686
638.16	7.033
638.49	8.186
638.82	6.953
639.15	5.625
639.48	7.731
639.81	7.373
640.13	6.771
640.46	6.309
640.79	7.662
641.12	6.878
641.45	7.402
641.77	7.658
642.10	7.749
642.43	6.306
642.76	8.204
643.09	7.515
643.41	8.649
643.74	8.796
644.07	7.012
644.40	8.896
644.73	10.866
645.05	9.826
645.38	7.899
645.71	9.340
646.04	10.465
646.36	10.851
646.69	11.538
647.02	9.524
647.35	9.278
647.67	8.673
648.00	11.382
648.33	9.736
648.66	8.939
648.98	8.846
649.31	7.773
649.64	8.670
649.96	10.581
650.29	8.057
650.62	9.385
650.94	11.345
651.27	9.122
651.60	8.486
651.92	9.425
652.25	10.423
652.58	10.125
652.90	9.479
653.23	7.088
653.56	8.504
653.88	8.716
