SpectraSuite Data File
++++++++++++++++++++++++++++++++++++
Date: Wed May 13 19:46:35 PDT 2015
User: schluterlab
Dark Spectrum Present: Yes
Reference Spectrum Present: Yes
Number of Sampled Component Spectra: 1
Spectrometers: USB2E3373
Integration Time (usec): 3000 (USB2E3373)
Spectra Averaged: 3 (USB2E3373)
Boxcar Smoothing: 0 (USB2E3373)
Correct for Electrical Dark: No (USB2E3373)
Strobe/Lamp Enabled: No (USB2E3373)
Correct for Detector Non-linearity: No (USB2E3373)
Correct for Stray Light: No (USB2E3373)
Number of Pixels in Processed Spectrum: 2048
>>>>>Begin Processed Spectral Data<<<<<
178.53	0.000
178.91	-1400.000
179.29	-1125.000
179.67	-200.000
180.04	-1175.000
180.42	2400.000
180.80	980.000
181.18	-700.000
181.56	671.429
181.94	0.000
182.31	-642.857
182.69	1833.333
183.07	-500.000
183.45	-555.556
183.83	563.636
184.20	-390.000
184.58	2050.000
184.96	5100.000
185.34	-1020.000
185.72	-475.000
186.09	-1850.000
186.47	2500.000
186.85	2450.000
187.23	5300.000
187.61	-1800.000
187.98	1225.000
188.36	600.000
188.74	609.091
189.12	-960.000
189.49	540.000
189.87	-5100.000
190.25	-1425.000
190.63	378.571
191.00	500.000
191.38	700.000
191.76	-925.000
192.14	1575.000
192.51	525.000
192.89	850.000
193.27	537.500
193.65	-1075.000
194.02	530.000
194.40	920.000
194.78	560.000
195.15	500.000
195.53	610.000
195.91	-2300.000
196.29	362.500
196.66	357.895
197.04	-300.000
197.42	0.000
197.79	600.000
198.17	-4300.000
198.55	728.571
198.92	712.500
199.30	1000.000
199.68	0.000
200.05	366.667
200.43	771.429
200.81	5600.000
201.18	1400.000
201.56	-1733.333
201.94	511.111
202.31	577.778
202.69	458.333
203.07	500.000
203.44	0.000
203.82	1275.000
204.19	685.714
204.57	407.143
204.95	687.500
205.32	1300.000
205.70	500.000
206.08	335.714
206.45	2150.000
206.83	362.500
207.20	850.000
207.58	860.000
207.96	350.000
208.33	687.500
208.71	-833.333
209.08	757.143
209.46	477.778
209.84	454.545
210.21	-1700.000
210.59	1225.000
210.96	-400.000
211.34	2650.000
211.71	520.000
212.09	883.333
212.46	0.000
212.84	1433.333
213.22	1375.000
213.59	-4400.000
213.97	833.333
214.34	757.143
214.72	536.364
215.09	1080.000
215.47	-2450.000
215.84	-2500.000
216.22	1633.333
216.59	435.714
216.97	1325.000
217.34	454.545
217.72	-766.667
218.09	0.000
218.47	-5300.000
218.84	577.778
219.22	614.286
219.59	1700.000
219.97	-642.857
220.34	1020.000
220.72	-1500.000
221.09	407.143
221.47	1500.000
221.84	-933.333
222.22	0.000
222.59	1525.000
222.97	-2400.000
223.34	1240.000
223.72	392.308
224.09	980.000
224.46	2250.000
224.84	-4700.000
225.21	-980.000
225.59	-4800.000
225.96	670.000
226.34	260.000
226.71	2600.000
227.08	725.000
227.46	540.000
227.83	-1175.000
228.21	-2100.000
228.58	633.333
228.95	-2750.000
229.33	-1550.000
229.70	1800.000
230.08	771.429
230.45	-980.000
230.82	416.667
231.20	900.000
231.57	685.714
231.95	541.667
232.32	304.545
232.69	318.182
233.07	700.000
233.44	384.615
233.81	-1500.000
234.19	231.579
234.56	400.000
234.93	425.000
235.31	445.455
235.68	307.692
236.05	335.714
236.43	169.697
236.80	289.474
237.17	5000.000
237.55	261.905
237.92	207.143
238.29	233.333
238.67	161.290
239.04	210.345
239.41	161.111
239.79	102.174
240.16	140.476
240.53	122.727
240.91	96.078
241.28	106.000
241.65	120.000
242.02	86.957
242.40	80.645
242.77	103.333
243.14	65.591
243.51	73.034
243.89	62.353
244.26	57.778
244.63	62.366
245.00	51.064
245.38	56.436
245.75	47.664
246.12	44.954
246.49	51.095
246.87	49.600
247.24	49.231
247.61	36.429
247.98	39.869
248.36	34.459
248.73	33.758
249.10	42.038
249.47	40.678
249.84	39.572
250.22	35.829
250.59	31.953
250.96	30.808
251.33	33.649
251.70	37.624
252.08	33.333
252.45	29.596
252.82	31.304
253.19	32.766
253.56	29.020
253.94	32.365
254.31	26.172
254.68	30.385
255.05	25.461
255.42	29.268
255.79	27.574
256.16	28.881
256.54	21.908
256.91	30.249
257.28	23.022
257.65	26.073
258.02	25.466
258.39	22.713
258.76	23.077
259.14	24.107
259.51	21.884
259.88	20.186
260.25	25.076
260.62	22.543
260.99	24.224
261.36	24.324
261.73	22.350
262.10	21.512
262.47	22.817
262.85	22.284
263.22	19.373
263.59	23.362
263.96	21.429
264.33	20.888
264.70	22.105
265.07	23.018
265.44	20.707
265.81	18.735
266.18	21.357
266.55	20.732
266.92	20.147
267.29	20.602
267.66	20.183
268.03	19.091
268.40	19.159
268.77	15.990
269.14	18.018
269.51	18.059
269.88	19.347
270.25	18.510
270.62	20.225
270.99	20.000
271.36	22.318
271.73	18.224
272.10	19.565
272.47	19.355
272.84	20.779
273.21	21.593
273.58	16.376
273.95	18.239
274.32	18.182
274.69	18.844
275.06	17.323
275.43	20.000
275.80	16.433
276.17	18.126
276.54	16.216
276.91	18.775
277.28	16.602
277.65	19.729
278.02	18.219
278.39	18.555
278.76	15.455
279.13	20.189
279.50	17.877
279.87	15.538
280.23	17.764
280.60	18.375
280.97	18.299
281.34	17.345
281.71	16.909
282.08	16.891
282.45	16.545
282.82	16.341
283.19	13.904
283.56	17.193
283.92	16.751
284.29	16.578
284.66	15.789
285.03	15.732
285.40	16.725
285.77	14.983
286.14	15.026
286.51	16.167
286.87	16.068
287.24	16.612
287.61	16.854
287.98	17.208
288.35	16.323
288.72	16.822
289.08	16.588
289.45	16.474
289.82	13.821
290.19	15.071
290.56	16.692
290.93	13.595
291.29	15.184
291.66	14.454
292.03	17.151
292.40	16.887
292.77	13.462
293.13	15.075
293.50	13.848
293.87	14.222
294.24	13.037
294.60	13.974
294.97	14.826
295.34	14.386
295.71	14.205
296.08	11.823
296.44	15.956
296.81	14.135
297.18	14.905
297.55	12.269
297.91	13.061
298.28	15.663
298.65	14.621
299.02	13.702
299.38	14.475
299.75	10.782
300.12	12.388
300.48	13.125
300.85	12.947
301.22	13.503
301.59	12.121
301.95	12.594
302.32	14.634
302.69	12.425
303.05	11.636
303.42	11.358
303.79	12.797
304.15	10.723
304.52	11.356
304.89	12.079
305.25	11.717
305.62	13.250
305.99	12.633
306.35	12.304
306.72	11.771
307.09	12.320
307.45	12.838
307.82	12.835
308.19	12.804
308.55	12.082
308.92	11.923
309.29	11.721
309.65	11.771
310.02	11.945
310.38	12.796
310.75	11.721
311.12	11.771
311.48	11.808
311.85	11.845
312.22	12.487
312.58	12.162
312.95	13.622
313.31	11.650
313.68	11.850
314.05	14.103
314.41	12.864
314.78	10.977
315.14	11.718
315.51	11.843
315.87	13.366
316.24	12.214
316.61	12.476
316.97	12.720
317.34	11.252
317.70	12.524
318.07	13.571
318.43	13.014
318.80	13.777
319.16	13.277
319.53	11.914
319.89	12.857
320.26	14.300
320.62	13.095
320.99	11.919
321.35	13.434
321.72	13.142
322.08	15.104
322.45	15.622
322.81	13.760
323.18	14.258
323.54	14.193
323.91	15.189
324.27	14.054
324.64	12.675
325.00	13.526
325.37	14.377
325.73	14.811
326.10	13.680
326.46	13.441
326.83	15.531
327.19	14.944
327.56	13.763
327.92	14.348
328.29	14.463
328.65	15.009
329.01	15.794
329.38	15.634
329.74	14.958
330.11	15.080
330.47	14.968
330.84	15.349
331.20	15.483
331.56	16.055
331.93	15.093
332.29	15.528
332.66	15.398
333.02	16.088
333.38	14.544
333.75	15.775
334.11	16.459
334.48	15.528
334.84	15.257
335.20	16.545
335.57	15.050
335.93	14.643
336.29	15.751
336.66	15.690
337.02	14.299
337.38	14.815
337.75	15.062
338.11	14.145
338.47	15.285
338.84	15.399
339.20	13.578
339.56	17.792
339.93	14.455
340.29	15.580
340.65	15.330
341.02	16.056
341.38	15.480
341.74	14.386
342.11	15.197
342.47	14.890
342.83	15.068
343.20	15.931
343.56	14.153
343.92	16.316
344.28	14.711
344.65	15.305
345.01	14.226
345.37	13.636
345.73	15.651
346.10	15.175
346.46	14.576
346.82	15.404
347.19	14.620
347.55	15.025
347.91	14.644
348.27	15.283
348.63	15.301
349.00	14.482
349.36	14.943
349.72	13.953
350.08	15.235
350.45	14.727
350.81	13.891
351.17	15.235
351.53	14.906
351.89	14.686
352.26	15.154
352.62	14.755
352.98	14.506
353.34	14.297
353.70	13.748
354.07	14.113
354.43	13.889
354.79	13.998
355.15	14.765
355.51	15.188
355.87	14.367
356.24	16.205
356.60	13.793
356.96	15.366
357.32	13.982
357.68	14.567
358.04	14.331
358.40	15.281
358.77	14.632
359.13	13.654
359.49	15.216
359.85	13.651
360.21	13.636
360.57	14.553
360.93	15.846
361.29	15.042
361.66	14.551
362.02	14.925
362.38	15.361
362.74	14.360
363.10	13.990
363.46	14.087
363.82	14.437
364.18	15.198
364.54	14.636
364.90	15.297
365.26	14.632
365.62	14.171
365.98	15.047
366.35	14.398
366.71	13.883
367.07	14.639
367.43	15.167
367.79	13.847
368.15	15.086
368.51	13.517
368.87	14.490
369.23	13.972
369.59	15.351
369.95	13.971
370.31	14.957
370.67	14.348
371.03	15.056
371.39	14.577
371.75	14.338
372.11	14.011
372.47	14.736
372.83	15.634
373.19	14.451
373.55	14.634
373.91	16.127
374.27	15.258
374.63	13.673
374.99	15.960
375.35	13.538
375.71	13.777
376.07	14.609
376.42	14.993
376.78	15.242
377.14	15.061
377.50	15.364
377.86	14.295
378.22	15.360
378.58	14.098
378.94	14.959
379.30	14.567
379.66	14.404
380.02	15.049
380.38	14.268
380.74	14.706
381.09	15.526
381.45	16.042
381.81	15.295
382.17	15.350
382.53	15.472
382.89	15.185
383.25	14.822
383.61	15.366
383.97	15.322
384.32	15.097
384.68	14.312
385.04	15.673
385.40	14.613
385.76	15.356
386.12	14.961
386.48	15.544
386.83	15.587
387.19	15.708
387.55	15.646
387.91	15.357
388.27	14.899
388.62	15.489
388.98	15.786
389.34	16.145
389.70	15.512
390.06	16.286
390.42	16.213
390.77	15.840
391.13	15.380
391.49	15.926
391.85	16.232
392.20	14.700
392.56	15.152
392.92	15.892
393.28	15.385
393.64	15.887
393.99	16.066
394.35	15.757
394.71	14.994
395.07	15.452
395.42	15.266
395.78	15.903
396.14	16.884
396.50	16.541
396.85	16.529
397.21	14.797
397.57	15.933
397.92	16.647
398.28	14.966
398.64	16.129
399.00	15.333
399.35	15.172
399.71	15.799
400.07	16.558
400.42	16.319
400.78	15.802
401.14	15.915
401.49	16.060
401.85	15.668
402.21	16.168
402.57	15.793
402.92	15.826
403.28	16.490
403.63	17.017
403.99	15.096
404.35	15.758
404.70	16.187
405.06	16.075
405.42	16.344
405.77	16.114
406.13	16.761
406.49	16.558
406.84	16.480
407.20	15.544
407.55	16.082
407.91	16.867
408.27	16.146
408.62	16.616
408.98	16.054
409.34	16.605
409.69	16.903
410.05	16.729
410.40	16.942
410.76	16.010
411.11	16.285
411.47	15.974
411.83	16.188
412.18	17.378
412.54	16.874
412.89	17.349
413.25	17.414
413.60	16.553
413.96	16.272
414.31	16.221
414.67	18.314
415.03	16.689
415.38	17.719
415.74	17.685
416.09	16.982
416.45	17.001
416.80	18.110
417.16	18.164
417.51	17.983
417.87	17.341
418.22	17.981
418.58	18.205
418.93	16.953
419.29	17.505
419.64	18.388
420.00	18.049
420.35	17.565
420.71	18.231
421.06	18.079
421.42	17.193
421.77	17.881
422.12	16.676
422.48	16.136
422.83	17.472
423.19	18.343
423.54	18.166
423.90	18.203
424.25	17.755
424.61	17.798
424.96	18.950
425.31	17.996
425.67	18.202
426.02	18.000
426.38	18.864
426.73	18.724
427.09	18.176
427.44	17.999
427.79	18.114
428.15	18.869
428.50	18.666
428.85	18.653
429.21	18.167
429.56	18.559
429.92	17.715
430.27	17.825
430.62	17.153
430.98	18.059
431.33	18.608
431.68	17.487
432.04	18.530
432.39	18.561
432.74	19.390
433.10	19.242
433.45	19.475
433.80	18.237
434.16	19.017
434.51	18.526
434.86	18.814
435.22	18.733
435.57	19.453
435.92	18.432
436.28	19.336
436.63	20.695
436.98	18.603
437.34	19.320
437.69	19.778
438.04	18.943
438.39	18.507
438.75	19.233
439.10	19.497
439.45	18.595
439.81	19.094
440.16	19.311
440.51	19.215
440.86	19.166
441.22	18.743
441.57	18.684
441.92	19.140
442.27	18.837
442.63	18.483
442.98	19.662
443.33	18.967
443.68	18.947
444.03	19.571
444.39	18.598
444.74	18.885
445.09	19.191
445.44	19.628
445.79	18.902
446.15	19.481
446.50	19.548
446.85	19.424
447.20	18.970
447.55	19.430
447.91	19.195
448.26	19.588
448.61	19.446
448.96	19.269
449.31	19.798
449.66	19.752
450.02	19.164
450.37	18.651
450.72	18.895
451.07	19.074
451.42	18.723
451.77	19.143
452.12	19.630
452.47	19.279
452.83	18.648
453.18	19.377
453.53	19.666
453.88	19.846
454.23	20.024
454.58	19.503
454.93	21.170
455.28	19.514
455.63	19.175
455.98	21.012
456.34	19.912
456.69	19.349
457.04	19.628
457.39	20.164
457.74	19.211
458.09	19.149
458.44	19.156
458.79	19.143
459.14	18.623
459.49	19.965
459.84	19.058
460.19	18.680
460.54	19.213
460.89	19.473
461.24	19.429
461.59	20.046
461.94	19.236
462.29	19.644
462.64	19.017
462.99	20.429
463.34	19.800
463.69	19.387
464.04	19.362
464.39	19.246
464.74	19.311
465.09	19.602
465.44	18.283
465.79	19.016
466.14	18.774
466.49	18.743
466.84	19.323
467.19	18.467
467.54	19.938
467.89	19.808
468.24	19.953
468.59	20.269
468.94	18.754
469.29	20.180
469.64	20.281
469.99	20.365
470.34	19.749
470.68	20.115
471.03	19.252
471.38	20.848
471.73	20.053
472.08	19.408
472.43	19.661
472.78	19.092
473.13	19.641
473.48	18.602
473.83	19.939
474.17	19.726
474.52	19.355
474.87	19.556
475.22	18.688
475.57	18.538
475.92	18.269
476.27	19.786
476.61	19.029
476.96	19.186
477.31	17.792
477.66	18.709
478.01	18.400
478.36	19.038
478.70	18.224
479.05	18.264
479.40	19.294
479.75	18.709
480.10	17.992
480.45	18.325
480.79	17.917
481.14	18.933
481.49	18.272
481.84	18.107
482.19	19.037
482.53	17.844
482.88	18.334
483.23	18.645
483.58	18.198
483.92	18.744
484.27	17.342
484.62	18.578
484.97	17.659
485.31	17.911
485.66	16.273
486.01	15.862
486.36	15.340
486.70	15.392
487.05	16.328
487.40	16.675
487.75	16.594
488.09	17.349
488.44	17.779
488.79	18.228
489.13	17.685
489.48	17.741
489.83	18.256
490.17	18.194
490.52	17.050
490.87	18.408
491.22	17.144
491.56	17.267
491.91	18.055
492.26	17.271
492.60	17.788
492.95	17.680
493.30	17.664
493.64	18.199
493.99	17.363
494.34	17.808
494.68	18.269
495.03	18.327
495.37	18.520
495.72	18.226
496.07	18.422
496.41	17.168
496.76	18.074
497.11	17.785
497.45	17.932
497.80	17.658
498.14	17.536
498.49	17.951
498.84	18.408
499.18	17.190
499.53	18.281
499.87	18.034
500.22	17.569
500.56	18.738
500.91	17.548
501.26	17.734
501.60	17.940
501.95	17.965
502.29	17.760
502.64	17.737
502.98	17.251
503.33	16.910
503.67	17.680
504.02	16.511
504.36	17.361
504.71	18.075
505.06	17.783
505.40	18.522
505.75	17.213
506.09	17.347
506.44	17.859
506.78	18.558
507.13	18.324
507.47	18.788
507.82	18.693
508.16	18.288
508.51	17.757
508.85	17.776
509.19	17.959
509.54	17.908
509.88	18.187
510.23	18.098
510.57	19.917
510.92	18.177
511.26	17.677
511.61	18.724
511.95	17.850
512.30	17.497
512.64	17.947
512.98	18.703
513.33	17.505
513.67	17.983
514.02	18.128
514.36	18.296
514.70	18.318
515.05	17.791
515.39	18.340
515.74	18.356
516.08	19.396
516.42	18.812
516.77	18.841
517.11	17.703
517.46	18.454
517.80	19.570
518.14	18.413
518.49	19.428
518.83	19.716
519.17	18.476
519.52	19.015
519.86	18.140
520.20	18.844
520.55	18.791
520.89	19.526
521.23	19.723
521.58	18.127
521.92	19.535
522.26	18.365
522.61	18.941
522.95	17.986
523.29	19.416
523.64	18.841
523.98	19.039
524.32	18.516
524.66	19.302
525.01	19.179
525.35	19.083
525.69	18.288
526.04	19.065
526.38	19.341
526.72	19.141
527.06	19.272
527.41	18.379
527.75	19.228
528.09	18.754
528.43	19.630
528.78	19.607
529.12	18.667
529.46	18.800
529.80	19.864
530.15	19.938
530.49	18.646
530.83	19.241
531.17	19.648
531.51	19.326
531.86	19.484
532.20	19.622
532.54	18.578
532.88	19.320
533.22	18.551
533.57	19.321
533.91	18.182
534.25	19.077
534.59	19.402
534.93	18.144
535.27	18.709
535.62	19.048
535.96	19.711
536.30	18.436
536.64	19.189
536.98	19.907
537.32	19.289
537.66	19.400
538.01	19.487
538.35	19.780
538.69	19.400
539.03	18.908
539.37	18.850
539.71	17.758
540.05	18.824
540.39	18.140
540.73	18.758
541.07	19.273
541.42	19.113
541.76	19.613
542.10	20.246
542.44	18.742
542.78	19.236
543.12	18.874
543.46	18.623
543.80	18.998
544.14	17.779
544.48	19.556
544.82	18.602
545.16	19.193
545.50	18.702
545.84	18.683
546.18	18.855
546.52	18.926
546.86	18.625
547.20	19.353
547.54	19.706
547.88	19.643
548.22	18.244
548.56	19.182
548.90	18.438
549.24	18.114
549.58	18.759
549.92	18.544
550.26	19.531
550.60	19.018
550.94	18.310
551.28	18.873
551.62	18.692
551.96	18.386
552.30	19.659
552.64	18.932
552.98	19.119
553.32	20.162
553.66	19.427
554.00	19.080
554.34	18.634
554.68	20.458
555.02	19.252
555.36	18.580
555.69	17.591
556.03	18.708
556.37	19.031
556.71	18.895
557.05	19.328
557.39	19.384
557.73	19.125
558.07	19.579
558.41	18.524
558.75	18.883
559.08	19.687
559.42	18.670
559.76	19.412
560.10	18.772
560.44	19.427
560.78	18.563
561.12	19.195
561.45	18.188
561.79	18.260
562.13	17.237
562.47	19.672
562.81	19.526
563.15	18.662
563.48	18.767
563.82	18.069
564.16	17.855
564.50	17.839
564.84	17.636
565.17	18.597
565.51	18.466
565.85	18.338
566.19	16.969
566.52	16.783
566.86	16.938
567.20	18.219
567.54	16.267
567.88	16.295
568.21	17.354
568.55	16.734
568.89	16.196
569.23	16.043
569.56	15.466
569.90	15.358
570.24	14.460
570.57	14.587
570.91	14.350
571.25	14.670
571.59	14.698
571.92	14.401
572.26	14.385
572.60	14.444
572.93	14.483
573.27	14.729
573.61	14.377
573.95	14.367
574.28	14.221
574.62	13.703
574.96	13.644
575.29	13.894
575.63	13.821
575.97	13.538
576.30	13.834
576.64	14.001
576.98	13.709
577.31	13.586
577.65	13.377
577.98	13.189
578.32	13.165
578.66	13.480
578.99	13.718
579.33	13.871
579.67	13.938
580.00	13.546
580.34	13.384
580.67	13.756
581.01	13.627
581.35	13.357
581.68	13.204
582.02	12.734
582.35	12.911
582.69	13.114
583.02	13.141
583.36	13.512
583.70	14.011
584.03	14.054
584.37	14.387
584.70	14.237
585.04	13.503
585.37	13.653
585.71	13.675
586.04	13.723
586.38	14.185
586.72	14.637
587.05	13.583
587.39	13.219
587.72	13.708
588.06	14.007
588.39	14.129
588.73	14.286
589.06	14.428
589.40	14.276
589.73	14.537
590.07	14.270
590.40	14.651
590.73	15.301
591.07	15.547
591.40	15.141
591.74	15.281
592.07	14.878
592.41	14.882
592.74	14.607
593.08	14.257
593.41	14.141
593.75	13.460
594.08	14.180
594.41	14.104
594.75	14.603
595.08	14.245
595.42	14.431
595.75	14.174
596.09	15.133
596.42	15.167
596.75	15.323
597.09	15.498
597.42	14.966
597.75	15.093
598.09	15.391
598.42	14.734
598.76	14.795
599.09	13.835
599.42	14.083
599.76	14.641
600.09	13.588
600.42	13.879
600.76	13.679
601.09	13.770
601.42	14.079
601.76	14.497
602.09	13.794
602.42	15.088
602.76	14.913
603.09	14.359
603.42	14.447
603.76	14.520
604.09	13.920
604.42	14.594
604.76	15.226
605.09	14.373
605.42	14.451
605.75	14.114
606.09	14.437
606.42	14.467
606.75	14.890
607.09	14.609
607.42	14.249
607.75	13.797
608.08	14.546
608.42	14.836
608.75	14.923
609.08	14.524
609.41	15.326
609.75	15.007
610.08	15.410
610.41	14.991
610.74	15.137
611.07	15.020
611.41	14.868
611.74	15.988
612.07	15.476
612.40	15.268
612.73	15.368
613.07	15.571
613.40	15.271
613.73	15.312
614.06	14.946
614.39	15.312
614.72	15.368
615.06	16.334
615.39	14.278
615.72	15.082
616.05	14.620
616.38	15.231
616.71	15.024
617.05	15.960
617.38	15.093
617.71	15.736
618.04	16.707
618.37	15.494
618.70	16.677
619.03	16.579
619.36	15.682
619.69	16.901
620.03	15.453
620.36	16.711
620.69	17.260
621.02	16.445
621.35	17.698
621.68	17.679
622.01	16.563
622.34	17.852
622.67	17.567
623.00	16.654
623.33	16.226
623.66	17.655
623.99	16.863
624.32	16.833
624.65	15.890
624.99	16.147
625.32	15.568
625.65	17.355
625.98	17.294
626.31	17.107
626.64	17.633
626.97	18.121
627.30	16.542
627.63	17.473
627.96	17.662
628.29	18.110
628.62	18.664
628.95	20.094
629.28	17.609
629.61	19.707
629.94	17.905
630.26	17.541
630.59	18.017
630.92	18.582
