SpectraSuite Data File
++++++++++++++++++++++++++++++++++++
Date: Wed May 13 19:39:07 PDT 2015
User: schluterlab
Dark Spectrum Present: Yes
Reference Spectrum Present: Yes
Number of Sampled Component Spectra: 1
Spectrometers: USB2E3373
Integration Time (usec): 3000 (USB2E3373)
Spectra Averaged: 3 (USB2E3373)
Boxcar Smoothing: 0 (USB2E3373)
Correct for Electrical Dark: No (USB2E3373)
Strobe/Lamp Enabled: No (USB2E3373)
Correct for Detector Non-linearity: No (USB2E3373)
Correct for Stray Light: No (USB2E3373)
Number of Pixels in Processed Spectrum: 2048
>>>>>Begin Processed Spectral Data<<<<<
178.53	0.000
178.91	-1375.000
179.29	-1275.000
179.67	-238.889
180.04	-1400.000
180.42	2950.000
180.80	1100.000
181.18	-1250.000
181.56	714.286
181.94	0.000
182.31	-771.429
182.69	1733.333
183.07	-550.000
183.45	-611.111
183.83	445.455
184.20	-430.000
184.58	2250.000
184.96	5300.000
185.34	-980.000
185.72	-537.500
186.09	-2950.000
186.47	2950.000
186.85	2650.000
187.23	4900.000
187.61	-1600.000
187.98	1275.000
188.36	572.727
188.74	518.182
189.12	-1000.000
189.49	610.000
189.87	-5000.000
190.25	-1050.000
190.63	464.286
191.00	484.615
191.38	800.000
191.76	-1250.000
192.14	1400.000
192.51	650.000
192.89	1000.000
193.27	637.500
193.65	-1200.000
194.02	560.000
194.40	1040.000
194.78	550.000
195.15	491.667
195.53	680.000
195.91	-2900.000
196.29	393.750
196.66	357.895
197.04	-410.000
197.42	0.000
197.79	700.000
198.17	-4900.000
198.55	742.857
198.92	775.000
199.30	860.000
199.68	0.000
200.05	383.333
200.43	771.429
200.81	4700.000
201.18	1633.333
201.56	-1500.000
201.94	566.667
202.31	633.333
202.69	466.667
203.07	640.000
203.44	0.000
203.82	1350.000
204.19	685.714
204.57	464.286
204.95	637.500
205.32	1300.000
205.70	563.636
206.08	457.143
206.45	2650.000
206.83	431.250
207.20	900.000
207.58	1000.000
207.96	344.444
208.33	712.500
208.71	-850.000
209.08	814.286
209.46	677.778
209.84	581.818
210.21	-1833.333
210.59	1475.000
210.96	-462.500
211.34	2650.000
211.71	600.000
212.09	833.333
212.46	0.000
212.84	1533.333
213.22	1500.000
213.59	-5400.000
213.97	950.000
214.34	900.000
214.72	609.091
215.09	960.000
215.47	-2250.000
215.84	-2700.000
216.22	1733.333
216.59	442.857
216.97	1450.000
217.34	436.364
217.72	-883.333
218.09	0.000
218.47	-5600.000
218.84	666.667
219.22	785.714
219.59	1700.000
219.97	-571.429
220.34	1000.000
220.72	-2233.333
221.09	385.714
221.47	1725.000
221.84	-1016.667
222.22	0.000
222.59	1500.000
222.97	-2550.000
223.34	1180.000
223.72	415.385
224.09	1080.000
224.46	2400.000
224.84	-5600.000
225.21	-1080.000
225.59	-6000.000
225.96	620.000
226.34	260.000
226.71	2850.000
227.08	750.000
227.46	570.000
227.83	-1200.000
228.21	-2400.000
228.58	611.111
228.95	-2200.000
229.33	-2000.000
229.70	1900.000
230.08	885.714
230.45	-1040.000
230.82	433.333
231.20	916.667
231.57	800.000
231.95	483.333
232.32	281.818
232.69	427.273
233.07	757.143
233.44	369.231
233.81	-1700.000
234.19	321.053
234.56	400.000
234.93	416.667
235.31	545.455
235.68	407.692
236.05	357.143
236.43	184.848
236.80	294.737
237.17	5300.000
237.55	261.905
237.92	189.286
238.29	266.667
238.67	206.452
239.04	241.379
239.41	169.444
239.79	134.783
240.16	150.000
240.53	118.182
240.91	113.725
241.28	110.000
241.65	106.000
242.02	81.159
242.40	116.129
242.77	110.000
243.14	73.118
243.51	86.517
243.89	75.294
244.26	74.444
244.63	73.118
245.00	75.532
245.38	72.277
245.75	56.075
246.12	53.211
246.49	59.124
246.87	67.200
247.24	57.692
247.61	57.857
247.98	54.248
248.36	49.324
248.73	52.866
249.10	50.318
249.47	47.458
249.84	54.011
250.22	40.642
250.59	47.337
250.96	41.414
251.33	44.550
251.70	44.554
252.08	42.857
252.45	33.632
252.82	38.261
253.19	39.574
253.56	40.000
253.94	43.154
254.31	37.500
254.68	38.846
255.05	40.959
255.42	40.244
255.79	33.456
256.16	39.711
256.54	32.155
256.91	38.790
257.28	32.734
257.65	34.653
258.02	36.646
258.39	34.069
258.76	34.783
259.14	33.333
259.51	33.435
259.88	30.745
260.25	30.514
260.62	28.035
260.99	31.988
261.36	31.832
261.73	34.670
262.10	29.360
262.47	33.239
262.85	32.312
263.22	29.630
263.59	33.333
263.96	31.044
264.33	31.854
264.70	30.526
265.07	29.923
265.44	28.788
265.81	29.197
266.18	29.899
266.55	29.268
266.92	29.730
267.29	30.093
267.66	30.734
268.03	28.636
268.40	25.701
268.77	29.117
269.14	27.027
269.51	29.797
269.88	29.138
270.25	24.831
270.62	28.315
270.99	29.032
271.36	27.897
271.73	29.206
272.10	28.261
272.47	31.398
272.84	29.437
273.21	28.512
273.58	27.074
273.95	25.996
274.32	26.240
274.69	25.696
275.06	25.394
275.43	25.319
275.80	26.052
276.17	27.699
276.54	27.651
276.91	26.877
277.28	26.758
277.65	26.886
278.02	25.673
278.39	26.953
278.76	26.545
279.13	25.472
279.50	24.022
279.87	25.697
280.23	23.952
280.60	23.404
280.97	24.769
281.34	25.664
281.71	26.182
282.08	27.255
282.45	25.455
282.82	25.400
283.19	24.599
283.56	26.140
283.92	26.904
284.29	24.868
284.66	26.316
285.03	24.412
285.40	22.535
285.77	25.253
286.14	24.180
286.51	23.333
286.87	23.932
287.24	25.244
287.61	23.596
287.98	22.403
288.35	23.296
288.72	22.274
289.08	22.222
289.45	22.405
289.82	23.740
290.19	21.193
290.56	21.133
290.93	20.242
291.29	21.626
291.66	21.091
292.03	23.256
292.40	21.733
292.77	21.746
293.13	21.493
293.50	20.845
293.87	18.815
294.24	19.407
294.60	18.923
294.97	19.477
295.34	21.862
295.71	20.170
296.08	19.231
296.44	19.395
296.81	19.419
297.18	19.783
297.55	17.810
297.91	18.074
298.28	21.151
298.65	21.018
299.02	19.763
299.38	18.725
299.75	16.307
300.12	17.880
300.48	17.125
300.85	18.002
301.22	17.707
301.59	18.182
301.95	17.884
302.32	18.485
302.69	17.921
303.05	17.697
303.42	17.037
303.79	18.120
304.15	17.483
304.52	17.497
304.89	16.841
305.25	17.285
305.62	17.214
305.99	18.536
306.35	17.002
306.72	17.489
307.09	17.536
307.45	18.356
307.82	15.625
308.19	16.556
308.55	17.907
308.92	16.541
309.29	15.734
309.65	16.225
310.02	16.385
310.38	17.419
310.75	17.212
311.12	17.093
311.48	17.032
311.85	17.925
312.22	17.378
312.58	16.944
312.95	18.585
313.31	15.825
313.68	17.256
314.05	18.738
314.41	17.487
314.78	17.221
315.14	16.286
315.51	17.405
315.87	17.624
316.24	17.080
316.61	17.349
316.97	17.417
317.34	16.634
317.70	17.591
318.07	17.709
318.43	17.221
318.80	18.932
319.16	19.397
319.53	17.073
319.89	19.714
320.26	19.200
320.62	19.147
320.99	19.091
321.35	19.596
321.72	19.815
322.08	19.447
322.45	20.498
322.81	19.961
323.18	20.906
323.54	21.521
323.91	21.226
324.27	21.224
324.64	20.317
325.00	19.567
325.37	20.928
325.73	21.813
326.10	20.565
326.46	20.609
326.83	21.225
327.19	22.203
327.56	21.080
327.92	21.960
328.29	21.917
328.65	21.731
329.01	22.383
329.38	22.294
329.74	22.068
330.11	21.112
330.47	21.855
330.84	22.518
331.20	22.131
331.56	21.743
331.93	22.037
332.29	21.473
332.66	22.389
333.02	21.846
333.38	22.132
333.75	22.995
334.11	22.331
334.48	22.094
334.84	21.875
335.20	22.455
335.57	21.578
335.93	21.161
336.29	21.886
336.66	23.174
337.02	22.624
337.38	20.741
337.75	22.103
338.11	21.844
338.47	22.284
338.84	22.181
339.20	20.917
339.56	22.172
339.93	20.909
340.29	20.743
340.65	22.282
341.02	22.688
341.38	22.242
341.74	21.404
342.11	22.620
342.47	21.674
342.83	21.747
343.20	22.338
343.56	21.061
343.92	21.053
344.28	22.194
344.65	21.926
345.01	20.875
345.37	21.784
345.73	21.574
346.10	20.887
346.46	21.441
346.82	21.417
347.19	21.303
347.55	22.085
347.91	21.197
348.27	21.775
348.63	22.241
349.00	21.036
349.36	21.264
349.72	21.572
350.08	21.313
350.45	21.644
350.81	21.527
351.17	21.313
351.53	21.212
351.89	19.802
352.26	21.152
352.62	22.534
352.98	20.989
353.34	20.953
353.70	21.277
354.07	21.290
354.43	19.683
354.79	20.756
355.15	21.069
355.51	21.583
355.87	21.878
356.24	21.661
356.60	19.326
356.96	20.998
357.32	20.769
357.68	21.417
358.04	20.823
358.40	20.269
358.77	20.814
359.13	20.363
359.49	20.627
359.85	20.079
360.21	20.175
360.57	21.479
360.93	21.308
361.29	21.013
361.66	19.659
362.02	20.672
362.38	20.532
362.74	20.238
363.10	20.503
363.46	20.103
363.82	20.937
364.18	20.558
364.54	20.431
364.90	21.105
365.26	20.588
365.62	21.987
365.98	20.015
366.35	20.344
366.71	21.475
367.07	21.049
367.43	20.537
367.79	21.627
368.15	21.121
368.51	19.622
368.87	20.985
369.23	20.410
369.59	21.723
369.95	19.559
370.31	21.154
370.67	21.232
371.03	22.247
371.39	20.408
371.75	20.368
372.11	20.768
372.47	20.821
372.83	21.326
373.19	20.809
373.55	20.916
373.91	22.386
374.27	20.893
374.63	20.945
374.99	21.751
375.35	20.865
375.71	20.562
376.07	21.125
376.42	21.527
376.78	21.736
377.14	20.488
377.50	21.192
377.86	21.410
378.22	21.176
378.58	20.175
378.94	20.679
379.30	21.120
379.66	21.256
380.02	20.762
380.38	20.461
380.74	21.068
381.09	20.782
381.45	21.819
381.81	21.314
382.17	21.210
382.53	20.818
382.89	21.296
383.25	21.138
383.61	21.128
383.97	20.888
384.32	21.023
384.68	20.446
385.04	21.143
385.40	21.300
385.76	21.007
386.12	21.049
386.48	21.397
386.83	21.937
387.19	21.645
387.55	20.965
387.91	21.584
388.27	20.846
388.62	22.372
388.98	21.622
389.34	21.464
389.70	21.950
390.06	22.624
390.42	21.660
390.77	21.183
391.13	22.208
391.49	21.891
391.85	21.579
392.20	20.631
392.56	20.833
392.92	19.894
393.28	20.651
393.64	21.643
393.99	21.014
394.35	20.471
394.71	21.079
395.07	21.807
395.42	21.755
395.78	21.374
396.14	21.353
396.50	21.679
396.85	21.424
397.21	21.517
397.57	21.203
397.92	21.575
398.28	20.684
398.64	21.924
399.00	21.544
399.35	20.474
399.71	21.007
400.07	21.467
400.42	22.025
400.78	21.954
401.14	21.829
401.49	21.552
401.85	21.113
402.21	20.719
402.57	21.715
402.92	21.122
403.28	22.299
403.63	21.658
403.99	21.019
404.35	21.273
404.70	20.863
405.06	20.792
405.42	21.335
405.77	20.171
406.13	21.388
406.49	21.526
406.84	21.914
407.20	21.631
407.55	21.634
407.91	22.200
408.27	21.059
408.62	20.891
408.98	21.630
409.34	20.787
409.69	21.677
410.05	21.437
410.40	21.468
410.76	21.087
411.11	20.446
411.47	21.022
411.83	21.625
412.18	20.408
412.54	20.361
412.89	21.627
413.25	20.838
413.60	20.877
413.96	19.794
414.31	20.535
414.67	21.039
415.03	20.993
415.38	21.972
415.74	20.643
416.09	21.163
416.45	21.419
416.80	21.679
417.16	21.180
417.51	21.367
417.87	20.360
418.22	21.577
418.58	21.046
418.93	21.744
419.29	21.388
419.64	20.655
420.00	21.707
420.35	21.449
420.71	21.339
421.06	20.585
421.42	20.526
421.77	20.852
422.12	19.820
422.48	19.968
422.83	20.850
423.19	20.884
423.54	20.604
423.90	21.159
424.25	21.161
424.61	20.357
424.96	20.466
425.31	20.986
425.67	20.730
426.02	20.971
426.38	21.001
426.73	21.123
427.09	20.912
427.44	20.127
427.79	20.472
428.15	22.083
428.50	20.772
428.85	20.441
429.21	20.320
429.56	20.581
429.92	20.030
430.27	20.258
430.62	19.764
430.98	20.758
431.33	20.670
431.68	20.681
432.04	20.447
432.39	19.989
432.74	20.407
433.10	20.317
433.45	20.991
433.80	20.011
434.16	20.139
434.51	20.316
434.86	20.639
435.22	20.400
435.57	21.884
435.92	20.304
436.28	20.522
436.63	20.861
436.98	19.691
437.34	20.990
437.69	21.062
438.04	21.248
438.39	20.358
438.75	20.046
439.10	21.006
439.45	21.074
439.81	20.363
440.16	21.005
440.51	20.972
440.86	21.309
441.22	19.800
441.57	20.276
441.92	19.959
442.27	20.398
442.63	20.748
442.98	21.690
443.33	20.380
443.68	19.876
444.03	20.156
444.39	20.594
444.74	19.805
445.09	20.054
445.44	20.011
445.79	19.693
446.15	20.222
446.50	20.086
446.85	19.219
447.20	19.378
447.55	20.659
447.91	20.188
448.26	20.256
448.61	20.407
448.96	21.373
449.31	21.204
449.66	20.090
450.02	20.167
450.37	19.785
450.72	19.797
451.07	19.866
451.42	20.122
451.77	21.139
452.12	20.439
452.47	20.709
452.83	19.755
453.18	20.049
453.53	20.532
453.88	19.846
454.23	19.785
454.58	21.563
454.93	21.869
455.28	20.012
455.63	20.267
455.98	21.131
456.34	20.791
456.69	20.539
457.04	20.929
457.39	20.573
457.74	20.313
458.09	20.127
458.44	20.239
458.79	19.794
459.14	19.865
459.49	20.490
459.84	19.612
460.19	19.446
460.54	19.850
460.89	19.967
461.24	19.733
461.59	20.686
461.94	20.037
462.29	20.415
462.64	20.549
462.99	19.323
463.34	20.867
463.69	20.700
464.04	19.826
464.39	19.652
464.74	19.905
465.09	19.119
465.44	18.947
465.79	19.799
466.14	18.774
466.49	19.466
466.84	20.374
467.19	19.312
467.54	20.937
467.89	19.928
468.24	20.012
468.59	20.208
468.94	19.731
469.29	19.859
469.64	21.888
469.99	19.959
470.34	19.749
470.68	20.259
471.03	20.000
471.38	19.666
471.73	20.187
472.08	19.671
472.43	19.535
472.78	19.816
473.13	20.860
473.48	20.225
473.83	19.390
474.17	19.104
474.52	20.285
474.87	20.490
475.22	20.255
475.57	19.130
475.92	19.968
476.27	18.828
476.61	20.077
476.96	19.736
477.31	19.048
477.66	19.639
478.01	18.662
478.36	19.038
478.70	18.744
479.05	19.808
479.40	19.243
479.75	18.556
480.10	18.638
480.45	18.801
480.79	18.395
481.14	18.689
481.49	18.557
481.84	18.839
482.19	18.628
482.53	18.761
482.88	18.241
483.23	18.364
483.58	18.835
483.92	19.025
484.27	18.344
484.62	18.147
484.97	17.698
485.31	17.808
485.66	16.224
486.01	15.420
486.36	15.227
486.70	15.117
487.05	15.832
487.40	16.420
487.75	16.539
488.09	17.379
488.44	17.612
488.79	18.192
489.13	18.373
489.48	18.067
489.83	18.213
490.17	18.501
490.52	18.335
490.87	17.956
491.22	18.190
491.56	17.494
491.91	18.241
492.26	18.236
492.60	18.756
492.95	18.195
493.30	17.383
493.64	17.359
493.99	17.642
494.34	18.501
494.68	17.903
495.03	18.045
495.37	18.101
495.72	18.324
496.07	18.237
496.41	17.389
496.76	18.162
497.11	17.515
497.45	17.932
497.80	17.946
498.14	17.536
498.49	17.366
498.84	17.833
499.18	17.429
499.53	17.996
499.87	18.127
500.22	18.700
500.56	18.544
500.91	17.260
501.26	17.876
501.60	17.798
501.95	17.369
502.29	17.666
502.64	17.924
502.98	17.859
503.33	16.956
503.67	17.216
504.02	17.680
504.36	17.454
504.71	16.903
505.06	18.072
505.40	18.085
505.75	17.502
506.09	17.104
506.44	17.711
506.78	17.146
507.13	17.769
507.47	17.424
507.82	18.541
508.16	18.237
508.51	18.062
508.85	17.378
509.19	17.194
509.54	17.653
509.88	18.187
510.23	17.686
510.57	18.524
510.92	17.504
511.26	17.472
511.61	18.154
511.95	17.119
512.30	17.497
512.64	17.195
512.98	17.524
513.33	18.148
513.67	18.196
514.02	17.370
514.36	18.460
514.70	18.096
515.05	17.903
515.39	18.003
515.74	18.187
516.08	18.334
516.42	19.034
516.77	18.841
517.11	17.314
517.46	18.736
517.80	17.770
518.14	17.429
518.49	18.611
518.83	18.352
519.17	18.245
519.52	18.053
519.86	18.597
520.20	18.786
520.55	18.492
520.89	18.674
521.23	19.180
521.58	18.607
521.92	19.106
522.26	17.938
522.61	18.629
522.95	17.986
523.29	17.894
523.64	19.024
523.98	18.361
524.32	18.516
524.66	18.701
525.01	18.750
525.35	18.773
525.69	17.980
526.04	18.567
526.38	18.060
526.72	18.466
527.06	18.958
527.41	17.760
527.75	19.164
528.09	18.176
528.43	18.674
528.78	18.377
529.12	17.273
529.46	18.432
529.80	18.564
530.15	18.193
530.49	16.862
530.83	18.544
531.17	18.668
531.51	19.585
531.86	18.387
532.20	18.514
532.54	19.090
532.88	18.614
533.22	17.614
533.57	18.580
533.91	18.182
534.25	17.193
534.59	17.999
534.93	18.203
535.27	18.165
535.62	18.071
535.96	18.205
536.30	17.419
536.64	18.931
536.98	18.381
537.32	18.565
537.66	17.200
538.01	17.972
538.35	18.164
538.69	18.379
539.03	17.089
539.37	17.764
539.71	16.591
540.05	17.974
540.39	18.206
540.73	18.047
541.07	18.494
541.42	18.787
541.76	17.742
542.10	17.464
542.44	17.682
542.78	18.445
543.12	17.083
543.46	18.492
543.80	17.762
544.14	17.266
544.48	18.540
544.82	17.319
545.16	17.697
545.50	17.095
545.84	17.608
546.18	18.047
546.52	18.100
546.86	17.595
547.20	18.409
547.54	17.101
547.88	17.793
548.22	16.687
548.56	17.799
548.90	17.990
549.24	16.970
549.58	17.872
549.92	17.926
550.26	17.401
550.60	18.050
550.94	17.887
551.28	16.825
551.62	18.548
551.96	18.386
552.30	18.567
552.64	17.106
552.98	17.424
553.32	17.532
553.66	17.928
554.00	18.051
554.34	17.322
554.68	18.526
555.02	18.829
555.36	18.024
555.69	17.388
556.03	17.295
556.37	17.599
556.71	17.735
557.05	17.297
557.39	18.055
557.73	18.066
558.07	18.419
558.41	17.728
558.75	17.561
559.08	18.195
559.42	18.216
559.76	17.206
560.10	17.559
560.44	17.261
560.78	17.099
561.12	17.348
561.45	17.340
561.79	16.941
562.13	17.639
562.47	17.281
562.81	17.294
563.15	16.722
563.48	16.711
563.82	16.699
564.16	16.547
564.50	16.146
564.84	17.193
565.17	16.795
565.51	16.613
565.85	17.195
566.19	16.218
566.52	17.479
566.86	15.672
567.20	17.040
567.54	16.096
567.88	15.861
568.21	16.561
568.55	15.521
568.89	15.029
569.23	15.508
569.56	14.575
569.90	14.491
570.24	13.958
570.57	14.009
570.91	14.027
571.25	13.928
571.59	13.549
571.92	13.393
572.26	14.067
572.60	13.874
572.93	13.643
573.27	14.108
573.61	13.652
573.95	13.850
574.28	13.819
574.62	13.460
574.96	12.903
575.29	13.409
575.63	13.237
575.97	13.174
576.30	13.755
576.64	13.445
576.98	12.931
577.31	13.124
577.65	13.333
577.98	12.947
578.32	12.768
578.66	13.291
578.99	13.444
579.33	12.999
579.67	13.038
580.00	13.258
580.34	13.147
580.67	13.094
581.01	13.605
581.35	13.091
581.68	12.888
582.02	12.629
582.35	12.803
582.69	13.057
583.02	13.141
583.36	12.912
583.70	13.287
584.03	13.636
584.37	13.860
584.70	13.375
585.04	13.356
585.37	13.444
585.71	13.158
586.04	13.167
586.38	13.532
586.72	13.891
587.05	13.393
587.39	13.219
587.72	13.244
588.06	13.447
588.39	13.553
588.73	13.875
589.06	13.961
589.40	13.636
589.73	13.939
590.07	13.986
590.40	13.920
590.73	14.793
591.07	15.100
591.40	14.171
591.74	15.065
592.07	14.005
592.41	14.510
592.74	13.745
593.08	13.924
593.41	13.224
593.75	13.179
594.08	13.812
594.41	14.104
594.75	14.048
595.08	13.994
595.42	14.116
595.75	14.067
596.09	14.007
596.42	15.167
596.75	15.154
597.09	14.762
597.42	14.123
597.75	14.015
598.09	14.522
598.42	14.175
598.76	14.309
599.09	13.531
599.42	14.010
599.76	13.982
600.09	13.625
600.42	13.477
600.76	13.750
601.09	13.625
601.42	13.775
601.76	13.814
602.09	13.913
602.42	14.132
602.76	14.430
603.09	14.359
603.42	14.565
603.76	13.948
604.09	13.726
604.42	13.901
604.76	14.593
605.09	14.067
605.42	14.066
605.75	14.031
606.09	14.111
606.42	13.731
606.75	14.185
607.09	14.316
607.42	14.420
607.75	13.291
608.08	14.503
608.42	15.329
608.75	14.292
609.08	14.107
609.41	14.136
609.75	14.340
610.08	14.609
610.41	14.060
610.74	13.907
611.07	14.229
611.41	14.769
611.74	15.636
612.07	15.217
612.40	15.005
612.73	14.368
613.07	15.517
613.40	15.166
613.73	14.683
614.06	15.430
614.39	14.997
614.72	15.263
615.06	14.391
615.39	14.756
615.72	15.133
616.05	14.567
616.38	15.787
616.71	15.380
617.05	15.665
617.38	14.973
617.71	15.255
618.04	15.805
618.37	15.316
618.70	15.930
619.03	16.250
619.36	15.139
619.69	15.563
620.03	16.140
620.36	16.778
620.69	16.370
621.02	16.593
621.35	17.071
621.68	16.044
622.01	16.641
622.34	16.188
622.67	15.970
623.00	16.214
623.33	14.939
623.66	16.869
623.99	15.758
624.32	16.405
624.65	16.102
624.99	15.014
625.32	15.568
625.65	16.604
625.98	16.526
626.31	17.963
626.64	17.714
626.97	16.126
627.30	17.373
627.63	17.473
627.96	16.653
628.29	17.323
628.62	17.017
628.95	19.151
629.28	18.704
629.61	17.140
629.94	17.143
630.26	17.064
630.59	18.589
