SpectraSuite Data File
++++++++++++++++++++++++++++++++++++
Date: Tue May 12 19:40:37 PDT 2015
User: schluterlab
Dark Spectrum Present: Yes
Reference Spectrum Present: Yes
Number of Sampled Component Spectra: 1
Spectrometers: USB2E3373
Integration Time (usec): 3000 (USB2E3373)
Spectra Averaged: 3 (USB2E3373)
Boxcar Smoothing: 0 (USB2E3373)
Correct for Electrical Dark: No (USB2E3373)
Strobe/Lamp Enabled: No (USB2E3373)
Correct for Detector Non-linearity: No (USB2E3373)
Correct for Stray Light: No (USB2E3373)
Number of Pixels in Processed Spectrum: 2048
>>>>>Begin Processed Spectral Data<<<<<
178.53	0.000
178.91	-50.000
179.29	-133.333
179.67	166.667
180.04	0.000
180.42	-160.000
180.80	-600.000
181.18	550.000
181.56	100.000
181.94	200.000
182.31	1400.000
182.69	-114.286
183.07	0.000
183.45	158.333
183.83	260.000
184.20	366.667
184.58	950.000
184.96	283.333
185.34	-166.667
185.72	-7.143
186.09	-33.333
186.47	-700.000
186.85	20.000
187.23	133.333
187.61	-157.143
187.98	-140.000
188.36	100.000
188.74	-150.000
189.12	-44.444
189.49	-40.000
189.87	275.000
190.25	55.556
190.63	366.667
191.00	40.000
191.38	-333.333
191.76	460.000
192.14	-57.143
192.51	-50.000
192.89	0.000
193.27	-20.000
193.65	-233.333
194.02	0.000
194.40	1100.000
194.78	0.000
195.15	-57.143
195.53	-100.000
195.91	120.000
196.29	-175.000
196.66	-233.333
197.04	-71.429
197.42	60.000
197.79	-75.000
198.17	-58.333
198.55	-300.000
198.92	-22.222
199.30	800.000
199.68	-200.000
200.05	-450.000
200.43	-22.222
200.81	-83.333
201.18	400.000
201.56	-350.000
201.94	-1200.000
202.31	8.333
202.69	66.667
203.07	-16.667
203.44	-550.000
203.82	0.000
204.19	237.500
204.57	-100.000
204.95	200.000
205.32	200.000
205.70	175.000
206.08	-500.000
206.45	-100.000
206.83	1900.000
207.20	-33.333
207.58	-15.385
207.96	433.333
208.33	633.333
208.71	266.667
209.08	400.000
209.46	77.778
209.84	666.667
210.21	-266.667
210.59	200.000
210.96	277.778
211.34	-100.000
211.71	950.000
212.09	-80.000
212.46	-200.000
212.84	-50.000
213.22	14.286
213.59	-62.500
213.97	0.000
214.34	-150.000
214.72	-300.000
215.09	500.000
215.47	-13.333
215.84	12.500
216.22	-1800.000
216.59	600.000
216.97	-33.333
217.34	-33.333
217.72	38.889
218.09	425.000
218.47	-63.158
218.84	-50.000
219.22	7.143
219.59	-60.000
219.97	-100.000
220.34	133.333
220.72	-9.091
221.09	-500.000
221.47	0.000
221.84	-150.000
222.22	-175.000
222.59	-325.000
222.97	-4.348
223.34	126.667
223.72	271.429
224.09	-233.333
224.46	169.231
224.84	-66.667
225.21	-300.000
225.59	0.000
225.96	80.000
226.34	50.000
226.71	70.000
227.08	-46.154
227.46	-85.714
227.83	33.333
228.21	-350.000
228.58	283.333
228.95	-47.368
229.33	6.250
229.70	-150.000
230.08	-33.333
230.45	-33.333
230.82	0.000
231.20	9.524
231.57	-240.000
231.95	33.333
232.32	22.222
232.69	-150.000
233.07	-12.500
233.44	-37.500
233.81	41.935
234.19	-260.000
234.56	-5.556
234.93	-166.667
235.31	0.000
235.68	29.630
236.05	-15.385
236.43	0.000
236.80	18.182
237.17	-85.714
237.55	30.000
237.92	27.907
238.29	16.129
238.67	14.286
239.04	5.714
239.41	5.882
239.79	14.000
240.16	12.500
240.53	-8.621
240.91	10.959
241.28	8.451
241.65	12.500
242.02	5.263
242.40	5.333
242.77	7.368
243.14	17.647
243.51	6.452
243.89	5.714
244.26	7.407
244.63	20.408
245.00	3.571
245.38	5.882
245.75	5.932
246.12	10.156
246.49	19.200
246.87	13.115
247.24	5.634
247.61	13.907
247.98	17.416
248.36	12.579
248.73	11.932
249.10	8.333
249.47	12.500
249.84	8.122
250.22	8.854
250.59	6.742
250.96	15.000
251.33	15.094
251.70	17.431
252.08	17.749
252.45	12.653
252.82	9.705
253.19	14.397
253.56	16.078
253.94	18.699
254.31	17.266
254.68	13.194
255.05	17.550
255.42	15.636
255.79	17.550
256.16	16.319
256.54	17.273
256.91	15.064
257.28	15.909
257.65	15.738
258.02	13.814
258.39	15.710
258.76	15.291
259.14	13.235
259.51	15.493
259.88	17.867
260.25	13.068
260.62	13.764
260.99	15.042
261.36	13.793
261.73	13.600
262.10	16.894
262.47	14.876
262.85	17.995
263.22	14.785
263.59	15.282
263.96	16.188
264.33	9.973
264.70	14.988
265.07	13.547
265.44	14.520
265.81	18.313
266.18	15.691
266.55	16.190
266.92	15.179
267.29	17.556
267.66	14.091
268.03	16.774
268.40	16.247
268.77	16.927
269.14	12.815
269.51	12.217
269.88	14.103
270.25	14.135
270.62	17.227
270.99	14.316
271.36	13.024
271.73	14.167
272.10	16.805
272.47	13.800
272.84	13.163
273.21	13.152
273.58	13.673
273.95	14.741
274.32	14.507
274.69	16.047
275.06	13.884
275.43	13.800
275.80	16.252
276.17	13.834
276.54	16.350
276.91	14.971
277.28	17.215
277.65	12.098
278.02	13.068
278.39	15.245
278.76	13.594
279.13	16.100
279.50	15.884
279.87	14.151
280.23	15.301
280.60	12.367
280.97	14.763
281.34	15.932
281.71	14.210
282.08	15.206
282.45	12.875
282.82	14.478
283.19	12.795
283.56	15.529
283.92	12.480
284.29	15.567
284.66	13.097
285.03	14.237
285.40	15.500
285.77	15.928
286.14	13.154
286.51	15.273
286.87	14.911
287.24	11.859
287.61	11.883
287.98	16.119
288.35	13.178
288.72	13.609
289.08	12.107
289.45	12.949
289.82	12.733
290.19	13.182
290.56	14.327
290.93	11.521
291.29	13.191
291.66	13.202
292.03	14.060
292.40	15.540
292.77	12.245
293.13	11.894
293.50	13.361
293.87	12.760
294.24	12.360
294.60	12.568
294.97	11.773
295.34	12.740
295.71	10.818
296.08	9.426
296.44	13.702
296.81	11.643
297.18	11.255
297.55	11.432
297.91	12.310
298.28	10.997
298.65	10.608
299.02	12.084
299.38	11.480
299.75	11.326
300.12	12.590
300.48	11.268
300.85	10.758
301.22	11.779
301.59	10.706
301.95	12.927
302.32	9.478
302.69	9.512
303.05	9.681
303.42	10.386
303.79	9.438
304.15	10.532
304.52	10.838
304.89	10.034
305.25	10.092
305.62	10.795
305.99	10.862
306.35	10.179
306.72	10.784
307.09	10.229
307.45	10.464
307.82	10.779
308.19	12.321
308.55	10.443
308.92	9.852
309.29	10.983
309.65	10.114
310.02	10.063
310.38	9.701
310.75	11.373
311.12	10.885
311.48	10.483
311.85	10.638
312.22	10.124
312.58	10.775
312.95	10.883
313.31	11.209
313.68	10.526
314.05	11.221
314.41	11.100
314.78	8.744
315.14	10.186
315.51	10.129
315.87	11.230
316.24	10.287
316.61	10.485
316.97	9.804
317.34	10.048
317.70	10.644
318.07	10.318
318.43	11.059
318.80	10.200
319.16	9.786
319.53	11.321
319.89	9.186
320.26	10.718
320.62	10.271
320.99	12.449
321.35	11.561
321.72	12.121
322.08	11.584
322.45	11.637
322.81	10.837
323.18	11.314
323.54	10.237
323.91	11.006
324.27	10.415
324.64	10.590
325.00	11.010
325.37	11.781
325.73	10.766
326.10	11.384
326.46	10.698
326.83	11.170
327.19	12.227
327.56	12.555
327.92	10.938
328.29	12.186
328.65	12.147
329.01	12.110
329.38	11.846
329.74	11.885
330.11	12.395
330.47	11.825
330.84	12.030
331.20	12.200
331.56	11.792
331.93	11.528
332.29	11.286
332.66	12.568
333.02	12.999
333.38	12.960
333.75	12.260
334.11	11.935
334.48	11.896
334.84	12.019
335.20	11.817
335.57	13.806
335.93	12.093
336.29	13.071
336.66	12.933
337.02	11.423
337.38	11.792
337.75	11.818
338.11	13.674
338.47	13.278
338.84	12.431
339.20	13.841
339.56	12.675
339.93	12.432
340.29	12.511
340.65	12.055
341.02	12.046
341.38	12.974
341.74	13.612
342.11	12.909
342.47	11.451
342.83	13.617
343.20	12.644
343.56	12.850
343.92	13.736
344.28	12.178
344.65	12.842
345.01	13.415
345.37	13.675
345.73	12.059
346.10	13.224
346.46	13.115
346.82	12.744
347.19	12.700
347.55	14.626
347.91	12.695
348.27	13.648
348.63	13.829
349.00	14.775
349.36	15.169
349.72	14.122
350.08	14.730
350.45	14.809
350.81	14.121
351.17	13.674
351.53	14.251
351.89	14.508
352.26	13.577
352.62	14.554
352.98	14.812
353.34	13.283
353.70	13.745
354.07	14.992
354.43	15.275
354.79	14.016
355.15	14.286
355.51	13.773
355.87	13.988
356.24	15.686
356.60	13.940
356.96	14.613
357.32	15.802
357.68	15.593
358.04	15.397
358.40	14.894
358.77	14.137
359.13	15.582
359.49	14.560
359.85	15.188
360.21	14.195
360.57	14.753
360.93	15.044
361.29	14.330
361.66	14.826
362.02	14.129
362.38	16.162
362.74	13.912
363.10	14.027
363.46	14.748
363.82	14.701
364.18	14.005
364.54	14.656
364.90	14.370
365.26	13.860
365.62	14.383
365.98	14.243
366.35	15.507
366.71	15.758
367.07	15.572
367.43	14.368
367.79	14.172
368.15	15.345
368.51	15.281
368.87	16.226
369.23	15.519
369.59	15.882
369.95	14.531
370.31	15.000
370.67	16.165
371.03	15.789
371.39	16.314
371.75	15.007
372.11	15.778
372.47	15.367
372.83	15.340
373.19	15.286
373.55	14.970
373.91	15.000
374.27	16.262
374.63	15.832
374.99	14.275
375.35	14.877
375.71	15.782
376.07	15.124
376.42	17.151
376.78	15.679
377.14	16.899
377.50	14.706
377.86	15.599
378.22	15.192
378.58	16.316
378.94	15.717
379.30	15.508
379.66	15.877
380.02	15.575
380.38	16.031
380.74	15.911
381.09	14.803
381.45	15.365
381.81	15.561
382.17	15.831
382.53	16.042
382.89	15.779
383.25	16.804
383.61	15.893
383.97	16.179
384.32	15.484
384.68	17.178
385.04	15.850
385.40	15.719
385.76	16.951
386.12	15.908
386.48	16.308
386.83	16.129
387.19	15.581
387.55	16.969
387.91	15.078
388.27	15.355
388.62	15.997
388.98	16.858
389.34	15.094
389.70	16.282
390.06	16.238
390.42	15.754
390.77	16.499
391.13	16.005
391.49	16.442
391.85	16.101
392.20	16.832
392.56	16.241
392.92	15.955
393.28	16.098
393.64	16.403
393.99	16.753
394.35	16.353
394.71	16.093
395.07	16.844
395.42	16.190
395.78	16.398
396.14	16.256
396.50	17.076
396.85	16.986
397.21	16.365
397.57	16.327
397.92	16.985
398.28	16.906
398.64	17.079
399.00	17.528
399.35	15.533
399.71	16.048
400.07	16.924
400.42	18.205
400.78	17.019
401.14	17.235
401.49	16.615
401.85	16.952
402.21	17.132
402.57	15.840
402.92	17.663
403.28	17.360
403.63	17.308
403.99	17.900
404.35	16.561
404.70	16.656
405.06	17.855
405.42	16.591
405.77	17.182
406.13	16.129
406.49	16.656
406.84	17.684
407.20	16.853
407.55	17.902
407.91	16.853
408.27	17.487
408.62	17.235
408.98	18.147
409.34	17.222
409.69	17.057
410.05	17.293
410.40	16.313
410.76	16.936
411.11	17.195
411.47	18.027
411.83	17.643
412.18	18.521
412.54	17.529
412.89	17.358
413.25	18.245
413.60	18.686
413.96	17.540
414.31	17.782
414.67	18.704
415.03	18.465
415.38	18.733
415.74	17.797
416.09	17.919
416.45	16.631
416.80	16.690
417.16	18.054
417.51	17.974
417.87	17.989
418.22	18.182
418.58	17.139
418.93	17.924
419.29	18.250
419.64	18.681
420.00	17.878
420.35	17.702
420.71	18.118
421.06	18.300
421.42	18.507
421.77	18.453
422.12	18.074
422.48	19.189
422.83	18.116
423.19	19.118
423.54	18.571
423.90	17.676
424.25	19.275
424.61	18.839
424.96	19.226
425.31	18.961
425.67	18.606
426.02	18.509
426.38	18.340
426.73	18.629
427.09	19.895
427.44	19.198
427.79	19.678
428.15	18.643
428.50	19.975
428.85	19.500
429.21	20.502
429.56	19.116
429.92	18.929
430.27	19.093
430.62	19.037
430.98	19.022
431.33	19.410
431.68	19.694
432.04	19.735
432.39	18.835
432.74	20.557
433.10	20.376
433.45	19.886
433.80	21.429
434.16	20.311
434.51	20.011
434.86	19.577
435.22	20.198
435.57	21.240
435.92	19.814
436.28	20.486
436.63	21.109
436.98	20.741
437.34	20.985
437.69	21.049
438.04	20.433
438.39	21.932
438.75	21.231
439.10	21.429
439.45	21.630
439.81	21.016
440.16	20.903
440.51	21.066
440.86	22.222
441.22	21.501
441.57	21.481
441.92	21.811
442.27	22.457
442.63	21.614
442.98	23.289
443.33	21.739
443.68	22.518
444.03	22.062
444.39	22.176
444.74	22.782
445.09	22.668
445.44	22.741
445.79	22.708
446.15	21.983
446.50	22.788
446.85	23.267
447.20	23.249
447.55	22.048
447.91	23.457
448.26	23.917
448.61	22.840
448.96	23.596
449.31	22.363
449.66	22.337
450.02	23.254
450.37	23.329
450.72	22.861
451.07	23.336
451.42	23.320
451.77	22.825
452.12	23.058
452.47	24.187
452.83	23.288
453.18	23.025
453.53	23.906
453.88	24.633
454.23	24.345
454.58	24.413
454.93	23.569
455.28	23.693
455.63	24.107
455.98	23.921
456.34	24.313
456.69	24.171
457.04	23.163
457.39	24.220
457.74	23.451
458.09	23.958
458.44	24.280
458.79	23.322
459.14	24.270
459.49	24.713
459.84	25.149
460.19	24.203
460.54	23.232
460.89	23.647
461.24	24.026
461.59	24.543
461.94	25.247
462.29	23.496
462.64	24.164
462.99	25.381
463.34	25.055
463.69	24.417
464.04	24.952
464.39	24.116
464.74	23.945
465.09	25.080
465.44	23.755
465.79	24.308
466.14	23.687
466.49	25.104
466.84	23.587
467.19	25.146
467.54	23.674
467.89	24.624
468.24	24.306
468.59	25.458
468.94	25.891
469.29	24.775
469.64	26.550
469.99	25.883
470.34	23.833
470.68	25.154
471.03	25.109
471.38	25.729
471.73	25.581
472.08	26.121
472.43	26.279
472.78	25.598
473.13	25.965
473.48	25.795
473.83	25.826
474.17	25.083
474.52	26.524
474.87	25.631
475.22	26.429
475.57	25.441
475.92	25.810
476.27	25.618
476.61	26.418
476.96	26.378
477.31	26.313
477.66	26.612
478.01	26.251
478.36	26.189
478.70	26.535
479.05	26.059
479.40	25.041
479.75	26.416
480.10	26.569
480.45	26.021
480.79	26.155
481.14	26.885
481.49	26.581
481.84	26.616
482.19	25.854
482.53	27.157
482.88	26.131
483.23	26.583
483.58	26.287
483.92	26.533
484.27	26.379
484.62	26.733
484.97	25.879
485.31	26.179
485.66	25.828
486.01	25.113
486.36	24.717
486.70	24.931
487.05	25.114
487.40	25.278
487.75	25.021
488.09	25.031
488.44	24.929
488.79	26.147
489.13	26.101
489.48	26.148
489.83	26.537
490.17	26.910
490.52	25.813
490.87	26.805
491.22	26.677
491.56	26.828
491.91	27.309
492.26	26.976
492.60	27.398
492.95	27.361
493.30	26.817
493.64	27.485
493.99	28.388
494.34	27.167
494.68	26.462
495.03	25.710
495.37	27.065
495.72	27.690
496.07	27.586
496.41	26.630
496.76	27.316
497.11	27.474
497.45	26.770
497.80	27.518
498.14	27.825
498.49	28.564
498.84	27.044
499.18	27.296
499.53	27.934
499.87	27.855
500.22	28.104
500.56	28.938
500.91	28.422
501.26	27.874
501.60	27.727
501.95	27.994
502.29	28.887
502.64	27.725
502.98	27.663
503.33	28.407
503.67	28.025
504.02	28.294
504.36	27.940
504.71	28.085
505.06	29.566
505.40	28.150
505.75	28.383
506.09	28.440
506.44	29.453
506.78	28.212
507.13	27.959
507.47	29.640
507.82	29.129
508.16	29.176
508.51	29.048
508.85	29.286
509.19	29.841
509.54	29.802
509.88	29.747
510.23	29.494
510.57	30.153
510.92	29.762
511.26	30.270
511.61	30.765
511.95	29.902
512.30	29.623
512.64	30.147
512.98	30.597
513.33	30.598
513.67	29.641
514.02	30.769
514.36	31.257
514.70	31.026
515.05	31.768
515.39	31.932
515.74	30.702
516.08	30.822
516.42	32.194
516.77	30.994
517.11	31.009
517.46	31.605
517.80	32.100
518.14	33.017
518.49	32.277
518.83	32.620
519.17	32.584
519.52	31.918
519.86	32.362
520.20	31.656
520.55	33.029
520.89	33.671
521.23	33.267
521.58	32.407
521.92	33.178
522.26	33.471
522.61	34.130
522.95	33.219
523.29	32.254
523.64	32.225
523.98	33.602
524.32	32.660
524.66	33.311
525.01	34.021
525.35	33.926
525.69	33.310
526.04	34.743
526.38	33.379
526.72	35.278
527.06	33.755
527.41	33.168
527.75	35.032
528.09	33.876
528.43	34.373
528.78	34.172
529.12	35.000
529.46	34.286
529.80	33.492
530.15	34.816
530.49	35.077
530.83	35.430
531.17	34.463
531.51	35.760
531.86	34.734
532.20	34.199
532.54	34.964
532.88	36.145
533.22	34.842
533.57	34.207
533.91	34.412
534.25	33.809
534.59	35.076
534.93	33.647
535.27	33.199
535.62	34.099
535.96	35.171
536.30	34.934
536.64	34.979
536.98	35.693
537.32	35.789
537.66	34.824
538.01	35.420
538.35	34.545
538.69	34.749
539.03	34.463
539.37	34.673
539.71	35.000
540.05	34.660
540.39	35.221
540.73	34.505
541.07	35.368
541.42	35.282
541.76	35.971
542.10	34.218
542.44	35.549
542.78	34.897
543.12	34.224
543.46	36.960
543.80	35.883
544.14	36.129
544.48	35.368
544.82	35.344
545.16	36.159
545.50	35.808
545.84	35.552
546.18	34.532
546.52	35.281
546.86	35.119
547.20	35.227
547.54	34.951
547.88	33.832
548.22	34.951
548.56	35.588
548.90	36.491
549.24	35.307
549.58	35.991
549.92	35.489
550.26	36.062
550.60	34.655
550.94	36.587
551.28	37.073
551.62	37.101
551.96	36.581
552.30	34.961
552.64	35.913
552.98	35.587
553.32	34.848
553.66	35.432
554.00	36.139
554.34	35.703
554.68	36.045
555.02	35.159
555.36	36.458
555.69	35.511
556.03	35.551
556.37	35.259
556.71	35.747
557.05	36.094
557.39	36.707
557.73	36.635
558.07	36.854
558.41	35.914
558.75	36.432
559.08	36.681
559.42	36.120
559.76	36.142
560.10	37.082
560.44	35.788
560.78	34.560
561.12	36.213
561.45	35.193
561.79	34.288
562.13	34.989
562.47	36.468
562.81	36.012
563.15	35.057
563.48	36.554
563.82	36.245
564.16	34.253
564.50	34.670
564.84	36.286
565.17	35.479
565.51	35.257
565.85	35.423
566.19	35.143
566.52	35.125
566.86	36.339
567.20	34.997
567.54	35.099
567.88	34.769
568.21	35.053
568.55	33.560
568.89	33.681
569.23	33.384
569.56	33.011
569.90	32.805
570.24	33.294
570.57	32.017
570.91	33.115
571.25	32.163
571.59	31.311
571.92	30.481
572.26	31.348
572.60	31.495
572.93	31.238
573.27	30.921
573.61	31.291
573.95	30.552
574.28	30.179
574.62	30.360
574.96	30.587
575.29	30.124
575.63	30.584
575.97	30.368
576.30	30.769
576.64	29.796
576.98	30.088
577.31	30.709
577.65	30.410
577.98	29.697
578.32	29.543
578.66	30.540
578.99	30.926
579.33	30.453
579.67	30.151
580.00	29.699
580.34	30.935
580.67	29.934
581.01	30.286
581.35	30.408
581.68	29.877
582.02	29.735
582.35	29.384
582.69	30.138
583.02	29.866
583.36	30.207
583.70	31.407
584.03	30.634
584.37	30.774
584.70	30.156
585.04	30.067
585.37	30.105
585.71	30.287
586.04	30.036
586.38	30.646
586.72	30.762
587.05	31.411
587.39	30.721
587.72	30.370
588.06	31.063
588.39	30.850
588.73	30.575
589.06	30.906
589.40	31.749
589.73	32.012
590.07	30.623
590.40	31.396
590.73	31.529
591.07	31.948
591.40	31.932
591.74	32.229
592.07	32.044
592.41	31.912
592.74	32.211
593.08	31.668
593.41	30.579
593.75	30.671
594.08	31.820
594.41	31.424
594.75	31.441
595.08	31.554
595.42	31.055
595.75	31.326
596.09	31.865
596.42	31.543
596.75	32.364
597.09	31.110
597.42	32.567
597.75	31.848
598.09	32.163
598.42	31.850
598.76	31.694
599.09	30.924
599.42	29.819
599.76	30.600
600.09	31.831
600.42	30.352
600.76	30.216
601.09	30.941
601.42	30.395
601.76	31.088
602.09	31.378
602.42	31.654
602.76	31.894
603.09	31.201
603.42	31.814
603.76	31.095
604.09	31.704
604.42	30.657
604.76	31.219
605.09	30.798
605.42	32.180
605.75	31.521
606.09	32.222
606.42	30.752
606.75	31.439
607.09	31.670
607.42	31.207
607.75	30.441
608.08	32.320
608.42	31.038
608.75	31.716
609.08	30.742
609.41	31.363
609.75	31.385
610.08	31.576
610.41	31.399
610.74	31.648
611.07	31.359
611.41	31.049
611.74	31.175
612.07	30.190
612.40	32.089
612.73	31.655
613.07	31.239
613.40	31.627
613.73	30.985
614.06	30.269
614.39	32.337
614.72	30.933
615.06	31.228
615.39	31.293
615.72	31.355
616.05	30.725
616.38	30.842
616.71	31.530
617.05	31.658
617.38	31.871
617.71	32.593
618.04	32.194
618.37	31.131
618.70	33.220
619.03	33.648
619.36	32.916
619.69	33.204
620.03	32.952
620.36	32.729
620.69	32.373
621.02	33.254
621.35	33.702
621.68	34.023
622.01	32.620
622.34	33.082
622.67	32.546
623.00	33.333
623.33	32.362
623.66	32.669
623.99	32.297
624.32	32.407
624.65	33.359
624.99	31.562
625.32	33.175
625.65	33.787
625.98	33.333
626.31	34.113
626.64	34.775
626.97	34.559
627.30	33.426
627.63	33.860
627.96	34.730
628.29	34.608
628.62	35.258
628.95	34.741
629.28	34.607
629.61	34.274
629.94	35.477
630.26	32.950
630.59	35.707
630.92	32.982
631.25	34.749
631.58	35.698
631.91	35.649
632.24	35.385
632.57	36.742
632.90	36.408
633.23	38.839
633.56	34.969
633.89	35.356
