SpectraSuite Data File
++++++++++++++++++++++++++++++++++++
Date: Wed May 13 19:17:20 PDT 2015
User: schluterlab
Dark Spectrum Present: Yes
Reference Spectrum Present: Yes
Number of Sampled Component Spectra: 1
Spectrometers: USB2E3373
Integration Time (usec): 3000 (USB2E3373)
Spectra Averaged: 3 (USB2E3373)
Boxcar Smoothing: 0 (USB2E3373)
Correct for Electrical Dark: No (USB2E3373)
Strobe/Lamp Enabled: No (USB2E3373)
Correct for Detector Non-linearity: No (USB2E3373)
Correct for Stray Light: No (USB2E3373)
Number of Pixels in Processed Spectrum: 2048
>>>>>Begin Processed Spectral Data<<<<<
178.53	0.000
178.91	-1500.000
179.29	-1500.000
179.67	-227.778
180.04	-1350.000
180.42	2900.000
180.80	1160.000
181.18	-1300.000
181.56	800.000
181.94	0.000
182.31	-585.714
182.69	1966.667
183.07	-700.000
183.45	-588.889
183.83	663.636
184.20	-470.000
184.58	3050.000
184.96	6200.000
185.34	-900.000
185.72	-687.500
186.09	-2450.000
186.47	3000.000
186.85	2400.000
187.23	5500.000
187.61	-1866.667
187.98	1400.000
188.36	572.727
188.74	554.545
189.12	-1160.000
189.49	600.000
189.87	-5300.000
190.25	-1400.000
190.63	492.857
191.00	438.462
191.38	900.000
191.76	-1225.000
192.14	1575.000
192.51	650.000
192.89	1016.667
193.27	725.000
193.65	-1425.000
194.02	570.000
194.40	980.000
194.78	610.000
195.15	591.667
195.53	700.000
195.91	-2650.000
196.29	387.500
196.66	310.526
197.04	-370.000
197.42	0.000
197.79	710.000
198.17	-4800.000
198.55	700.000
198.92	800.000
199.30	1140.000
199.68	0.000
200.05	377.778
200.43	857.143
200.81	5200.000
201.18	1600.000
201.56	-1866.667
201.94	588.889
202.31	744.444
202.69	500.000
203.07	570.000
203.44	0.000
203.82	1425.000
204.19	914.286
204.57	528.571
204.95	662.500
205.32	1666.667
205.70	590.909
206.08	407.143
206.45	3300.000
206.83	406.250
207.20	1100.000
207.58	980.000
207.96	350.000
208.33	787.500
208.71	-900.000
209.08	800.000
209.46	733.333
209.84	436.364
210.21	-1933.333
210.59	1525.000
210.96	-562.500
211.34	3250.000
211.71	590.000
212.09	1200.000
212.46	0.000
212.84	2100.000
213.22	1600.000
213.59	-4600.000
213.97	1116.667
214.34	885.714
214.72	618.182
215.09	1020.000
215.47	-2550.000
215.84	-2850.000
216.22	2033.333
216.59	485.714
216.97	1275.000
217.34	627.273
217.72	-716.667
218.09	0.000
218.47	-5900.000
218.84	822.222
219.22	885.714
219.59	2200.000
219.97	-728.571
220.34	1220.000
220.72	-1966.667
221.09	514.286
221.47	1425.000
221.84	-1016.667
222.22	0.000
222.59	1650.000
222.97	-2800.000
223.34	1240.000
223.72	469.231
224.09	1180.000
224.46	2800.000
224.84	-5300.000
225.21	-1020.000
225.59	-5500.000
225.96	640.000
226.34	320.000
226.71	2900.000
227.08	787.500
227.46	650.000
227.83	-1375.000
228.21	-2600.000
228.58	733.333
228.95	-2450.000
229.33	-2450.000
229.70	1900.000
230.08	928.571
230.45	-1020.000
230.82	508.333
231.20	933.333
231.57	657.143
231.95	466.667
232.32	322.727
232.69	463.636
233.07	857.143
233.44	376.923
233.81	-2133.333
234.19	300.000
234.56	550.000
234.93	475.000
235.31	545.455
235.68	407.692
236.05	500.000
236.43	224.242
236.80	315.789
237.17	5600.000
237.55	247.619
237.92	232.143
238.29	280.952
238.67	200.000
239.04	217.241
239.41	155.556
239.79	119.565
240.16	145.238
240.53	170.455
240.91	96.078
241.28	104.000
241.65	132.000
242.02	107.246
242.40	80.645
242.77	103.333
243.14	77.419
243.51	80.899
243.89	72.941
244.26	68.889
244.63	70.968
245.00	65.957
245.38	63.366
245.75	55.140
246.12	58.716
246.49	56.204
246.87	65.600
247.24	53.077
247.61	45.714
247.98	46.405
248.36	49.324
248.73	43.949
249.10	48.408
249.47	42.373
249.84	43.850
250.22	40.107
250.59	42.604
250.96	38.889
251.33	44.550
251.70	40.594
252.08	41.905
252.45	38.117
252.82	31.739
253.19	31.064
253.56	32.157
253.94	34.025
254.31	38.281
254.68	31.923
255.05	29.889
255.42	28.049
255.79	32.721
256.16	35.018
256.54	27.208
256.91	30.961
257.28	24.101
257.65	28.053
258.02	27.019
258.39	25.868
258.76	27.425
259.14	30.060
259.51	27.660
259.88	22.360
260.25	24.169
260.62	26.301
260.99	29.503
261.36	27.027
261.73	22.350
262.10	23.547
262.47	27.042
262.85	27.019
263.22	19.658
263.59	26.496
263.96	23.352
264.33	24.021
264.70	24.737
265.07	24.808
265.44	24.495
265.81	20.681
266.18	23.869
266.55	21.463
266.92	22.850
267.29	22.917
267.66	22.706
268.03	22.045
268.40	21.495
268.77	23.389
269.14	20.045
269.51	24.605
269.88	23.543
270.25	20.993
270.62	22.022
270.99	21.720
271.36	20.601
271.73	21.262
272.10	20.000
272.47	22.151
272.84	20.779
273.21	21.593
273.58	20.961
273.95	21.384
274.32	19.835
274.69	17.773
275.06	19.685
275.43	20.426
275.80	18.838
276.17	19.145
276.54	22.661
276.91	17.984
277.28	19.922
277.65	20.503
278.02	18.012
278.39	19.922
278.76	21.636
279.13	19.245
279.50	20.484
279.87	17.729
280.23	19.361
280.60	19.729
280.97	18.115
281.34	19.292
281.71	19.455
282.08	20.345
282.45	17.455
282.82	20.782
283.19	17.469
283.56	19.298
283.92	19.966
284.29	17.813
284.66	18.330
285.03	18.264
285.40	16.197
285.77	16.498
286.14	16.580
286.51	19.667
286.87	17.094
287.24	17.101
287.61	16.693
287.98	17.695
288.35	16.799
288.72	16.978
289.08	17.684
289.45	15.980
289.82	18.211
290.19	15.228
290.56	15.467
290.93	15.106
291.29	15.491
291.66	15.044
292.03	17.297
292.40	16.887
292.77	15.533
293.13	17.015
293.50	14.431
293.87	14.519
294.24	15.704
294.60	15.138
294.97	14.390
295.34	16.502
295.71	14.915
296.08	15.385
296.44	15.956
296.81	13.342
297.18	15.583
297.55	12.005
297.91	13.984
298.28	15.797
298.65	13.577
299.02	14.097
299.38	13.413
299.75	10.916
300.12	14.049
300.48	13.750
300.85	14.057
301.22	13.631
301.59	13.636
301.95	14.736
302.32	13.607
302.69	13.023
303.05	12.970
303.42	11.852
303.79	13.590
304.15	12.238
304.52	11.124
304.89	13.357
305.25	13.573
305.62	13.703
305.99	13.577
306.35	11.857
306.72	11.996
307.09	14.095
307.45	12.725
307.82	10.937
308.19	12.693
308.55	12.945
308.92	12.675
309.29	11.510
309.65	11.559
310.02	12.051
310.38	12.151
310.75	12.883
311.12	11.771
311.48	13.062
311.85	13.208
312.22	12.071
312.58	12.578
312.95	13.200
313.31	11.845
313.68	12.370
314.05	12.919
314.41	11.859
314.78	12.286
315.14	11.519
315.51	12.358
315.87	11.980
316.24	11.420
316.61	11.696
316.97	12.622
317.34	12.818
317.70	12.333
318.07	12.705
318.43	13.307
318.80	13.402
319.16	13.748
319.53	13.415
319.89	14.095
320.26	14.800
320.62	13.790
320.99	15.657
321.35	15.152
321.72	15.606
322.08	15.597
322.45	16.219
322.81	15.795
323.18	17.052
323.54	17.440
323.91	17.075
324.27	17.304
324.64	16.216
325.00	16.592
325.37	18.289
325.73	19.031
326.10	17.917
326.46	19.086
326.83	19.672
327.19	19.214
327.56	20.122
327.92	20.385
328.29	20.586
328.65	21.915
329.01	21.570
329.38	20.907
329.74	20.868
330.11	21.206
330.47	22.406
330.84	22.886
331.20	21.858
331.56	21.927
331.93	22.685
332.29	22.626
332.66	23.628
333.02	22.943
333.38	24.119
333.75	23.886
334.11	23.843
334.48	23.425
334.84	24.265
335.20	25.182
335.57	22.937
335.93	23.482
336.29	23.352
336.66	24.166
337.02	23.077
337.38	24.259
337.75	24.332
338.11	25.067
338.47	24.678
338.84	25.481
339.20	24.771
339.56	26.095
339.93	23.909
340.29	25.091
340.65	25.758
341.02	26.091
341.38	25.712
341.74	23.684
342.11	26.026
342.47	25.286
342.83	25.771
343.20	25.195
343.56	25.190
343.92	25.175
344.28	26.020
344.65	25.881
345.01	25.337
345.37	25.815
345.73	25.127
346.10	25.661
346.46	26.102
346.82	26.524
347.19	24.645
347.55	24.959
347.91	26.214
348.27	26.787
348.63	26.338
349.00	25.081
349.36	25.534
349.72	26.303
350.08	25.770
350.45	26.200
350.81	26.076
351.17	25.446
351.53	25.225
351.89	24.670
352.26	25.335
352.62	24.539
352.98	24.797
353.34	26.541
353.70	24.795
354.07	26.290
354.43	25.556
354.79	24.698
355.15	26.018
355.51	26.859
355.87	26.939
356.24	26.221
356.60	24.619
356.96	25.986
357.32	26.329
357.68	26.063
358.04	26.128
358.40	25.574
358.77	25.587
359.13	23.994
359.49	26.196
359.85	25.079
360.21	25.279
360.57	27.704
360.93	26.846
361.29	25.397
361.66	26.316
362.02	26.045
362.38	26.312
362.74	26.786
363.10	24.796
363.46	26.486
363.82	25.775
364.18	26.799
364.54	26.449
364.90	26.700
365.26	26.471
365.62	27.173
365.98	25.274
366.35	26.003
366.71	26.898
367.07	27.240
367.43	27.213
367.79	27.909
368.15	27.443
368.51	26.890
368.87	27.623
369.23	26.993
369.59	27.516
369.95	26.544
370.31	27.066
370.67	27.101
371.03	28.090
371.39	27.988
371.75	27.500
372.11	28.094
372.47	28.006
372.83	28.602
373.19	27.023
373.55	27.494
373.91	28.719
374.27	27.629
374.63	28.655
374.99	28.460
375.35	27.634
375.71	27.964
376.07	28.738
376.42	29.023
376.78	29.092
377.14	28.087
377.50	28.146
377.86	28.191
378.22	29.456
378.58	28.634
378.94	28.158
379.30	29.135
379.66	29.251
380.02	29.484
380.38	28.658
380.74	29.352
381.09	29.829
381.45	30.240
381.81	29.238
382.17	29.172
382.53	30.189
382.89	31.111
383.25	30.019
383.61	30.112
383.97	30.081
384.32	30.505
384.68	30.359
385.04	30.977
385.40	31.146
385.76	30.037
386.12	31.606
386.48	31.278
386.83	31.302
387.19	31.602
387.55	30.550
387.91	31.318
388.27	31.453
388.62	31.039
388.98	31.143
389.34	31.915
389.70	32.189
390.06	32.193
390.42	33.528
390.77	32.570
391.13	32.546
391.49	33.439
391.85	32.081
392.20	31.861
392.56	32.513
392.92	32.902
393.28	32.959
393.64	32.854
393.99	32.682
394.35	33.499
394.71	33.312
395.07	32.586
395.42	33.313
395.78	33.588
396.14	33.706
396.50	35.025
396.85	34.393
397.21	32.244
397.57	33.788
397.92	33.474
398.28	33.184
398.64	34.349
399.00	34.583
399.35	33.559
399.71	34.606
400.07	35.186
400.42	34.847
400.78	35.706
401.14	36.159
401.49	35.642
401.85	35.330
402.21	35.030
402.57	35.102
402.92	35.876
403.28	35.353
403.63	36.015
403.99	36.051
404.35	36.364
404.70	35.971
405.06	34.770
405.42	36.057
405.77	35.314
406.13	35.158
406.49	35.305
406.84	35.854
407.20	35.579
407.55	36.631
407.91	37.533
408.27	36.886
408.62	36.123
408.98	36.826
409.34	37.269
409.69	36.839
410.05	37.794
410.40	36.514
410.76	38.112
411.11	37.093
411.47	36.677
411.83	37.996
412.18	37.353
412.54	37.983
412.89	37.470
413.25	37.013
413.60	37.307
413.96	36.855
414.31	37.485
414.67	39.100
415.03	37.351
415.38	38.080
415.74	38.842
416.09	38.537
416.45	39.090
416.80	38.599
417.16	38.003
417.51	40.013
417.87	37.765
418.22	37.792
418.58	38.993
418.93	38.759
419.29	39.720
419.64	39.232
420.00	38.110
420.35	38.899
420.71	38.673
421.06	38.305
421.42	38.713
421.77	38.509
422.12	39.023
422.48	37.777
422.83	38.847
423.19	38.895
423.54	38.828
423.90	39.420
424.25	39.196
424.61	39.167
424.96	39.942
425.31	39.590
425.67	39.438
426.02	39.657
426.38	41.087
426.73	40.667
427.09	39.574
427.44	38.815
427.79	39.160
428.15	40.060
428.50	39.321
428.85	39.750
429.21	38.929
429.56	38.932
429.92	39.104
430.27	39.474
430.62	38.146
430.98	39.958
431.33	39.124
431.68	39.581
432.04	39.989
432.39	40.720
432.74	40.814
433.10	41.087
433.45	40.758
433.80	40.133
434.16	40.171
434.51	40.158
434.86	40.308
435.22	41.301
435.57	40.608
435.92	40.140
436.28	41.815
436.63	40.121
436.98	40.584
437.34	41.562
437.69	41.424
438.04	41.315
438.39	41.612
438.75	41.081
439.10	42.346
439.45	41.204
439.81	41.873
440.16	41.446
440.51	40.773
440.86	42.386
441.22	40.768
441.57	41.030
441.92	41.146
442.27	40.958
442.63	40.600
442.98	42.479
443.33	41.033
443.68	41.146
444.03	42.069
444.39	40.360
444.74	40.963
445.09	41.402
445.44	41.279
445.79	41.019
446.15	40.868
446.50	40.549
446.85	41.110
447.20	41.203
447.55	42.658
447.91	41.754
448.26	42.126
448.61	41.153
448.96	41.584
449.31	42.070
449.66	41.249
450.02	41.616
450.37	41.610
450.72	40.948
451.07	41.438
451.42	40.243
451.77	42.572
452.12	41.109
452.47	42.226
452.83	41.492
453.18	42.482
453.53	41.806
453.88	41.937
454.23	42.200
454.58	41.914
454.93	43.166
455.28	41.272
455.63	41.201
455.98	42.321
456.34	41.332
456.69	41.641
457.04	41.796
457.39	41.438
457.74	41.962
458.09	41.288
458.44	41.562
458.79	40.347
459.14	41.704
459.49	41.973
459.84	40.665
460.19	40.719
460.54	40.336
460.89	41.360
461.24	40.923
461.59	42.475
461.94	42.417
462.29	41.780
462.64	41.417
462.99	40.859
463.34	41.467
463.69	41.964
464.04	41.971
464.39	40.406
464.74	41.355
465.09	40.470
465.44	40.886
465.79	39.653
466.14	40.339
466.49	40.378
466.84	41.798
467.19	41.581
467.54	41.937
467.89	41.116
468.24	41.827
468.59	41.941
468.94	40.990
469.29	41.774
469.64	42.771
469.99	41.949
470.34	41.017
470.68	42.170
471.03	41.497
471.38	42.182
471.73	41.039
472.08	41.711
472.43	41.394
472.78	41.145
473.13	41.463
473.48	41.760
473.83	40.976
474.17	40.821
474.52	41.935
474.87	41.039
475.22	40.685
475.57	39.979
475.92	40.361
476.27	40.981
476.61	40.099
476.96	40.572
477.31	39.089
477.66	41.685
478.01	39.676
478.36	39.662
478.70	39.823
479.05	40.628
479.40	40.532
479.75	40.315
480.10	40.010
480.45	40.314
480.79	38.653
481.14	40.998
481.49	40.626
481.84	39.369
482.19	39.709
482.53	39.083
482.88	39.972
483.23	39.813
483.58	38.763
483.92	40.300
484.27	38.388
484.62	39.095
484.97	38.431
485.31	39.349
485.66	36.603
486.01	35.814
486.36	34.660
486.70	34.590
487.05	36.333
487.40	36.849
487.75	36.966
488.09	38.641
488.44	38.426
488.79	39.602
489.13	40.183
489.48	39.396
489.83	38.886
490.17	39.807
490.52	38.973
490.87	37.901
491.22	38.745
491.56	37.631
491.91	38.576
492.26	38.218
492.60	38.433
492.95	38.120
493.30	39.393
493.64	39.571
493.99	39.229
494.34	38.575
494.68	39.148
495.03	38.722
495.37	39.134
495.72	40.156
496.07	39.118
496.41	38.628
496.76	37.687
497.11	37.731
497.45	38.752
497.80	39.155
498.14	38.019
498.49	38.341
498.84	38.495
499.18	38.429
499.53	38.889
499.87	37.884
500.22	38.295
500.56	39.612
500.91	37.837
501.26	38.834
501.60	39.535
501.95	37.855
502.29	39.082
502.64	39.013
502.98	38.149
503.33	37.431
503.67	38.329
504.02	38.354
504.36	38.325
504.71	38.593
505.06	38.024
505.40	38.989
505.75	36.933
506.09	38.192
506.44	39.467
506.78	38.578
507.13	39.122
507.47	38.788
507.82	39.260
508.16	39.767
508.51	39.472
508.85	38.481
509.19	39.082
509.54	38.367
509.88	38.640
510.23	38.509
510.57	39.835
510.92	39.202
511.26	38.181
511.61	38.849
511.95	38.100
512.30	37.699
512.64	38.528
512.98	38.960
513.33	39.293
513.67	38.847
514.02	38.690
514.36	40.251
514.70	39.790
515.05	39.543
515.39	38.755
515.74	38.851
516.08	39.631
516.42	39.900
516.77	40.245
517.11	39.068
517.46	40.463
517.80	39.837
518.14	39.548
518.49	40.082
518.83	39.545
519.17	39.954
519.52	39.502
519.86	39.817
520.20	39.595
520.55	40.215
520.89	40.815
521.23	39.686
521.58	38.836
521.92	40.478
522.26	38.743
522.61	40.000
522.95	39.104
523.29	39.623
523.64	40.305
523.98	40.173
524.32	39.686
524.66	40.108
525.01	39.277
525.35	38.724
525.69	38.239
526.04	39.377
526.38	40.024
526.72	40.368
527.06	39.862
527.41	38.366
527.75	39.550
528.09	40.591
528.43	40.089
528.78	39.582
529.12	39.818
529.46	40.478
529.80	39.728
530.15	39.938
530.49	39.200
530.83	40.127
531.17	40.405
531.51	40.661
531.86	40.581
532.20	40.222
532.54	41.320
532.88	39.795
533.22	38.413
533.57	38.272
533.91	39.916
534.25	39.064
534.59	38.804
534.93	39.024
535.27	38.564
535.62	39.499
535.96	39.799
536.30	40.051
536.64	41.404
536.98	39.748
537.32	39.829
537.66	39.867
538.01	40.487
538.35	39.690
538.69	39.821
539.03	38.596
539.37	38.275
539.71	39.598
540.05	38.824
540.39	40.199
540.73	39.133
541.07	40.688
541.42	38.682
541.76	40.065
542.10	38.098
542.44	39.007
542.78	40.053
543.12	37.876
543.46	39.869
543.80	39.102
544.14	38.383
544.48	39.937
544.82	38.999
545.16	38.777
545.50	39.139
545.84	41.062
546.18	38.923
546.52	39.504
546.86	39.313
547.20	39.245
547.54	39.078
547.88	39.222
548.22	39.041
548.56	37.862
548.90	37.580
549.24	40.202
549.58	39.495
549.92	39.286
550.26	40.199
550.60	39.212
550.94	39.437
551.28	39.649
551.62	39.684
551.96	38.386
552.30	38.430
552.64	38.607
552.98	38.644
553.32	38.975
553.66	38.855
554.00	39.327
554.34	38.647
554.68	39.485
555.02	38.646
555.36	38.553
555.69	37.618
556.03	37.550
556.37	38.131
556.71	36.835
557.05	38.515
557.39	38.908
557.73	38.109
558.07	38.869
558.41	39.580
558.75	38.428
559.08	39.299
559.42	39.153
559.76	39.118
560.10	38.687
560.44	37.596
560.78	36.394
561.12	37.401
561.45	37.940
561.79	36.849
562.13	37.894
562.47	38.456
562.81	38.145
563.15	37.726
563.48	37.666
563.82	37.443
564.16	35.971
564.50	36.784
564.84	36.536
565.17	36.358
565.51	37.380
565.85	36.802
566.19	35.755
566.52	37.302
566.86	35.443
567.20	36.616
567.54	36.587
567.88	35.035
568.21	36.296
568.55	35.288
568.89	35.165
569.23	34.938
569.56	33.482
569.90	33.245
570.24	33.046
570.57	33.186
570.91	32.094
571.25	32.551
571.59	31.988
571.92	32.056
572.26	32.091
572.60	32.102
572.93	32.384
573.27	32.505
573.61	31.993
573.95	31.654
574.28	31.407
574.62	31.390
574.96	30.705
575.29	31.062
575.63	30.869
575.97	31.190
576.30	31.253
576.64	30.882
576.98	30.773
577.31	30.638
577.65	30.814
577.98	30.881
578.32	30.222
578.66	30.629
578.99	30.381
579.33	31.179
579.67	30.528
580.00	31.024
580.34	31.087
580.67	30.655
581.01	30.492
581.35	30.088
581.68	30.091
582.02	29.823
582.35	29.693
582.69	30.529
583.02	30.278
583.36	30.620
583.70	31.194
584.03	30.747
584.37	31.858
584.70	31.348
585.04	30.479
585.37	30.266
585.71	30.475
586.04	30.708
586.38	31.139
586.72	30.820
587.05	29.775
587.39	30.501
587.72	30.430
588.06	30.683
588.39	30.864
588.73	31.211
589.06	31.661
589.40	31.919
589.73	31.749
590.07	31.423
590.40	31.202
590.73	32.240
591.07	32.112
591.40	32.518
591.74	33.593
592.07	32.897
592.41	31.831
592.74	30.637
593.08	30.413
593.41	30.022
593.75	29.669
594.08	30.372
594.41	31.142
594.75	31.349
595.08	30.923
595.42	31.559
595.75	30.520
596.09	31.618
596.42	32.495
596.75	32.123
597.09	31.905
597.42	30.776
597.75	31.436
598.09	31.261
598.42	31.658
598.76	30.280
599.09	30.027
599.42	29.913
599.76	29.722
600.09	30.091
600.42	29.584
600.76	29.429
601.09	30.565
601.42	31.279
601.76	30.474
602.09	30.514
602.42	31.250
602.76	31.358
603.09	30.212
603.42	31.043
603.76	29.649
604.09	30.632
604.42	30.697
604.76	31.548
605.09	31.062
605.42	30.740
605.75	30.050
606.09	30.500
606.42	30.527
606.75	30.610
607.09	30.347
607.42	30.595
607.75	29.662
608.08	29.917
608.42	30.704
608.75	30.613
609.08	30.620
609.41	30.890
609.75	30.967
610.08	31.527
610.41	30.587
610.74	31.552
611.07	30.830
611.41	30.177
611.74	31.624
612.07	31.832
612.40	32.371
612.73	31.579
613.07	31.142
613.40	31.016
613.73	30.676
614.06	31.505
614.39	30.939
614.72	31.316
615.06	30.567
615.39	30.892
615.72	30.777
616.05	30.888
616.38	30.962
616.71	31.770
617.05	31.390
617.38	30.788
617.71	31.111
618.04	32.452
618.37	31.579
618.70	31.176
619.03	32.171
619.36	31.636
619.69	32.817
620.03	32.967
620.36	32.086
620.69	32.466
621.02	32.596
621.35	33.203
621.68	32.632
622.01	32.663
622.34	33.359
622.67	33.308
623.00	32.355
623.33	31.880
623.66	32.023
623.99	33.432
624.32	31.526
624.65	31.356
624.99	31.232
625.32	31.354
625.65	33.358
625.98	33.128
626.31	32.970
626.64	33.306
626.97	33.915
627.30	33.416
627.63	34.126
627.96	32.717
628.29	34.033
628.62	34.675
628.95	35.377
629.28	35.036
629.61	34.830
629.94	33.619
630.26	33.937
630.59	33.556
