SpectraSuite Data File
++++++++++++++++++++++++++++++++++++
Date: Wed May 13 19:27:51 PDT 2015
User: schluterlab
Dark Spectrum Present: Yes
Reference Spectrum Present: Yes
Number of Sampled Component Spectra: 1
Spectrometers: USB2E3373
Integration Time (usec): 3000 (USB2E3373)
Spectra Averaged: 3 (USB2E3373)
Boxcar Smoothing: 0 (USB2E3373)
Correct for Electrical Dark: No (USB2E3373)
Strobe/Lamp Enabled: No (USB2E3373)
Correct for Detector Non-linearity: No (USB2E3373)
Correct for Stray Light: No (USB2E3373)
Number of Pixels in Processed Spectrum: 2048
>>>>>Begin Processed Spectral Data<<<<<
178.53	0.000
178.91	-1325.000
179.29	-1450.000
179.67	-233.333
180.04	-1250.000
180.42	2150.000
180.80	1060.000
181.18	-1075.000
181.56	800.000
181.94	0.000
182.31	-714.286
182.69	1666.667
183.07	-700.000
183.45	-566.667
183.83	509.091
184.20	-330.000
184.58	2400.000
184.96	5200.000
185.34	-920.000
185.72	-612.500
186.09	-2450.000
186.47	2550.000
186.85	2100.000
187.23	4700.000
187.61	-1500.000
187.98	1425.000
188.36	572.727
188.74	490.909
189.12	-880.000
189.49	590.000
189.87	-5200.000
190.25	-1175.000
190.63	421.429
191.00	430.769
191.38	816.667
191.76	-1350.000
192.14	1450.000
192.51	700.000
192.89	1050.000
193.27	687.500
193.65	-1100.000
194.02	580.000
194.40	1180.000
194.78	610.000
195.15	491.667
195.53	670.000
195.91	-2550.000
196.29	362.500
196.66	321.053
197.04	-360.000
197.42	0.000
197.79	670.000
198.17	-5200.000
198.55	642.857
198.92	700.000
199.30	880.000
199.68	0.000
200.05	283.333
200.43	814.286
200.81	5200.000
201.18	2033.333
201.56	-1800.000
201.94	633.333
202.31	566.667
202.69	383.333
203.07	440.000
203.44	0.000
203.82	1100.000
204.19	814.286
204.57	457.143
204.95	600.000
205.32	1566.667
205.70	490.909
206.08	457.143
206.45	2400.000
206.83	362.500
207.20	1133.333
207.58	740.000
207.96	338.889
208.33	787.500
208.71	-866.667
209.08	800.000
209.46	600.000
209.84	500.000
210.21	-1533.333
210.59	1475.000
210.96	-425.000
211.34	2950.000
211.71	560.000
212.09	700.000
212.46	0.000
212.84	1866.667
213.22	1375.000
213.59	-5300.000
213.97	883.333
214.34	871.429
214.72	618.182
215.09	760.000
215.47	-2300.000
215.84	-2600.000
216.22	1466.667
216.59	450.000
216.97	1400.000
217.34	581.818
217.72	-766.667
218.09	0.000
218.47	-5800.000
218.84	733.333
219.22	814.286
219.59	1966.667
219.97	-657.143
220.34	880.000
220.72	-1900.000
221.09	442.857
221.47	1550.000
221.84	-983.333
222.22	0.000
222.59	1525.000
222.97	-2700.000
223.34	1460.000
223.72	584.615
224.09	1180.000
224.46	2450.000
224.84	-5000.000
225.21	-1040.000
225.59	-5500.000
225.96	570.000
226.34	370.000
226.71	2500.000
227.08	712.500
227.46	600.000
227.83	-1250.000
228.21	-2750.000
228.58	622.222
228.95	-2650.000
229.33	-2300.000
229.70	2033.333
230.08	800.000
230.45	-1100.000
230.82	475.000
231.20	783.333
231.57	742.857
231.95	508.333
232.32	259.091
232.69	454.545
233.07	785.714
233.44	407.692
233.81	-1500.000
234.19	315.789
234.56	425.000
234.93	425.000
235.31	409.091
235.68	315.385
236.05	378.571
236.43	175.758
236.80	278.947
237.17	4800.000
237.55	242.857
237.92	239.286
238.29	276.190
238.67	200.000
239.04	227.586
239.41	163.889
239.79	139.130
240.16	150.000
240.53	134.091
240.91	113.725
241.28	134.000
241.65	118.000
242.02	102.899
242.40	95.161
242.77	96.667
243.14	75.269
243.51	86.517
243.89	90.588
244.26	57.778
244.63	66.667
245.00	69.149
245.38	70.297
245.75	74.766
246.12	66.055
246.49	61.314
246.87	68.000
247.24	56.154
247.61	56.429
247.98	55.556
248.36	48.649
248.73	48.408
249.10	56.688
249.47	46.328
249.84	44.385
250.22	44.920
250.59	44.379
250.96	42.929
251.33	44.076
251.70	46.535
252.08	42.381
252.45	37.668
252.82	43.913
253.19	45.106
253.56	38.039
253.94	41.079
254.31	37.109
254.68	42.692
255.05	38.376
255.42	36.585
255.79	37.132
256.16	41.155
256.54	33.216
256.91	38.434
257.28	32.734
257.65	33.333
258.02	34.783
258.39	32.492
258.76	34.114
259.14	36.012
259.51	34.347
259.88	33.540
260.25	33.535
260.62	32.370
260.99	32.919
261.36	32.132
261.73	31.805
262.10	32.558
262.47	34.366
262.85	30.362
263.22	29.060
263.59	32.764
263.96	33.242
264.33	32.115
264.70	28.421
265.07	29.668
265.44	29.798
265.81	26.277
266.18	30.151
266.55	29.268
266.92	29.484
267.29	29.861
267.66	27.064
268.03	29.091
268.40	29.439
268.77	27.446
269.14	28.153
269.51	31.828
269.88	32.401
270.25	26.411
270.62	28.989
270.99	30.323
271.36	27.039
271.73	28.972
272.10	25.870
272.47	26.237
272.84	30.952
273.21	29.140
273.58	26.419
273.95	24.948
274.32	24.793
274.69	25.268
275.06	26.181
275.43	29.362
275.80	26.854
276.17	26.069
276.54	25.988
276.91	27.273
277.28	25.195
277.65	26.499
278.02	26.501
278.39	27.148
278.76	25.091
279.13	25.660
279.50	26.071
279.87	28.088
280.23	26.747
280.60	24.952
280.97	24.769
281.34	25.133
281.71	25.273
282.08	25.336
282.45	24.364
282.82	24.156
283.19	23.173
283.56	23.158
283.92	25.042
284.29	24.868
284.66	22.868
285.03	23.870
285.40	24.648
285.77	22.896
286.14	24.180
286.51	23.667
286.87	23.761
287.24	25.244
287.61	22.472
287.98	24.026
288.35	22.979
288.72	23.832
289.08	22.222
289.45	20.923
289.82	21.463
290.19	20.094
290.56	20.214
290.93	20.544
291.29	20.706
291.66	20.649
292.03	22.093
292.40	21.880
292.77	19.822
293.13	21.940
293.50	21.137
293.87	19.852
294.24	20.593
294.60	19.505
294.97	21.366
295.34	20.169
295.71	20.597
296.08	19.088
296.44	18.294
296.81	20.079
297.18	20.461
297.55	17.018
297.91	17.546
298.28	21.419
298.65	20.888
299.02	19.763
299.38	17.530
299.75	15.768
300.12	18.263
300.48	18.875
300.85	19.359
301.22	17.707
301.59	17.551
301.95	20.403
302.32	17.330
302.69	16.249
303.05	18.061
303.42	17.778
303.79	17.780
304.15	16.667
304.52	16.686
304.89	17.770
305.25	17.517
305.62	16.874
305.99	18.536
306.35	17.002
306.72	18.161
307.09	16.870
307.45	17.117
307.82	15.513
308.19	18.764
308.55	17.152
308.92	17.078
309.29	15.206
309.65	15.907
310.02	16.385
310.38	16.344
310.75	17.529
311.12	17.400
311.48	16.928
311.85	16.667
312.22	16.441
312.58	17.048
312.95	17.846
313.31	16.505
313.68	15.489
314.05	19.527
314.41	17.085
314.78	16.918
315.14	16.584
315.51	16.993
315.87	18.416
316.24	16.584
316.61	17.934
316.97	16.928
317.34	17.025
317.70	17.113
318.07	18.287
318.43	19.374
318.80	17.901
319.16	19.397
319.53	17.073
319.89	18.381
320.26	20.500
320.62	19.940
320.99	19.899
321.35	20.101
321.72	21.561
322.08	21.323
322.45	23.085
322.81	22.481
323.18	22.640
323.54	23.098
323.91	22.358
324.27	23.136
324.64	22.926
325.00	24.977
325.37	25.387
325.73	26.571
326.10	25.508
326.46	26.703
326.83	28.041
327.19	27.327
327.56	27.875
327.92	28.521
328.29	30.080
328.65	29.926
329.01	29.422
329.38	30.157
329.74	30.194
330.11	31.762
330.47	31.589
330.84	31.342
331.20	30.965
331.56	32.569
331.93	32.593
332.29	32.564
332.66	33.009
333.02	33.181
333.38	33.604
333.75	32.799
334.11	34.164
334.48	32.919
334.84	33.732
335.20	33.091
335.57	32.366
335.93	32.589
336.29	33.883
336.66	34.986
337.02	35.023
337.38	34.444
337.75	34.046
338.11	33.841
338.47	35.635
338.84	34.280
339.20	35.413
339.56	36.770
339.93	34.545
340.29	34.783
340.65	35.205
341.02	34.991
341.38	34.875
341.74	34.561
342.11	34.760
342.47	36.123
342.83	34.846
343.20	34.978
343.56	33.783
343.92	35.175
344.28	35.459
344.65	34.910
345.01	34.343
345.37	34.134
345.73	35.110
346.10	34.527
346.46	35.508
346.82	34.596
347.19	34.921
347.55	35.468
347.91	35.841
348.27	36.072
348.63	35.619
349.00	34.709
349.36	35.140
349.72	36.247
350.08	34.117
350.45	35.557
350.81	35.581
351.17	35.818
351.53	36.118
351.89	34.488
352.26	35.122
352.62	35.124
352.98	35.089
353.34	35.990
353.70	34.534
354.07	34.597
354.43	34.921
354.79	34.272
355.15	35.595
355.51	36.131
355.87	36.408
356.24	35.993
356.60	35.766
356.96	35.318
357.32	34.832
357.68	35.433
358.04	35.629
358.40	36.817
358.77	35.055
359.13	35.438
359.49	36.471
359.85	35.079
360.21	35.407
360.57	37.510
360.93	36.615
361.29	36.432
361.66	35.604
362.02	36.642
362.38	35.741
362.74	35.565
363.10	36.195
363.46	35.510
363.82	36.357
364.18	37.225
364.54	37.519
364.90	36.686
365.26	36.765
365.62	36.815
365.98	37.253
366.35	35.315
366.71	37.166
367.07	36.854
367.43	37.736
367.79	38.116
368.15	37.428
368.51	37.791
368.87	37.616
369.23	38.625
369.59	37.871
369.95	37.794
370.31	37.322
370.67	38.043
371.03	38.652
371.39	38.557
371.75	39.485
372.11	37.909
372.47	38.856
372.83	39.841
373.19	38.945
373.55	40.355
373.91	39.912
374.27	38.419
374.63	39.564
374.99	40.537
375.35	38.870
375.71	39.342
376.07	39.026
376.42	39.959
376.78	40.755
377.14	41.316
377.50	40.132
377.86	40.293
378.22	41.783
378.58	39.975
378.94	41.420
379.30	40.712
379.66	42.766
380.02	41.830
380.38	42.016
380.74	42.017
381.09	41.748
381.45	41.918
381.81	42.568
382.17	42.611
382.53	41.572
382.89	44.012
383.25	42.902
383.61	44.114
383.97	43.089
384.32	44.230
384.68	43.618
385.04	44.192
385.40	42.663
385.76	43.980
386.12	44.689
386.48	44.997
386.83	46.183
387.19	45.887
387.55	44.527
387.91	45.345
388.27	45.555
388.62	45.605
388.98	45.332
389.34	46.058
389.70	45.800
390.06	47.592
390.42	45.914
390.77	47.137
391.13	47.543
391.49	47.398
391.85	46.785
392.20	47.129
392.56	47.159
392.92	47.616
393.28	47.870
393.64	48.022
393.99	47.892
394.35	48.263
394.71	48.369
395.07	49.034
395.42	50.124
395.78	50.000
396.14	50.031
396.50	50.439
396.85	51.303
397.21	49.507
397.57	51.023
397.92	51.803
398.28	51.233
398.64	50.836
399.00	51.147
399.35	51.551
399.71	51.794
400.07	51.922
400.42	52.209
400.78	53.197
401.14	53.171
401.49	53.194
401.85	53.297
402.21	53.413
402.57	53.424
402.92	54.666
403.28	56.027
403.63	55.260
403.99	53.949
404.35	55.152
404.70	55.036
405.06	55.970
405.42	56.769
405.77	54.400
406.13	54.966
406.49	56.002
406.84	55.582
407.20	56.028
407.55	57.179
407.91	56.933
408.27	58.711
408.62	56.833
408.98	57.108
409.34	58.426
409.69	57.742
410.05	58.240
410.40	58.899
410.76	59.020
411.11	60.314
411.47	59.105
411.83	59.010
412.18	59.184
412.54	60.834
412.89	59.096
413.25	60.980
413.60	61.458
413.96	59.927
414.31	60.875
414.67	61.280
415.03	62.517
415.38	62.629
415.74	63.087
416.09	63.488
416.45	62.851
416.80	62.855
417.16	62.936
417.51	63.703
417.87	62.107
418.22	63.659
418.58	62.621
418.93	64.251
419.29	64.036
419.64	63.917
420.00	64.512
420.35	62.899
420.71	64.555
421.06	63.663
421.42	64.737
421.77	65.078
422.12	65.974
422.48	64.760
422.83	66.045
423.19	65.304
423.54	67.673
423.90	66.087
424.25	67.002
424.61	66.726
424.96	67.755
425.31	67.774
425.67	65.169
426.02	66.286
426.38	69.109
426.73	66.823
427.09	68.815
427.44	66.935
427.79	68.545
428.15	67.798
428.50	66.881
428.85	68.296
429.21	68.084
429.56	68.948
429.92	69.300
430.27	67.726
430.62	67.384
430.98	68.500
431.33	67.732
431.68	68.534
432.04	68.424
432.39	70.188
432.74	70.317
433.10	70.741
433.45	70.496
433.80	69.900
434.16	70.406
434.51	69.947
434.86	71.665
435.22	71.151
435.57	71.611
435.92	70.743
436.28	72.420
436.63	71.247
436.98	71.322
437.34	72.749
437.69	73.104
438.04	73.356
438.39	72.716
438.75	72.865
439.10	72.682
439.45	72.491
439.81	73.293
440.16	72.163
440.51	73.404
440.86	73.422
441.22	73.026
441.57	72.824
441.92	73.746
442.27	73.197
442.63	73.934
442.98	74.986
443.33	74.022
443.68	73.877
444.03	73.206
444.39	72.590
444.74	74.405
445.09	73.908
445.44	74.194
445.79	72.835
446.15	72.631
446.50	73.667
446.85	74.255
447.20	75.217
447.55	74.428
447.91	74.462
448.26	75.181
448.61	75.127
448.96	76.246
449.31	75.703
449.66	74.564
450.02	74.930
450.37	75.397
450.72	76.086
451.07	75.442
451.42	74.529
451.77	76.218
452.12	74.249
452.47	75.187
452.83	75.000
453.18	74.144
453.53	76.005
453.88	75.665
454.23	74.776
454.58	75.227
454.93	77.686
455.28	76.559
455.63	77.427
455.98	77.679
456.34	75.942
456.69	78.522
457.04	76.842
457.39	74.810
457.74	74.927
458.09	75.331
458.44	76.568
458.79	74.675
459.14	76.693
459.49	77.291
459.84	76.399
460.19	75.427
460.54	74.942
460.89	76.742
461.24	76.624
461.59	77.687
461.94	75.771
462.29	76.499
462.64	75.750
462.99	76.903
463.34	77.200
463.69	76.923
464.04	75.478
464.39	75.246
464.74	77.065
465.09	75.271
465.44	75.457
465.79	75.000
466.14	75.151
466.49	74.750
466.84	75.715
467.19	75.558
467.54	77.250
467.89	75.750
468.24	76.091
468.59	77.106
468.94	74.649
469.29	77.699
469.64	77.309
469.99	78.146
470.34	78.203
470.68	78.592
471.03	78.027
471.38	78.457
471.73	77.149
472.08	77.961
472.43	76.382
472.78	76.893
473.13	76.380
473.48	76.717
473.83	76.220
474.17	76.789
474.52	76.675
474.87	77.408
475.22	76.669
475.57	75.873
475.92	76.474
476.27	75.310
476.61	75.896
476.96	77.020
477.31	76.138
477.66	76.422
478.01	74.490
478.36	76.626
478.70	75.909
479.05	76.890
479.40	77.738
479.75	76.767
480.10	75.298
480.45	75.440
480.79	74.295
481.14	76.321
481.49	74.276
481.84	75.949
482.19	75.647
482.53	75.780
482.88	74.546
483.23	75.234
483.58	76.388
483.92	76.617
484.27	74.118
484.62	74.871
484.97	74.340
485.31	74.144
485.66	72.935
486.01	70.597
486.36	68.675
486.70	67.954
487.05	69.734
487.40	70.991
487.75	71.851
488.09	72.278
488.44	71.815
488.79	74.069
489.13	74.561
489.48	74.307
489.83	75.011
490.17	76.326
490.52	76.041
490.87	75.848
491.22	75.034
491.56	73.257
491.91	75.012
492.26	74.277
492.60	74.608
492.95	74.743
493.30	73.972
493.64	75.035
493.99	74.513
494.34	74.468
494.68	74.542
495.03	75.094
495.37	73.941
495.72	74.659
496.07	76.288
496.41	72.920
496.76	74.274
497.11	73.841
497.45	75.361
497.80	74.472
498.14	74.686
498.49	74.878
498.84	74.880
499.18	75.238
499.53	74.169
499.87	75.722
500.22	74.611
500.56	75.922
500.91	72.692
501.26	74.538
501.60	75.985
501.95	73.786
502.29	74.508
502.64	76.257
502.98	74.100
503.33	73.675
503.67	74.385
504.02	73.854
504.36	73.000
504.71	75.427
505.06	74.699
505.40	75.207
505.75	73.481
506.09	75.413
506.44	75.086
506.78	75.840
507.13	75.416
507.47	74.899
507.82	75.177
508.16	76.140
508.51	77.524
508.85	75.273
509.19	76.071
509.54	75.255
509.88	74.549
510.23	75.578
510.57	77.090
510.92	76.023
511.26	74.049
511.61	76.089
511.95	74.582
512.30	74.125
512.64	75.766
512.98	77.010
513.33	75.857
513.67	75.187
514.02	75.649
514.36	78.427
514.70	76.480
515.05	76.185
515.39	75.996
515.74	76.633
516.08	77.473
516.42	77.414
516.77	77.146
517.11	77.913
517.46	76.749
517.80	78.455
518.14	76.028
518.49	78.996
518.83	76.193
519.17	77.194
519.52	76.118
519.86	77.581
520.20	76.705
520.55	78.755
520.89	78.954
521.23	78.347
521.58	76.831
521.92	77.648
522.26	75.595
522.61	79.564
522.95	78.514
523.29	76.506
523.64	78.476
523.98	78.250
524.32	77.986
524.66	76.127
525.01	78.125
525.35	76.890
525.69	76.970
526.04	77.570
526.38	78.035
526.72	76.442
527.06	78.908
527.41	74.505
527.75	78.778
528.09	78.356
528.43	79.414
528.78	76.829
529.12	77.697
529.46	77.587
529.80	77.351
530.15	77.632
530.49	75.138
530.83	76.962
531.17	78.851
531.51	78.145
531.86	77.355
532.20	76.858
532.54	77.002
532.88	76.701
533.22	76.140
533.57	75.864
533.91	74.594
534.25	76.002
534.59	75.900
534.93	76.502
535.27	76.886
535.62	75.824
535.96	76.083
536.30	76.796
536.64	76.175
536.98	76.974
537.32	75.971
537.66	77.200
538.01	77.354
538.35	78.281
538.69	76.835
539.03	75.634
539.37	75.974
539.71	76.539
540.05	77.908
540.39	76.478
540.73	73.997
541.07	76.379
541.42	76.517
541.76	76.387
542.10	75.679
542.44	75.364
542.78	77.207
543.12	73.704
543.46	75.082
543.80	77.163
544.14	75.674
544.48	76.698
544.82	75.882
545.16	75.537
545.50	74.871
545.84	76.142
546.18	76.700
546.52	76.600
546.86	77.320
547.20	77.208
547.54	77.088
547.88	76.403
548.22	74.595
548.56	74.528
548.90	74.840
549.24	74.478
549.58	75.171
549.92	76.374
550.26	77.131
550.60	74.412
550.94	75.915
551.28	76.298
551.62	75.198
551.96	74.175
552.30	75.495
552.64	74.239
552.98	76.746
553.32	75.590
553.66	74.574
554.00	75.223
554.34	74.120
554.68	74.750
555.02	75.247
555.36	74.739
555.69	74.763
556.03	73.957
556.37	74.420
556.71	73.124
557.05	75.280
557.39	75.017
557.73	74.312
558.07	75.127
558.41	75.398
558.75	75.239
559.08	75.019
559.42	75.964
559.76	75.368
560.10	73.019
560.44	73.655
560.78	71.923
561.12	73.087
561.45	73.142
561.79	72.116
562.13	74.044
562.47	72.814
562.81	74.198
563.15	70.635
563.48	71.684
563.82	73.842
564.16	70.765
564.50	72.396
564.84	70.291
565.17	71.493
565.51	73.419
565.85	70.749
566.19	71.384
566.52	73.528
566.86	69.922
567.20	72.465
567.54	71.062
567.88	69.364
568.21	69.841
568.55	69.009
568.89	69.747
569.23	68.137
569.56	66.964
569.90	66.302
570.24	66.200
570.57	64.808
570.91	63.801
571.25	64.268
571.59	63.535
571.92	63.681
572.26	63.287
572.60	64.084
572.93	62.789
573.27	63.620
573.61	63.707
573.95	63.488
574.28	62.563
574.62	62.415
574.96	61.458
575.29	61.566
575.63	61.865
575.97	62.744
576.30	61.471
576.64	62.598
576.98	61.740
577.31	62.130
577.65	61.802
577.98	60.816
578.32	60.385
578.66	60.252
578.99	61.036
579.33	61.365
579.67	60.691
580.00	61.208
580.34	61.486
580.67	60.719
581.01	60.783
581.35	60.810
581.68	59.996
582.02	59.279
582.35	60.398
582.69	59.977
583.02	60.075
583.36	61.356
583.70	61.264
584.03	60.946
584.37	61.765
584.70	60.893
585.04	60.568
585.37	60.252
585.71	60.080
586.04	60.208
586.38	61.782
586.72	61.475
587.05	60.446
587.39	59.974
587.72	60.732
588.06	60.299
588.39	60.686
588.73	61.426
589.06	61.639
589.40	61.919
589.73	62.126
590.07	61.851
590.40	61.527
590.73	62.607
591.07	63.492
591.40	62.632
591.74	64.113
592.07	61.955
592.41	62.340
592.74	61.835
593.08	61.193
593.41	60.076
593.75	59.182
594.08	60.107
594.41	60.728
594.75	61.811
595.08	60.379
595.42	61.611
595.75	61.930
596.09	60.759
596.42	60.786
596.75	61.038
597.09	61.645
597.42	61.256
597.75	61.708
598.09	61.826
598.42	60.825
598.76	60.073
599.09	60.661
599.42	59.862
599.76	60.981
600.09	59.381
600.42	58.839
600.76	59.714
601.09	59.162
601.42	59.285
601.76	59.810
602.09	60.198
602.42	60.111
602.76	61.467
603.09	60.976
603.42	59.547
603.76	59.299
604.09	58.938
604.42	60.620
604.76	59.975
605.09	58.934
605.42	58.230
605.75	59.065
606.09	59.333
606.42	60.605
606.75	58.855
607.09	59.314
607.42	59.007
607.75	58.734
608.08	59.401
608.42	59.166
608.75	58.476
609.08	59.436
609.41	59.115
609.75	59.076
610.08	59.472
610.41	59.451
610.74	59.650
611.07	60.623
611.41	59.912
611.74	60.784
612.07	60.714
612.40	61.070
612.73	60.158
613.07	60.560
613.40	60.453
613.73	58.679
614.06	60.860
614.39	58.679
614.72	58.895
615.06	59.821
615.39	58.970
615.72	58.129
616.05	58.639
616.38	59.811
616.71	60.689
617.05	61.131
617.38	60.673
617.71	61.502
618.04	60.397
618.37	59.610
618.70	60.859
619.03	62.237
619.36	61.643
619.69	61.268
620.03	61.401
620.36	61.364
620.69	62.534
621.02	64.012
621.35	62.490
621.68	61.838
622.01	61.378
622.34	62.330
622.67	62.662
623.00	61.996
623.33	60.686
623.66	60.686
623.99	62.077
624.32	60.556
624.65	59.675
624.99	59.419
625.32	60.898
625.65	60.781
625.98	61.645
626.31	62.208
626.64	64.000
626.97	63.259
627.30	62.427
627.63	64.069
627.96	62.658
628.29	63.517
628.62	63.038
628.95	64.811
629.28	62.774
629.61	64.895
629.94	65.048
630.26	64.728
630.59	64.347
630.92	64.272
