SpectraSuite Data File
++++++++++++++++++++++++++++++++++++
Date: Tue May 12 19:55:21 PDT 2015
User: schluterlab
Dark Spectrum Present: Yes
Reference Spectrum Present: Yes
Number of Sampled Component Spectra: 1
Spectrometers: USB2E3373
Integration Time (usec): 3000 (USB2E3373)
Spectra Averaged: 3 (USB2E3373)
Boxcar Smoothing: 0 (USB2E3373)
Correct for Electrical Dark: No (USB2E3373)
Strobe/Lamp Enabled: No (USB2E3373)
Correct for Detector Non-linearity: No (USB2E3373)
Correct for Stray Light: No (USB2E3373)
Number of Pixels in Processed Spectrum: 2048
>>>>>Begin Processed Spectral Data<<<<<
178.53	0.000
178.91	-180.000
179.29	-383.333
179.67	366.667
180.04	0.000
180.42	-280.000
180.80	-866.667
181.18	1500.000
181.56	-1050.000
181.94	383.333
182.31	2400.000
182.69	-85.714
183.07	0.000
183.45	191.667
183.83	360.000
184.20	266.667
184.58	1350.000
184.96	433.333
185.34	-633.333
185.72	-107.143
186.09	-200.000
186.47	-2200.000
186.85	-360.000
187.23	216.667
187.61	-257.143
187.98	-380.000
188.36	850.000
188.74	-100.000
189.12	-166.667
189.49	-160.000
189.87	650.000
190.25	244.444
190.63	466.667
191.00	380.000
191.38	-700.000
191.76	440.000
192.14	-200.000
192.51	-240.000
192.89	-240.000
193.27	-440.000
193.65	-700.000
194.02	-100.000
194.40	2200.000
194.78	-200.000
195.15	-314.286
195.53	400.000
195.91	400.000
196.29	-400.000
196.66	-433.333
197.04	-300.000
197.42	380.000
197.79	-187.500
198.17	-150.000
198.55	-1600.000
198.92	-177.778
199.30	1050.000
199.68	-350.000
200.05	-1000.000
200.43	-111.111
200.81	-150.000
201.18	466.667
201.56	-550.000
201.94	-1700.000
202.31	-116.667
202.69	11.111
203.07	-166.667
203.44	-525.000
203.82	0.000
204.19	337.500
204.57	-700.000
204.95	263.636
205.32	340.000
205.70	425.000
206.08	-1300.000
206.45	-120.000
206.83	2000.000
207.20	-188.889
207.58	-69.231
207.96	666.667
208.33	900.000
208.71	1000.000
209.08	1100.000
209.46	-133.333
209.84	833.333
210.21	-900.000
210.59	900.000
210.96	388.889
211.34	-275.000
211.71	1100.000
212.09	-200.000
212.46	-287.500
212.84	-275.000
213.22	114.286
213.59	-250.000
213.97	0.000
214.34	-1100.000
214.72	-2300.000
215.09	1100.000
215.47	-53.333
215.84	-100.000
216.22	-2300.000
216.59	2000.000
216.97	-141.667
217.34	-233.333
217.72	-50.000
218.09	750.000
218.47	-68.421
218.84	-337.500
219.22	-78.571
219.59	-190.000
219.97	-180.000
220.34	216.667
220.72	154.545
221.09	-1050.000
221.47	0.000
221.84	500.000
222.22	-400.000
222.59	-450.000
222.97	-60.870
223.34	220.000
223.72	357.143
224.09	-266.667
224.46	192.308
224.84	-146.667
225.21	-600.000
225.59	-625.000
225.96	20.000
226.34	466.667
226.71	330.000
227.08	-76.923
227.46	-442.857
227.83	-150.000
228.21	-900.000
228.58	433.333
228.95	-73.684
229.33	-37.500
229.70	-383.333
230.08	-188.889
230.45	-700.000
230.82	-2600.000
231.20	-38.095
231.57	-400.000
231.95	-800.000
232.32	255.556
232.69	-1100.000
233.07	-56.250
233.44	-262.500
233.81	-45.161
234.19	-400.000
234.56	-144.444
234.93	-400.000
235.31	-55.556
235.68	-92.593
236.05	-30.769
236.43	-126.316
236.80	-77.273
237.17	-200.000
237.55	-125.000
237.92	-23.256
238.29	-45.161
238.67	-50.000
239.04	-40.000
239.41	-33.333
239.79	0.000
240.16	-42.500
240.53	-20.690
240.91	-20.548
241.28	-21.127
241.65	-31.250
242.02	-43.860
242.40	-32.000
242.77	0.000
243.14	-16.471
243.51	-18.280
243.89	-12.381
244.26	-9.259
244.63	-19.388
245.00	-18.750
245.38	-23.529
245.75	-5.085
246.12	-11.719
246.49	-14.400
246.87	-16.393
247.24	-19.718
247.61	-8.609
247.98	-6.742
248.36	-15.094
248.73	-12.500
249.10	-11.667
249.47	-11.458
249.84	-9.645
250.22	-16.146
250.59	-15.730
250.96	-8.182
251.33	-6.132
251.70	-5.505
252.08	-8.225
252.45	-8.980
252.82	-12.658
253.19	-8.171
253.56	-7.843
253.94	-7.317
254.31	-3.237
254.68	-5.208
255.05	-3.642
255.42	-7.273
255.79	-1.656
256.16	-6.597
256.54	-0.909
256.91	-1.603
257.28	-1.623
257.65	-8.525
258.02	-2.102
258.39	-4.230
258.76	-4.893
259.14	-8.529
259.51	-3.944
259.88	-2.305
260.25	-4.830
260.62	-8.427
260.99	-8.078
261.36	-4.023
261.73	-4.533
262.10	-4.632
262.47	-5.234
262.85	-4.113
263.22	-6.183
263.59	-4.826
263.96	-2.350
264.33	-9.434
264.70	-5.897
265.07	-5.665
265.44	-2.810
265.81	-3.614
266.18	-2.810
266.55	-3.810
266.92	-0.223
267.29	-3.333
267.66	-4.545
268.03	-0.645
268.40	-3.661
268.77	-5.345
269.14	-2.731
269.51	-4.299
269.88	-3.846
270.25	-5.274
270.62	-2.311
270.99	-5.053
271.36	-3.091
271.73	-2.500
272.10	-1.037
272.47	-4.600
272.84	-5.945
273.21	-5.637
273.58	-6.939
273.95	-1.992
274.32	-1.547
274.69	-2.348
275.06	-1.876
275.43	-5.200
275.80	-3.633
276.17	-4.348
276.54	-1.331
276.91	-2.687
277.28	-2.901
277.65	-3.970
278.02	-2.083
278.39	-1.633
278.76	-1.676
279.13	-1.610
279.50	-2.708
279.87	-0.755
280.23	-3.279
280.60	-3.887
280.97	-4.042
281.34	-1.525
281.71	-4.796
282.08	-1.789
282.45	-3.527
282.82	-3.030
283.19	-3.030
283.56	-1.706
283.92	-3.160
284.29	-2.200
284.66	-4.602
285.03	-4.460
285.40	-3.167
285.77	-0.985
286.14	-2.219
286.51	-3.376
286.87	-2.755
287.24	-3.686
287.61	-4.167
287.98	-1.252
288.35	-2.636
288.72	-2.141
289.08	-6.132
289.45	-3.276
289.82	-4.658
290.19	-2.879
290.56	-0.434
290.93	-2.659
291.29	-1.135
291.66	-0.983
292.03	-1.722
292.40	-2.014
292.77	-3.790
293.13	-4.552
293.50	-2.066
293.87	-0.277
294.24	-3.652
294.60	-1.913
294.97	-4.155
295.34	-3.151
295.71	-4.438
296.08	-2.322
296.44	-1.054
296.81	-2.458
297.18	-2.329
297.55	-2.889
297.91	-1.777
298.28	-2.685
298.65	-2.329
299.02	-2.343
299.38	-4.082
299.75	-1.931
300.12	-2.038
300.48	-1.056
300.85	-3.178
301.22	-0.962
301.59	-1.946
301.95	-2.439
302.32	-3.402
302.69	-2.854
303.05	-3.188
303.42	-0.966
303.79	-2.360
304.15	-1.472
304.52	-1.676
304.89	-2.255
305.25	-2.752
305.62	-2.614
305.99	-3.135
306.35	-2.237
306.72	-1.852
307.09	-2.720
307.45	-1.942
307.82	-1.814
308.19	-1.430
308.55	-2.321
308.92	-2.225
309.29	-1.778
309.65	-1.548
310.02	-1.677
310.38	-1.386
310.75	-1.332
311.12	-2.035
311.48	-1.542
311.85	-2.432
312.22	-1.136
312.58	-2.115
312.95	-0.821
313.31	-1.672
313.68	-1.291
314.05	-0.794
314.41	-1.670
314.78	-1.910
315.14	-1.469
315.51	-0.596
315.87	-0.195
316.24	-1.286
316.61	-1.165
316.97	-2.157
317.34	-1.244
317.70	-2.241
318.07	-2.893
318.43	-1.418
318.80	-0.729
319.16	-1.491
319.53	-1.509
319.89	-1.610
320.26	-0.983
320.62	-0.194
320.99	-0.408
321.35	-0.692
321.72	0.000
322.08	-0.297
322.45	-0.789
322.81	0.493
323.18	-0.575
323.54	-0.095
323.91	0.190
324.27	-1.061
324.64	-1.218
325.00	-0.546
325.37	0.719
325.73	-1.551
326.10	0.175
326.46	-0.453
326.83	-0.088
327.19	-0.611
327.56	0.531
327.92	-0.434
328.29	-0.448
328.65	-0.471
329.01	-0.459
329.38	0.000
329.74	0.836
330.11	-0.746
330.47	-0.279
330.84	-0.282
331.20	-0.092
331.56	0.094
331.93	-0.823
332.29	-0.463
332.66	0.271
333.02	0.000
333.38	2.022
333.75	0.640
334.11	0.362
334.48	0.179
334.84	-0.939
335.20	0.358
335.57	0.182
335.93	-0.093
336.29	0.548
336.66	0.364
337.02	0.635
337.38	-0.566
337.75	0.091
338.11	0.912
338.47	0.650
338.84	0.092
339.20	1.192
339.56	0.280
339.93	0.180
340.29	0.907
340.65	0.457
341.02	0.531
341.38	-0.706
341.74	0.089
342.11	-0.442
342.47	1.136
342.83	-0.347
343.20	0.088
343.56	0.262
343.92	0.700
344.28	-0.858
344.65	0.342
345.01	0.000
345.37	0.000
345.73	-0.603
346.10	0.086
346.46	-0.431
346.82	-0.085
347.19	-0.084
347.55	0.595
347.91	-0.246
348.27	0.421
348.63	-0.173
349.00	0.250
349.36	0.907
349.72	0.164
350.08	-0.082
350.45	0.325
350.81	0.248
351.17	-0.165
351.53	-0.564
351.89	0.000
352.26	0.488
352.62	0.491
352.98	0.335
353.34	0.501
353.70	-0.823
354.07	0.412
354.43	-0.250
354.79	-0.328
355.15	-0.565
355.51	0.000
355.87	-0.083
356.24	1.634
356.60	0.000
356.96	0.000
357.32	1.152
357.68	1.034
358.04	0.162
358.40	0.409
358.77	-0.161
359.13	0.402
359.49	-0.640
359.85	0.719
360.21	-0.238
360.57	0.239
360.93	0.554
361.29	-0.467
361.66	0.473
362.02	0.706
362.38	0.932
362.74	0.384
363.10	0.000
363.46	0.150
363.82	0.306
364.18	-0.227
364.54	-0.229
364.90	-0.148
365.26	0.224
365.62	-0.303
365.98	0.150
366.35	0.605
366.71	0.373
367.07	0.148
367.43	-0.072
367.79	-0.654
368.15	-0.890
368.51	0.899
368.87	0.294
369.23	-0.454
369.59	0.294
369.95	0.000
370.31	-0.530
370.67	0.301
371.03	0.310
371.39	0.529
371.75	0.297
372.11	-0.222
372.47	-0.668
372.83	-0.292
373.19	-0.226
373.55	-0.225
373.91	-0.455
374.27	1.177
374.63	-0.515
374.99	-0.878
375.35	-0.435
375.71	0.933
376.07	0.565
376.42	0.069
376.78	0.000
377.14	0.279
377.50	-0.410
377.86	0.209
378.22	0.859
378.58	0.395
378.94	0.589
379.30	0.901
379.66	0.512
380.02	0.064
380.38	-0.064
380.74	0.435
381.09	0.191
381.45	0.698
381.81	0.191
382.17	0.456
382.53	0.263
382.89	0.321
383.25	-0.063
383.61	-0.127
383.97	0.650
384.32	-0.065
384.68	0.894
385.04	-0.064
385.40	0.447
385.76	1.202
386.12	0.462
386.48	0.130
386.83	-0.395
387.19	0.192
387.55	-0.453
387.91	-0.810
388.27	-0.448
388.62	0.000
388.98	0.382
389.34	0.065
389.70	0.064
390.06	0.198
390.42	-0.135
390.77	0.469
391.13	0.716
391.49	0.067
391.85	0.532
392.20	0.264
392.56	0.262
392.92	-0.247
393.28	0.419
393.64	-0.633
393.99	-0.130
394.35	-0.195
394.71	-0.199
395.07	0.199
395.42	0.000
395.78	-1.008
396.14	-0.200
396.50	0.259
396.85	0.132
397.21	0.000
397.57	0.066
397.92	0.191
398.28	0.540
398.64	-0.698
399.00	0.580
399.35	0.352
399.71	0.060
400.07	0.432
400.42	-0.192
400.78	0.128
401.14	0.758
401.49	-0.062
401.85	0.317
402.21	0.888
402.57	-0.901
402.92	0.199
403.28	0.130
403.63	0.833
403.99	-0.132
404.35	-0.255
404.70	0.190
405.06	0.434
405.42	0.130
405.77	0.178
406.13	0.119
406.49	0.063
406.84	1.743
407.20	0.434
407.55	0.468
407.91	-0.699
408.27	0.665
408.62	0.257
408.98	1.737
409.34	0.192
409.69	0.134
410.05	0.259
410.40	-0.450
410.76	0.436
411.11	-0.129
411.47	0.612
411.83	0.580
412.18	0.196
412.54	0.000
412.89	0.194
413.25	0.627
413.60	0.446
413.96	0.000
414.31	0.637
414.67	0.608
415.03	0.761
415.38	0.070
415.74	1.209
416.09	0.138
416.45	0.708
416.80	-0.139
417.16	-0.141
417.51	0.486
417.87	0.958
418.22	0.401
418.58	0.207
418.93	0.580
419.29	0.068
419.64	0.275
420.00	0.458
420.35	1.004
420.71	0.960
421.06	0.454
421.42	0.878
421.77	0.914
422.12	0.650
422.48	0.114
422.83	0.486
423.19	1.412
423.54	0.244
423.90	-0.062
424.25	1.269
424.61	0.968
424.96	0.921
425.31	0.302
425.67	0.364
426.02	0.248
426.38	0.450
426.73	0.436
427.09	-0.131
427.44	0.432
427.79	1.423
428.15	0.444
428.50	0.314
428.85	0.577
429.21	0.717
429.56	0.608
429.92	0.162
430.27	0.480
430.62	0.487
430.98	1.720
431.33	0.723
431.68	0.492
432.04	1.151
432.39	0.416
432.74	0.759
433.10	0.364
433.45	0.317
433.80	1.310
434.16	0.806
434.51	0.780
434.86	0.302
435.22	0.640
435.57	0.660
435.92	0.186
436.28	0.311
436.63	0.716
436.98	0.370
437.34	0.768
437.69	0.617
438.04	0.180
438.39	0.392
438.75	1.231
439.10	0.833
439.45	1.027
439.81	1.079
440.16	0.371
440.51	0.682
440.86	0.316
441.22	1.072
441.57	0.798
441.92	0.387
442.27	0.686
442.63	0.395
442.98	1.161
443.33	1.175
443.68	0.555
444.03	0.825
444.39	0.416
444.74	0.744
445.09	0.354
445.44	0.233
445.79	0.431
446.15	0.816
446.50	1.619
446.85	1.595
447.20	0.656
447.55	0.175
447.91	1.470
448.26	0.890
448.61	0.725
448.96	0.710
449.31	0.603
449.66	1.029
450.02	0.533
450.37	0.851
450.72	1.137
451.07	0.066
451.42	1.120
451.77	-0.126
452.12	1.190
452.47	0.745
452.83	0.498
453.18	0.473
453.53	1.633
453.88	1.021
454.23	1.406
454.58	1.044
454.93	0.204
455.28	0.272
455.63	1.105
455.98	0.888
456.34	0.871
456.69	0.000
457.04	1.640
457.39	0.874
457.74	0.063
458.09	0.498
458.44	1.349
458.79	0.000
459.14	1.729
459.49	1.019
459.84	1.189
460.19	0.876
460.54	0.694
460.89	0.588
461.24	1.169
461.59	1.136
461.94	1.183
462.29	0.940
462.64	0.905
462.99	0.290
463.34	1.465
463.69	1.097
464.04	1.090
464.39	0.900
464.74	1.363
465.09	1.736
465.44	0.960
465.79	0.963
466.14	0.537
466.49	1.904
466.84	1.106
467.19	0.845
467.54	0.398
467.89	1.110
468.24	0.821
468.59	0.196
468.94	1.479
469.29	1.246
469.64	1.386
469.99	0.360
470.34	0.424
470.68	0.769
471.03	0.730
471.38	-0.150
471.73	0.799
472.08	1.352
472.43	1.176
472.78	0.363
473.13	1.895
473.48	1.107
473.83	1.189
474.17	1.334
474.52	1.407
474.87	1.263
475.22	1.715
475.57	0.881
475.92	0.284
476.27	1.507
476.61	1.655
476.96	1.423
477.31	1.598
477.66	1.685
478.01	0.118
478.36	0.401
478.70	1.972
479.05	1.161
479.40	0.663
479.75	1.346
480.10	1.299
480.45	1.361
480.79	0.934
481.14	1.212
481.49	1.542
481.84	0.859
482.19	1.268
482.53	1.520
482.88	1.068
483.23	0.754
483.58	1.089
483.92	1.005
484.27	1.016
484.62	1.886
484.97	1.714
485.31	2.011
485.66	1.686
486.01	2.100
486.36	1.880
486.70	2.011
487.05	1.635
487.40	1.961
487.75	1.889
488.09	1.629
488.44	1.521
488.79	1.567
489.13	1.496
489.48	1.590
489.83	1.202
490.17	1.547
490.52	0.908
490.87	1.039
491.22	1.479
491.56	1.433
491.91	1.657
492.26	1.071
492.60	1.378
492.95	1.078
493.30	1.255
493.64	1.471
493.99	0.616
494.34	1.368
494.68	1.487
495.03	1.166
495.37	1.673
495.72	1.951
496.07	1.116
496.41	1.235
496.76	1.289
497.11	0.985
497.45	1.406
497.80	1.921
498.14	1.320
498.49	1.495
498.84	0.210
499.18	1.401
499.53	0.987
499.87	1.075
500.22	0.883
500.56	1.884
500.91	1.835
501.26	0.787
501.60	1.937
501.95	1.228
502.29	1.129
502.64	1.244
502.98	1.817
503.33	0.949
503.67	1.225
504.02	1.788
504.36	1.489
504.71	1.489
505.06	1.768
505.40	1.769
505.75	1.738
506.09	1.029
506.44	1.609
506.78	1.285
507.13	1.466
507.47	1.440
507.82	0.893
508.16	1.169
508.51	1.969
508.85	1.264
509.19	1.975
509.54	1.643
509.88	0.748
510.23	2.135
510.57	1.476
510.92	1.020
511.26	0.747
511.61	1.769
511.95	1.966
512.30	1.739
512.64	0.704
512.98	1.299
513.33	0.469
513.67	1.198
514.02	0.000
514.36	1.364
514.70	1.943
515.05	1.463
515.39	1.568
515.74	1.190
516.08	0.188
516.42	1.678
516.77	0.994
517.11	1.223
517.46	1.624
517.80	1.468
518.14	1.645
518.49	1.617
518.83	1.232
519.17	1.157
519.52	1.562
519.86	1.457
520.20	0.955
520.55	2.285
520.89	1.619
521.23	2.472
521.58	1.190
521.92	1.736
522.26	1.856
522.61	1.911
522.95	0.822
523.29	1.080
523.64	0.814
523.98	0.874
524.32	0.943
524.66	2.107
525.01	2.131
525.35	1.847
525.69	1.652
526.04	1.762
526.38	1.645
526.72	2.083
527.06	0.985
527.41	1.984
527.75	1.077
528.09	0.919
528.43	1.701
528.78	1.537
529.12	2.123
529.46	1.462
529.80	1.361
530.15	2.085
530.49	2.022
530.83	0.940
531.17	2.189
531.51	1.642
531.86	2.451
532.20	1.154
532.54	1.942
532.88	1.091
533.22	1.580
533.57	1.724
533.91	1.652
534.25	2.172
534.59	1.926
534.93	1.746
535.27	1.549
535.62	1.688
535.96	1.675
536.30	1.183
536.64	1.860
536.98	1.991
537.32	1.414
537.66	1.686
538.01	2.209
538.35	1.891
538.69	1.769
539.03	1.947
539.37	1.292
539.71	2.029
540.05	1.954
540.39	2.832
540.73	2.637
541.07	1.985
541.42	2.210
541.76	2.086
542.10	2.009
542.44	2.457
542.78	1.613
543.12	1.372
543.46	1.416
543.80	2.502
544.14	2.939
544.48	1.474
544.82	1.632
545.16	2.174
545.50	2.111
545.84	2.999
546.18	1.498
546.52	1.460
546.86	2.142
547.20	2.424
547.54	1.516
547.88	2.493
548.22	2.039
548.56	2.960
548.90	1.544
549.24	2.778
549.58	2.757
549.92	2.707
550.26	3.012
550.60	2.141
550.94	1.825
551.28	2.520
551.62	2.375
551.96	1.997
552.30	2.171
552.64	1.803
552.98	1.783
553.32	1.667
553.66	2.124
554.00	2.934
554.34	3.047
554.68	2.392
555.02	1.905
555.36	2.065
555.69	1.922
556.03	2.735
556.37	1.650
556.71	2.564
557.05	1.953
557.39	1.526
557.73	2.594
558.07	3.678
558.41	0.878
558.75	1.826
559.08	2.383
559.42	1.756
559.76	1.516
560.10	3.341
560.44	2.217
560.78	1.578
561.12	2.554
561.45	2.530
561.79	1.175
562.13	2.001
562.47	1.835
562.81	1.895
563.15	2.053
563.48	2.397
563.82	2.766
564.16	2.395
564.50	2.364
564.84	2.481
565.17	2.647
565.51	3.167
565.85	2.394
566.19	3.340
566.52	2.151
566.86	3.005
567.20	2.528
567.54	2.234
567.88	3.398
568.21	3.165
568.55	2.716
568.89	2.747
569.23	3.414
569.56	2.759
569.90	2.998
570.24	3.388
570.57	2.746
570.91	3.311
571.25	3.547
571.59	3.410
571.92	3.039
572.26	3.363
572.60	3.079
572.93	3.143
573.27	2.855
573.61	3.281
573.95	2.829
574.28	3.090
574.62	3.130
574.96	3.103
575.29	3.149
575.63	3.229
575.97	2.901
576.30	3.268
576.64	3.197
576.98	3.041
577.31	3.429
577.65	3.499
577.98	3.600
578.32	3.390
578.66	3.440
578.99	3.359
579.33	3.452
579.67	3.730
580.00	3.557
580.34	3.660
580.67	3.383
581.01	3.238
581.35	3.636
581.68	3.477
582.02	3.504
582.35	3.609
582.69	3.577
583.02	3.345
583.36	3.346
583.70	3.138
584.03	3.534
584.37	3.625
584.70	3.404
585.04	3.230
585.37	3.424
585.71	3.499
586.04	3.677
586.38	3.677
586.72	2.885
587.05	3.579
587.39	3.819
587.72	3.473
588.06	3.925
588.39	3.418
588.73	3.248
589.06	3.064
589.40	3.238
589.73	3.328
590.07	3.484
590.40	3.005
590.73	3.665
591.07	3.074
591.40	3.289
591.74	3.265
592.07	2.818
592.41	3.608
592.74	3.707
593.08	3.531
593.41	3.325
593.75	3.606
594.08	3.003
594.41	3.014
594.75	3.485
595.08	3.389
595.42	3.417
595.75	3.864
596.09	3.643
596.42	2.833
596.75	3.545
597.09	3.358
597.42	3.097
597.75	3.565
598.09	3.652
598.42	3.739
598.76	3.461
599.09	3.487
599.42	3.108
599.76	3.099
600.09	3.598
600.42	3.672
600.76	3.849
601.09	3.098
601.42	3.704
601.76	3.774
602.09	3.770
602.42	3.170
602.76	3.360
603.09	3.046
603.42	3.492
603.76	3.315
604.09	3.801
604.42	3.607
604.76	3.332
605.09	2.834
605.42	3.223
605.75	3.015
606.09	3.511
606.42	2.887
606.75	3.597
607.09	3.545
607.42	3.534
607.75	3.489
608.08	3.601
608.42	3.007
608.75	2.951
609.08	2.675
609.41	3.266
609.75	3.054
610.08	2.997
610.41	3.257
610.74	3.134
611.07	3.332
611.41	2.516
611.74	3.210
612.07	2.902
612.40	3.621
612.73	2.836
613.07	2.701
613.40	2.875
613.73	2.864
614.06	2.635
614.39	3.281
614.72	2.538
615.06	4.076
615.39	3.406
615.72	3.527
616.05	2.783
616.38	2.728
616.71	2.799
617.05	2.889
617.38	2.516
617.71	3.266
618.04	3.679
618.37	3.270
618.70	3.057
619.03	3.046
619.36	3.903
619.69	2.255
620.03	3.509
620.36	3.023
620.69	3.474
621.02	2.296
621.35	2.723
621.68	1.980
622.01	2.852
622.34	3.350
622.67	2.277
623.00	2.211
623.33	3.071
623.66	3.028
623.99	2.392
624.32	2.701
624.65	2.578
624.99	1.719
625.32	2.528
625.65	2.482
625.98	3.500
626.31	1.991
626.64	2.432
626.97	3.860
627.30	3.148
627.63	2.698
627.96	2.514
628.29	2.772
628.62	2.887
628.95	2.112
629.28	2.376
629.61	2.090
629.94	2.905
630.26	2.510
630.59	4.188
630.92	1.791
631.25	2.011
631.58	1.047
631.91	1.822
632.24	2.012
632.57	2.378
632.90	2.583
633.23	2.452
633.56	2.013
633.89	0.396
634.22	3.590
634.55	2.365
634.88	2.811
635.20	1.644
635.53	2.514
635.86	2.717
636.19	1.910
636.52	3.369
636.85	0.391
637.18	3.109
637.51	1.897
637.83	1.536
638.16	1.565
638.49	1.009
638.82	1.125
639.15	0.857
639.48	0.437
639.81	2.086
640.13	0.153
640.46	1.260
640.79	0.930
641.12	3.876
641.45	3.733
641.77	0.955
642.10	1.954
642.43	2.189
642.76	1.792
643.09	1.211
643.41	0.179
643.74	-0.521
644.07	0.353
644.40	1.264
644.73	0.552
645.05	0.954
645.38	-0.192
645.71	0.763
646.04	2.045
646.36	-0.568
646.69	2.901
647.02	3.125
647.35	2.000
647.67	3.407
648.00	2.718
648.33	2.697
648.66	0.742
648.98	0.847
