SpectraSuite Data File
++++++++++++++++++++++++++++++++++++
Date: Wed May 13 19:21:39 PDT 2015
User: schluterlab
Dark Spectrum Present: Yes
Reference Spectrum Present: Yes
Number of Sampled Component Spectra: 1
Spectrometers: USB2E3373
Integration Time (usec): 3000 (USB2E3373)
Spectra Averaged: 3 (USB2E3373)
Boxcar Smoothing: 0 (USB2E3373)
Correct for Electrical Dark: No (USB2E3373)
Strobe/Lamp Enabled: No (USB2E3373)
Correct for Detector Non-linearity: No (USB2E3373)
Correct for Stray Light: No (USB2E3373)
Number of Pixels in Processed Spectrum: 2048
>>>>>Begin Processed Spectral Data<<<<<
178.53	0.000
178.91	-1575.000
179.29	-1450.000
179.67	-272.222
180.04	-1575.000
180.42	3350.000
180.80	1280.000
181.18	-1300.000
181.56	857.143
181.94	0.000
182.31	-657.143
182.69	1900.000
183.07	-650.000
183.45	-555.556
183.83	590.909
184.20	-460.000
184.58	2350.000
184.96	5700.000
185.34	-1000.000
185.72	-687.500
186.09	-2700.000
186.47	3000.000
186.85	2750.000
187.23	6000.000
187.61	-1733.333
187.98	1575.000
188.36	636.364
188.74	527.273
189.12	-1180.000
189.49	630.000
189.87	-5500.000
190.25	-1275.000
190.63	492.857
191.00	446.154
191.38	983.333
191.76	-1200.000
192.14	1650.000
192.51	675.000
192.89	1066.667
193.27	700.000
193.65	-1550.000
194.02	600.000
194.40	1100.000
194.78	620.000
195.15	533.333
195.53	700.000
195.91	-2000.000
196.29	393.750
196.66	342.105
197.04	-440.000
197.42	0.000
197.79	690.000
198.17	-5800.000
198.55	757.143
198.92	825.000
199.30	1000.000
199.68	0.000
200.05	388.889
200.43	942.857
200.81	5800.000
201.18	1800.000
201.56	-1433.333
201.94	622.222
202.31	600.000
202.69	425.000
203.07	510.000
203.44	0.000
203.82	1425.000
204.19	828.571
204.57	428.571
204.95	700.000
205.32	1766.667
205.70	636.364
206.08	478.571
206.45	2800.000
206.83	368.750
207.20	1000.000
207.58	840.000
207.96	350.000
208.33	912.500
208.71	-900.000
209.08	914.286
209.46	766.667
209.84	536.364
210.21	-1766.667
210.59	1550.000
210.96	-662.500
211.34	2700.000
211.71	590.000
212.09	883.333
212.46	0.000
212.84	2000.000
213.22	1650.000
213.59	-5900.000
213.97	916.667
214.34	1000.000
214.72	700.000
215.09	1400.000
215.47	-2550.000
215.84	-2650.000
216.22	1766.667
216.59	478.571
216.97	1350.000
217.34	572.727
217.72	-716.667
218.09	0.000
218.47	-5800.000
218.84	688.889
219.22	985.714
219.59	1833.333
219.97	-700.000
220.34	1100.000
220.72	-1966.667
221.09	435.714
221.47	1550.000
221.84	-1000.000
222.22	0.000
222.59	1625.000
222.97	-2850.000
223.34	1260.000
223.72	507.692
224.09	1180.000
224.46	2650.000
224.84	-6300.000
225.21	-1180.000
225.59	-5800.000
225.96	640.000
226.34	335.000
226.71	3100.000
227.08	775.000
227.46	640.000
227.83	-1450.000
228.21	-2600.000
228.58	877.778
228.95	-2500.000
229.33	-2950.000
229.70	1966.667
230.08	771.429
230.45	-940.000
230.82	458.333
231.20	900.000
231.57	871.429
231.95	583.333
232.32	286.364
232.69	490.909
233.07	785.714
233.44	423.077
233.81	-2266.667
234.19	331.579
234.56	533.333
234.93	450.000
235.31	536.364
235.68	369.231
236.05	507.143
236.43	175.758
236.80	331.579
237.17	5400.000
237.55	290.476
237.92	267.857
238.29	314.286
238.67	203.226
239.04	248.276
239.41	183.333
239.79	147.826
240.16	173.810
240.53	161.364
240.91	150.980
241.28	148.000
241.65	132.000
242.02	110.145
242.40	120.968
242.77	125.000
243.14	86.022
243.51	97.753
243.89	103.529
244.26	94.444
244.63	93.548
245.00	85.106
245.38	87.129
245.75	91.589
246.12	73.394
246.49	83.942
246.87	83.200
247.24	89.231
247.61	70.714
247.98	69.935
248.36	77.703
248.73	78.344
249.10	70.064
249.47	65.537
249.84	64.171
250.22	62.567
250.59	65.089
250.96	64.646
251.33	61.611
251.70	65.842
252.08	62.381
252.45	59.193
252.82	54.348
253.19	61.702
253.56	54.118
253.94	56.017
254.31	53.906
254.68	56.923
255.05	57.196
255.42	57.317
255.79	54.779
256.16	58.123
256.54	51.237
256.91	58.719
257.28	47.482
257.65	50.825
258.02	53.727
258.39	50.789
258.76	50.502
259.14	49.107
259.51	47.112
259.88	48.758
260.25	48.338
260.62	45.954
260.99	49.379
261.36	51.351
261.73	45.559
262.10	52.035
262.47	49.859
262.85	47.911
263.22	45.014
263.59	49.573
263.96	46.703
264.33	48.303
264.70	48.421
265.07	50.128
265.44	45.202
265.81	43.309
266.18	44.472
266.55	47.561
266.92	47.666
267.29	48.843
267.66	46.560
268.03	42.727
268.40	45.794
268.77	44.391
269.14	45.495
269.51	45.372
269.88	47.552
270.25	44.921
270.62	44.494
270.99	44.086
271.36	43.991
271.73	44.860
272.10	43.696
272.47	46.022
272.84	45.455
273.21	45.073
273.58	43.231
273.95	39.623
274.32	41.736
274.69	46.039
275.06	40.748
275.43	45.319
275.80	42.285
276.17	44.196
276.54	41.996
276.91	43.281
277.28	41.602
277.65	40.232
278.02	42.443
278.39	43.164
278.76	40.000
279.13	40.755
279.50	42.272
279.87	41.434
280.23	41.317
280.60	41.586
280.97	40.296
281.34	43.186
281.71	39.455
282.08	42.802
282.45	41.273
282.82	39.609
283.19	38.324
283.56	39.123
283.92	39.425
284.29	38.977
284.66	41.016
285.03	36.890
285.40	39.261
285.77	38.889
286.14	39.551
286.51	39.167
286.87	39.316
287.24	38.599
287.61	34.992
287.98	38.799
288.35	35.975
288.72	37.383
289.08	37.246
289.45	37.562
289.82	36.423
290.19	34.380
290.56	36.294
290.93	34.139
291.29	37.577
291.66	35.841
292.03	35.610
292.40	35.389
292.77	32.692
293.13	35.522
293.50	32.362
293.87	34.370
294.24	32.889
294.60	30.568
294.97	31.977
295.34	34.979
295.71	33.665
296.08	30.342
296.44	31.224
296.81	30.515
297.18	33.333
297.55	29.156
297.91	28.628
298.28	32.129
298.65	31.070
299.02	30.303
299.38	30.412
299.75	29.111
300.12	28.097
300.48	30.625
300.85	28.977
301.22	30.955
301.59	27.778
301.95	30.353
302.32	28.113
302.69	29.152
303.05	30.061
303.42	27.778
303.79	29.219
304.15	28.089
304.52	28.042
304.89	27.642
305.25	27.262
305.62	27.633
305.99	28.808
306.35	26.510
306.72	29.148
307.09	28.080
307.45	28.716
307.82	28.013
308.19	28.035
308.55	28.695
308.92	27.605
309.29	27.666
309.65	27.890
310.02	26.533
310.38	28.710
310.75	28.617
311.12	27.840
311.48	28.945
311.85	28.826
312.22	28.616
312.58	27.131
312.95	29.989
313.31	27.573
313.68	29.314
314.05	30.473
314.41	29.045
314.78	28.097
315.14	27.507
315.51	29.145
315.87	28.317
316.24	28.401
316.61	29.045
316.97	29.746
317.34	30.333
317.70	30.402
318.07	30.895
318.43	32.485
318.80	31.771
319.16	32.109
319.53	31.614
319.89	33.905
320.26	34.400
320.62	34.425
320.99	35.960
321.35	35.253
321.72	35.626
322.08	36.821
322.45	37.910
322.81	39.535
323.18	39.981
323.54	39.425
323.91	40.189
324.27	40.535
324.64	39.981
325.00	39.044
325.37	41.765
325.73	42.460
326.10	42.718
326.46	42.563
326.83	45.298
327.19	46.712
327.56	45.470
327.92	47.682
328.29	47.737
328.65	48.527
329.01	48.014
329.38	49.769
329.74	48.661
330.11	49.293
330.47	50.597
330.84	50.735
331.20	49.818
331.56	51.376
331.93	51.574
332.29	50.577
332.66	51.947
333.02	52.194
333.38	53.207
333.75	51.693
334.11	51.779
334.48	52.884
334.84	52.757
335.20	54.182
335.57	52.221
335.93	52.946
336.29	53.846
336.66	54.283
337.02	52.308
337.38	54.722
337.75	52.585
338.11	54.521
338.47	54.696
338.84	53.804
339.20	53.853
339.56	54.197
339.93	54.818
340.29	55.163
340.65	54.189
341.02	54.276
341.38	55.071
341.74	54.737
342.11	55.895
342.47	54.890
342.83	54.024
343.20	55.931
343.56	53.580
343.92	54.825
344.28	54.677
344.65	55.116
345.01	53.788
345.37	54.631
345.73	53.469
346.10	54.987
346.46	54.492
346.82	55.766
347.19	54.720
347.55	54.187
347.91	54.854
348.27	55.711
348.63	55.853
349.00	55.340
349.36	54.433
349.72	53.569
350.08	53.566
350.45	55.330
350.81	54.346
351.17	54.538
351.53	55.037
351.89	54.373
352.26	55.091
352.62	55.734
352.98	54.295
353.34	54.889
353.70	54.664
354.07	54.919
354.43	53.810
354.79	55.511
355.15	55.227
355.51	57.234
355.87	57.143
356.24	55.782
356.60	54.852
356.96	56.476
357.32	54.947
357.68	56.457
358.04	55.819
358.40	56.295
358.77	56.808
359.13	54.380
359.49	54.431
359.85	56.587
360.21	56.938
360.57	55.875
360.93	56.769
361.29	55.707
361.66	54.102
362.02	55.970
362.38	55.513
362.74	56.176
363.10	56.033
363.46	55.979
363.82	56.765
364.18	55.286
364.54	55.869
364.90	56.728
365.26	56.397
365.62	57.049
365.98	56.465
366.35	56.089
366.71	56.833
367.07	58.121
367.43	57.837
367.79	58.458
368.15	57.830
368.51	57.703
368.87	58.315
369.23	56.840
369.59	58.726
369.95	57.426
370.31	57.194
370.67	57.246
371.03	56.929
371.39	58.090
371.75	59.118
372.11	57.681
372.47	57.111
372.83	59.510
373.19	57.731
373.55	59.497
373.91	59.647
374.27	57.663
374.63	58.764
374.99	58.828
375.35	57.013
375.71	57.642
376.07	58.779
376.42	57.978
376.78	58.582
377.14	59.227
377.50	60.132
377.86	58.644
378.22	59.229
378.58	57.644
378.94	58.391
379.30	58.524
379.66	58.693
380.02	58.968
380.38	57.498
380.74	58.703
381.09	59.291
381.45	58.513
381.81	60.627
382.17	60.000
382.53	59.371
382.89	59.938
383.25	58.161
383.61	59.108
383.97	58.474
384.32	59.139
384.68	58.612
385.04	59.250
385.40	58.266
385.76	58.108
386.12	59.650
386.48	60.604
386.83	61.450
387.19	60.544
387.55	60.111
387.91	58.888
388.27	58.553
388.62	59.189
388.98	58.538
389.34	59.887
389.70	57.511
390.06	60.520
390.42	60.506
390.77	60.814
391.13	59.477
391.49	60.279
391.85	59.453
392.20	59.621
392.56	59.722
392.92	59.388
393.28	58.876
393.64	58.393
393.99	57.728
394.35	60.298
394.71	59.159
395.07	58.006
395.42	59.085
395.78	59.606
396.14	58.349
396.50	61.090
396.85	60.585
397.21	57.768
397.57	58.896
397.92	59.255
398.28	57.623
398.64	58.363
399.00	58.030
399.35	58.150
399.71	58.449
400.07	59.077
400.42	58.773
400.78	59.409
401.14	59.268
401.49	59.104
401.85	58.197
402.21	58.563
402.57	58.174
402.92	60.025
403.28	59.400
403.63	59.097
403.99	59.554
404.35	57.818
404.70	57.854
405.06	58.358
405.42	59.201
405.77	58.800
406.13	56.603
406.49	57.303
406.84	57.767
407.20	57.801
407.55	58.073
407.91	60.267
408.27	58.711
408.62	57.435
408.98	58.824
409.34	58.303
409.69	59.161
410.05	58.178
410.40	58.104
410.76	58.303
411.11	57.720
411.47	56.486
411.83	58.216
412.18	57.823
412.54	57.970
412.89	57.169
413.25	57.025
413.60	58.308
413.96	56.527
414.31	56.926
414.67	57.224
415.03	57.152
415.38	57.796
415.74	57.942
416.09	58.981
416.45	57.095
416.80	56.246
417.16	57.842
417.51	57.930
417.87	56.712
418.22	56.972
418.58	57.779
418.93	58.108
419.29	57.034
419.64	57.242
420.00	57.073
420.35	55.768
420.71	57.681
421.06	55.847
421.42	56.316
421.77	56.446
422.12	54.969
422.48	55.100
422.83	56.785
423.19	56.022
423.54	56.761
423.90	55.768
424.25	55.891
424.61	55.476
424.96	57.201
425.31	54.430
425.67	55.169
426.02	55.714
426.38	57.570
426.73	55.413
427.09	56.778
427.44	56.527
427.79	56.239
428.15	55.952
428.50	55.647
428.85	55.244
429.21	54.832
429.56	53.810
429.92	54.303
430.27	54.667
430.62	54.071
430.98	54.229
431.33	53.093
431.68	55.131
432.04	54.739
432.39	54.654
432.74	55.117
433.10	55.291
433.45	55.569
433.80	54.601
434.16	53.526
434.51	54.000
434.86	55.530
435.22	55.420
435.57	55.137
435.92	54.593
436.28	54.923
436.63	54.415
436.98	53.921
437.34	54.502
437.69	55.309
438.04	54.637
438.39	55.224
438.75	54.968
439.10	54.302
439.45	54.073
439.81	55.106
440.16	54.150
440.51	54.306
440.86	54.777
441.22	54.338
441.57	54.406
441.92	54.145
442.27	54.467
442.63	54.397
442.98	55.437
443.33	53.913
443.68	54.466
444.03	54.563
444.39	53.700
444.74	54.113
445.09	54.178
445.44	53.964
445.79	53.538
446.15	52.938
446.50	53.904
446.85	53.751
447.20	53.391
447.55	55.611
447.91	53.944
448.26	54.424
448.61	53.985
448.96	55.039
449.31	54.499
449.66	54.080
450.02	54.763
450.37	53.912
450.72	53.694
451.07	53.382
451.42	53.617
451.77	54.198
452.12	52.598
452.47	54.353
452.83	56.469
453.18	52.445
453.53	53.803
453.88	54.519
454.23	53.736
454.58	54.088
454.93	55.435
455.28	53.367
455.63	53.398
455.98	54.345
456.34	53.580
456.69	53.914
457.04	53.560
457.39	52.601
457.74	52.699
458.09	53.076
458.44	53.478
458.79	52.766
459.14	51.749
459.49	52.131
459.84	53.019
460.19	53.270
460.54	51.157
460.89	52.057
461.24	54.584
461.59	53.225
461.94	51.788
462.29	53.531
462.64	54.371
462.99	50.683
463.34	54.200
463.69	52.033
464.04	52.696
464.39	51.304
464.74	51.040
465.09	51.749
465.44	50.637
465.79	50.503
466.14	50.848
466.49	50.278
466.84	52.189
467.19	51.479
467.54	51.687
467.89	51.621
468.24	50.844
468.59	51.221
468.94	50.580
469.29	52.185
469.64	52.744
469.99	52.503
470.34	52.510
470.68	52.945
471.03	51.633
471.38	53.718
471.73	52.698
472.08	51.447
472.43	51.759
472.78	51.810
473.13	51.348
473.48	51.186
473.83	51.341
474.17	51.027
474.52	50.993
474.87	49.737
475.22	50.145
475.57	48.845
475.92	49.973
476.27	49.211
476.61	50.138
476.96	50.027
477.31	49.084
477.66	50.274
478.01	48.876
478.36	50.555
478.70	49.481
479.05	49.201
479.40	49.591
479.75	49.466
480.10	49.205
480.45	47.977
480.79	48.543
481.14	49.560
481.49	48.647
481.84	47.782
482.19	48.796
482.53	48.624
482.88	48.395
483.23	48.178
483.58	48.999
483.92	48.969
484.27	47.277
484.62	47.845
484.97	47.576
485.31	47.021
485.66	45.452
486.01	43.368
486.36	41.943
486.70	42.094
487.05	43.054
487.40	45.403
487.75	46.988
488.09	47.619
488.44	47.865
488.79	49.222
489.13	48.892
489.48	47.512
489.83	48.338
490.17	48.312
490.52	47.697
490.87	46.766
491.22	46.839
491.56	46.697
491.91	47.231
492.26	46.762
492.60	46.406
492.95	45.837
493.30	46.636
493.64	46.944
493.99	47.075
494.34	46.670
494.68	46.658
495.03	46.852
495.37	46.533
495.72	47.222
496.07	46.032
496.41	45.044
496.76	45.602
497.11	44.800
497.45	46.577
497.80	46.161
498.14	45.217
498.49	46.244
498.84	45.829
499.18	46.524
499.53	46.344
499.87	45.340
500.22	45.360
500.56	45.874
500.91	45.337
501.26	45.567
501.60	45.800
501.95	43.905
502.29	45.501
502.64	44.460
502.98	44.834
503.33	44.698
503.67	44.269
504.02	45.276
504.36	44.034
504.71	44.797
505.06	43.759
505.40	45.455
505.75	44.262
506.09	43.878
506.44	44.943
506.78	44.082
507.13	45.331
507.47	45.000
507.82	44.529
508.16	44.174
508.51	44.597
508.85	43.694
509.19	44.745
509.54	44.541
509.88	43.483
510.23	44.524
510.57	45.872
510.92	45.106
511.26	44.296
511.61	43.983
511.95	43.163
512.30	43.637
512.64	44.116
512.98	45.070
513.33	44.004
513.67	44.237
514.02	43.615
514.36	43.528
514.70	43.331
515.05	43.726
515.39	43.859
515.74	42.736
516.08	43.600
516.42	43.729
516.77	44.816
517.11	43.674
517.46	44.582
517.80	45.064
518.14	43.602
518.49	44.924
518.83	43.750
519.17	43.707
519.52	43.916
519.86	43.697
520.20	44.220
520.55	44.405
520.89	44.282
521.23	44.331
521.58	44.178
521.92	44.581
522.26	42.404
522.61	43.988
522.95	43.094
523.29	43.396
523.64	43.537
523.98	43.376
524.32	43.546
524.66	43.295
525.01	43.199
525.35	44.052
525.69	42.980
526.04	43.364
526.38	42.587
526.72	41.656
527.06	42.185
527.41	42.141
527.75	43.473
528.09	43.738
528.43	42.702
528.78	42.348
529.12	42.485
529.46	43.417
529.80	43.564
530.15	43.489
530.49	41.046
530.83	43.165
531.17	43.342
531.51	44.617
531.86	42.645
532.20	43.807
532.54	43.049
532.88	43.389
533.22	41.224
533.57	42.284
533.91	40.819
534.25	41.191
534.59	41.916
534.93	41.404
535.27	42.426
535.62	41.697
535.96	42.498
536.30	41.259
536.64	42.627
536.98	43.331
537.32	41.804
537.66	43.067
538.01	42.989
538.35	40.142
538.69	42.246
539.03	39.766
539.37	41.022
539.71	40.441
540.05	40.915
540.39	41.794
540.73	41.009
541.07	42.375
541.42	42.792
541.76	41.548
542.10	40.944
542.44	41.722
542.78	42.029
543.12	39.859
543.46	41.443
543.80	41.509
544.14	40.116
544.48	41.397
544.82	40.731
545.16	41.184
545.50	40.103
545.84	40.591
546.18	41.010
546.52	40.468
546.86	40.893
547.20	40.189
547.54	40.615
547.88	39.923
548.22	40.535
548.56	38.868
548.90	40.397
549.24	40.337
549.58	39.359
549.92	40.934
550.26	41.335
550.60	39.765
550.94	40.141
551.28	39.649
551.62	40.187
551.96	39.018
552.30	40.068
552.64	40.771
552.98	39.525
553.32	39.110
553.66	41.172
554.00	40.494
554.34	39.821
554.68	39.413
555.02	39.492
555.36	39.666
555.69	38.836
556.03	39.435
556.37	38.199
556.71	37.926
557.05	38.025
557.39	39.118
557.73	38.956
558.07	39.884
558.41	39.146
558.75	39.236
559.08	40.641
559.42	40.438
559.76	39.118
560.10	38.116
560.44	38.574
560.78	38.390
561.12	38.127
561.45	38.070
561.79	37.574
562.13	38.498
562.47	38.593
562.81	38.145
563.15	37.525
563.48	37.865
563.82	38.030
564.16	37.868
564.50	38.021
564.84	36.346
565.17	37.967
565.51	37.444
565.85	37.310
566.19	36.506
566.52	38.125
566.86	35.865
567.20	37.146
567.54	36.130
567.88	36.339
568.21	36.402
568.55	36.047
568.89	35.311
569.23	34.269
569.56	34.008
569.90	33.623
570.24	33.118
570.57	33.016
570.91	32.321
571.25	33.169
571.59	32.725
571.92	32.373
572.26	32.785
572.60	33.724
572.93	32.594
573.27	33.245
573.61	33.054
573.95	32.481
574.28	32.085
574.62	32.046
574.96	31.947
575.29	31.959
575.63	32.546
575.97	32.466
576.30	32.422
576.64	32.247
576.98	31.988
577.31	31.608
577.65	31.183
577.98	31.564
578.32	30.977
578.66	31.300
578.99	31.911
579.33	31.736
579.67	32.158
580.00	32.007
580.34	32.772
580.67	31.789
581.01	31.909
581.35	31.540
581.68	30.686
582.02	30.173
582.35	30.561
582.69	30.756
583.02	31.241
583.36	32.004
583.70	32.517
584.03	32.654
584.37	32.806
584.70	32.811
585.04	32.094
585.37	31.081
585.71	31.790
586.04	31.529
586.38	32.001
586.72	32.367
587.05	31.377
587.39	31.214
587.72	31.564
588.06	32.471
588.39	31.907
588.73	31.593
589.06	32.409
589.40	32.896
589.73	33.122
590.07	32.171
590.40	33.687
590.73	32.865
591.07	34.025
591.40	33.615
591.74	33.939
592.07	33.551
592.41	33.237
592.74	31.760
593.08	30.979
593.41	30.908
593.75	31.012
594.08	31.177
594.41	32.167
594.75	31.941
595.08	32.498
595.42	32.224
595.75	32.443
596.09	32.069
596.42	33.084
596.75	32.250
597.09	33.117
597.42	32.209
597.75	33.333
598.09	33.043
598.42	32.646
598.76	31.455
599.09	30.483
599.42	30.786
599.76	30.930
600.09	30.965
600.42	30.752
600.76	31.179
601.09	30.638
601.42	31.164
601.76	31.461
602.09	31.581
602.42	32.205
602.76	32.971
603.09	31.983
603.42	31.745
603.76	31.174
604.09	31.214
604.42	31.227
604.76	32.602
605.09	32.285
605.42	30.996
605.75	31.416
606.09	31.842
606.42	31.631
606.75	31.730
607.09	31.394
607.42	30.980
607.75	30.802
608.08	31.220
608.42	32.138
608.75	31.199
609.08	31.637
609.41	32.128
609.75	31.586
610.08	31.385
610.41	31.937
610.74	32.261
611.07	32.164
611.41	31.501
611.74	32.127
612.07	33.126
612.40	33.106
612.73	33.000
613.07	32.812
613.40	32.385
613.73	31.620
614.06	31.882
614.39	32.354
614.72	32.579
615.06	31.670
615.39	31.476
615.72	31.186
616.05	30.728
616.38	32.740
616.71	33.135
617.05	32.862
617.38	32.291
617.71	32.012
618.04	32.212
618.37	32.466
618.70	32.670
619.03	33.618
619.36	32.519
619.69	34.014
620.03	33.379
620.36	32.754
620.69	33.767
621.02	33.997
621.35	33.986
621.68	32.866
622.01	33.359
622.34	34.191
622.67	34.068
623.00	31.915
623.33	33.024
623.66	32.094
623.99	33.137
624.32	31.598
624.65	32.486
624.99	31.941
625.32	31.282
625.65	33.283
625.98	32.590
626.31	33.515
626.64	33.878
626.97	33.666
627.30	34.081
627.63	33.634
627.96	34.651
628.29	33.683
628.62	34.492
628.95	35.189
629.28	35.036
629.61	34.647
629.94	34.571
630.26	34.795
630.59	34.128
