SpectraSuite Data File
++++++++++++++++++++++++++++++++++++
Date: Wed May 13 19:22:52 PDT 2015
User: schluterlab
Dark Spectrum Present: Yes
Reference Spectrum Present: Yes
Number of Sampled Component Spectra: 1
Spectrometers: USB2E3373
Integration Time (usec): 3000 (USB2E3373)
Spectra Averaged: 3 (USB2E3373)
Boxcar Smoothing: 0 (USB2E3373)
Correct for Electrical Dark: No (USB2E3373)
Strobe/Lamp Enabled: No (USB2E3373)
Correct for Detector Non-linearity: No (USB2E3373)
Correct for Stray Light: No (USB2E3373)
Number of Pixels in Processed Spectrum: 2048
>>>>>Begin Processed Spectral Data<<<<<
178.53	0.000
178.91	-1375.000
179.29	-1675.000
179.67	-227.778
180.04	-1325.000
180.42	3200.000
180.80	1140.000
181.18	-1425.000
181.56	785.714
181.94	0.000
182.31	-628.571
182.69	1933.333
183.07	-662.500
183.45	-611.111
183.83	563.636
184.20	-450.000
184.58	2850.000
184.96	5700.000
185.34	-1080.000
185.72	-787.500
186.09	-2150.000
186.47	3000.000
186.85	2950.000
187.23	6300.000
187.61	-2066.667
187.98	1475.000
188.36	572.727
188.74	500.000
189.12	-860.000
189.49	610.000
189.87	-5900.000
190.25	-1525.000
190.63	492.857
191.00	453.846
191.38	983.333
191.76	-1250.000
192.14	1650.000
192.51	625.000
192.89	1050.000
193.27	662.500
193.65	-1550.000
194.02	550.000
194.40	1080.000
194.78	520.000
195.15	591.667
195.53	660.000
195.91	-2700.000
196.29	456.250
196.66	357.895
197.04	-390.000
197.42	0.000
197.79	680.000
198.17	-6400.000
198.55	800.000
198.92	737.500
199.30	980.000
199.68	0.000
200.05	344.444
200.43	900.000
200.81	5600.000
201.18	2200.000
201.56	-1866.667
201.94	633.333
202.31	644.444
202.69	458.333
203.07	490.000
203.44	0.000
203.82	1300.000
204.19	914.286
204.57	407.143
204.95	662.500
205.32	1800.000
205.70	618.182
206.08	407.143
206.45	2600.000
206.83	456.250
207.20	1016.667
207.58	920.000
207.96	383.333
208.33	712.500
208.71	-716.667
209.08	914.286
209.46	555.556
209.84	509.091
210.21	-1733.333
210.59	1350.000
210.96	-550.000
211.34	3000.000
211.71	560.000
212.09	1000.000
212.46	0.000
212.84	2400.000
213.22	1475.000
213.59	-5000.000
213.97	850.000
214.34	857.143
214.72	645.455
215.09	1140.000
215.47	-2300.000
215.84	-2650.000
216.22	2233.333
216.59	442.857
216.97	1325.000
217.34	527.273
217.72	-733.333
218.09	0.000
218.47	-4700.000
218.84	688.889
219.22	814.286
219.59	1800.000
219.97	-585.714
220.34	940.000
220.72	-1866.667
221.09	400.000
221.47	1675.000
221.84	-1000.000
222.22	0.000
222.59	1300.000
222.97	-3100.000
223.34	1180.000
223.72	453.846
224.09	1100.000
224.46	2350.000
224.84	-6200.000
225.21	-1120.000
225.59	-5200.000
225.96	680.000
226.34	305.000
226.71	3100.000
227.08	787.500
227.46	580.000
227.83	-1175.000
228.21	-3000.000
228.58	711.111
228.95	-2300.000
229.33	-2150.000
229.70	2100.000
230.08	900.000
230.45	-960.000
230.82	508.333
231.20	833.333
231.57	728.571
231.95	500.000
232.32	240.909
232.69	372.727
233.07	757.143
233.44	346.154
233.81	-1800.000
234.19	310.526
234.56	500.000
234.93	466.667
235.31	500.000
235.68	361.538
236.05	350.000
236.43	181.818
236.80	252.632
237.17	4000.000
237.55	204.762
237.92	196.429
238.29	261.905
238.67	193.548
239.04	182.759
239.41	144.444
239.79	102.174
240.16	133.333
240.53	115.909
240.91	92.157
241.28	118.000
241.65	98.000
242.02	75.362
242.40	79.032
242.77	81.667
243.14	68.817
243.51	57.303
243.89	62.353
244.26	60.000
244.63	56.989
245.00	46.809
245.38	56.436
245.75	50.467
246.12	44.037
246.49	49.635
246.87	44.000
247.24	49.231
247.61	37.857
247.98	43.137
248.36	31.081
248.73	28.662
249.10	36.943
249.47	29.944
249.84	32.086
250.22	30.481
250.59	23.669
250.96	30.303
251.33	30.806
251.70	33.168
252.08	27.143
252.45	25.561
252.82	22.174
253.19	25.957
253.56	25.882
253.94	26.556
254.31	23.437
254.68	23.077
255.05	21.771
255.42	20.732
255.79	24.265
256.16	25.271
256.54	19.081
256.91	22.420
257.28	17.266
257.65	19.142
258.02	19.876
258.39	17.350
258.76	19.398
259.14	22.917
259.51	17.629
259.88	15.839
260.25	19.637
260.62	16.185
260.99	19.255
261.36	19.820
261.73	16.332
262.10	15.698
262.47	16.056
262.85	16.156
263.22	13.105
263.59	17.379
263.96	14.286
264.33	15.666
264.70	15.526
265.07	16.368
265.44	15.404
265.81	14.355
266.18	14.573
266.55	14.634
266.92	14.251
267.29	12.963
267.66	14.679
268.03	15.455
268.40	10.514
268.77	11.217
269.14	13.739
269.51	13.995
269.88	15.385
270.25	12.641
270.62	14.157
270.99	12.688
271.36	13.090
271.73	12.617
272.10	12.174
272.47	15.484
272.84	13.420
273.21	12.788
273.58	10.699
273.95	11.740
274.32	12.190
274.69	11.777
275.06	11.417
275.43	13.830
275.80	12.224
276.17	11.609
276.54	11.642
276.91	11.067
277.28	9.180
277.65	12.573
278.02	10.145
278.39	11.914
278.76	12.545
279.13	11.321
279.50	12.663
279.87	10.558
280.23	12.974
280.60	11.799
280.97	9.242
281.34	12.212
281.71	12.545
282.08	8.061
282.45	10.182
282.82	9.769
283.19	8.913
283.56	11.404
283.92	10.998
284.29	10.582
284.66	9.800
285.03	9.042
285.40	9.331
285.77	10.438
286.14	7.254
286.51	9.000
286.87	11.453
287.24	9.609
287.61	10.433
287.98	11.201
288.35	8.241
288.72	9.034
289.08	10.016
289.45	8.567
289.82	10.081
290.19	8.948
290.56	9.954
290.93	6.798
291.29	7.055
291.66	8.555
292.03	11.773
292.40	10.573
292.77	9.172
293.13	8.358
293.50	9.329
293.87	9.333
294.24	9.037
294.60	8.006
294.97	8.866
295.34	9.168
295.71	8.807
296.08	7.550
296.44	8.941
296.81	8.322
297.18	9.079
297.55	6.992
297.91	6.728
298.28	7.095
298.65	8.355
299.02	8.432
299.38	6.773
299.75	4.717
300.12	7.918
300.48	7.250
300.85	6.658
301.22	6.879
301.59	5.808
301.95	7.683
302.32	6.547
302.69	7.885
303.05	6.424
303.42	6.667
303.79	7.701
304.15	6.993
304.52	5.562
304.89	7.085
305.25	6.845
305.62	7.928
305.99	7.556
306.35	6.823
306.72	5.830
307.09	6.104
307.45	7.320
307.82	4.688
308.19	7.395
308.55	7.335
308.92	6.660
309.29	6.125
309.65	6.151
310.02	6.448
310.38	7.097
310.75	6.336
311.12	6.244
311.48	6.374
311.85	6.709
312.22	6.139
312.58	5.717
312.95	6.019
313.31	5.922
313.68	5.613
314.05	8.580
314.41	6.131
314.78	4.733
315.14	6.356
315.51	6.488
315.87	6.139
316.24	5.760
316.61	5.556
316.97	5.382
317.34	6.164
317.70	6.405
318.07	6.545
318.43	6.164
318.80	6.373
319.16	6.026
319.53	6.004
319.89	6.667
320.26	6.200
320.62	7.044
320.99	6.768
321.35	6.667
321.72	6.776
322.08	7.206
322.45	7.662
322.81	6.589
323.18	6.840
323.54	6.215
323.91	6.226
324.27	6.597
324.64	6.337
325.00	6.041
325.37	6.733
325.73	7.181
326.10	7.149
326.46	5.108
326.83	7.679
327.19	7.003
327.56	5.575
327.92	7.437
328.29	7.098
328.65	6.722
329.01	6.679
329.38	6.198
329.74	6.464
330.11	6.126
330.47	6.795
330.84	8.180
331.20	6.011
331.56	7.798
331.93	5.556
332.29	7.986
332.66	7.965
333.02	6.856
333.38	7.227
333.75	7.576
334.11	7.562
334.48	5.679
334.84	6.526
335.20	7.182
335.57	6.528
335.93	5.446
336.29	6.319
336.66	6.673
337.02	7.330
337.38	7.315
337.75	6.952
338.11	6.535
338.47	6.354
338.84	6.691
339.20	6.147
339.56	7.299
339.93	6.182
340.29	5.616
340.65	6.595
341.02	8.028
341.38	6.228
341.74	6.053
342.11	6.550
342.47	7.048
342.83	6.678
343.20	6.926
343.56	5.729
343.92	6.842
344.28	6.378
344.65	6.105
345.01	5.556
345.37	5.575
345.73	6.430
346.10	6.735
346.46	6.525
346.82	6.425
347.19	5.681
347.55	5.993
347.91	6.392
348.27	6.574
348.63	7.358
349.00	5.178
349.36	5.747
349.72	7.137
350.08	6.240
350.45	5.696
350.81	6.418
351.17	6.321
351.53	6.470
351.89	5.693
352.26	6.472
352.62	6.095
352.98	6.240
353.34	6.081
353.70	4.501
354.07	5.726
354.43	5.952
354.79	5.873
355.15	5.188
355.51	6.075
355.87	6.776
356.24	5.700
356.60	5.293
356.96	5.551
357.32	5.969
357.68	5.748
358.04	6.334
358.40	6.017
358.77	6.416
359.13	5.051
359.49	6.039
359.85	4.286
360.21	4.864
360.57	5.992
360.93	6.000
361.29	5.593
361.66	4.334
362.02	5.821
362.38	5.627
362.74	6.027
363.10	5.403
363.46	5.576
363.82	4.460
364.18	5.140
364.54	5.795
364.90	5.666
365.26	6.029
365.62	5.551
365.98	4.967
366.35	5.659
366.71	5.712
367.07	5.098
367.43	5.733
367.79	5.567
368.15	5.747
368.51	4.942
368.87	5.425
369.23	4.755
369.59	6.300
369.95	4.559
370.31	5.413
370.67	5.725
371.03	6.517
371.39	5.321
371.75	4.706
372.11	5.477
372.47	5.425
372.83	5.620
373.19	5.708
373.55	4.139
373.91	6.480
374.27	5.704
374.63	4.727
374.99	6.073
375.35	4.396
375.71	4.524
376.07	5.693
376.42	4.746
376.78	6.163
377.14	4.681
377.50	5.099
377.86	3.856
378.22	5.057
378.58	4.261
378.94	4.588
379.30	4.389
379.66	4.886
380.02	4.730
380.38	4.372
380.74	4.442
381.09	4.156
381.45	5.593
381.81	5.897
382.17	5.096
382.53	4.403
382.89	4.815
383.25	4.753
383.61	5.019
383.97	6.004
384.32	4.928
384.68	4.771
385.04	4.118
385.40	3.901
385.76	5.405
386.12	4.080
386.48	4.657
386.83	4.298
387.19	5.380
387.55	5.133
387.91	4.111
388.27	4.598
388.62	5.409
388.98	4.484
389.34	5.507
389.70	4.231
390.06	5.260
390.42	5.058
390.77	5.089
391.13	4.212
391.49	4.632
391.85	4.583
392.20	3.975
392.56	4.798
392.92	4.356
393.28	3.669
393.64	4.496
393.99	5.009
394.35	4.404
394.71	5.019
395.07	4.798
395.42	4.141
395.78	4.326
396.14	5.028
396.50	5.013
396.85	5.277
397.21	4.007
397.57	4.340
397.92	4.868
398.28	3.980
398.64	4.600
399.00	3.749
399.35	3.779
399.71	4.109
400.07	4.849
400.42	4.908
400.78	4.825
401.14	4.207
401.49	4.537
401.85	4.174
402.21	4.910
402.57	4.072
402.92	4.603
403.28	5.059
403.63	4.332
403.99	4.204
404.35	4.788
404.70	3.058
405.06	4.601
405.42	4.492
405.77	4.286
406.13	4.628
406.49	4.199
406.84	4.548
407.20	3.783
407.55	4.340
407.91	4.333
408.27	3.638
408.62	4.515
408.98	4.412
409.34	4.059
409.69	4.065
410.05	5.081
410.40	3.853
410.76	4.002
411.11	5.066
411.47	4.728
411.83	4.704
412.18	4.762
412.54	4.421
412.89	5.120
413.25	4.841
413.60	4.694
413.96	3.886
414.31	4.435
414.67	5.260
415.03	4.834
415.38	5.348
415.74	4.373
416.09	4.833
416.45	4.618
416.80	4.560
417.16	5.228
417.51	5.176
417.87	4.239
418.22	4.921
418.58	5.423
418.93	5.283
419.29	5.347
419.64	5.164
420.00	4.268
420.35	5.217
420.71	5.200
421.06	4.296
421.42	4.503
421.77	4.709
422.12	4.548
422.48	3.886
422.83	4.834
423.19	4.641
423.54	4.121
423.90	4.870
424.25	4.802
424.61	4.107
424.96	4.840
425.31	4.540
425.67	4.719
426.02	3.429
426.38	4.640
426.73	4.740
427.09	5.046
427.44	4.485
427.79	4.543
428.15	5.000
428.50	4.623
428.85	5.244
429.21	4.307
429.56	4.717
429.92	4.227
430.27	4.667
430.62	4.045
430.98	4.203
431.33	4.639
431.68	4.503
432.04	4.739
432.39	4.455
432.74	4.369
433.10	3.565
433.45	4.606
433.80	4.102
434.16	5.021
434.51	5.000
434.86	5.245
435.22	4.169
435.57	3.951
435.92	5.149
436.28	5.219
436.63	5.684
436.98	4.350
437.34	5.486
437.69	5.484
438.04	4.328
438.39	5.194
438.75	5.113
439.10	4.637
439.45	4.841
439.81	4.653
440.16	4.461
440.51	5.155
440.86	5.038
441.22	4.950
441.57	4.936
441.92	4.657
442.27	4.467
442.63	4.739
442.98	5.408
443.33	5.217
443.68	4.853
444.03	4.490
444.39	4.041
444.74	4.600
445.09	4.528
445.44	4.538
445.79	4.899
446.15	5.347
446.50	4.577
446.85	4.625
447.20	4.233
447.55	4.578
447.91	4.523
448.26	4.786
448.61	4.466
448.96	5.482
449.31	5.456
449.66	4.896
450.02	4.123
450.37	4.649
450.72	4.625
451.07	5.058
451.42	4.681
451.77	5.520
452.12	5.312
452.47	5.784
452.83	5.070
453.18	5.073
453.53	5.318
453.88	4.666
454.23	5.021
454.58	6.118
454.93	5.277
455.28	4.613
455.63	4.794
455.98	5.952
456.34	4.962
456.69	4.759
457.04	5.387
457.39	4.676
457.74	4.933
458.09	5.750
458.44	4.675
458.79	4.230
459.14	4.966
459.49	5.079
459.84	4.654
460.19	4.714
460.54	5.150
460.89	5.266
461.24	4.857
461.59	6.159
461.94	5.055
462.29	5.875
462.64	5.233
462.99	4.750
463.34	5.733
463.69	5.441
464.04	5.623
464.39	5.797
464.74	5.882
465.09	5.127
465.44	4.598
465.79	4.922
466.14	5.638
466.49	5.339
466.84	5.487
467.19	5.552
467.54	5.062
467.89	5.942
468.24	5.177
468.59	5.189
468.94	4.765
469.29	5.398
469.64	5.622
469.99	5.074
470.34	5.284
470.68	4.957
471.03	5.306
471.38	5.559
471.73	5.663
472.08	6.447
472.43	5.339
472.78	4.806
473.13	5.392
473.48	5.618
473.83	5.732
474.17	4.418
474.52	5.893
474.87	6.305
475.22	5.107
475.57	4.944
475.92	4.195
476.27	5.130
476.61	4.799
476.96	4.673
477.31	4.762
477.66	5.142
478.01	4.914
478.36	4.707
478.70	4.673
479.05	4.846
479.40	4.862
479.75	4.830
480.10	4.523
480.45	4.760
480.79	4.682
481.14	4.403
481.49	4.651
481.84	4.527
482.19	4.771
482.53	4.771
482.88	4.839
483.23	4.766
483.58	4.595
483.92	4.311
484.27	4.052
484.62	4.138
484.97	4.060
485.31	3.767
485.66	3.294
486.01	2.782
486.36	2.449
486.70	2.745
487.05	3.022
487.40	3.166
487.75	3.258
488.09	3.791
488.44	3.469
488.79	4.268
489.13	4.087
489.48	3.915
489.83	3.971
490.17	4.428
490.52	4.163
490.87	4.568
491.22	4.866
491.56	4.419
491.91	4.235
492.26	4.226
492.60	5.207
492.95	4.724
493.30	4.065
493.64	4.386
493.99	3.853
494.34	4.672
494.68	4.487
495.03	5.122
495.37	4.700
495.72	4.337
496.07	4.362
496.41	4.558
496.76	4.310
497.11	4.187
497.45	4.332
497.80	4.511
498.14	3.865
498.49	4.439
498.84	4.938
499.18	4.429
499.53	4.416
499.87	4.753
500.22	4.616
500.56	4.903
500.91	4.423
501.26	4.505
501.60	5.221
501.95	4.354
502.29	4.592
502.64	4.795
502.98	4.301
503.33	4.342
503.67	4.408
504.02	4.584
504.36	5.054
504.71	4.152
505.06	5.157
505.40	4.132
505.75	4.195
506.09	4.810
506.44	4.391
506.78	4.968
507.13	4.240
507.47	5.101
507.82	5.117
508.16	5.319
508.51	5.074
508.85	4.965
509.19	4.490
509.54	5.102
509.88	4.637
510.23	4.113
510.57	5.521
510.92	4.713
511.26	4.933
511.61	4.616
511.95	3.967
512.30	4.401
512.64	5.159
512.98	5.091
513.33	4.818
513.67	5.069
514.02	4.545
514.36	5.352
514.70	5.423
515.05	4.629
515.39	4.992
515.74	4.955
516.08	5.366
516.42	5.660
516.77	5.518
517.11	5.105
517.46	5.530
517.80	4.762
518.14	5.038
518.49	5.368
518.83	5.909
519.17	5.254
519.52	5.659
519.86	5.248
520.20	6.069
520.55	6.104
520.89	5.961
521.23	6.031
521.58	6.242
521.92	5.511
522.26	5.369
522.61	4.860
522.95	5.832
523.29	5.052
523.64	5.732
523.98	5.669
524.32	5.609
524.66	6.494
525.01	5.944
525.35	5.700
525.69	5.419
526.04	5.545
526.38	5.735
526.72	6.196
527.06	5.336
527.41	4.765
527.75	6.045
528.09	5.780
528.43	6.373
528.78	5.593
529.12	5.636
529.46	5.511
529.80	5.879
530.15	6.231
530.49	6.031
530.83	5.570
531.17	5.418
531.51	5.772
531.86	5.677
532.20	6.649
532.54	6.598
532.88	5.327
533.22	5.684
533.57	5.247
533.91	5.840
534.25	5.893
534.59	5.918
534.93	5.532
535.27	5.673
535.62	5.556
535.96	5.650
536.30	5.849
536.64	6.375
536.98	5.906
537.32	4.806
537.66	5.133
538.01	6.386
538.35	5.624
538.69	6.573
539.03	5.783
539.37	5.815
539.71	4.537
540.05	5.098
540.39	5.382
540.73	5.951
541.07	6.749
541.42	6.001
541.76	6.774
542.10	6.210
542.44	6.026
542.78	6.324
543.12	5.822
543.46	6.557
543.80	6.181
544.14	5.071
544.48	6.540
544.82	5.452
545.16	5.595
545.50	5.784
545.84	5.108
546.18	5.926
546.52	6.469
546.86	5.979
547.20	6.001
547.54	7.014
547.88	7.015
548.22	6.227
548.56	6.038
548.90	6.210
549.24	5.657
549.58	6.753
549.92	5.769
550.26	6.605
550.60	5.878
550.94	5.986
551.28	5.486
551.62	6.542
551.96	5.123
552.30	7.167
552.64	6.491
552.98	7.458
553.32	7.013
553.66	5.999
554.00	6.863
554.34	6.280
554.68	7.225
555.02	5.783
555.36	6.193
555.69	5.819
556.03	6.326
556.37	6.344
556.71	5.730
557.05	6.863
557.39	6.928
557.73	6.422
558.07	6.381
558.41	6.585
558.75	6.760
559.08	7.233
559.42	6.576
559.76	6.618
560.10	6.852
560.44	7.128
560.78	5.323
561.12	6.464
561.45	7.040
561.79	5.933
562.13	6.036
562.47	6.762
562.81	6.067
563.15	6.957
563.48	6.167
563.82	6.262
564.16	5.690
564.50	5.208
564.84	6.448
565.17	5.470
565.51	5.942
565.85	6.155
566.19	5.197
566.52	6.396
566.86	5.787
567.20	5.955
567.54	5.479
567.88	5.323
568.21	5.503
568.55	5.511
568.89	4.912
569.23	4.456
569.56	4.656
569.90	4.491
570.24	4.306
570.57	4.148
570.91	4.137
571.25	4.046
571.59	4.094
571.92	3.773
572.26	4.102
572.60	4.384
572.93	4.138
573.27	4.318
573.61	4.188
573.95	3.928
574.28	3.744
574.62	3.571
574.96	3.680
575.29	3.758
575.63	3.887
575.97	4.218
576.30	4.089
576.64	3.765
576.98	3.792
577.31	3.697
577.65	3.561
577.98	3.518
578.32	3.336
578.66	3.606
578.99	3.652
579.33	3.365
579.67	3.624
580.00	3.932
580.34	3.749
580.67	3.734
581.01	3.958
581.35	3.477
581.68	3.664
582.02	3.323
582.35	3.183
582.69	3.619
583.02	3.515
583.36	3.874
583.70	3.696
584.03	3.736
584.37	4.111
584.70	3.605
585.04	3.841
585.37	3.844
585.71	3.877
586.04	3.938
586.38	3.840
586.72	4.529
587.05	3.912
587.39	3.879
587.72	4.226
588.06	3.815
588.39	3.923
588.73	4.459
589.06	4.456
589.40	3.737
589.73	4.505
590.07	4.484
590.40	4.202
590.73	4.801
591.07	5.128
591.40	5.314
591.74	5.195
592.07	5.279
592.41	5.085
592.74	4.607
593.08	4.430
593.41	4.587
593.75	4.154
594.08	4.827
594.41	4.631
594.75	4.510
595.08	4.832
595.42	4.518
595.75	4.309
596.09	4.656
596.42	5.737
596.75	5.403
597.09	5.714
597.42	4.933
597.75	4.959
598.09	5.130
598.42	5.198
598.76	5.026
599.09	4.941
599.42	4.840
599.76	4.612
600.09	4.663
600.42	5.259
600.76	4.143
601.09	4.627
601.42	4.338
601.76	4.744
602.09	4.862
602.42	4.896
602.76	5.159
603.09	4.327
603.42	4.569
603.76	4.573
604.09	4.769
604.42	5.014
604.76	5.694
605.09	4.980
605.42	5.088
605.75	5.132
606.09	4.433
606.42	4.577
606.75	5.019
607.09	5.316
607.42	5.006
607.75	4.895
608.08	4.820
608.42	5.558
608.75	5.185
609.08	5.227
609.41	4.855
609.75	5.384
610.08	5.796
610.41	4.749
610.74	5.061
611.07	5.632
611.41	5.741
611.74	6.385
612.07	5.435
612.40	5.929
612.73	5.421
613.07	5.981
613.40	5.740
613.73	4.667
614.06	5.968
614.39	6.030
614.72	6.211
615.06	5.935
615.39	4.989
615.72	5.521
616.05	5.157
616.38	6.115
616.71	5.819
617.05	6.419
617.38	5.532
617.71	6.186
618.04	5.950
618.37	6.268
618.70	6.721
619.03	6.908
619.36	6.517
619.69	6.690
620.03	6.662
620.36	7.620
620.69	6.507
621.02	6.490
621.35	6.421
621.68	5.997
622.01	7.895
622.34	6.581
622.67	7.072
623.00	6.310
623.33	6.147
623.66	6.505
623.99	6.333
624.32	7.061
624.65	6.427
624.99	6.232
625.32	6.372
625.65	6.086
625.98	7.225
626.31	7.698
626.64	7.347
626.97	7.398
627.30	6.650
627.63	7.793
627.96	7.906
628.29	7.349
628.62	7.960
628.95	8.774
629.28	8.394
629.61	9.074
629.94	7.714
630.26	7.912
630.59	7.531
630.92	7.184
631.25	7.404
631.58	7.808
631.91	7.302
632.24	7.911
632.57	8.919
632.90	8.333
633.23	9.955
633.56	9.040
633.89	9.853
634.22	9.194
634.55	8.876
634.88	9.341
635.20	9.200
635.53	9.518
635.86	10.025
636.19	8.824
636.52	8.881
636.85	8.820
637.18	9.332
637.51	9.929
637.83	6.905
638.16	9.847
638.49	10.076
638.82	10.999
639.15	10.250
639.48	10.599
639.81	10.456
640.13	10.547
640.46	9.396
640.79	10.568
641.12	8.803
641.45	9.777
641.77	10.457
642.10	9.795
642.43	10.060
642.76	10.062
643.09	10.890
643.41	8.801
643.74	12.191
644.07	11.128
644.40	12.883
644.73	12.283
645.05	12.203
645.38	10.585
645.71	12.721
646.04	11.960
646.36	12.020
646.69	12.207
647.02	11.735
647.35	12.199
647.67	11.504
648.00	12.683
648.33	10.561
648.66	11.667
648.98	12.144
649.31	9.118
649.64	11.809
649.96	10.134
650.29	11.058
650.62	11.489
650.94	11.345
651.27	11.993
651.60	12.978
651.92	11.981
652.25	8.958
652.58	11.215
652.90	11.532
