SpectraSuite Data File
++++++++++++++++++++++++++++++++++++
Date: Wed May 13 19:54:00 PDT 2015
User: schluterlab
Dark Spectrum Present: Yes
Reference Spectrum Present: Yes
Number of Sampled Component Spectra: 1
Spectrometers: USB2E3373
Integration Time (usec): 3000 (USB2E3373)
Spectra Averaged: 3 (USB2E3373)
Boxcar Smoothing: 0 (USB2E3373)
Correct for Electrical Dark: No (USB2E3373)
Strobe/Lamp Enabled: No (USB2E3373)
Correct for Detector Non-linearity: No (USB2E3373)
Correct for Stray Light: No (USB2E3373)
Number of Pixels in Processed Spectrum: 2048
>>>>>Begin Processed Spectral Data<<<<<
178.53	0.000
178.91	-1250.000
179.29	-1725.000
179.67	-233.333
180.04	-1200.000
180.42	2900.000
180.80	980.000
181.18	-1275.000
181.56	714.286
181.94	0.000
182.31	-728.571
182.69	1933.333
183.07	-562.500
183.45	-522.222
183.83	527.273
184.20	-460.000
184.58	2600.000
184.96	5000.000
185.34	-820.000
185.72	-625.000
186.09	-2550.000
186.47	2750.000
186.85	2450.000
187.23	4600.000
187.61	-1600.000
187.98	1400.000
188.36	563.636
188.74	454.545
189.12	-780.000
189.49	590.000
189.87	-6000.000
190.25	-1300.000
190.63	471.429
191.00	438.462
191.38	800.000
191.76	-1200.000
192.14	1475.000
192.51	675.000
192.89	966.667
193.27	650.000
193.65	-1300.000
194.02	490.000
194.40	1100.000
194.78	560.000
195.15	533.333
195.53	630.000
195.91	-2350.000
196.29	443.750
196.66	321.053
197.04	-300.000
197.42	0.000
197.79	710.000
198.17	-5600.000
198.55	628.571
198.92	737.500
199.30	960.000
199.68	0.000
200.05	394.444
200.43	842.857
200.81	4700.000
201.18	1500.000
201.56	-1900.000
201.94	577.778
202.31	633.333
202.69	450.000
203.07	580.000
203.44	0.000
203.82	1300.000
204.19	814.286
204.57	428.571
204.95	687.500
205.32	1633.333
205.70	536.364
206.08	421.429
206.45	2250.000
206.83	425.000
207.20	900.000
207.58	760.000
207.96	344.444
208.33	825.000
208.71	-900.000
209.08	885.714
209.46	677.778
209.84	463.636
210.21	-1000.000
210.59	1275.000
210.96	-600.000
211.34	2450.000
211.71	590.000
212.09	966.667
212.46	0.000
212.84	1900.000
213.22	1500.000
213.59	-4600.000
213.97	950.000
214.34	771.429
214.72	681.818
215.09	1180.000
215.47	-1900.000
215.84	-2200.000
216.22	1800.000
216.59	450.000
216.97	1300.000
217.34	554.545
217.72	-750.000
218.09	0.000
218.47	-4800.000
218.84	633.333
219.22	685.714
219.59	1500.000
219.97	-785.714
220.34	1140.000
220.72	-1966.667
221.09	392.857
221.47	1625.000
221.84	-850.000
222.22	0.000
222.59	1450.000
222.97	-2000.000
223.34	1160.000
223.72	392.308
224.09	1000.000
224.46	2100.000
224.84	-4700.000
225.21	-1080.000
225.59	-5100.000
225.96	580.000
226.34	295.000
226.71	2500.000
227.08	650.000
227.46	610.000
227.83	-1250.000
228.21	-2150.000
228.58	666.667
228.95	-2100.000
229.33	-2850.000
229.70	1566.667
230.08	757.143
230.45	-1000.000
230.82	416.667
231.20	833.333
231.57	571.429
231.95	466.667
232.32	277.273
232.69	400.000
233.07	628.571
233.44	384.615
233.81	-1533.333
234.19	310.526
234.56	441.667
234.93	325.000
235.31	481.818
235.68	338.462
236.05	371.429
236.43	163.636
236.80	263.158
237.17	4200.000
237.55	219.048
237.92	157.143
238.29	242.857
238.67	174.194
239.04	189.655
239.41	108.333
239.79	121.739
240.16	107.143
240.53	102.273
240.91	90.196
241.28	110.000
241.65	92.000
242.02	69.565
242.40	82.258
242.77	91.667
243.14	75.269
243.51	62.921
243.89	57.647
244.26	53.333
244.63	53.763
245.00	60.638
245.38	48.515
245.75	46.729
246.12	36.697
246.49	51.825
246.87	53.600
247.24	42.308
247.61	47.143
247.98	41.830
248.36	37.838
248.73	27.389
249.10	34.395
249.47	35.028
249.84	37.433
250.22	30.481
250.59	36.095
250.96	24.747
251.33	29.384
251.70	33.663
252.08	33.333
252.45	26.009
252.82	25.652
253.19	27.234
253.56	29.020
253.94	27.386
254.31	26.562
254.68	28.846
255.05	23.985
255.42	23.577
255.79	25.368
256.16	25.632
256.54	24.382
256.91	21.352
257.28	22.662
257.65	19.802
258.02	26.398
258.39	19.243
258.76	20.736
259.14	21.429
259.51	16.717
259.88	18.012
260.25	20.846
260.62	21.965
260.99	15.839
261.36	24.324
261.73	16.046
262.10	16.570
262.47	21.972
262.85	17.549
263.22	17.664
263.59	19.373
263.96	19.231
264.33	18.538
264.70	16.053
265.07	19.182
265.44	17.172
265.81	15.085
266.18	15.075
266.55	18.049
266.92	14.251
267.29	16.435
267.66	16.055
268.03	15.909
268.40	16.355
268.77	12.888
269.14	15.766
269.51	17.833
269.88	17.949
270.25	15.124
270.62	15.281
270.99	17.419
271.36	16.953
271.73	15.421
272.10	14.565
272.47	18.710
272.84	13.203
273.21	16.352
273.58	15.066
273.95	14.675
274.32	14.876
274.69	16.702
275.06	15.157
275.43	14.468
275.80	15.431
276.17	14.868
276.54	14.761
276.91	15.415
277.28	14.062
277.65	12.766
278.02	12.422
278.39	13.281
278.76	14.545
279.13	12.830
279.50	14.525
279.87	13.745
280.23	12.974
280.60	12.186
280.97	13.678
281.34	13.628
281.71	14.364
282.08	14.587
282.45	12.364
282.82	10.657
283.19	12.121
283.56	12.105
283.92	14.890
284.29	12.698
284.66	13.067
285.03	11.935
285.40	12.500
285.77	11.785
286.14	11.226
286.51	12.833
286.87	11.453
287.24	13.029
287.61	10.915
287.98	14.610
288.35	12.520
288.72	11.215
289.08	10.642
289.45	11.697
289.82	12.683
290.19	11.460
290.56	10.413
290.93	8.912
291.29	11.810
291.66	10.767
292.03	12.791
292.40	12.775
292.77	11.686
293.13	12.239
293.50	11.370
293.87	12.000
294.24	10.222
294.60	9.753
294.97	11.483
295.34	11.848
295.71	9.801
296.08	9.687
296.44	10.179
296.81	9.643
297.18	10.976
297.55	7.652
297.91	9.894
298.28	9.772
298.65	10.836
299.02	10.277
299.38	10.359
299.75	7.951
300.12	9.195
300.48	9.250
300.85	9.371
301.22	9.936
301.59	10.227
301.95	9.446
302.32	9.884
302.69	10.394
303.05	8.848
303.42	8.889
303.79	10.646
304.15	9.441
304.52	8.575
304.89	8.711
305.25	9.513
305.62	10.419
305.99	9.681
306.35	8.613
306.72	8.632
307.09	8.657
307.45	10.473
307.82	8.259
308.19	9.603
308.55	9.061
308.92	7.626
309.29	9.398
309.65	8.271
310.02	9.514
310.38	7.742
310.75	9.293
311.12	9.417
311.48	8.046
311.85	9.644
312.22	9.781
312.58	6.965
312.95	9.398
313.31	7.961
313.68	8.940
314.05	10.651
314.41	9.849
314.78	8.157
315.14	8.540
315.51	8.136
315.87	9.307
316.24	7.944
316.61	7.992
316.97	8.317
317.34	8.219
317.70	8.126
318.07	8.951
318.43	8.415
318.80	8.060
319.16	8.286
319.53	7.786
319.89	8.381
320.26	8.900
320.62	8.234
320.99	9.495
321.35	8.889
321.72	9.138
322.08	9.674
322.45	9.154
322.81	9.690
323.18	9.056
323.54	10.111
323.91	8.774
324.27	9.465
324.64	7.829
325.00	8.927
325.37	9.281
325.73	9.246
326.10	8.561
326.46	8.333
326.83	8.628
327.19	8.540
327.56	8.014
327.92	9.536
328.29	8.429
328.65	9.576
329.01	8.123
329.38	9.343
329.74	8.772
330.11	7.917
330.47	7.897
330.84	9.099
331.20	8.834
331.56	8.349
331.93	7.870
332.29	8.784
332.66	9.204
333.02	8.592
333.38	9.214
333.75	10.071
334.11	8.363
334.48	8.962
334.84	8.548
335.20	8.091
335.57	7.616
335.93	6.875
336.29	7.967
336.66	8.025
337.02	7.602
337.38	7.963
337.75	8.289
338.11	8.684
338.47	8.103
338.84	8.341
339.20	7.523
339.56	8.759
339.93	8.545
340.29	7.790
340.65	6.863
341.02	8.813
341.38	8.541
341.74	7.982
342.11	8.210
342.47	8.018
342.83	8.476
343.20	7.965
343.56	7.498
343.92	7.632
344.28	8.163
344.65	8.770
345.01	7.576
345.37	7.376
345.73	7.699
346.10	8.355
346.46	7.966
346.82	7.908
347.19	7.352
347.55	8.210
347.91	7.848
348.27	9.532
348.63	7.358
349.00	7.605
349.36	6.897
349.72	7.618
350.08	6.888
350.45	7.811
350.81	8.123
351.17	7.861
351.53	7.371
351.89	7.178
352.26	7.893
352.62	7.698
352.98	7.536
353.34	7.888
353.70	6.219
354.07	8.145
354.43	7.698
354.79	7.562
355.15	7.502
355.51	7.754
355.87	7.673
356.24	7.980
356.60	7.057
356.96	7.401
357.32	7.195
357.68	7.795
358.04	7.126
358.40	7.601
358.77	7.590
359.13	7.103
359.49	7.608
359.85	6.746
360.21	6.619
360.57	7.549
360.93	6.615
361.29	6.652
361.66	6.424
362.02	7.239
362.38	6.464
362.74	7.515
363.10	6.366
363.46	6.750
363.82	7.710
364.18	7.562
364.54	7.652
364.90	7.224
365.26	7.574
365.62	7.159
365.98	6.866
366.35	6.519
366.71	7.231
367.07	6.701
367.43	6.604
367.79	7.423
368.15	7.399
368.51	7.195
368.87	7.066
369.23	7.169
369.59	7.893
369.95	6.324
370.31	7.265
370.67	6.667
371.03	7.790
371.39	7.580
371.75	6.618
372.11	6.828
372.47	7.478
372.83	7.277
373.19	7.298
373.55	6.578
373.91	7.143
374.27	6.392
374.63	6.109
374.99	6.638
375.35	5.792
375.71	6.991
376.07	7.476
376.42	6.396
376.78	7.223
377.14	6.309
377.50	6.887
377.86	5.519
378.22	6.890
378.58	5.890
378.94	6.788
379.30	5.153
379.66	6.472
380.02	7.432
380.38	5.829
380.74	6.723
381.09	7.152
381.45	6.392
381.81	7.187
382.17	6.497
382.53	6.415
382.89	6.481
383.25	5.629
383.61	6.629
383.97	6.129
384.32	6.425
384.68	5.514
385.04	5.716
385.40	5.449
385.76	5.958
386.12	6.412
386.48	6.923
386.83	6.479
387.19	7.236
387.55	6.494
387.91	5.502
388.27	5.395
388.62	6.699
388.98	6.020
389.34	7.447
389.70	6.560
390.06	7.351
390.42	7.004
390.77	6.807
391.13	6.318
391.49	6.091
391.85	6.365
392.20	5.047
392.56	5.556
392.92	5.886
393.28	4.615
393.64	5.755
393.99	6.903
394.35	5.955
394.71	6.838
395.07	5.607
395.42	6.057
395.78	6.361
396.14	6.704
396.50	6.642
396.85	6.421
397.21	6.473
397.57	5.952
397.92	6.070
398.28	5.269
398.64	6.571
399.00	5.260
399.35	5.697
399.71	6.366
400.07	6.032
400.42	6.196
400.78	6.574
401.14	5.732
401.49	6.030
401.85	5.566
402.21	5.689
402.57	6.046
402.92	6.242
403.28	6.121
403.63	6.683
403.99	5.732
404.35	6.424
404.70	5.576
405.06	5.824
405.42	6.238
405.77	5.543
406.13	5.869
406.49	6.505
406.84	6.084
407.20	6.028
407.55	5.488
407.91	5.800
408.27	5.743
408.62	6.382
408.98	5.025
409.34	5.966
409.69	6.129
410.05	5.762
410.40	6.177
410.76	5.317
411.11	6.273
411.47	5.879
411.83	6.170
412.18	5.937
412.54	6.912
412.89	6.687
413.25	6.139
413.60	5.991
413.96	6.436
414.31	6.258
414.67	6.654
415.03	5.960
415.38	6.765
415.74	6.495
416.09	5.552
416.45	5.957
416.80	6.081
417.16	6.166
417.51	5.972
417.87	5.652
418.22	6.751
418.58	6.714
418.93	6.204
419.29	6.747
419.64	6.234
420.00	5.427
420.35	7.014
420.71	6.037
421.06	5.788
421.42	6.199
421.77	6.222
422.12	5.671
422.48	5.613
422.83	6.407
423.19	6.022
423.54	6.094
423.90	6.435
424.25	5.807
424.61	5.893
424.96	5.773
425.31	5.980
425.67	5.730
426.02	5.714
426.38	6.105
426.73	5.149
427.09	5.836
427.44	5.463
427.79	5.750
428.15	6.369
428.50	6.437
428.85	6.675
429.21	5.743
429.56	5.236
429.92	5.486
430.27	5.511
430.62	5.274
430.98	5.864
431.33	5.258
431.68	5.497
432.04	5.804
432.39	5.197
432.74	5.685
433.10	6.225
433.45	5.831
433.80	5.155
434.16	5.609
434.51	6.158
434.86	6.157
435.22	5.948
435.57	6.079
435.92	5.208
436.28	5.931
436.63	6.236
436.98	5.610
437.34	6.440
437.69	5.776
438.04	5.790
438.39	5.612
438.75	6.043
439.10	5.978
439.45	6.021
439.81	5.015
440.16	5.251
440.51	6.210
440.86	6.312
441.22	5.562
441.57	5.520
441.92	5.783
442.27	5.651
442.63	5.477
442.98	6.254
443.33	5.652
443.68	6.195
444.03	4.832
444.39	5.112
444.74	5.249
445.09	5.660
445.44	6.014
445.79	5.888
446.15	6.194
446.50	5.223
446.85	5.601
447.20	5.507
447.55	5.695
447.91	5.792
448.26	6.177
448.61	6.444
448.96	5.759
449.31	5.681
449.66	5.515
450.02	5.404
450.37	5.726
450.72	5.866
451.07	5.484
451.42	5.532
451.77	5.755
452.12	6.178
452.47	6.157
452.83	6.061
453.18	6.112
453.53	5.690
453.88	5.848
454.23	5.798
454.58	5.391
454.93	6.929
455.28	6.234
455.63	5.947
455.98	6.726
456.34	5.653
456.69	5.949
457.04	6.254
457.39	5.728
457.74	5.804
458.09	6.440
458.44	6.328
458.79	5.260
459.14	6.151
459.49	6.071
459.84	5.263
460.19	5.893
460.54	5.961
460.89	5.869
461.24	6.436
461.59	6.508
461.94	5.610
462.29	6.528
462.64	5.807
462.99	5.986
463.34	6.467
463.69	6.379
464.04	6.203
464.39	6.319
464.74	6.298
465.09	6.514
465.44	6.260
465.79	5.425
466.14	6.185
466.49	6.174
466.84	5.604
467.19	5.914
467.54	6.875
467.89	6.002
468.24	6.108
468.59	7.021
468.94	6.536
469.29	5.784
469.64	6.961
469.99	6.022
470.34	6.407
470.68	6.609
471.03	7.279
471.38	6.741
471.73	6.329
472.08	6.316
472.43	5.716
472.78	6.057
473.13	6.354
473.48	5.805
473.83	6.220
474.17	5.849
474.52	6.700
474.87	6.130
475.22	5.978
475.57	5.965
475.92	5.098
476.27	5.919
476.61	6.122
476.96	5.772
477.31	5.861
477.66	5.580
478.01	6.064
478.36	5.870
478.70	5.400
479.05	5.218
479.40	6.295
479.75	5.389
480.10	5.467
480.45	5.712
480.79	5.303
481.14	5.431
481.49	5.648
481.84	5.304
482.19	5.134
482.53	5.367
482.88	5.398
483.23	5.374
483.58	5.869
483.92	5.436
484.27	5.011
484.62	5.690
484.97	4.651
485.31	5.137
485.66	3.761
486.01	3.353
486.36	3.416
486.70	3.605
487.05	4.014
487.40	4.137
487.75	4.217
488.09	4.944
488.44	4.636
488.79	4.665
489.13	5.042
489.48	4.894
489.83	4.877
490.17	5.436
490.52	5.447
490.87	4.930
491.22	5.503
491.56	4.875
491.91	5.491
492.26	4.961
492.60	5.760
492.95	4.958
493.30	5.093
493.64	5.040
493.99	5.571
494.34	5.550
494.68	6.136
495.03	5.686
495.37	5.584
495.72	4.922
496.07	5.522
496.41	4.956
496.76	5.585
497.11	5.538
497.45	5.310
497.80	5.182
498.14	5.507
498.49	5.317
498.84	5.321
499.18	5.143
499.53	5.556
499.87	5.405
500.22	5.935
500.56	5.728
500.91	4.856
501.26	5.453
501.60	5.933
501.95	5.225
502.29	5.670
502.64	5.354
502.98	5.330
503.33	5.165
503.67	5.429
504.02	5.893
504.36	5.569
504.71	5.911
505.06	6.169
505.40	5.493
505.75	5.593
506.09	5.588
506.44	5.525
506.78	5.261
507.13	5.856
507.47	6.212
507.82	6.130
508.16	5.876
508.51	5.733
508.85	5.313
509.19	5.357
509.54	6.378
509.88	6.028
510.23	5.656
510.57	6.811
510.92	6.214
511.26	5.910
511.61	6.276
511.95	5.480
512.30	5.832
512.64	6.233
512.98	6.377
513.33	6.370
513.67	5.816
514.02	5.519
514.36	6.281
514.70	5.811
515.05	5.800
515.39	6.394
515.74	5.856
516.08	6.037
516.42	6.715
516.77	6.800
517.11	5.827
517.46	6.208
517.80	6.562
518.14	5.501
518.49	6.418
518.83	6.875
519.17	6.467
519.52	6.735
519.86	6.275
520.20	6.879
520.55	7.002
520.89	6.448
521.23	6.514
521.58	7.143
521.92	6.920
522.26	6.345
522.61	6.667
522.95	6.691
523.29	6.573
523.64	6.463
523.98	6.531
524.32	6.996
524.66	6.434
525.01	6.985
525.35	6.939
525.69	6.342
526.04	6.791
526.38	6.894
526.72	6.503
527.06	6.717
527.41	5.693
527.75	6.688
528.09	7.193
528.43	7.521
528.78	7.191
529.12	6.485
529.46	7.042
529.80	6.683
530.15	7.290
530.49	6.523
530.83	6.899
531.17	7.376
531.51	7.393
531.86	6.645
532.20	7.432
532.54	6.983
532.88	6.290
533.22	7.245
533.57	7.469
533.91	6.683
534.25	7.473
534.59	7.688
534.93	6.484
535.27	6.578
535.62	7.387
535.96	7.470
536.30	6.866
536.64	8.178
536.98	7.100
537.32	7.966
537.66	6.600
538.01	6.978
538.35	7.111
538.69	7.403
539.03	6.888
539.37	6.645
539.71	6.027
540.05	6.993
540.39	7.442
540.73	7.439
541.07	7.463
541.42	6.523
541.76	6.903
542.10	6.921
542.44	7.219
542.78	8.564
543.12	6.846
543.46	7.213
543.80	7.807
544.14	6.226
544.48	6.921
544.82	7.248
545.16	6.506
545.50	7.519
545.84	7.258
546.18	7.609
546.52	7.295
546.86	7.148
547.20	7.283
547.54	7.415
547.88	7.781
548.22	6.538
548.56	7.799
548.90	6.914
549.24	7.071
549.58	7.503
549.92	7.280
550.26	7.670
550.60	7.746
550.94	7.606
551.28	6.584
551.62	7.333
551.96	6.807
552.30	7.577
552.64	7.708
552.98	7.797
553.32	7.283
553.66	8.180
554.00	7.618
554.34	8.144
554.68	7.368
555.02	8.039
555.36	7.307
555.69	6.698
556.03	7.268
556.37	7.503
556.71	7.026
557.05	7.633
557.39	8.188
557.73	7.339
558.07	7.614
558.41	7.236
558.75	7.568
559.08	7.681
559.42	7.785
559.76	7.868
560.10	7.423
560.44	7.338
560.78	6.786
561.12	6.860
561.45	7.497
561.79	7.185
562.13	6.506
562.47	6.967
562.81	7.252
563.15	7.625
563.48	6.698
563.82	7.175
564.16	6.802
564.50	6.510
564.84	6.700
565.17	6.950
565.51	6.901
565.85	6.726
566.19	6.199
566.52	7.093
566.86	6.570
567.20	6.899
567.54	6.336
567.88	5.921
568.21	6.720
568.55	6.117
568.89	6.080
569.23	6.283
569.56	6.154
569.90	5.472
570.24	4.916
570.57	5.270
570.91	5.107
571.25	5.374
571.59	5.331
571.92	4.925
572.26	5.055
572.60	4.655
572.93	5.427
573.27	5.353
573.61	5.137
573.95	4.910
574.28	4.899
574.62	4.616
574.96	4.564
575.29	4.631
575.63	4.548
575.97	4.921
576.30	5.204
576.64	4.423
576.98	4.667
577.31	4.436
577.65	4.495
577.98	4.282
578.32	4.249
578.66	4.738
578.99	4.611
579.33	4.430
579.67	4.524
580.00	4.891
580.34	4.699
580.67	4.680
581.01	4.745
581.35	4.664
581.68	4.631
582.02	4.215
582.35	4.231
582.69	4.396
583.02	4.499
583.36	5.027
583.70	4.870
584.03	5.068
584.37	5.323
584.70	4.598
585.04	4.868
585.37	5.079
585.71	4.981
586.04	4.784
586.38	4.754
586.72	5.302
587.05	4.808
587.39	4.697
587.72	4.973
588.06	4.589
588.39	5.158
588.73	4.869
589.06	5.298
589.40	5.219
589.73	5.104
590.07	5.480
590.40	4.969
590.73	5.777
591.07	5.779
591.40	6.284
591.74	5.411
592.07	6.283
592.41	5.829
592.74	5.206
593.08	5.630
593.41	5.220
593.75	5.278
594.08	5.230
594.41	5.938
594.75	5.360
595.08	5.548
595.42	5.639
595.75	5.306
596.09	5.858
596.42	6.090
596.75	6.332
597.09	6.667
597.42	5.734
597.75	5.433
598.09	6.261
598.42	5.885
598.76	5.797
599.09	5.283
599.42	5.204
599.76	5.490
600.09	5.610
600.42	5.478
600.76	5.357
601.09	5.537
601.42	5.213
601.76	5.465
602.09	5.692
602.42	6.210
602.76	5.804
603.09	5.547
603.42	5.701
603.76	5.564
604.09	5.545
604.42	5.585
604.76	6.326
605.09	5.810
605.42	5.686
605.75	6.043
606.09	5.409
606.42	5.558
606.75	5.433
607.09	6.321
607.42	5.734
607.75	5.865
608.08	5.818
608.42	6.320
608.75	6.041
609.08	6.429
609.41	6.140
609.75	6.479
610.08	5.938
610.41	5.912
610.74	5.345
611.07	6.275
611.41	6.379
611.74	6.838
612.07	6.159
612.40	6.506
612.73	6.368
613.07	6.519
613.40	6.003
613.73	6.188
614.06	6.720
614.39	6.922
614.72	7.105
615.06	6.145
615.39	6.210
615.72	6.186
616.05	6.167
616.38	5.948
616.71	7.185
617.05	7.126
617.38	6.795
617.71	6.607
618.04	6.791
618.37	6.978
618.70	7.032
619.03	7.961
619.36	6.993
619.69	7.606
620.03	7.692
620.36	7.487
620.69	7.808
621.02	7.743
621.35	6.891
621.68	7.477
622.01	8.127
622.34	7.564
622.67	8.669
623.00	7.777
623.33	7.148
623.66	7.720
623.99	7.511
624.32	7.989
624.65	7.556
624.99	6.374
625.32	7.169
625.65	7.739
625.98	7.686
626.31	8.865
626.64	8.245
626.97	7.398
627.30	7.315
627.63	8.368
627.96	8.410
628.29	7.699
628.62	8.875
628.95	9.623
629.28	7.847
629.61	9.991
629.94	9.524
630.26	7.912
630.59	8.675
630.92	8.716
631.25	7.601
631.58	9.109
631.91	9.432
632.24	8.544
632.57	8.604
632.90	8.662
633.23	9.284
633.56	10.734
633.89	8.720
634.22	9.648
634.55	10.769
634.88	8.982
635.20	9.200
635.53	11.084
635.86	10.396
636.19	9.412
636.52	10.150
636.85	10.195
637.18	8.525
637.51	10.757
637.83	7.398
638.16	10.230
638.49	11.335
638.82	10.746
639.15	9.625
639.48	10.723
639.81	12.064
640.13	11.068
640.46	10.067
640.79	11.361
641.12	9.216
641.45	10.056
641.77	10.015
642.10	11.257
642.43	9.910
642.76	11.765
643.09	11.043
643.41	11.533
643.74	12.037
644.07	10.518
644.40	13.037
644.73	13.228
645.05	12.837
645.38	12.006
645.71	12.238
646.04	14.120
646.36	13.856
646.69	13.043
647.02	12.755
647.35	11.684
647.67	12.566
648.00	13.008
648.33	11.551
648.66	12.273
648.98	12.144
649.31	9.716
649.64	9.268
649.96	11.773
650.29	11.690
650.62	12.783
650.94	12.804
651.27	15.203
651.60	11.814
651.92	13.738
652.25	9.935
