SpectraSuite Data File
++++++++++++++++++++++++++++++++++++
Date: Wed May 13 19:37:09 PDT 2015
User: schluterlab
Dark Spectrum Present: Yes
Reference Spectrum Present: Yes
Number of Sampled Component Spectra: 1
Spectrometers: USB2E3373
Integration Time (usec): 3000 (USB2E3373)
Spectra Averaged: 3 (USB2E3373)
Boxcar Smoothing: 0 (USB2E3373)
Correct for Electrical Dark: No (USB2E3373)
Strobe/Lamp Enabled: No (USB2E3373)
Correct for Detector Non-linearity: No (USB2E3373)
Correct for Stray Light: No (USB2E3373)
Number of Pixels in Processed Spectrum: 2048
>>>>>Begin Processed Spectral Data<<<<<
178.53	0.000
178.91	-1500.000
179.29	-1450.000
179.67	-222.222
180.04	-1475.000
180.42	2950.000
180.80	1200.000
181.18	-950.000
181.56	800.000
181.94	0.000
182.31	-771.429
182.69	2033.333
183.07	-687.500
183.45	-566.667
183.83	581.818
184.20	-490.000
184.58	2350.000
184.96	5900.000
185.34	-1060.000
185.72	-675.000
186.09	-2550.000
186.47	3650.000
186.85	2750.000
187.23	5200.000
187.61	-1833.333
187.98	1425.000
188.36	554.545
188.74	572.727
189.12	-1140.000
189.49	610.000
189.87	-4000.000
190.25	-1225.000
190.63	414.286
191.00	515.385
191.38	966.667
191.76	-1250.000
192.14	1450.000
192.51	612.500
192.89	916.667
193.27	637.500
193.65	-1300.000
194.02	570.000
194.40	1160.000
194.78	560.000
195.15	525.000
195.53	720.000
195.91	-2700.000
196.29	406.250
196.66	363.158
197.04	-460.000
197.42	0.000
197.79	600.000
198.17	-5200.000
198.55	614.286
198.92	850.000
199.30	1100.000
199.68	0.000
200.05	361.111
200.43	728.571
200.81	3800.000
201.18	2033.333
201.56	-1966.667
201.94	600.000
202.31	711.111
202.69	516.667
203.07	590.000
203.44	0.000
203.82	1450.000
204.19	842.857
204.57	464.286
204.95	737.500
205.32	1466.667
205.70	518.182
206.08	400.000
206.45	3000.000
206.83	437.500
207.20	933.333
207.58	960.000
207.96	377.778
208.33	900.000
208.71	-850.000
209.08	828.571
209.46	644.444
209.84	509.091
210.21	-1433.333
210.59	1500.000
210.96	-600.000
211.34	2450.000
211.71	640.000
212.09	800.000
212.46	0.000
212.84	2066.667
213.22	1375.000
213.59	-4500.000
213.97	866.667
214.34	842.857
214.72	618.182
215.09	980.000
215.47	-2350.000
215.84	-2750.000
216.22	1833.333
216.59	428.571
216.97	1450.000
217.34	472.727
217.72	-800.000
218.09	0.000
218.47	-5400.000
218.84	688.889
219.22	700.000
219.59	1666.667
219.97	-657.143
220.34	1020.000
220.72	-1733.333
221.09	428.571
221.47	1700.000
221.84	-1016.667
222.22	0.000
222.59	1300.000
222.97	-1900.000
223.34	1100.000
223.72	384.615
224.09	1100.000
224.46	2550.000
224.84	-5300.000
225.21	-1080.000
225.59	-5400.000
225.96	670.000
226.34	290.000
226.71	3000.000
227.08	787.500
227.46	600.000
227.83	-1225.000
228.21	-2450.000
228.58	766.667
228.95	-2850.000
229.33	-2950.000
229.70	1700.000
230.08	757.143
230.45	-940.000
230.82	466.667
231.20	783.333
231.57	671.429
231.95	483.333
232.32	281.818
232.69	427.273
233.07	700.000
233.44	415.385
233.81	-1766.667
234.19	363.158
234.56	525.000
234.93	383.333
235.31	509.091
235.68	369.231
236.05	357.143
236.43	163.636
236.80	252.632
237.17	4800.000
237.55	223.810
237.92	210.714
238.29	238.095
238.67	183.871
239.04	186.207
239.41	152.778
239.79	102.174
240.16	145.238
240.53	113.636
240.91	109.804
241.28	98.000
241.65	106.000
242.02	81.159
242.40	75.806
242.77	81.667
243.14	58.065
243.51	76.404
243.89	60.000
244.26	60.000
244.63	48.387
245.00	53.191
245.38	54.455
245.75	50.467
246.12	35.780
246.49	57.664
246.87	52.800
247.24	48.462
247.61	39.286
247.98	40.523
248.36	29.054
248.73	30.573
249.10	33.121
249.47	35.593
249.84	34.225
250.22	25.668
250.59	40.828
250.96	29.293
251.33	34.123
251.70	29.703
252.08	28.095
252.45	25.561
252.82	23.913
253.19	23.404
253.56	25.882
253.94	26.141
254.31	24.609
254.68	24.231
255.05	21.771
255.42	21.951
255.79	20.956
256.16	22.022
256.54	23.322
256.91	21.352
257.28	19.784
257.65	20.792
258.02	19.876
258.39	19.243
258.76	17.057
259.14	18.750
259.51	19.453
259.88	17.081
260.25	18.127
260.62	19.075
260.99	14.907
261.36	18.619
261.73	18.052
262.10	13.663
262.47	17.465
262.85	17.270
263.22	14.530
263.59	18.803
263.96	16.758
264.33	15.144
264.70	17.368
265.07	16.113
265.44	14.646
265.81	14.842
266.18	17.588
266.55	13.902
266.92	14.988
267.29	16.204
267.66	12.615
268.03	13.409
268.40	14.019
268.77	15.513
269.14	13.063
269.51	16.479
269.88	15.152
270.25	13.093
270.62	11.910
270.99	15.269
271.36	15.236
271.73	10.280
272.10	13.261
272.47	13.333
272.84	12.554
273.21	14.465
273.58	10.480
273.95	13.836
274.32	11.983
274.69	13.490
275.06	12.402
275.43	12.553
275.80	12.425
276.17	12.831
276.54	14.345
276.91	11.660
277.28	9.570
277.65	11.412
278.02	11.594
278.39	12.695
278.76	12.909
279.13	13.396
279.50	11.546
279.87	11.155
280.23	14.172
280.60	9.865
280.97	11.091
281.34	13.274
281.71	12.545
282.08	12.668
282.45	10.000
282.82	9.414
283.19	9.447
283.56	11.754
283.92	11.506
284.29	11.287
284.66	9.982
285.03	12.116
285.40	8.275
285.77	9.428
286.14	10.363
286.51	12.167
286.87	11.282
287.24	10.423
287.61	7.865
287.98	10.227
288.35	11.094
288.72	9.034
289.08	10.955
289.45	10.049
289.82	10.732
290.19	7.849
290.56	10.413
290.93	8.610
291.29	7.669
291.66	9.145
292.03	13.372
292.40	10.720
292.77	9.763
293.13	9.552
293.50	10.350
293.87	8.741
294.24	8.593
294.60	8.879
294.97	8.140
295.34	8.604
295.71	8.523
296.08	8.974
296.44	9.354
296.81	8.454
297.18	9.214
297.55	6.992
297.91	8.575
298.28	8.969
298.65	10.444
299.02	9.354
299.38	8.499
299.75	7.817
300.12	7.918
300.48	8.375
300.85	8.631
301.22	7.643
301.59	6.692
301.95	7.305
302.32	8.601
302.69	8.363
303.05	7.636
303.42	6.667
303.79	7.814
304.15	6.294
304.52	7.300
304.89	6.504
305.25	8.237
305.62	7.022
305.99	8.028
306.35	8.837
306.72	7.287
307.09	8.879
307.45	7.770
307.82	6.585
308.19	6.954
308.55	7.767
308.92	6.767
309.29	6.441
309.65	7.211
310.02	7.400
310.38	8.065
310.75	7.075
311.12	7.779
311.48	7.524
311.85	7.862
312.22	7.700
312.58	7.069
312.95	7.920
313.31	6.602
313.68	6.029
314.05	9.270
314.41	7.337
314.78	7.754
315.14	7.448
315.51	6.900
315.87	8.317
316.24	8.044
316.61	7.115
316.97	6.654
317.34	6.751
317.70	8.126
318.07	7.411
318.43	8.611
318.80	8.247
319.16	8.757
319.53	7.880
319.89	8.381
320.26	9.200
320.62	8.730
320.99	9.293
321.35	8.283
321.72	10.267
322.08	9.872
322.45	9.851
322.81	10.562
323.18	9.923
323.54	10.111
323.91	10.566
324.27	9.943
324.64	9.040
325.00	9.017
325.37	10.009
325.73	12.029
326.10	10.680
326.46	8.602
326.83	11.648
327.19	11.187
327.56	10.976
327.92	11.286
328.29	10.559
328.65	10.958
329.01	10.560
329.38	10.731
329.74	10.803
330.11	11.970
330.47	11.019
330.84	12.684
331.20	10.565
331.56	12.018
331.93	10.556
332.29	11.003
332.66	12.478
333.02	12.157
333.38	12.466
333.75	12.478
334.11	12.544
334.48	12.600
334.84	11.949
335.20	12.636
335.57	11.151
335.93	10.625
336.29	10.806
336.66	11.722
337.02	11.131
337.38	11.204
337.75	11.230
338.11	10.743
338.47	10.129
338.84	11.274
339.20	11.468
339.56	11.861
339.93	10.818
340.29	11.685
340.65	12.032
341.02	11.082
341.38	12.278
341.74	10.965
342.11	11.354
342.47	11.013
342.83	12.586
343.20	11.602
343.56	11.794
343.92	11.404
344.28	11.395
344.65	11.350
345.01	11.027
345.37	10.549
345.73	12.098
346.10	10.997
346.46	11.102
346.82	11.532
347.19	11.362
347.55	11.412
347.91	12.298
348.27	12.161
348.63	12.291
349.00	11.327
349.36	10.755
349.72	11.628
350.08	11.183
350.45	11.554
350.81	11.373
351.17	12.156
351.53	11.384
351.89	11.634
352.26	12.786
352.62	11.949
352.98	12.318
353.34	11.257
353.70	11.948
354.07	11.774
354.43	10.952
354.79	11.263
355.15	10.854
355.51	11.591
355.87	12.163
356.24	12.459
356.60	10.505
356.96	10.861
357.32	11.284
357.68	11.890
358.04	10.530
358.40	12.114
358.77	11.659
359.13	11.050
359.49	11.686
359.85	10.714
360.21	12.041
360.57	11.907
360.93	12.538
361.29	11.867
361.66	11.842
362.02	10.896
362.38	10.875
362.74	11.607
363.10	10.733
363.46	11.445
363.82	10.355
364.18	12.188
364.54	11.813
364.90	12.181
365.26	11.324
365.62	11.395
365.98	10.811
366.35	10.602
366.71	12.075
367.07	10.998
367.43	11.974
367.79	11.563
368.15	12.500
368.51	11.119
368.87	11.349
369.23	11.631
369.59	11.513
369.95	11.324
370.31	11.610
370.67	11.739
371.03	12.884
371.39	11.516
371.75	10.662
372.11	11.807
372.47	11.510
372.83	12.464
373.19	11.705
373.55	11.234
373.91	12.592
374.27	12.302
374.63	11.200
374.99	12.359
375.35	11.654
375.71	11.652
376.07	12.277
376.42	12.242
376.78	11.862
377.14	11.194
377.50	11.921
377.86	10.771
378.22	12.453
378.58	10.902
378.94	11.188
379.30	11.260
379.66	12.183
380.02	11.794
380.38	11.658
380.74	12.065
381.09	12.042
381.45	12.477
381.81	12.162
382.17	11.847
382.53	11.132
382.89	11.605
383.25	11.069
383.61	11.648
383.97	11.945
384.32	11.790
384.68	10.657
385.04	11.555
385.40	10.898
385.76	11.486
386.12	11.852
386.48	11.580
386.83	11.546
387.19	12.369
387.55	12.369
387.91	11.427
388.27	10.914
388.62	12.047
388.98	10.995
389.34	12.578
389.70	11.527
390.06	12.357
390.42	11.284
390.77	11.768
391.13	11.040
391.49	12.817
391.85	11.776
392.20	11.483
392.56	11.553
392.92	12.184
393.28	10.769
393.64	12.350
393.99	12.889
394.35	11.973
394.71	11.481
395.07	11.713
395.42	11.434
395.78	12.150
396.14	12.539
396.50	11.967
396.85	12.587
397.21	11.529
397.57	11.717
397.92	12.320
398.28	10.762
398.64	12.724
399.00	11.304
399.35	10.998
399.71	11.400
400.07	11.886
400.42	11.902
400.78	12.425
401.14	10.793
401.49	11.522
401.85	10.526
402.21	10.838
402.57	10.734
402.92	11.286
403.28	12.242
403.63	11.139
403.99	11.019
404.35	11.091
404.70	10.851
405.06	10.309
405.42	11.354
405.77	9.829
406.13	11.400
406.49	11.118
406.84	10.632
407.20	10.875
407.55	11.232
407.91	11.400
408.27	10.849
408.62	11.499
408.98	11.029
409.34	10.824
409.69	11.097
410.05	10.781
410.40	11.621
410.76	11.051
411.11	11.037
411.47	10.415
411.83	11.729
412.18	11.008
412.54	10.959
412.89	11.325
413.25	10.803
413.60	10.562
413.96	11.293
414.31	10.450
414.67	11.597
415.03	10.927
415.38	11.920
415.74	11.318
416.09	11.365
416.45	10.910
416.80	10.972
417.16	11.930
417.51	11.944
417.87	10.918
418.22	11.861
418.58	12.137
418.93	11.794
419.29	11.394
419.64	11.839
420.00	12.134
420.35	11.710
420.71	11.476
421.06	11.098
421.42	11.170
421.77	11.771
422.12	11.286
422.48	11.279
422.83	12.114
423.19	11.823
423.54	11.956
423.90	12.754
424.25	12.228
424.61	12.143
424.96	12.070
425.31	12.126
425.67	11.461
426.02	11.600
426.38	11.905
426.73	12.112
427.09	12.036
427.44	11.846
427.79	12.306
428.15	13.214
428.50	12.522
428.85	13.349
429.21	12.038
429.56	12.131
429.92	11.676
430.27	11.569
430.62	12.135
430.98	12.922
431.33	12.216
431.68	12.356
432.04	12.726
432.39	12.336
432.74	13.046
433.10	13.526
433.45	12.945
433.80	12.971
434.16	12.821
434.51	12.895
434.86	13.512
435.22	12.618
435.57	13.678
435.92	12.171
436.28	13.286
436.63	13.355
436.98	13.051
437.34	13.119
437.69	13.536
438.04	12.760
438.39	13.194
438.75	13.306
439.10	13.017
439.45	13.223
439.81	13.172
440.16	13.439
440.51	13.943
440.86	14.765
441.22	12.848
441.57	13.217
441.92	13.153
442.27	13.402
442.63	13.112
442.98	14.366
443.33	13.587
443.68	13.165
444.03	13.421
444.39	12.804
444.74	14.069
445.09	13.747
445.44	13.614
445.79	13.360
446.15	13.182
446.50	13.086
446.85	12.898
447.20	13.310
447.55	14.294
447.91	13.293
448.26	13.801
448.61	14.076
448.96	14.341
449.31	13.948
449.66	13.393
450.02	12.925
450.37	14.002
450.72	13.762
451.07	13.650
451.42	13.313
451.77	14.680
452.12	13.741
452.47	14.739
452.83	13.578
453.18	14.487
453.53	14.657
453.88	14.058
454.23	13.688
454.58	14.900
454.93	14.558
455.28	14.464
455.63	14.078
455.98	14.702
456.34	14.196
456.69	14.026
457.04	14.427
457.39	13.384
457.74	13.987
458.09	13.744
458.44	13.398
458.79	13.286
459.14	14.447
459.49	14.594
459.84	13.186
460.19	13.907
460.54	13.310
460.89	13.385
461.24	13.479
461.59	14.468
461.94	13.933
462.29	14.065
462.64	14.040
462.99	13.533
463.34	14.200
463.69	13.884
464.04	14.493
464.39	13.971
464.74	14.676
465.09	13.450
465.44	12.632
465.79	13.087
466.14	13.519
466.49	13.237
466.84	13.543
467.19	14.001
467.54	14.000
467.89	13.385
468.24	14.427
468.59	14.164
468.94	13.867
469.29	14.010
469.64	14.257
469.99	14.682
470.34	13.738
470.68	15.158
471.03	13.401
471.38	13.690
471.73	13.391
472.08	15.329
472.43	13.568
472.78	13.430
473.13	13.736
473.48	14.107
473.83	13.354
474.17	12.943
474.52	14.144
474.87	13.835
475.22	13.697
475.57	13.165
475.92	13.224
476.27	12.683
476.61	13.624
476.96	13.524
477.31	12.977
477.66	13.621
478.01	12.859
478.36	12.956
478.70	12.721
479.05	12.939
479.40	12.692
479.75	12.862
480.10	12.575
480.45	12.661
480.79	12.948
481.14	12.916
481.49	13.479
481.84	12.711
482.19	13.040
482.53	13.028
482.88	13.262
483.23	12.430
483.58	12.602
483.92	12.887
484.27	11.678
484.62	12.112
484.97	12.101
485.31	11.986
485.66	10.841
486.01	10.409
486.36	10.039
486.70	10.212
487.05	10.352
487.40	10.572
487.75	10.734
488.09	11.010
488.44	11.141
488.79	11.790
489.13	11.459
489.48	11.582
489.83	12.344
490.17	11.793
490.52	11.957
490.87	11.759
491.22	11.778
491.56	11.754
491.91	11.680
492.26	11.805
492.60	12.212
492.95	11.459
493.30	12.056
493.64	11.946
493.99	11.885
494.34	12.396
494.68	11.859
495.03	12.124
495.37	11.959
495.72	12.524
496.07	11.833
496.41	11.858
496.76	10.950
497.11	11.436
497.45	12.017
497.80	11.804
498.14	11.594
498.49	11.756
498.84	12.081
499.18	11.095
499.53	11.918
499.87	11.510
500.22	12.011
500.56	12.087
500.91	11.827
501.26	12.044
501.60	12.150
501.95	11.228
502.29	12.090
502.64	12.058
502.98	11.781
503.33	11.015
503.67	11.694
504.02	11.693
504.36	11.558
504.71	12.066
505.06	11.904
505.40	12.056
505.75	11.620
506.09	11.273
506.44	11.643
506.78	11.982
507.13	11.408
507.47	11.919
507.82	11.753
508.16	12.057
508.51	11.669
508.85	11.221
509.19	11.633
509.54	11.837
509.88	12.107
510.23	11.568
510.57	12.281
510.92	11.134
511.26	11.408
511.61	12.137
511.95	11.743
512.30	11.612
512.64	11.553
512.98	11.790
513.33	11.938
513.67	11.580
514.02	11.039
514.36	12.507
514.70	11.455
515.05	10.820
515.39	12.619
515.74	12.162
516.08	12.800
516.42	12.431
516.77	11.371
517.11	12.042
517.46	12.190
517.80	11.905
518.14	11.175
518.49	12.019
518.83	12.784
519.17	11.778
519.52	11.262
519.86	12.379
520.20	11.908
520.55	11.550
520.89	12.348
521.23	12.063
521.58	11.645
521.92	11.023
522.26	11.592
522.61	12.586
522.95	11.541
523.29	11.382
523.64	12.134
523.98	11.645
524.32	12.606
524.66	12.508
525.01	12.255
525.35	11.524
525.69	12.007
526.04	11.589
526.38	11.470
526.72	11.534
527.06	11.551
527.41	11.819
527.75	11.961
528.09	12.331
528.43	11.855
528.78	12.661
529.12	11.273
529.46	11.696
529.80	12.067
530.15	12.835
530.49	11.754
530.83	12.089
531.17	11.749
531.51	12.970
531.86	12.194
532.20	13.038
532.54	12.492
532.88	12.003
533.22	11.555
533.57	11.728
533.91	11.439
534.25	11.179
534.59	12.325
534.93	11.362
535.27	11.285
535.62	11.722
535.96	12.116
536.30	11.634
536.64	12.170
536.98	10.816
537.32	11.850
537.66	11.267
538.01	11.784
538.35	11.312
538.69	11.997
539.03	10.656
539.37	10.927
539.71	10.175
540.05	10.980
540.39	11.296
540.73	11.514
541.07	12.524
541.42	12.590
541.76	11.677
542.10	11.643
542.44	11.060
542.78	12.385
543.12	10.940
543.46	11.869
543.80	12.167
544.14	10.911
544.48	11.111
544.82	11.353
545.16	10.995
545.50	11.054
545.84	11.358
546.18	11.852
546.52	11.425
546.86	11.409
547.20	11.800
547.54	11.222
547.88	12.054
548.22	10.772
548.56	11.698
548.90	11.012
549.24	10.101
549.58	11.119
549.92	11.538
550.26	11.861
550.60	11.480
550.94	11.479
551.28	10.241
551.62	11.718
551.96	11.018
552.30	12.355
552.64	11.224
552.98	11.661
553.32	11.059
553.66	12.134
554.00	11.805
554.34	10.697
554.68	11.588
555.02	11.425
555.36	11.900
555.69	10.758
556.03	10.296
556.37	10.641
556.71	11.050
557.05	10.854
557.39	11.756
557.73	10.727
558.07	11.168
558.41	10.926
558.75	11.756
559.08	12.081
559.42	10.960
559.76	11.250
560.10	10.778
560.44	11.181
560.78	11.244
561.12	11.873
561.45	11.017
561.79	10.679
562.13	11.536
562.47	11.202
562.81	11.018
563.15	10.368
563.48	11.207
563.82	10.894
564.16	9.876
564.50	9.635
564.84	10.999
565.17	10.232
565.51	10.863
565.85	10.977
566.19	9.894
566.52	10.703
566.86	10.850
567.20	11.321
567.54	9.361
567.88	9.614
568.21	10.582
568.55	9.505
568.89	8.901
569.23	9.403
569.56	8.826
569.90	8.830
570.24	8.324
570.57	7.990
570.91	7.951
571.25	8.462
571.59	7.747
571.92	8.036
572.26	7.683
572.60	8.018
572.93	7.766
573.27	8.134
573.61	7.901
573.95	7.959
574.28	7.412
574.62	7.483
574.96	7.981
575.29	7.347
575.63	7.546
575.97	7.446
576.30	7.939
576.64	7.405
576.98	7.268
577.31	7.278
577.65	6.971
577.98	7.016
578.32	7.029
578.66	7.338
578.99	7.373
579.33	7.359
579.67	7.200
580.00	7.432
580.34	7.546
580.67	7.020
581.01	7.533
581.35	6.893
581.68	7.104
582.02	7.014
582.35	7.179
582.69	7.182
583.02	7.094
583.36	7.309
583.70	7.443
584.03	7.445
584.37	8.142
584.70	7.576
585.04	7.436
585.37	7.596
585.71	7.542
586.04	7.562
586.38	7.524
586.72	7.981
587.05	7.634
587.39	7.652
587.72	7.704
588.06	7.444
588.39	7.572
588.73	8.155
589.06	8.165
589.40	8.114
589.73	8.096
590.07	9.004
590.40	7.709
590.73	8.392
591.07	8.384
591.40	8.520
591.74	8.918
592.07	9.031
592.41	8.599
592.74	8.801
593.08	8.161
593.41	8.035
593.75	7.714
594.08	8.180
594.41	8.059
594.75	8.170
595.08	8.304
595.42	8.161
595.75	8.155
596.09	8.750
596.42	9.391
596.75	8.864
597.09	10.087
597.42	8.221
597.75	8.624
598.09	8.522
598.42	8.119
598.76	8.837
599.09	8.286
599.42	7.969
599.76	8.272
600.09	7.650
600.42	8.108
600.76	8.071
601.09	8.197
601.42	7.763
601.76	8.349
602.09	8.024
602.42	8.280
602.76	8.424
603.09	8.419
603.42	8.629
603.76	8.117
604.09	8.298
604.42	8.276
604.76	8.857
605.09	8.475
605.42	8.380
605.75	8.154
606.09	8.377
606.42	7.887
606.75	8.378
607.09	8.707
607.42	8.002
607.75	8.059
608.08	7.859
608.42	9.054
608.75	8.521
609.08	8.094
609.41	9.472
609.75	8.242
610.08	8.718
610.41	8.659
610.74	7.947
611.07	9.042
611.41	9.617
611.74	9.050
612.07	9.213
612.40	9.024
612.73	9.158
613.07	9.106
613.40	9.373
613.73	8.443
614.06	9.301
614.39	9.701
614.72	9.263
615.06	9.139
615.39	8.758
615.72	9.202
616.05	8.293
616.38	8.894
616.71	9.620
617.05	9.423
617.38	9.020
617.71	9.309
618.04	9.375
618.37	9.758
618.70	9.956
619.03	9.474
619.36	10.862
619.69	10.000
620.03	10.302
620.36	10.027
620.69	9.863
621.02	10.251
621.35	10.415
621.68	10.981
622.01	9.288
622.34	11.195
622.67	10.875
623.00	9.831
623.33	9.507
623.66	9.936
623.99	10.383
624.32	9.986
624.65	10.099
624.99	10.198
625.32	9.631
625.65	10.594
625.98	10.223
626.31	9.565
626.64	10.857
626.97	10.474
627.30	9.975
627.63	10.911
627.96	11.102
628.29	10.324
628.62	12.534
628.95	11.698
629.28	12.135
629.61	12.099
629.94	11.619
630.26	11.153
630.59	11.916
630.92	10.441
631.25	9.970
631.58	10.310
631.91	11.765
632.24	10.865
632.57	12.697
632.90	11.404
633.23	12.864
633.56	13.220
633.89	11.778
634.22	13.734
634.55	12.544
634.88	12.575
635.20	13.501
635.53	14.337
635.86	13.738
636.19	12.471
636.52	13.495
