SpectraSuite Data File
++++++++++++++++++++++++++++++++++++
Date: Wed May 13 19:50:52 PDT 2015
User: schluterlab
Dark Spectrum Present: Yes
Reference Spectrum Present: Yes
Number of Sampled Component Spectra: 1
Spectrometers: USB2E3373
Integration Time (usec): 3000 (USB2E3373)
Spectra Averaged: 3 (USB2E3373)
Boxcar Smoothing: 0 (USB2E3373)
Correct for Electrical Dark: No (USB2E3373)
Strobe/Lamp Enabled: No (USB2E3373)
Correct for Detector Non-linearity: No (USB2E3373)
Correct for Stray Light: No (USB2E3373)
Number of Pixels in Processed Spectrum: 2048
>>>>>Begin Processed Spectral Data<<<<<
178.53	0.000
178.91	-1375.000
179.29	-1650.000
179.67	-305.556
180.04	-1325.000
180.42	2750.000
180.80	1300.000
181.18	-1150.000
181.56	657.143
181.94	0.000
182.31	-842.857
182.69	2100.000
183.07	-650.000
183.45	-511.111
183.83	545.455
184.20	-460.000
184.58	2900.000
184.96	5900.000
185.34	-1100.000
185.72	-662.500
186.09	-2950.000
186.47	3300.000
186.85	2500.000
187.23	5900.000
187.61	-2233.333
187.98	1625.000
188.36	563.636
188.74	445.455
189.12	-920.000
189.49	540.000
189.87	-5900.000
190.25	-1200.000
190.63	485.714
191.00	423.077
191.38	900.000
191.76	-1100.000
192.14	1325.000
192.51	725.000
192.89	816.667
193.27	600.000
193.65	-1175.000
194.02	660.000
194.40	1000.000
194.78	670.000
195.15	525.000
195.53	620.000
195.91	-2400.000
196.29	393.750
196.66	336.842
197.04	-420.000
197.42	0.000
197.79	590.000
198.17	-5000.000
198.55	685.714
198.92	775.000
199.30	960.000
199.68	0.000
200.05	322.222
200.43	842.857
200.81	5400.000
201.18	1866.667
201.56	-1800.000
201.94	533.333
202.31	722.222
202.69	475.000
203.07	560.000
203.44	0.000
203.82	1275.000
204.19	914.286
204.57	464.286
204.95	600.000
205.32	1733.333
205.70	463.636
206.08	407.143
206.45	2850.000
206.83	368.750
207.20	1000.000
207.58	720.000
207.96	366.667
208.33	650.000
208.71	-833.333
209.08	657.143
209.46	477.778
209.84	481.818
210.21	-1700.000
210.59	1600.000
210.96	-462.500
211.34	2450.000
211.71	590.000
212.09	950.000
212.46	0.000
212.84	1733.333
213.22	1575.000
213.59	-4800.000
213.97	866.667
214.34	971.429
214.72	627.273
215.09	1080.000
215.47	-2400.000
215.84	-2500.000
216.22	1700.000
216.59	364.286
216.97	1425.000
217.34	545.455
217.72	-733.333
218.09	0.000
218.47	-5200.000
218.84	588.889
219.22	785.714
219.59	1900.000
219.97	-657.143
220.34	920.000
220.72	-1666.667
221.09	464.286
221.47	1400.000
221.84	-1033.333
222.22	0.000
222.59	1525.000
222.97	-2750.000
223.34	1100.000
223.72	484.615
224.09	1180.000
224.46	2200.000
224.84	-4300.000
225.21	-1220.000
225.59	-5000.000
225.96	650.000
226.34	325.000
226.71	2500.000
227.08	700.000
227.46	610.000
227.83	-1275.000
228.21	-2550.000
228.58	655.556
228.95	-2250.000
229.33	-2200.000
229.70	1433.333
230.08	842.857
230.45	-760.000
230.82	500.000
231.20	916.667
231.57	857.143
231.95	491.667
232.32	236.364
232.69	463.636
233.07	800.000
233.44	423.077
233.81	-1966.667
234.19	300.000
234.56	391.667
234.93	491.667
235.31	472.727
235.68	407.692
236.05	371.429
236.43	212.121
236.80	242.105
237.17	4400.000
237.55	219.048
237.92	232.143
238.29	238.095
238.67	167.742
239.04	162.069
239.41	144.444
239.79	145.652
240.16	133.333
240.53	156.818
240.91	113.725
241.28	130.000
241.65	86.000
242.02	92.754
242.40	108.065
242.77	105.000
243.14	69.892
243.51	75.281
243.89	80.000
244.26	70.000
244.63	66.667
245.00	67.021
245.38	72.277
245.75	70.093
246.12	58.716
246.49	64.234
246.87	72.000
247.24	60.769
247.61	60.000
247.98	55.556
248.36	47.297
248.73	49.682
249.10	55.414
249.47	48.023
249.84	42.246
250.22	45.989
250.59	44.970
250.96	50.505
251.33	50.237
251.70	48.515
252.08	40.000
252.45	39.462
252.82	40.000
253.19	44.255
253.56	41.569
253.94	42.739
254.31	37.891
254.68	38.846
255.05	38.376
255.42	39.024
255.79	40.809
256.16	37.906
256.54	34.276
256.91	36.299
257.28	32.734
257.65	33.333
258.02	36.025
258.39	35.016
258.76	35.117
259.14	38.988
259.51	33.739
259.88	33.540
260.25	33.837
260.62	34.682
260.99	34.472
261.36	33.934
261.73	28.653
262.10	30.233
262.47	34.930
262.85	31.476
263.22	29.630
263.59	36.752
263.96	28.297
264.33	33.681
264.70	29.737
265.07	34.271
265.44	32.323
265.81	28.467
266.18	32.161
266.55	28.780
266.92	31.695
267.29	28.472
267.66	29.817
268.03	28.864
268.40	30.140
268.77	26.969
269.14	29.279
269.51	30.023
269.88	26.573
270.25	28.668
270.62	26.517
270.99	30.108
271.36	27.468
271.73	25.467
272.10	27.174
272.47	28.817
272.84	26.407
273.21	29.769
273.58	25.546
273.95	26.205
274.32	26.653
274.69	26.552
275.06	25.394
275.43	28.511
275.80	28.457
276.17	28.921
276.54	26.403
276.91	26.482
277.28	26.758
277.65	27.079
278.02	27.122
278.39	28.320
278.76	26.182
279.13	26.604
279.50	26.443
279.87	26.096
280.23	26.148
280.60	25.338
280.97	25.693
281.34	25.487
281.71	26.727
282.08	28.407
282.45	23.273
282.82	24.512
283.19	22.460
283.56	24.561
283.92	27.073
284.29	24.868
284.66	26.134
285.03	24.955
285.40	26.585
285.77	26.599
286.14	25.734
286.51	25.500
286.87	24.786
287.24	28.339
287.61	24.077
287.98	25.812
288.35	21.870
288.72	22.741
289.08	23.005
289.45	23.229
289.82	22.114
290.19	20.879
290.56	22.052
290.93	19.940
291.29	21.779
291.66	23.009
292.03	23.110
292.40	22.173
292.77	21.450
293.13	20.896
293.50	21.429
293.87	21.333
294.24	22.370
294.60	20.233
294.97	21.221
295.34	20.310
295.71	20.881
296.08	19.658
296.44	20.495
296.81	20.079
297.18	21.680
297.55	18.074
297.91	18.734
298.28	20.616
298.65	19.452
299.02	20.817
299.38	18.858
299.75	16.038
300.12	18.774
300.48	19.625
300.85	18.496
301.22	17.707
301.59	16.667
301.95	18.010
302.32	18.357
302.69	18.996
303.05	16.485
303.42	18.642
303.79	17.214
304.15	16.783
304.52	17.265
304.89	16.841
305.25	17.749
305.62	18.233
305.99	17.119
306.35	16.667
306.72	16.816
307.09	17.425
307.45	19.257
307.82	15.625
308.19	17.108
308.55	17.799
308.92	15.789
309.29	16.473
309.65	17.497
310.02	17.548
310.38	16.237
310.75	16.367
311.12	15.967
311.48	16.092
311.85	16.667
312.22	17.378
312.58	17.152
312.95	17.107
313.31	17.282
313.68	17.879
314.05	17.850
314.41	16.884
314.78	18.731
315.14	16.087
315.51	17.405
315.87	18.218
316.24	16.783
316.61	17.251
316.97	18.004
317.34	16.732
317.70	17.591
318.07	18.094
318.43	16.243
318.80	18.463
319.16	17.797
319.53	17.167
319.89	18.476
320.26	19.600
320.62	17.460
320.99	18.788
321.35	19.091
321.72	18.480
322.08	19.743
322.45	19.502
322.81	18.702
323.18	20.328
323.54	19.852
323.91	20.283
324.27	20.268
324.64	17.241
325.00	18.034
325.37	20.200
325.73	19.928
326.10	19.594
326.46	19.444
326.83	19.931
327.19	20.581
327.56	20.122
327.92	20.647
328.29	19.787
328.65	21.363
329.01	21.029
329.38	20.999
329.74	20.129
330.11	20.829
330.47	20.753
330.84	22.518
331.20	20.674
331.56	20.734
331.93	21.759
332.29	21.384
332.66	21.681
333.02	21.115
333.38	22.222
333.75	21.747
334.11	21.352
334.48	19.876
334.84	21.507
335.20	22.636
335.57	20.943
335.93	20.536
336.29	20.604
336.66	22.904
337.02	20.452
337.38	22.593
337.75	20.232
338.11	21.128
338.47	19.982
338.84	21.998
339.20	21.468
339.56	21.442
339.93	21.727
340.29	20.743
340.65	22.103
341.02	22.077
341.38	20.996
341.74	20.263
342.11	21.310
342.47	20.881
342.83	20.976
343.20	21.126
343.56	21.230
343.92	21.316
344.28	21.003
344.65	20.894
345.01	20.623
345.37	21.012
345.73	21.320
346.10	21.398
346.46	21.610
346.82	20.758
347.19	19.131
347.55	20.361
347.91	21.197
348.27	21.693
348.63	21.237
349.00	21.440
349.36	22.085
349.72	20.449
350.08	19.530
350.45	22.050
350.81	21.608
351.17	21.232
351.53	21.376
351.89	20.875
352.26	21.310
352.62	22.133
352.98	21.151
353.34	22.432
353.70	21.440
354.07	20.968
354.43	21.032
354.79	20.032
355.15	21.069
355.51	21.663
355.87	21.633
356.24	22.068
356.60	21.492
356.96	20.756
357.32	21.423
357.68	21.811
358.04	21.298
358.40	21.853
358.77	21.362
359.13	21.547
359.49	21.255
359.85	20.556
360.21	20.973
360.57	22.802
360.93	21.692
361.29	20.862
361.66	20.124
362.02	21.418
362.38	22.281
362.74	21.429
363.10	20.429
363.46	21.423
363.82	22.147
364.18	21.292
364.54	21.471
364.90	20.751
365.26	20.735
365.62	21.987
365.98	21.402
366.35	20.702
366.71	21.114
367.07	21.267
367.43	21.916
367.79	23.126
368.15	22.270
368.51	22.093
368.87	22.413
369.23	22.677
369.59	21.941
369.95	22.353
370.31	21.011
370.67	21.739
371.03	22.172
371.39	22.741
371.75	21.765
372.11	22.191
372.47	22.874
372.83	23.055
373.19	21.893
373.55	22.099
373.91	23.564
374.27	21.856
374.63	21.527
374.99	23.234
375.35	21.214
375.71	22.138
376.07	22.428
376.42	21.596
376.78	22.598
377.14	22.659
377.50	23.709
377.86	22.340
378.22	23.325
378.58	22.368
378.94	22.313
379.30	23.219
379.66	22.335
380.02	23.034
380.38	22.101
380.74	23.770
381.09	23.716
381.45	23.479
381.81	23.956
382.17	23.885
382.53	23.899
382.89	23.333
383.25	23.827
383.61	24.164
383.97	23.952
384.32	23.955
384.68	23.544
385.04	23.663
385.40	23.963
385.76	24.017
386.12	24.223
386.48	24.544
386.83	24.759
387.19	24.181
387.55	24.119
387.91	24.184
388.27	23.605
388.62	25.507
388.98	24.570
389.34	25.594
389.70	25.077
390.06	25.919
390.42	25.616
390.77	26.209
391.13	25.590
391.49	25.888
391.85	25.525
392.20	25.489
392.56	25.568
392.92	25.368
393.28	25.089
393.64	26.199
393.99	27.001
394.35	26.179
394.71	25.345
395.07	25.234
395.42	25.464
395.78	25.700
396.14	25.760
396.50	26.190
396.85	26.128
397.21	25.709
397.57	26.472
397.92	26.382
398.28	25.785
398.64	26.344
399.00	26.245
399.35	26.114
399.71	26.678
400.07	27.144
400.42	26.380
400.78	27.624
401.14	28.415
401.49	28.179
401.85	27.284
402.21	26.826
402.57	26.589
402.92	27.364
403.28	27.983
403.63	27.228
403.99	27.962
404.35	27.576
404.70	27.578
405.06	27.490
405.42	27.823
405.77	27.600
406.13	27.822
406.49	27.617
406.84	27.880
407.20	28.191
407.55	27.760
407.91	29.133
408.27	28.845
408.62	28.537
408.98	28.248
409.34	28.844
409.69	29.935
410.05	29.616
410.40	29.113
410.76	29.032
411.11	29.614
411.47	29.201
411.83	31.155
412.18	29.437
412.54	30.822
412.89	30.843
413.25	29.457
413.60	30.142
413.96	29.812
414.31	29.526
414.67	30.418
415.03	29.669
415.38	30.477
415.74	31.254
416.09	31.940
416.45	30.924
416.80	30.403
417.16	31.836
417.51	31.851
417.87	30.443
418.22	32.681
418.58	31.311
418.93	32.064
419.29	31.190
419.64	32.179
420.00	32.012
420.35	31.884
420.71	31.620
421.06	32.399
421.42	32.281
421.77	32.343
422.12	31.443
422.48	31.678
422.83	32.149
423.19	32.099
423.54	31.863
423.90	33.449
424.25	33.110
424.61	31.786
424.96	31.953
425.31	33.167
425.67	31.742
426.02	33.143
426.38	34.249
426.73	33.294
427.09	33.860
427.44	32.720
427.79	33.410
428.15	34.464
428.50	34.114
428.85	33.671
429.21	33.849
429.56	33.437
429.92	34.575
430.27	33.069
430.62	32.668
430.98	34.094
431.33	32.887
431.68	34.660
432.04	33.653
432.39	34.780
432.74	33.872
433.10	34.522
433.45	34.344
433.80	34.756
434.16	33.921
434.51	34.474
434.86	34.892
435.22	35.019
435.57	35.198
435.92	35.225
436.28	35.291
436.63	36.258
436.98	35.318
437.34	36.315
437.69	36.289
438.04	34.401
438.39	34.209
438.75	35.154
439.10	36.089
439.45	36.068
439.81	35.408
440.16	35.178
440.51	35.442
440.86	36.827
441.22	35.595
441.57	35.881
441.92	36.643
442.27	36.060
442.63	36.072
442.98	35.887
443.33	35.815
443.68	35.364
444.03	36.115
444.39	35.054
444.74	35.606
445.09	35.687
445.44	36.249
445.79	34.785
446.15	35.363
446.50	35.218
446.85	35.868
447.20	35.390
447.55	36.069
447.91	35.907
448.26	35.893
448.61	36.574
448.96	36.600
449.31	37.852
449.66	35.959
450.02	35.153
450.37	35.204
450.72	35.871
451.07	36.076
451.42	35.076
451.77	37.757
452.12	36.316
452.47	37.313
452.83	36.247
453.18	36.797
453.53	36.611
453.88	36.031
454.23	36.581
454.58	36.584
454.93	37.699
455.28	36.160
455.63	37.075
455.98	37.083
456.34	37.751
456.69	37.696
457.04	37.276
457.39	36.411
457.74	37.203
458.09	36.113
458.44	37.115
458.79	36.009
459.14	36.005
459.49	36.953
459.84	36.011
460.19	36.417
460.54	34.144
460.89	36.423
461.24	36.855
461.59	37.130
461.94	35.882
462.29	37.270
462.64	36.950
462.99	35.524
463.34	36.667
463.69	37.649
464.04	37.275
464.39	36.232
464.74	35.413
465.09	36.007
465.44	35.346
465.79	35.850
466.14	35.359
466.49	36.541
466.84	36.486
467.19	37.115
467.54	36.875
467.89	36.014
468.24	36.242
468.59	37.057
468.94	35.614
469.29	37.147
469.64	37.216
469.99	36.333
470.34	37.252
470.68	35.920
471.03	36.122
471.38	37.457
471.73	36.442
472.08	37.368
472.43	36.181
472.78	36.011
473.13	36.585
473.48	35.581
473.83	36.159
474.17	36.839
474.52	36.787
474.87	36.486
475.22	36.506
475.57	35.089
475.92	35.635
476.27	35.287
476.61	36.018
476.96	34.744
477.31	34.799
477.66	35.667
478.01	35.337
478.36	35.325
478.70	36.033
479.05	35.889
479.40	36.080
479.75	35.384
480.10	36.083
480.45	34.841
480.79	33.970
481.14	35.372
481.49	35.596
481.84	34.294
482.19	35.211
482.53	34.450
482.88	35.551
483.23	34.673
483.58	34.895
483.92	34.958
484.27	34.423
484.62	34.483
484.97	33.504
485.31	33.801
485.66	32.571
486.01	31.153
486.36	30.422
486.70	30.143
487.05	30.537
487.40	31.742
487.75	31.709
488.09	32.909
488.44	32.655
488.79	34.105
489.13	33.804
489.48	33.646
489.83	33.880
490.17	34.546
490.52	34.145
490.87	34.283
491.22	34.698
491.56	33.485
491.91	34.109
492.26	33.670
492.60	33.779
492.95	33.302
493.30	33.178
493.64	33.131
493.99	32.730
494.34	34.043
494.68	34.295
495.03	33.976
495.37	33.737
495.72	34.259
496.07	34.060
496.41	32.035
496.76	33.201
497.11	32.868
497.45	33.069
497.80	33.397
498.14	33.188
498.49	33.707
498.84	34.228
499.18	34.333
499.53	33.333
499.87	33.038
500.22	32.972
500.56	33.786
500.91	33.317
501.26	32.432
501.60	34.029
501.95	32.997
502.29	33.177
502.64	32.775
502.98	33.006
503.33	32.176
503.67	32.715
504.02	33.349
504.36	32.569
504.71	33.610
505.06	32.386
505.40	33.641
505.75	32.305
506.09	32.313
506.44	33.103
506.78	33.268
507.13	32.761
507.47	33.737
507.82	33.131
508.16	32.979
508.51	34.044
508.85	32.820
509.19	33.163
509.54	32.347
509.88	33.024
510.23	33.368
510.57	33.437
510.92	32.988
511.26	33.196
511.61	33.610
511.95	31.889
512.30	32.662
512.64	32.993
512.98	33.226
513.33	32.762
513.67	31.750
514.02	31.818
514.36	33.042
514.70	33.204
515.05	33.240
515.39	32.642
515.74	32.601
516.08	33.371
516.42	33.352
516.77	33.055
517.11	33.296
517.46	33.014
517.80	33.449
518.14	32.195
518.49	32.847
518.83	32.955
519.17	32.621
519.52	32.881
519.86	32.972
520.20	33.642
520.55	32.974
520.89	32.968
521.23	33.112
521.58	32.893
521.92	33.007
522.26	31.910
522.61	32.960
522.95	32.658
523.29	33.049
523.64	32.195
523.98	33.826
524.32	32.871
524.66	32.411
525.01	32.598
525.35	32.342
525.69	31.527
526.04	32.586
526.38	32.398
526.72	32.454
527.06	32.517
527.41	31.869
527.75	32.540
528.09	32.820
528.43	33.142
528.78	32.514
529.12	32.303
529.46	33.190
529.80	32.116
530.15	32.586
530.49	31.262
530.83	31.582
531.17	32.637
531.51	33.852
531.86	32.581
532.20	32.790
532.54	31.839
532.88	32.349
533.22	31.980
533.57	31.667
533.91	31.005
534.25	31.896
534.59	31.849
534.93	31.291
535.27	30.416
535.62	32.357
535.96	31.325
536.30	31.914
536.64	31.809
536.98	31.719
537.32	31.336
537.66	31.533
538.01	31.073
538.35	31.480
538.69	32.291
539.03	31.839
539.37	30.863
539.71	31.497
540.05	31.830
540.39	31.495
540.73	30.789
541.07	32.057
541.42	30.985
541.76	32.065
542.10	30.530
542.44	31.391
542.78	32.345
543.12	31.094
543.46	30.230
543.80	31.555
544.14	29.910
544.48	30.921
544.82	30.276
545.16	30.254
545.50	30.270
545.84	29.906
546.18	31.919
546.52	31.039
546.86	31.203
547.20	31.086
547.54	31.530
547.88	31.059
548.22	29.888
548.56	29.560
548.90	29.001
549.24	30.438
549.58	30.286
549.92	31.319
550.26	30.682
550.60	30.360
550.94	31.338
551.28	29.481
551.62	31.488
551.96	30.596
552.30	30.922
552.64	29.953
552.98	30.034
553.32	29.400
553.66	29.993
554.00	29.787
554.34	29.538
554.68	29.399
555.02	30.536
555.36	30.619
555.69	29.093
556.03	30.215
556.37	29.741
556.71	28.172
557.05	30.112
557.39	30.301
557.73	30.628
558.07	30.964
558.41	29.667
558.75	30.713
559.08	31.022
559.42	30.537
559.76	29.338
560.10	29.550
560.44	29.769
560.78	28.942
561.12	29.222
561.45	28.748
561.79	28.345
562.13	28.236
562.47	29.235
562.81	28.452
563.15	28.361
563.48	28.846
563.82	27.919
564.16	28.646
564.50	28.841
564.84	27.560
565.17	28.185
565.51	28.882
565.85	28.997
566.19	27.239
566.52	28.372
566.86	27.306
567.20	28.243
567.54	27.626
567.88	25.584
568.21	26.931
568.55	26.340
568.89	26.800
569.23	25.802
569.56	24.332
569.90	25.283
570.24	24.686
570.57	24.175
570.91	23.723
571.25	23.687
571.59	23.947
571.92	23.358
572.26	23.859
572.60	24.114
572.93	23.808
573.27	23.484
573.61	23.227
573.95	23.721
574.28	22.588
574.62	22.595
574.96	22.581
575.29	22.430
575.63	22.866
575.97	22.833
576.30	22.969
576.64	22.467
576.98	22.946
577.31	22.204
577.65	22.584
577.98	22.236
578.32	21.902
578.66	22.096
578.99	22.415
579.33	22.295
579.67	21.771
580.00	22.297
580.34	22.663
580.67	22.146
581.01	22.667
581.35	22.254
581.68	21.648
582.02	21.182
582.35	21.320
582.69	21.850
583.02	22.097
583.36	21.628
583.70	22.078
584.03	22.571
584.37	23.057
584.70	22.544
585.04	22.652
585.37	22.018
585.71	22.486
586.04	22.228
586.38	22.231
586.72	22.314
587.05	22.711
587.39	21.979
587.72	22.133
588.06	21.878
588.39	21.948
588.73	22.323
589.06	22.873
589.40	22.660
589.73	22.985
590.07	23.381
590.40	22.543
590.73	23.536
591.07	23.606
591.40	23.619
591.74	23.290
592.07	23.647
592.41	23.439
592.74	22.996
593.08	22.219
593.41	21.892
593.75	21.549
594.08	21.891
594.41	22.694
594.75	22.107
595.08	21.904
595.42	22.312
595.75	22.400
596.09	23.282
596.42	23.104
596.75	22.035
597.09	23.290
597.42	22.555
597.75	23.070
598.09	23.130
598.42	23.153
598.76	22.213
599.09	22.045
599.42	21.725
599.76	21.779
600.09	21.676
600.42	21.585
600.76	21.643
601.09	22.077
601.42	21.918
601.76	22.125
602.09	22.253
602.42	22.014
602.76	22.692
603.09	22.227
603.42	22.257
603.76	21.570
604.09	22.257
604.42	22.177
604.76	22.143
605.09	21.931
605.42	21.804
605.75	22.103
606.09	21.919
606.42	22.150
606.75	22.024
607.09	22.352
607.42	22.037
607.75	21.266
608.08	21.363
608.42	22.546
608.75	22.272
609.08	21.462
609.41	21.514
609.75	22.392
610.08	22.903
610.41	22.207
610.74	21.618
611.07	22.036
611.41	22.522
611.74	22.725
612.07	22.257
612.40	23.085
612.73	22.211
613.07	22.791
613.40	22.643
613.73	21.709
614.06	22.849
614.39	22.496
614.72	22.368
615.06	22.111
615.39	21.868
615.72	21.984
616.05	22.116
616.38	22.790
616.71	23.278
617.05	22.733
617.38	22.249
617.71	22.883
618.04	22.716
618.37	22.590
618.70	23.647
619.03	24.079
619.36	22.811
619.69	24.366
620.03	24.931
620.36	24.799
620.69	23.288
621.02	24.410
621.35	23.884
621.68	24.221
622.01	24.303
622.34	24.508
622.67	24.106
623.00	23.478
623.33	22.659
623.66	23.231
623.99	23.049
624.32	23.823
624.65	23.234
624.99	22.450
625.32	22.375
625.65	22.615
625.98	24.981
626.31	25.428
626.64	24.653
626.97	24.023
627.30	24.356
627.63	23.544
627.96	24.558
628.29	23.972
628.62	26.349
628.95	25.849
629.28	25.730
629.61	26.214
629.94	25.143
630.26	24.214
630.59	25.262
630.92	24.904
