SpectraSuite Data File
++++++++++++++++++++++++++++++++++++
Date: Wed May 13 19:46:58 PDT 2015
User: schluterlab
Dark Spectrum Present: Yes
Reference Spectrum Present: Yes
Number of Sampled Component Spectra: 1
Spectrometers: USB2E3373
Integration Time (usec): 3000 (USB2E3373)
Spectra Averaged: 3 (USB2E3373)
Boxcar Smoothing: 0 (USB2E3373)
Correct for Electrical Dark: No (USB2E3373)
Strobe/Lamp Enabled: No (USB2E3373)
Correct for Detector Non-linearity: No (USB2E3373)
Correct for Stray Light: No (USB2E3373)
Number of Pixels in Processed Spectrum: 2048
>>>>>Begin Processed Spectral Data<<<<<
178.53	0.000
178.91	-1425.000
179.29	-1250.000
179.67	-233.333
180.04	-1350.000
180.42	2700.000
180.80	860.000
181.18	-1125.000
181.56	785.714
181.94	0.000
182.31	-814.286
182.69	2000.000
183.07	-550.000
183.45	-388.889
183.83	436.364
184.20	-480.000
184.58	2200.000
184.96	5000.000
185.34	-880.000
185.72	-562.500
186.09	-2500.000
186.47	2500.000
186.85	2550.000
187.23	5200.000
187.61	-1433.333
187.98	1425.000
188.36	609.091
188.74	581.818
189.12	-700.000
189.49	600.000
189.87	-5100.000
190.25	-1050.000
190.63	371.429
191.00	469.231
191.38	850.000
191.76	-1175.000
192.14	1350.000
192.51	712.500
192.89	1000.000
193.27	537.500
193.65	-1075.000
194.02	350.000
194.40	860.000
194.78	640.000
195.15	558.333
195.53	610.000
195.91	-2150.000
196.29	387.500
196.66	347.368
197.04	-420.000
197.42	0.000
197.79	750.000
198.17	-6000.000
198.55	642.857
198.92	625.000
199.30	880.000
199.68	0.000
200.05	350.000
200.43	814.286
200.81	4700.000
201.18	1633.333
201.56	-1633.333
201.94	544.444
202.31	688.889
202.69	383.333
203.07	590.000
203.44	0.000
203.82	1200.000
204.19	828.571
204.57	442.857
204.95	637.500
205.32	1533.333
205.70	472.727
206.08	350.000
206.45	2650.000
206.83	400.000
207.20	900.000
207.58	960.000
207.96	272.222
208.33	762.500
208.71	-916.667
209.08	685.714
209.46	511.111
209.84	481.818
210.21	-1500.000
210.59	1400.000
210.96	-550.000
211.34	2700.000
211.71	560.000
212.09	733.333
212.46	0.000
212.84	1533.333
213.22	1450.000
213.59	-4800.000
213.97	850.000
214.34	757.143
214.72	609.091
215.09	1080.000
215.47	-2500.000
215.84	-2600.000
216.22	1466.667
216.59	400.000
216.97	1125.000
217.34	372.727
217.72	-600.000
218.09	0.000
218.47	-4400.000
218.84	711.111
219.22	757.143
219.59	1400.000
219.97	-714.286
220.34	880.000
220.72	-1833.333
221.09	350.000
221.47	1450.000
221.84	-1050.000
222.22	0.000
222.59	1450.000
222.97	-2600.000
223.34	1160.000
223.72	453.846
224.09	980.000
224.46	2400.000
224.84	-5500.000
225.21	-1080.000
225.59	-4500.000
225.96	580.000
226.34	330.000
226.71	2300.000
227.08	612.500
227.46	610.000
227.83	-1075.000
228.21	-2350.000
228.58	611.111
228.95	-2350.000
229.33	-2100.000
229.70	1833.333
230.08	757.143
230.45	-960.000
230.82	550.000
231.20	900.000
231.57	657.143
231.95	558.333
232.32	254.545
232.69	481.818
233.07	571.429
233.44	438.462
233.81	-1800.000
234.19	310.526
234.56	416.667
234.93	416.667
235.31	518.182
235.68	292.308
236.05	321.429
236.43	178.788
236.80	278.947
237.17	3700.000
237.55	233.333
237.92	242.857
238.29	219.048
238.67	138.710
239.04	196.552
239.41	141.667
239.79	119.565
240.16	119.048
240.53	111.364
240.91	82.353
241.28	94.000
241.65	90.000
242.02	98.551
242.40	64.516
242.77	73.333
243.14	75.269
243.51	70.787
243.89	63.529
244.26	63.333
244.63	58.065
245.00	50.000
245.38	56.436
245.75	44.860
246.12	45.872
246.49	48.175
246.87	51.200
247.24	49.231
247.61	39.286
247.98	41.830
248.36	34.459
248.73	33.121
249.10	35.032
249.47	32.203
249.84	33.690
250.22	34.225
250.59	26.036
250.96	35.859
251.33	34.123
251.70	36.139
252.08	30.000
252.45	27.803
252.82	28.261
253.19	25.106
253.56	27.843
253.94	28.216
254.31	26.172
254.68	28.846
255.05	26.568
255.42	21.138
255.79	20.956
256.16	28.520
256.54	20.495
256.91	22.064
257.28	20.863
257.65	21.782
258.02	25.155
258.39	17.035
258.76	19.398
259.14	18.155
259.51	20.365
259.88	19.255
260.25	20.544
260.62	17.630
260.99	16.770
261.36	21.922
261.73	17.765
262.10	17.442
262.47	17.746
262.85	17.549
263.22	17.379
263.59	19.658
263.96	17.582
264.33	15.927
264.70	19.737
265.07	16.880
265.44	18.182
265.81	16.545
266.18	16.834
266.55	19.024
266.92	14.988
267.29	15.046
267.66	13.532
268.03	17.727
268.40	14.486
268.77	13.842
269.14	16.216
269.51	16.704
269.88	15.385
270.25	15.576
270.62	15.955
270.99	18.710
271.36	17.597
271.73	17.056
272.10	13.261
272.47	15.269
272.84	16.450
273.21	15.094
273.58	14.192
273.95	15.514
274.32	15.702
274.69	13.276
275.06	12.205
275.43	15.957
275.80	14.629
276.17	14.053
276.54	13.306
276.91	13.636
277.28	12.500
277.65	13.733
278.02	14.493
278.39	12.500
278.76	13.818
279.13	16.226
279.50	14.339
279.87	13.147
280.23	13.573
280.60	12.186
280.97	11.460
281.34	15.044
281.71	13.455
282.08	15.547
282.45	12.364
282.82	11.368
283.19	10.339
283.56	12.281
283.92	13.536
284.29	13.933
284.66	14.156
285.03	11.212
285.40	12.500
285.77	12.458
286.14	11.572
286.51	12.167
286.87	13.675
287.24	14.332
287.61	13.804
287.98	12.338
288.35	10.460
288.72	11.682
289.08	12.363
289.45	13.344
289.82	9.919
290.19	11.931
290.56	12.098
290.93	12.236
291.29	11.196
291.66	12.389
292.03	12.645
292.40	13.363
292.77	10.947
293.13	12.537
293.50	11.370
293.87	10.074
294.24	10.815
294.60	10.044
294.97	10.029
295.34	12.130
295.71	10.653
296.08	9.544
296.44	9.629
296.81	9.115
297.18	12.602
297.55	8.179
297.91	10.158
298.28	10.710
298.65	10.705
299.02	10.540
299.38	9.827
299.75	6.604
300.12	8.812
300.48	9.000
300.85	8.385
301.22	9.682
301.59	9.217
301.95	8.942
302.32	8.472
302.69	9.080
303.05	8.848
303.42	8.889
303.79	9.740
304.15	6.760
304.52	7.879
304.89	8.711
305.25	8.933
305.62	9.626
305.99	9.563
306.35	9.508
306.72	9.417
307.09	10.877
307.45	8.559
307.82	8.259
308.19	9.051
308.55	9.924
308.92	7.734
309.29	8.131
309.65	7.529
310.02	10.148
310.38	9.570
310.75	8.237
311.12	9.724
311.48	9.195
311.85	9.539
312.22	9.157
312.58	9.044
312.95	9.926
313.31	8.932
313.68	8.524
314.05	11.243
314.41	9.648
314.78	10.070
315.14	10.924
315.51	10.402
315.87	11.782
316.24	9.831
316.61	10.331
316.97	11.155
317.34	10.568
317.70	10.707
318.07	11.550
318.43	12.524
318.80	12.559
319.16	12.806
319.53	12.383
319.89	12.762
320.26	13.700
320.62	14.683
320.99	12.828
321.35	15.051
321.72	14.476
322.08	14.709
322.45	17.512
322.81	17.829
323.18	17.245
323.54	16.512
323.91	18.019
324.27	17.400
324.64	18.080
325.00	18.124
325.37	18.198
325.73	20.018
326.10	18.711
326.46	18.907
326.83	20.276
327.19	22.032
327.56	20.732
327.92	20.210
328.29	22.893
328.65	22.744
329.01	22.563
329.38	23.219
329.74	22.161
330.11	23.280
330.47	24.059
330.84	24.724
331.20	24.226
331.56	24.128
331.93	23.889
332.29	24.135
332.66	24.779
333.02	24.863
333.38	25.655
333.75	26.025
334.11	25.089
334.48	25.643
334.84	24.632
335.20	26.364
335.57	25.295
335.93	25.000
336.29	26.465
336.66	25.969
337.02	25.792
337.38	26.852
337.75	26.381
338.11	26.052
338.47	26.519
338.84	27.223
339.20	25.505
339.56	28.376
339.93	26.273
340.29	27.717
340.65	26.471
341.02	27.138
341.38	27.847
341.74	26.404
342.11	27.948
342.47	27.225
342.83	27.226
343.20	28.485
343.56	28.138
343.92	27.807
344.28	28.231
344.65	28.461
345.01	28.199
345.37	28.130
345.73	28.088
346.10	28.133
346.46	28.814
346.82	28.089
347.19	27.402
347.55	28.571
347.91	29.207
348.27	29.499
348.63	29.849
349.00	28.722
349.36	28.407
349.72	28.789
350.08	28.930
350.45	28.967
350.81	29.488
351.17	29.741
351.53	29.156
351.89	28.300
352.26	29.519
352.62	29.591
352.98	30.146
353.34	28.677
353.70	29.378
354.07	30.161
354.43	29.524
354.79	29.204
355.15	30.327
355.51	30.056
355.87	29.878
356.24	30.863
356.60	29.190
356.96	30.571
357.32	31.807
357.68	30.709
358.04	29.929
358.40	30.562
358.77	29.969
359.13	30.545
359.49	30.667
359.85	30.079
360.21	30.303
360.57	30.661
360.93	31.231
361.29	30.612
361.66	30.728
362.02	31.269
362.38	31.255
362.74	31.548
363.10	31.976
363.46	31.475
363.82	31.066
364.18	31.718
364.54	33.210
364.90	32.082
365.26	31.618
365.62	32.505
365.98	31.118
366.35	30.444
366.71	32.249
367.07	32.047
367.43	33.309
367.79	32.762
368.15	33.621
368.51	31.904
368.87	32.477
369.23	32.187
369.59	33.671
369.95	32.941
370.31	32.407
370.67	32.101
371.03	33.633
371.39	33.163
371.75	34.412
372.11	31.366
372.47	34.384
372.83	34.078
373.19	33.526
373.55	33.186
373.91	35.272
374.27	33.333
374.63	33.673
374.99	34.463
375.35	33.217
375.71	33.448
376.07	34.636
376.42	34.250
376.78	34.460
377.14	34.871
377.50	34.967
377.86	33.245
378.22	34.260
378.58	33.459
378.94	34.255
379.30	34.987
379.66	34.898
380.02	35.749
380.38	34.912
380.74	34.334
381.09	35.391
381.45	35.341
381.81	34.705
382.17	36.369
382.53	35.094
382.89	35.617
383.25	35.585
383.61	36.245
383.97	36.836
384.32	36.057
384.68	35.750
385.04	35.648
385.40	36.718
385.76	36.425
386.12	36.399
386.48	37.193
386.83	38.230
387.19	37.848
387.55	36.735
387.91	37.545
388.27	36.910
388.62	36.386
388.98	37.101
389.34	38.611
389.70	37.032
390.06	37.959
390.42	37.030
390.77	37.659
391.13	37.460
391.49	37.690
391.85	37.110
392.20	38.233
392.56	37.816
392.92	37.257
393.28	36.213
393.64	37.590
393.99	37.263
394.35	37.655
394.71	37.265
395.07	36.698
395.42	37.701
395.78	38.677
396.14	37.554
396.50	38.659
396.85	39.161
397.21	38.163
397.57	37.756
397.92	38.702
398.28	37.780
398.64	37.575
399.00	37.941
399.35	38.353
399.71	37.789
400.07	37.966
400.42	38.160
400.78	37.877
401.14	37.683
401.49	37.970
401.85	37.084
402.21	37.126
402.57	38.371
402.92	37.894
403.28	38.476
403.63	37.686
403.99	39.363
404.35	38.424
404.70	36.930
405.06	38.031
405.42	38.241
405.77	38.057
406.13	38.318
406.49	37.966
406.84	36.917
407.20	38.712
407.55	37.907
407.91	38.867
408.27	39.247
408.62	38.170
408.98	37.500
409.34	38.930
409.69	38.452
410.05	38.228
410.40	37.737
410.76	38.112
411.11	38.420
411.47	37.316
411.83	38.180
412.18	38.157
412.54	38.356
412.89	37.771
413.25	37.721
413.60	37.986
413.96	37.037
414.31	38.821
414.67	38.086
415.03	38.411
415.38	38.853
415.74	38.199
416.09	39.451
416.45	38.956
416.80	37.409
417.16	39.946
417.51	39.549
417.87	38.600
418.22	37.350
418.58	37.766
418.93	39.435
419.29	38.383
419.64	37.783
420.00	37.439
420.35	37.449
420.71	37.956
421.06	37.709
421.42	38.304
421.77	37.220
422.12	36.216
422.48	36.266
422.83	37.507
423.19	36.740
423.54	37.899
423.90	37.855
424.25	37.521
424.61	36.905
424.96	38.017
425.31	37.874
425.67	36.742
426.02	37.429
426.38	38.400
426.73	36.864
427.09	37.204
427.44	37.665
427.79	37.493
428.15	37.143
428.50	37.683
428.85	35.816
429.21	36.941
429.56	37.584
429.92	35.934
430.27	36.842
430.62	36.610
430.98	36.222
431.33	36.186
431.68	36.597
432.04	36.422
432.39	36.265
432.74	36.266
433.10	36.729
433.45	36.152
433.80	36.253
434.16	36.111
434.51	36.474
434.86	36.773
435.22	36.687
435.57	36.535
435.92	36.747
436.28	36.773
436.63	35.927
436.98	36.005
437.34	36.911
437.69	36.523
438.04	36.594
438.39	36.000
438.75	36.316
439.10	36.201
439.45	35.419
439.81	35.952
440.16	36.702
440.51	36.673
440.86	36.306
441.22	35.539
441.57	35.616
441.92	35.619
442.27	35.038
442.63	35.545
442.98	35.887
443.33	35.163
443.68	35.312
444.03	34.797
444.39	34.664
444.74	35.173
445.09	35.310
445.44	34.664
445.79	34.389
446.15	34.674
446.50	34.356
446.85	34.635
447.20	34.880
447.55	34.785
447.91	34.639
448.26	34.947
448.61	34.426
448.96	34.773
449.31	35.208
449.66	34.159
450.02	33.705
450.37	33.107
450.72	33.559
451.07	33.516
451.42	33.252
451.77	33.529
452.12	33.545
452.47	34.328
452.83	33.974
453.18	33.130
453.53	33.766
453.88	32.723
454.23	33.533
454.58	33.555
454.93	33.566
455.28	32.606
455.63	32.828
455.98	33.810
456.34	33.480
456.69	32.311
457.04	33.251
457.39	31.911
457.74	32.153
458.09	32.950
458.44	32.611
458.79	31.941
459.14	32.506
459.49	32.341
459.84	31.357
460.19	31.526
460.54	31.597
460.89	32.364
461.24	33.273
461.59	32.655
461.94	31.751
462.29	31.751
462.64	31.525
462.99	30.254
463.34	31.133
463.69	30.957
464.04	31.188
464.39	31.304
464.74	30.600
465.09	30.941
465.44	29.751
465.79	30.984
466.14	29.392
466.49	29.644
466.84	30.356
467.19	29.994
467.54	31.250
467.89	29.292
468.24	29.785
468.59	30.464
468.94	29.200
469.29	30.913
469.64	29.987
469.99	30.108
470.34	29.921
470.68	30.675
471.03	29.864
471.38	30.785
471.73	29.580
472.08	29.803
472.43	28.266
472.78	28.966
473.13	30.039
473.48	29.338
473.83	29.329
474.17	28.438
474.52	30.025
474.87	29.364
475.22	29.193
475.57	27.727
475.92	27.669
476.27	27.057
476.61	28.296
476.96	27.653
477.31	27.630
477.66	27.243
478.01	27.757
478.36	27.446
478.70	26.687
479.05	28.115
479.40	27.329
479.75	26.690
480.10	26.491
480.45	26.130
480.79	26.326
481.14	26.663
481.49	26.910
481.84	25.880
482.19	26.488
482.53	25.917
482.88	26.664
483.23	26.682
483.58	26.206
483.92	26.054
484.27	25.011
484.62	25.603
484.97	25.227
485.31	25.445
485.66	23.894
486.01	23.324
486.36	22.962
486.70	22.346
487.05	22.395
487.40	23.544
487.75	23.521
488.09	24.082
488.44	23.516
488.79	24.738
489.13	24.102
489.48	24.551
489.83	24.126
490.17	24.331
490.52	24.579
490.87	24.378
491.22	24.147
491.56	23.007
491.91	24.197
492.26	23.702
492.60	23.871
492.95	23.480
493.30	24.299
493.64	23.612
493.99	22.841
494.34	23.959
494.68	24.359
495.03	24.248
495.37	23.453
495.72	23.392
496.07	23.666
496.41	22.611
496.76	22.955
497.11	23.008
497.45	23.568
497.80	23.225
498.14	22.705
498.49	23.366
498.84	22.531
499.18	22.810
499.53	22.982
499.87	23.439
500.22	22.751
500.56	22.961
500.91	22.308
501.26	22.096
501.60	23.161
501.95	21.723
502.29	21.790
502.64	22.300
502.98	22.347
503.33	22.029
503.67	21.439
504.02	22.404
504.36	21.666
504.71	22.081
505.06	21.542
505.40	22.022
505.75	20.733
506.09	21.477
506.44	21.756
506.78	22.017
507.13	21.403
507.47	21.717
507.82	21.884
508.16	22.188
508.51	21.969
508.85	21.102
509.19	21.684
509.54	21.837
509.88	22.050
510.23	21.183
510.57	23.065
510.92	21.595
511.26	21.017
511.61	21.006
511.95	21.138
512.30	21.103
512.64	21.064
512.98	21.329
513.33	21.788
513.67	20.811
514.02	20.942
514.36	21.245
514.70	21.361
515.05	20.301
515.39	21.032
515.74	20.833
516.08	21.856
516.42	21.754
516.77	21.349
517.11	21.143
517.46	21.163
517.80	21.312
518.14	20.787
518.49	20.537
518.83	21.591
519.17	20.958
519.52	20.770
519.86	20.536
520.20	21.272
520.55	21.185
520.89	20.377
521.23	22.014
521.58	20.528
521.92	20.514
522.26	20.561
522.61	20.436
522.95	20.810
523.29	19.903
523.64	21.585
523.98	20.456
524.32	20.084
524.66	20.265
525.01	20.466
525.35	20.198
525.69	20.012
526.04	20.498
526.38	20.195
526.72	19.632
527.06	20.339
527.41	19.493
527.75	20.643
528.09	20.424
528.43	20.714
528.78	20.590
529.12	19.273
529.46	20.392
529.80	20.545
530.15	20.623
530.49	19.692
530.83	19.937
531.17	20.822
531.51	21.466
531.86	19.484
532.20	20.404
532.54	20.564
532.88	21.245
533.22	18.613
533.57	20.432
533.91	20.229
534.25	19.320
534.59	19.829
534.93	19.036
535.27	19.131
535.62	19.231
535.96	19.397
536.30	19.771
536.64	19.768
536.98	19.841
537.32	19.355
537.66	19.933
538.01	18.960
538.35	19.910
538.69	19.974
539.03	18.324
539.37	17.508
539.71	17.952
540.05	19.412
540.39	19.601
540.73	18.499
541.07	19.598
541.42	19.374
541.76	19.097
542.10	19.340
542.44	19.868
542.78	19.895
543.12	18.170
543.46	19.213
543.80	18.868
544.14	18.036
544.48	19.873
544.82	18.602
545.16	19.128
545.50	17.545
545.84	18.750
546.18	18.316
546.52	18.858
546.86	19.244
547.20	18.139
547.54	18.838
547.88	19.579
548.22	18.369
548.56	18.365
548.90	17.478
549.24	17.980
549.58	19.782
549.92	18.544
550.26	17.969
550.60	19.018
550.94	19.085
551.28	17.922
551.62	19.410
551.96	18.386
552.30	19.113
552.64	18.256
552.98	17.898
553.32	17.397
553.66	18.064
554.00	18.188
554.34	17.943
554.68	18.884
555.02	18.406
555.36	18.093
555.69	17.388
556.03	17.227
556.37	17.394
556.71	17.053
557.05	18.067
557.39	18.544
557.73	18.490
558.07	17.259
558.41	17.366
558.75	17.855
559.08	18.643
559.42	18.594
559.76	17.794
560.10	17.202
560.44	17.191
560.78	17.365
561.12	18.602
561.45	18.449
561.79	17.666
562.13	17.170
562.47	17.145
562.81	17.434
563.15	16.254
563.48	17.109
563.82	17.221
564.16	17.332
564.50	17.187
564.84	17.004
565.17	17.053
565.51	17.444
565.85	17.386
566.19	17.157
566.52	17.099
566.86	16.456
567.20	16.627
567.54	16.781
567.88	15.915
568.21	16.138
568.55	16.633
568.89	15.807
569.23	15.330
569.56	14.899
569.90	15.132
570.24	14.604
570.57	14.927
570.91	14.480
571.25	14.700
571.59	14.021
571.92	14.689
572.26	14.385
572.60	14.865
572.93	14.243
573.27	14.404
573.61	14.461
573.95	13.928
574.28	13.894
574.62	14.091
574.96	13.477
575.29	13.434
575.63	13.567
575.97	13.746
576.30	14.073
576.64	14.026
576.98	13.588
577.31	13.748
577.65	13.811
577.98	13.550
578.32	13.125
578.66	13.669
578.99	13.444
579.33	13.508
579.67	13.281
580.00	13.690
580.34	13.384
580.67	13.448
581.01	13.717
581.35	13.193
581.68	13.149
582.02	13.066
582.35	13.002
582.69	13.227
583.02	12.953
583.36	13.166
583.70	13.387
584.03	13.584
584.37	13.860
584.70	13.610
585.04	13.527
585.37	13.281
585.71	13.205
586.04	13.530
586.38	13.454
586.72	13.670
587.05	13.475
587.39	13.219
587.72	12.961
588.06	13.554
588.39	13.416
588.73	13.611
589.06	13.556
589.40	13.704
589.73	13.516
590.07	14.128
590.40	14.103
590.73	14.208
591.07	14.815
591.40	14.846
591.74	15.195
592.07	14.136
592.41	14.262
592.74	13.333
593.08	13.558
593.41	13.540
593.75	13.335
594.08	13.610
594.41	13.786
594.75	13.937
595.08	13.815
595.42	13.660
595.75	13.604
596.09	14.157
596.42	14.420
596.75	14.605
597.09	14.675
597.42	13.828
597.75	13.842
598.09	13.696
598.42	13.789
598.76	14.228
599.09	13.645
599.42	13.428
599.76	13.214
600.09	13.005
600.42	13.367
600.76	12.643
601.09	13.661
601.42	13.927
601.76	13.586
602.09	13.874
602.42	13.933
602.76	13.865
603.09	14.123
603.42	14.369
603.76	13.567
604.09	13.455
604.42	13.901
604.76	14.087
605.09	13.936
605.42	13.852
605.75	13.618
606.09	13.339
606.42	13.445
606.75	13.521
607.09	14.064
607.42	13.736
607.75	13.544
608.08	13.678
608.42	13.581
608.75	13.481
609.08	14.107
609.41	13.898
609.75	13.292
610.08	14.090
610.41	12.523
610.74	13.387
611.07	13.883
611.41	14.279
611.74	13.876
612.07	14.803
612.40	14.376
612.73	13.789
613.07	14.709
613.40	14.271
613.73	13.267
614.06	13.495
614.39	14.316
614.72	14.158
615.06	14.233
615.39	13.323
615.72	13.599
616.05	13.557
616.38	13.841
616.71	14.549
617.05	14.193
617.38	14.492
617.71	14.595
618.04	14.243
618.37	14.784
618.70	14.188
619.03	15.329
619.36	15.479
619.69	15.000
620.03	15.934
620.36	15.441
620.69	14.726
621.02	15.487
621.35	14.565
621.68	15.187
622.01	15.635
622.34	14.675
622.67	14.677
623.00	14.527
623.33	14.439
623.66	15.726
623.99	15.685
624.32	14.765
624.65	14.619
624.99	13.952
625.32	14.048
625.65	14.951
625.98	15.142
626.31	15.397
626.64	15.592
626.97	14.879
627.30	14.381
627.63	15.915
627.96	16.821
628.29	15.661
628.62	16.651
628.95	17.830
629.28	15.785
629.61	17.324
629.94	15.524
630.26	15.539
630.59	16.015
630.92	16.092
631.25	15.400
631.58	16.817
631.91	15.923
