SpectraSuite Data File
++++++++++++++++++++++++++++++++++++
Date: Tue May 12 19:42:27 PDT 2015
User: schluterlab
Dark Spectrum Present: Yes
Reference Spectrum Present: Yes
Number of Sampled Component Spectra: 1
Spectrometers: USB2E3373
Integration Time (usec): 3000 (USB2E3373)
Spectra Averaged: 3 (USB2E3373)
Boxcar Smoothing: 0 (USB2E3373)
Correct for Electrical Dark: No (USB2E3373)
Strobe/Lamp Enabled: No (USB2E3373)
Correct for Detector Non-linearity: No (USB2E3373)
Correct for Stray Light: No (USB2E3373)
Number of Pixels in Processed Spectrum: 2048
>>>>>Begin Processed Spectral Data<<<<<
178.53	0.000
178.91	-40.000
179.29	-50.000
179.67	466.667
180.04	0.000
180.42	-60.000
180.80	-200.000
181.18	650.000
181.56	-150.000
181.94	216.667
182.31	1400.000
182.69	-57.143
183.07	0.000
183.45	150.000
183.83	400.000
184.20	266.667
184.58	800.000
184.96	200.000
185.34	-266.667
185.72	-35.714
186.09	16.667
186.47	-400.000
186.85	20.000
187.23	116.667
187.61	28.571
187.98	-220.000
188.36	-0.000
188.74	-175.000
189.12	-44.444
189.49	-60.000
189.87	25.000
190.25	44.444
190.63	466.667
191.00	280.000
191.38	0.000
191.76	180.000
192.14	0.000
192.51	-30.000
192.89	20.000
193.27	-100.000
193.65	-700.000
194.02	-183.333
194.40	500.000
194.78	-37.500
195.15	-271.429
195.53	433.333
195.91	200.000
196.29	-350.000
196.66	0.000
197.04	-271.429
197.42	60.000
197.79	-200.000
198.17	25.000
198.55	1100.000
198.92	-88.889
199.30	650.000
199.68	-75.000
200.05	-750.000
200.43	-33.333
200.81	16.667
201.18	316.667
201.56	-600.000
201.94	-600.000
202.31	-8.333
202.69	-22.222
203.07	-66.667
203.44	-250.000
203.82	0.000
204.19	225.000
204.57	-300.000
204.95	90.909
205.32	220.000
205.70	200.000
206.08	600.000
206.45	0.000
206.83	900.000
207.20	-144.444
207.58	30.769
207.96	366.667
208.33	466.667
208.71	366.667
209.08	400.000
209.46	-22.222
209.84	533.333
210.21	-600.000
210.59	150.000
210.96	44.444
211.34	-375.000
211.71	950.000
212.09	20.000
212.46	-162.500
212.84	-100.000
213.22	128.571
213.59	-137.500
213.97	0.000
214.34	-50.000
214.72	-900.000
215.09	450.000
215.47	6.667
215.84	0.000
216.22	-100.000
216.59	1100.000
216.97	8.333
217.34	-50.000
217.72	38.889
218.09	175.000
218.47	0.000
218.84	-137.500
219.22	-7.143
219.59	-120.000
219.97	-20.000
220.34	250.000
220.72	36.364
221.09	-350.000
221.47	0.000
221.84	700.000
222.22	-25.000
222.59	-175.000
222.97	52.174
223.34	93.333
223.72	342.857
224.09	-166.667
224.46	123.077
224.84	-53.333
225.21	-200.000
225.59	-425.000
225.96	20.000
226.34	266.667
226.71	160.000
227.08	-46.154
227.46	-157.143
227.83	-58.333
228.21	-300.000
228.58	266.667
228.95	10.526
229.33	-18.750
229.70	-216.667
230.08	-77.778
230.45	-400.000
230.82	-1100.000
231.20	33.333
231.57	-260.000
231.95	-566.667
232.32	22.222
232.69	-750.000
233.07	-12.500
233.44	-87.500
233.81	-3.226
234.19	-140.000
234.56	-16.667
234.93	-66.667
235.31	11.111
235.68	3.704
236.05	-30.769
236.43	0.000
236.80	-22.727
237.17	-128.571
237.55	-55.000
237.92	-6.977
238.29	-19.355
238.67	39.286
239.04	-5.714
239.41	-11.765
239.79	22.000
240.16	-32.500
240.53	1.724
240.91	2.740
241.28	0.000
241.65	3.125
242.02	-15.789
242.40	-10.667
242.77	2.105
243.14	2.353
243.51	0.000
243.89	-5.714
244.26	-5.556
244.63	0.000
245.00	-3.571
245.38	-5.882
245.75	-1.695
246.12	7.812
246.49	-4.000
246.87	-5.738
247.24	-4.930
247.61	1.987
247.98	1.124
248.36	0.629
248.73	-2.841
249.10	0.000
249.47	2.083
249.84	1.015
250.22	-5.729
250.59	-7.865
250.96	0.909
251.33	4.245
251.70	3.211
252.08	1.732
252.45	2.449
252.82	-2.954
253.19	-0.778
253.56	5.882
253.94	2.033
254.31	5.755
254.68	2.083
255.05	5.960
255.42	0.000
255.79	2.980
256.16	2.083
256.54	6.061
256.91	6.090
257.28	4.221
257.65	-0.328
258.02	6.306
258.39	6.042
258.76	4.587
259.14	0.588
259.51	4.789
259.88	5.187
260.25	2.273
260.62	0.562
260.99	4.457
261.36	4.310
261.73	1.867
262.10	4.905
262.47	3.581
262.85	5.913
263.22	1.344
263.59	1.340
263.96	3.916
264.33	-0.539
264.70	0.491
265.07	4.680
265.44	4.215
265.81	4.578
266.18	3.044
266.55	2.857
266.92	4.911
267.29	5.111
267.66	0.455
268.03	5.591
268.40	4.805
268.77	2.004
269.14	4.412
269.51	1.584
269.88	4.274
270.25	4.219
270.62	4.832
270.99	1.053
271.36	2.428
271.73	5.208
272.10	2.905
272.47	3.800
272.84	2.760
273.21	1.253
273.58	2.449
273.95	4.582
274.32	4.642
274.69	4.697
275.06	5.253
275.43	1.800
275.80	5.354
276.17	2.569
276.54	6.654
276.91	4.607
277.28	5.416
277.65	2.457
278.02	3.977
278.39	5.082
278.76	5.773
279.13	4.830
279.50	3.430
279.87	6.792
280.23	5.282
280.60	4.594
280.97	5.800
281.34	3.390
281.71	3.375
282.08	3.399
282.45	4.233
282.82	3.535
283.19	3.030
283.56	4.266
283.92	2.528
284.29	5.076
284.66	0.708
285.03	0.343
285.40	4.333
285.77	3.941
286.14	4.120
286.51	2.894
286.87	5.186
287.24	2.885
287.61	4.475
287.98	5.790
288.35	3.876
288.72	4.893
289.08	2.044
289.45	4.056
289.82	1.863
290.19	3.182
290.56	5.499
290.93	2.216
291.29	4.113
291.66	2.949
292.03	5.165
292.40	3.022
292.77	2.624
293.13	2.937
293.50	2.893
293.87	3.745
294.24	4.213
294.60	5.738
294.97	2.216
295.34	2.740
295.71	3.190
296.08	3.279
296.44	3.426
296.81	1.682
297.18	2.717
297.55	2.764
297.91	3.426
298.28	2.558
298.65	3.493
299.02	4.562
299.38	2.934
299.75	2.831
300.12	3.477
300.48	3.756
300.85	2.812
301.22	4.207
301.59	2.433
301.95	4.146
302.32	3.159
302.69	1.784
303.05	2.597
303.42	3.744
303.79	1.236
304.15	3.624
304.52	2.235
304.89	4.171
305.25	3.440
305.62	3.409
305.99	2.912
306.35	1.790
306.72	3.922
307.09	3.482
307.45	2.913
307.82	4.909
308.19	4.510
308.55	4.536
308.92	3.072
309.29	3.661
309.65	3.818
310.02	3.774
310.38	3.305
310.75	3.996
311.12	3.255
311.48	4.625
311.85	4.559
312.22	4.442
312.58	4.632
312.95	4.415
313.31	4.523
313.68	5.263
314.05	5.859
314.41	4.617
314.78	4.322
315.14	5.289
315.51	5.462
315.87	7.910
316.24	6.825
316.61	6.117
316.97	5.490
317.34	6.890
317.70	5.882
318.07	6.365
318.43	7.372
318.80	6.648
319.16	7.363
319.53	7.453
319.89	7.102
320.26	8.751
320.62	9.109
320.99	9.184
321.35	8.696
321.72	9.293
322.08	10.495
322.45	10.355
322.81	9.754
323.18	10.547
323.54	10.521
323.91	10.816
324.27	10.608
324.64	11.059
325.00	11.647
325.37	13.219
325.73	12.500
326.10	12.347
326.46	13.146
326.83	13.193
327.19	14.061
327.56	15.296
327.92	13.715
328.29	14.158
328.65	16.008
329.01	15.963
329.38	15.702
329.74	15.042
330.11	15.750
330.47	15.177
330.84	15.883
331.20	15.527
331.56	16.038
331.93	16.285
332.29	15.541
332.66	17.450
333.02	16.527
333.38	17.004
333.75	17.749
334.11	16.817
334.48	17.174
334.84	17.559
335.20	17.189
335.57	18.256
335.93	17.581
336.29	17.642
336.66	17.668
337.02	18.404
337.38	18.019
337.75	18.000
338.11	19.508
338.47	19.034
338.84	17.587
339.20	18.698
339.56	17.055
339.93	18.829
340.29	17.860
340.65	17.900
341.02	18.866
341.38	18.182
341.74	18.327
342.11	19.010
342.47	17.832
342.83	18.994
343.20	18.302
343.56	18.444
343.92	19.073
344.28	18.439
344.65	18.408
345.01	18.990
345.37	19.316
345.73	18.346
346.10	18.928
346.46	18.896
346.82	19.456
347.19	19.680
347.55	19.983
347.91	18.018
348.27	19.208
348.63	19.101
349.00	20.701
349.36	20.115
349.72	20.197
350.08	19.722
350.45	19.691
350.81	19.405
351.17	18.699
351.53	19.807
351.89	20.380
352.26	19.268
352.62	19.052
352.98	20.000
353.34	19.048
353.70	19.506
354.07	20.511
354.43	19.199
354.79	19.754
355.15	19.209
355.51	20.945
355.87	21.149
356.24	21.324
356.60	19.115
356.96	19.826
357.32	20.823
357.68	20.446
358.04	21.232
358.40	20.540
358.77	20.321
359.13	20.643
359.49	20.560
359.85	21.823
360.21	20.539
360.57	21.531
360.93	21.140
361.29	21.028
361.66	20.426
362.02	21.743
362.38	22.145
362.74	22.598
363.10	21.116
363.46	21.896
363.82	21.746
364.18	22.180
364.54	22.137
364.90	22.296
365.26	21.982
365.62	23.543
365.98	22.789
366.35	23.298
366.71	22.629
367.07	23.026
367.43	22.310
367.79	22.965
368.15	22.535
368.51	22.622
368.87	24.302
369.23	23.391
369.59	23.309
369.95	22.653
370.31	21.515
370.67	23.609
371.03	24.071
371.39	24.698
371.75	22.734
372.11	22.741
372.47	22.940
372.83	25.493
373.19	25.075
373.55	24.102
373.91	24.697
374.27	24.798
374.63	24.153
374.99	24.671
375.35	24.093
375.71	24.462
376.07	25.018
376.42	25.588
376.78	24.739
377.14	25.559
377.50	25.171
377.86	25.905
378.22	25.297
378.58	25.921
378.94	25.802
379.30	25.740
379.66	25.864
380.02	25.493
380.38	25.700
380.74	27.657
381.09	25.540
381.45	27.111
381.81	26.212
382.17	26.971
382.53	27.613
382.89	26.812
383.25	26.760
383.61	26.764
383.97	26.706
384.32	27.097
384.68	27.522
385.04	26.862
385.40	27.093
385.76	27.641
386.12	27.591
386.48	27.136
386.83	27.518
387.19	28.097
387.55	27.850
387.91	28.100
388.27	27.703
388.62	27.655
388.98	28.244
389.34	27.521
389.70	27.949
390.06	28.713
390.42	28.803
390.77	28.974
391.13	28.822
391.49	29.313
391.85	29.408
392.20	28.647
392.56	28.291
392.92	28.571
393.28	29.623
393.64	29.196
393.99	29.091
394.35	29.007
394.71	29.205
395.07	28.846
395.42	28.952
395.78	29.503
396.14	28.981
396.50	28.849
396.85	29.676
397.21	28.784
397.57	29.559
397.92	28.690
398.28	29.077
398.64	29.016
399.00	29.251
399.35	28.664
399.71	29.162
400.07	29.339
400.42	30.577
400.78	29.559
401.14	29.609
401.49	29.544
401.85	30.794
402.21	30.076
402.57	28.075
402.92	30.810
403.28	28.869
403.63	29.936
403.99	30.053
404.35	29.045
404.70	29.449
405.06	29.324
405.42	29.083
405.77	30.143
406.13	29.630
406.49	28.896
406.84	30.012
407.20	29.120
407.55	29.860
407.91	29.650
408.27	29.521
408.62	28.617
408.98	29.408
409.34	29.001
409.69	29.632
410.05	28.951
410.40	28.838
410.76	29.639
411.11	29.606
411.47	29.796
411.83	29.427
412.18	29.974
412.54	29.301
412.89	29.080
413.25	29.655
413.60	28.571
413.96	29.644
414.31	29.063
414.67	30.452
415.03	29.668
415.38	29.457
415.74	29.752
416.09	30.462
416.45	29.229
416.80	28.442
417.16	30.536
417.51	29.146
417.87	30.164
418.22	29.746
418.58	29.440
418.93	29.658
419.29	29.986
419.64	30.769
420.00	29.862
420.35	30.760
420.71	30.154
421.06	30.565
421.42	30.427
421.77	31.121
422.12	29.592
422.48	30.383
422.83	30.456
423.19	30.647
423.54	29.444
423.90	30.779
424.25	31.420
424.61	31.032
424.96	30.037
425.31	30.918
425.67	29.758
426.02	31.491
426.38	30.824
426.73	31.090
427.09	30.991
427.44	30.741
427.79	31.436
428.15	31.262
428.50	31.533
428.85	31.751
429.21	31.739
429.56	31.215
429.92	32.017
430.27	29.867
430.62	29.854
430.98	30.360
431.33	31.090
431.68	30.470
432.04	31.185
432.39	30.838
432.74	30.867
433.10	31.170
433.45	32.299
433.80	30.774
434.16	32.336
434.51	31.327
434.86	31.178
435.22	32.072
435.57	32.454
435.92	30.774
436.28	31.258
436.63	32.081
436.98	33.148
437.34	33.397
437.69	31.420
438.04	32.212
438.39	32.507
438.75	32.123
439.10	34.286
439.45	33.825
439.81	33.016
440.16	34.570
440.51	32.218
440.86	32.449
441.22	32.579
441.57	33.048
441.92	33.683
442.27	33.314
442.63	33.352
442.98	34.046
443.33	32.785
443.68	33.333
444.03	33.299
444.39	34.253
444.74	33.200
445.09	34.475
445.44	32.886
445.79	34.682
446.15	34.519
446.50	34.644
446.85	35.094
447.20	33.917
447.55	33.333
447.91	34.862
448.26	34.837
448.61	34.139
448.96	33.590
449.31	34.177
449.66	33.475
450.02	34.852
450.37	35.237
450.72	33.333
451.07	34.080
451.42	35.112
451.77	33.796
452.12	34.085
452.47	35.163
452.83	34.932
453.18	35.246
453.53	35.010
453.88	35.354
454.23	35.208
454.58	35.770
454.93	34.128
455.28	35.370
455.63	34.958
455.98	35.089
456.34	34.427
456.69	35.139
457.04	35.367
457.39	35.268
457.74	34.766
458.09	34.848
458.44	35.684
458.79	33.274
459.14	34.645
459.49	34.841
459.84	34.602
460.19	34.647
460.54	33.270
460.89	34.176
461.24	35.130
461.59	34.953
461.94	33.859
462.29	35.276
462.64	34.053
462.99	34.590
463.34	35.165
463.69	36.008
464.04	34.830
464.39	35.241
464.74	34.458
465.09	35.370
465.44	34.013
465.79	33.574
466.14	35.024
466.49	34.682
466.84	32.617
467.19	35.283
467.54	33.554
467.89	34.814
468.24	34.343
468.59	34.293
468.94	35.171
469.29	34.533
469.64	35.376
469.99	35.328
470.34	34.583
470.68	35.615
471.03	34.234
471.38	35.453
471.73	35.247
472.08	34.804
472.43	34.993
472.78	33.720
473.13	34.947
473.48	34.855
473.83	34.280
474.17	34.423
474.52	34.695
474.87	34.722
475.22	35.578
475.57	33.784
475.92	33.087
476.27	34.418
476.61	35.461
476.96	34.795
477.31	34.304
477.66	34.050
478.01	34.432
478.36	34.040
478.70	34.817
479.05	33.778
479.40	34.549
479.75	34.941
480.10	34.848
480.45	34.503
480.79	35.444
481.14	34.317
481.49	34.499
481.84	35.152
482.19	32.976
482.53	34.755
482.88	33.808
483.23	34.523
483.58	34.950
483.92	34.372
484.27	34.560
484.62	33.946
484.97	34.051
485.31	32.985
485.66	32.781
486.01	31.639
486.36	32.115
486.70	32.220
487.05	32.312
487.40	32.432
487.75	32.265
488.09	32.112
488.44	32.390
488.79	32.836
489.13	33.541
489.48	32.862
489.83	33.241
490.17	33.849
490.52	34.704
490.87	34.224
491.22	33.974
491.56	34.634
491.91	33.835
492.26	35.084
492.60	33.929
492.95	34.754
493.30	34.292
493.64	34.787
493.99	34.908
494.34	34.465
494.68	33.350
495.03	33.722
495.37	34.212
495.72	34.757
496.07	33.671
496.41	32.905
496.76	32.378
497.11	33.136
497.45	34.103
497.80	32.814
498.14	34.161
498.49	33.582
498.84	34.067
499.18	33.212
499.53	32.762
499.87	34.562
500.22	34.130
500.56	34.432
500.91	34.347
501.26	34.383
501.60	34.455
501.95	34.084
502.29	33.812
502.64	32.852
502.98	33.468
503.33	32.451
503.67	33.640
504.02	32.993
504.36	33.179
504.71	33.085
505.06	34.762
505.40	33.727
505.75	33.702
506.09	33.857
506.44	33.637
506.78	33.726
507.13	33.985
507.47	33.850
507.82	34.933
508.16	33.630
508.51	34.902
508.85	34.066
509.19	33.352
509.54	34.221
509.88	34.522
510.23	34.607
510.57	33.788
510.92	33.957
511.26	33.716
511.61	34.018
511.95	33.430
512.30	34.609
512.64	34.135
512.98	34.613
513.33	34.525
513.67	33.832
514.02	34.255
514.36	34.698
514.70	35.823
515.05	35.488
515.39	35.508
515.74	34.398
516.08	34.401
516.42	35.612
516.77	34.472
517.11	34.557
517.46	35.041
517.80	35.801
518.14	36.749
518.49	35.511
518.83	35.798
519.17	35.861
519.52	35.103
519.86	35.592
520.20	34.586
520.55	35.313
520.89	36.032
521.23	35.538
521.58	35.847
521.92	35.648
522.26	36.838
522.61	36.655
522.95	36.575
523.29	35.560
523.64	36.296
523.98	35.551
524.32	35.556
524.66	36.506
525.01	36.907
525.35	35.431
525.69	35.444
526.04	36.857
526.38	36.669
526.72	36.944
527.06	36.639
527.41	35.932
527.75	35.966
528.09	35.573
528.43	36.145
528.78	35.430
529.12	35.068
529.46	35.150
529.80	35.330
530.15	36.136
530.49	37.448
530.83	35.503
531.17	34.393
531.51	36.831
531.86	35.154
532.20	35.354
532.54	35.612
532.88	35.127
533.22	36.207
533.57	35.793
533.91	34.756
534.25	35.574
534.59	34.869
534.93	34.318
535.27	35.152
535.62	34.166
535.96	34.403
536.30	34.725
536.64	34.478
536.98	35.472
537.32	34.673
537.66	34.531
538.01	36.377
538.35	34.182
538.69	33.263
539.03	34.751
539.37	34.243
539.71	33.986
540.05	34.298
540.39	35.948
540.73	34.799
541.07	33.824
541.42	33.713
541.76	33.669
542.10	34.218
542.44	35.621
542.78	33.798
543.12	32.202
543.46	34.575
543.80	33.881
544.14	33.835
544.48	34.246
544.82	33.499
545.16	34.420
545.50	34.425
545.84	34.674
546.18	34.906
546.52	35.127
546.86	33.588
547.20	35.303
547.54	33.510
547.88	32.621
548.22	33.122
548.56	34.109
548.90	32.842
549.24	33.480
549.58	33.681
549.92	33.609
550.26	34.981
550.60	34.496
550.94	34.365
551.28	33.740
551.62	34.971
551.96	33.307
552.30	33.953
552.64	33.959
552.98	33.284
553.32	32.500
553.66	33.384
554.00	35.135
554.34	34.141
554.68	34.051
555.02	33.095
555.36	33.439
555.69	31.207
556.03	33.407
556.37	32.933
556.71	33.032
557.05	33.750
557.39	33.574
557.73	33.333
558.07	33.255
558.41	33.599
558.75	33.444
559.08	35.064
559.42	33.278
559.76	34.204
560.10	34.230
560.44	32.779
560.78	32.081
561.12	31.781
561.45	32.515
561.79	30.543
562.13	31.653
562.47	32.110
562.81	31.842
563.15	31.407
563.48	30.936
563.82	32.533
564.16	31.930
564.50	31.734
564.84	32.034
565.17	32.833
565.51	31.738
565.85	31.690
566.19	32.150
566.52	31.900
566.86	31.694
567.20	30.739
567.54	30.696
567.88	30.583
568.21	30.188
568.55	30.164
568.89	30.055
569.23	29.016
569.56	28.690
569.90	29.079
570.24	28.566
570.57	28.292
570.91	28.821
571.25	28.581
571.59	27.246
571.92	27.132
572.26	27.368
572.60	27.325
572.93	27.505
573.27	26.509
573.61	27.236
573.95	26.733
574.28	26.593
574.62	26.552
574.96	26.050
575.29	26.381
575.63	25.220
575.97	26.057
576.30	26.547
576.64	26.571
576.98	25.794
577.31	26.086
577.65	25.857
577.98	25.856
578.32	25.703
578.66	25.667
578.99	26.200
579.33	25.620
579.67	25.874
580.00	25.857
580.34	25.496
580.67	25.407
581.01	25.554
581.35	25.471
581.68	25.226
582.02	24.867
582.35	24.906
582.69	25.652
583.02	25.486
583.36	25.000
583.70	25.628
584.03	26.071
584.37	26.092
584.70	25.475
585.04	25.141
585.37	25.607
585.71	25.025
586.04	25.608
586.38	26.178
586.72	25.787
587.05	26.117
587.39	25.639
587.72	25.896
588.06	25.820
588.39	25.621
588.73	25.921
589.06	25.272
589.40	25.378
589.73	25.505
590.07	26.132
590.40	26.097
590.73	25.989
591.07	25.844
591.40	26.222
591.74	26.213
592.07	26.266
592.41	26.664
592.74	26.076
593.08	25.845
593.41	25.334
593.75	25.986
594.08	26.099
594.41	26.375
594.75	25.842
595.08	25.906
595.42	25.760
595.75	25.341
596.09	25.180
596.42	26.173
596.75	26.273
597.09	25.793
597.42	25.528
597.75	25.891
598.09	25.562
598.42	25.840
598.76	25.820
599.09	26.261
599.42	24.744
599.76	25.461
600.09	25.386
600.42	24.492
600.76	24.442
601.09	24.314
601.42	25.040
601.76	25.690
602.09	25.765
602.42	25.792
602.76	25.218
603.09	25.674
603.42	25.256
603.76	25.388
604.09	25.021
604.42	25.633
604.76	25.605
605.09	25.555
605.42	25.545
605.75	24.852
606.09	25.911
606.42	25.153
606.75	25.710
607.09	25.373
607.42	25.057
607.75	25.253
608.08	25.117
608.42	25.412
608.75	25.413
609.08	24.685
609.41	26.076
609.75	26.224
610.08	25.685
610.41	26.260
610.74	26.593
611.07	24.220
611.41	25.535
611.74	25.680
612.07	25.670
612.40	26.295
612.73	25.347
613.07	24.897
613.40	25.532
613.73	24.685
614.06	24.824
614.39	25.190
614.72	24.734
615.06	25.718
615.39	25.000
615.72	24.580
616.05	25.565
616.38	24.674
616.71	24.938
617.05	25.000
617.38	25.935
617.71	26.127
618.04	26.610
618.37	25.180
618.70	26.495
619.03	26.033
619.36	27.761
619.69	25.194
620.03	26.850
620.36	26.153
620.69	26.090
621.02	26.049
621.35	26.128
621.68	28.263
622.01	27.184
622.34	25.293
622.67	25.717
623.00	27.027
623.33	25.512
623.66	27.171
623.99	26.077
624.32	26.688
624.65	26.641
624.99	24.688
625.32	26.303
625.65	25.620
625.98	26.250
626.31	26.061
626.64	26.937
626.97	28.585
627.30	27.037
627.63	27.256
627.96	27.002
628.29	28.107
628.62	27.010
628.95	27.244
629.28	27.376
629.61	27.586
629.94	28.112
630.26	27.092
630.59	29.005
630.92	27.608
631.25	27.486
631.58	27.093
631.91	27.107
632.24	28.047
632.57	28.775
632.90	30.996
633.23	29.419
633.56	28.931
633.89	28.760
634.22	29.744
634.55	27.332
634.88	28.782
635.20	29.726
635.53	28.771
635.86	29.076
636.19	29.332
636.52	29.245
636.85	26.467
637.18	28.368
637.51	28.320
