SpectraSuite Data File
++++++++++++++++++++++++++++++++++++
Date: Wed May 13 19:32:08 PDT 2015
User: schluterlab
Dark Spectrum Present: Yes
Reference Spectrum Present: Yes
Number of Sampled Component Spectra: 1
Spectrometers: USB2E3373
Integration Time (usec): 3000 (USB2E3373)
Spectra Averaged: 3 (USB2E3373)
Boxcar Smoothing: 0 (USB2E3373)
Correct for Electrical Dark: No (USB2E3373)
Strobe/Lamp Enabled: No (USB2E3373)
Correct for Detector Non-linearity: No (USB2E3373)
Correct for Stray Light: No (USB2E3373)
Number of Pixels in Processed Spectrum: 2048
>>>>>Begin Processed Spectral Data<<<<<
178.53	0.000
178.91	-1400.000
179.29	-1525.000
179.67	-238.889
180.04	-1425.000
180.42	2850.000
180.80	1040.000
181.18	-1450.000
181.56	814.286
181.94	0.000
182.31	-757.143
182.69	1733.333
183.07	-637.500
183.45	-611.111
183.83	690.909
184.20	-410.000
184.58	2800.000
184.96	5200.000
185.34	-940.000
185.72	-650.000
186.09	-2700.000
186.47	2700.000
186.85	3000.000
187.23	5400.000
187.61	-1933.333
187.98	1400.000
188.36	518.182
188.74	572.727
189.12	-1020.000
189.49	590.000
189.87	-5200.000
190.25	-1500.000
190.63	378.571
191.00	492.308
191.38	866.667
191.76	-1575.000
192.14	1325.000
192.51	775.000
192.89	933.333
193.27	537.500
193.65	-1475.000
194.02	600.000
194.40	980.000
194.78	510.000
195.15	625.000
195.53	630.000
195.91	-2500.000
196.29	381.250
196.66	315.789
197.04	-480.000
197.42	0.000
197.79	630.000
198.17	-5400.000
198.55	685.714
198.92	662.500
199.30	1000.000
199.68	0.000
200.05	361.111
200.43	842.857
200.81	4500.000
201.18	1766.667
201.56	-1666.667
201.94	577.778
202.31	600.000
202.69	458.333
203.07	700.000
203.44	0.000
203.82	1225.000
204.19	757.143
204.57	492.857
204.95	737.500
205.32	1900.000
205.70	609.091
206.08	464.286
206.45	3000.000
206.83	381.250
207.20	950.000
207.58	860.000
207.96	394.444
208.33	800.000
208.71	-933.333
209.08	771.429
209.46	644.444
209.84	572.727
210.21	-1733.333
210.59	1425.000
210.96	-525.000
211.34	3050.000
211.71	590.000
212.09	916.667
212.46	0.000
212.84	1900.000
213.22	1600.000
213.59	-5300.000
213.97	833.333
214.34	671.429
214.72	609.091
215.09	1000.000
215.47	-2500.000
215.84	-2700.000
216.22	1966.667
216.59	457.143
216.97	1450.000
217.34	527.273
217.72	-800.000
218.09	0.000
218.47	-5400.000
218.84	700.000
219.22	742.857
219.59	2133.333
219.97	-628.571
220.34	1100.000
220.72	-1733.333
221.09	464.286
221.47	1725.000
221.84	-1050.000
222.22	0.000
222.59	1700.000
222.97	-2600.000
223.34	1240.000
223.72	492.308
224.09	1180.000
224.46	2150.000
224.84	-5200.000
225.21	-1020.000
225.59	-5300.000
225.96	560.000
226.34	300.000
226.71	3000.000
227.08	712.500
227.46	600.000
227.83	-1200.000
228.21	-1950.000
228.58	700.000
228.95	-2850.000
229.33	-2550.000
229.70	1766.667
230.08	771.429
230.45	-920.000
230.82	400.000
231.20	950.000
231.57	742.857
231.95	516.667
232.32	259.091
232.69	481.818
233.07	757.143
233.44	484.615
233.81	-1833.333
234.19	305.263
234.56	600.000
234.93	500.000
235.31	545.455
235.68	453.846
236.05	400.000
236.43	200.000
236.80	331.579
237.17	4100.000
237.55	252.381
237.92	207.143
238.29	242.857
238.67	200.000
239.04	213.793
239.41	194.444
239.79	136.957
240.16	142.857
240.53	161.364
240.91	123.529
241.28	126.000
241.65	128.000
242.02	126.087
242.40	117.742
242.77	96.667
243.14	83.871
243.51	87.640
243.89	89.412
244.26	81.111
244.63	88.172
245.00	72.340
245.38	77.228
245.75	67.290
246.12	68.807
246.49	67.883
246.87	75.200
247.24	66.154
247.61	70.000
247.98	62.745
248.36	62.162
248.73	52.866
249.10	56.051
249.47	61.017
249.84	59.893
250.22	52.941
250.59	56.805
250.96	52.525
251.33	52.607
251.70	51.485
252.08	52.381
252.45	51.121
252.82	49.130
253.19	48.936
253.56	53.333
253.94	48.963
254.31	49.219
254.68	52.308
255.05	47.601
255.42	47.561
255.79	50.368
256.16	46.931
256.54	42.756
256.91	45.552
257.28	39.928
257.65	48.515
258.02	46.584
258.39	43.849
258.76	41.806
259.14	40.774
259.51	43.465
259.88	38.199
260.25	44.109
260.62	43.642
260.99	37.888
261.36	40.240
261.73	39.828
262.10	37.500
262.47	43.380
262.85	40.111
263.22	35.613
263.59	43.590
263.96	39.286
264.33	40.992
264.70	38.421
265.07	41.688
265.44	39.899
265.81	35.036
266.18	38.442
266.55	34.634
266.92	39.558
267.29	40.741
267.66	38.073
268.03	39.773
268.40	39.019
268.77	33.890
269.14	36.937
269.51	41.084
269.88	37.296
270.25	38.826
270.62	36.854
270.99	37.634
271.36	34.979
271.73	36.215
272.10	37.391
272.47	37.419
272.84	37.229
273.21	36.059
273.58	33.406
273.95	31.866
274.32	36.570
274.69	35.760
275.06	35.236
275.43	38.085
275.80	35.471
276.17	35.642
276.54	37.006
276.91	35.771
277.28	35.352
277.65	35.590
278.02	36.646
278.39	36.719
278.76	33.273
279.13	32.075
279.50	34.264
279.87	35.259
280.23	37.325
280.60	33.656
280.97	34.381
281.34	34.513
281.71	34.909
282.08	34.933
282.45	34.909
282.82	35.524
283.19	33.155
283.56	33.333
283.92	32.318
284.29	32.275
284.66	34.120
285.03	32.188
285.40	33.275
285.77	31.481
286.14	32.470
286.51	32.333
286.87	33.504
287.24	33.876
287.61	29.856
287.98	31.006
288.35	31.696
288.72	29.595
289.08	30.516
289.45	31.466
289.82	33.008
290.19	27.786
290.56	30.168
290.93	30.514
291.29	30.521
291.66	28.466
292.03	31.105
292.40	31.278
292.77	27.367
293.13	28.358
293.50	30.321
293.87	28.889
294.24	27.556
294.60	28.093
294.97	30.233
295.34	31.171
295.71	29.261
296.08	27.208
296.44	27.923
296.81	27.873
297.18	29.539
297.55	25.330
297.91	26.781
298.28	27.577
298.65	27.285
299.02	28.590
299.38	26.693
299.75	24.933
300.12	25.415
300.48	26.125
300.85	25.524
301.22	25.605
301.59	25.631
301.95	26.574
302.32	26.701
302.69	26.045
303.05	27.636
303.42	25.556
303.79	25.481
304.15	24.942
304.52	25.492
304.89	24.855
305.25	26.450
305.62	26.501
305.99	27.391
306.35	25.839
306.72	25.897
307.09	25.194
307.45	25.113
307.82	25.446
308.19	26.490
308.55	26.321
308.92	26.853
309.29	25.026
309.65	26.935
310.02	26.533
310.38	25.699
310.75	26.505
311.12	26.305
311.48	27.377
311.85	28.616
312.22	27.263
312.58	26.715
312.95	26.716
313.31	25.728
313.68	27.963
314.05	28.304
314.41	27.839
314.78	28.097
315.14	28.103
315.51	29.557
315.87	28.911
316.24	28.699
316.61	29.532
316.97	29.452
317.34	29.746
317.70	30.115
318.07	31.088
318.43	32.094
318.80	31.490
319.16	31.827
319.53	30.769
319.89	32.095
320.26	34.300
320.62	35.317
320.99	32.929
321.35	34.545
321.72	35.729
322.08	35.538
322.45	36.816
322.81	37.694
323.18	37.283
323.54	36.364
323.91	38.679
324.27	38.528
324.64	40.261
325.00	40.307
325.37	40.400
325.73	41.113
326.10	41.571
326.46	42.742
326.83	43.486
327.19	43.296
327.56	43.815
327.92	44.882
328.29	44.720
328.65	46.225
329.01	45.758
329.38	45.513
329.74	45.983
330.11	47.785
330.47	48.760
330.84	48.162
331.20	47.723
331.56	48.716
331.93	48.981
332.29	48.447
332.66	49.381
333.02	48.629
333.38	49.593
333.75	50.178
334.11	48.754
334.48	48.802
334.84	50.551
335.20	51.273
335.57	50.499
335.93	47.946
336.29	49.542
336.66	49.775
337.02	48.054
337.38	50.648
337.75	48.307
338.11	49.866
338.47	50.368
338.84	49.863
339.20	49.817
339.56	51.734
339.93	52.273
340.29	49.185
340.65	51.070
341.02	50.262
341.38	52.224
341.74	51.930
342.11	50.655
342.47	52.247
342.83	50.599
343.20	50.563
343.56	49.874
343.92	50.702
344.28	50.085
344.65	51.763
345.01	48.990
345.37	49.057
345.73	50.592
346.10	51.321
346.46	51.186
346.82	50.329
347.19	49.708
347.55	49.589
347.91	50.647
348.27	51.356
348.63	50.502
349.00	49.919
349.36	49.918
349.72	50.120
350.08	49.595
350.45	50.122
350.81	49.959
351.17	50.891
351.53	52.088
351.89	51.155
352.26	50.434
352.62	51.243
352.98	50.891
353.34	51.191
353.70	49.836
354.07	50.806
354.43	49.127
354.79	49.236
355.15	49.880
355.51	51.079
355.87	51.918
356.24	51.303
356.60	49.559
356.96	49.718
357.32	51.349
357.68	50.236
358.04	49.960
358.40	50.594
358.77	50.704
359.13	49.250
359.49	50.431
359.85	50.000
360.21	50.718
360.57	51.440
360.93	52.308
361.29	50.794
361.66	48.916
362.02	50.896
362.38	50.038
362.74	50.818
363.10	49.149
363.46	50.770
363.82	50.718
364.18	50.441
364.54	50.966
364.90	50.779
365.26	50.074
365.62	50.840
365.98	50.329
366.35	50.501
366.71	49.964
367.07	50.838
367.43	51.379
367.79	51.892
368.15	51.580
368.51	51.090
368.87	50.607
369.23	49.890
369.59	51.267
369.95	51.397
370.31	51.923
370.67	49.420
371.03	51.311
371.39	50.948
371.75	50.368
372.11	49.787
372.47	51.979
372.83	52.161
373.19	50.434
373.55	52.033
373.91	52.135
374.27	49.759
374.63	51.782
374.99	51.130
375.35	51.151
375.71	50.240
376.07	50.754
376.42	51.582
376.78	51.027
377.14	51.967
377.50	51.523
377.86	49.668
378.22	51.327
378.58	49.937
378.94	49.654
379.30	50.954
379.66	50.254
380.02	51.044
380.38	49.970
380.74	50.720
381.09	49.328
381.45	51.014
381.81	51.474
382.17	51.338
382.53	50.755
382.89	50.494
383.25	51.032
383.61	51.611
383.97	50.281
384.32	51.840
384.68	49.938
385.04	50.277
385.40	51.022
385.76	50.307
386.12	50.518
386.48	50.472
386.83	52.470
387.19	51.330
387.55	50.093
387.91	50.423
388.27	49.601
388.62	50.461
388.98	50.553
389.34	52.378
389.70	49.111
390.06	50.190
390.42	50.519
390.77	49.427
391.13	50.925
391.49	50.952
391.85	50.350
392.20	50.221
392.56	49.811
392.92	50.559
393.28	49.763
393.64	50.000
393.99	48.931
394.35	49.132
394.71	50.376
395.07	49.969
395.42	50.124
395.78	48.855
396.14	49.659
396.50	51.629
396.85	49.841
397.21	49.322
397.57	49.535
397.92	49.760
398.28	48.150
398.64	49.761
399.00	48.517
399.35	48.731
399.71	48.322
400.07	48.788
400.42	49.816
400.78	49.457
401.14	48.720
401.49	50.149
401.85	48.457
402.21	48.563
402.57	48.304
402.92	50.315
403.28	48.282
403.63	48.886
403.99	48.280
404.35	48.485
404.70	48.741
405.06	48.864
405.42	48.534
405.77	47.429
406.13	47.573
406.49	48.255
406.84	47.431
407.20	47.577
407.55	48.628
407.91	48.267
408.27	48.054
408.62	48.405
408.98	48.223
409.34	47.294
409.69	47.871
410.05	47.831
410.40	47.584
410.76	46.476
411.11	47.165
411.47	47.029
411.83	47.709
412.18	46.815
412.54	47.385
412.89	48.313
413.25	47.285
413.60	47.869
413.96	46.509
414.31	47.205
414.67	48.416
415.03	47.483
415.38	47.680
415.74	47.395
416.09	47.747
416.45	48.193
416.80	48.050
417.16	47.453
417.51	48.242
417.87	48.105
418.22	47.192
418.58	47.256
418.93	46.806
419.29	48.377
419.64	46.537
420.00	47.073
420.35	47.130
420.71	48.416
421.06	46.778
421.42	47.427
421.77	46.413
422.12	46.042
422.48	46.357
422.83	47.758
423.19	47.017
423.54	48.114
423.90	47.072
424.25	46.566
424.61	47.024
424.96	47.347
425.31	46.401
425.67	46.404
426.02	46.914
426.38	48.168
426.73	46.050
427.09	46.626
427.44	47.039
427.79	46.866
428.15	47.262
428.50	46.518
428.85	45.888
429.21	46.052
429.56	46.812
429.92	46.351
430.27	45.780
430.62	45.878
430.98	46.757
431.33	44.948
431.68	46.859
432.04	45.421
432.39	47.287
432.74	46.320
433.10	48.274
433.45	47.755
433.80	46.729
434.16	47.222
434.51	46.579
434.86	46.465
435.22	46.859
435.57	47.720
435.92	47.104
436.28	46.501
436.63	46.799
436.98	46.938
437.34	47.168
437.69	47.666
438.04	46.880
438.39	47.522
438.75	47.066
439.10	47.207
439.45	46.104
439.81	48.399
440.16	46.923
440.51	47.159
440.86	46.671
441.22	45.551
441.57	46.338
441.92	46.929
442.27	46.986
442.63	46.235
442.98	47.268
443.33	45.978
443.68	45.328
444.03	46.022
444.39	46.300
444.74	46.645
445.09	46.739
445.44	45.599
445.79	45.571
446.15	46.321
446.50	46.419
446.85	46.300
447.20	45.793
447.55	46.119
447.91	46.111
448.26	46.522
448.61	47.202
448.96	46.788
449.31	46.625
449.66	46.201
450.02	46.574
450.37	46.315
450.72	46.475
451.07	44.790
451.42	44.742
451.77	46.095
452.12	45.497
452.47	46.455
452.83	45.396
453.18	45.232
453.53	46.691
453.88	46.367
454.23	45.906
454.58	46.093
454.93	47.807
455.28	46.197
455.63	47.148
455.98	46.190
456.34	46.357
456.69	45.335
457.04	45.511
457.39	45.061
457.74	46.431
458.09	45.543
458.44	45.610
458.79	44.469
459.14	45.993
459.49	46.585
459.84	45.319
460.19	44.844
460.54	44.039
460.89	44.871
461.24	45.659
461.59	45.787
461.94	44.575
462.29	45.697
462.64	43.650
462.99	44.372
463.34	45.733
463.69	45.091
464.04	44.348
464.39	44.000
464.74	44.623
465.09	43.245
465.44	43.546
465.79	44.519
466.14	43.404
466.49	43.715
466.84	44.542
467.19	43.452
467.54	43.937
467.89	43.878
468.24	43.863
468.59	43.956
468.94	43.800
469.29	44.537
469.64	45.382
469.99	45.467
470.34	45.707
470.68	44.397
471.03	44.354
471.38	45.240
471.73	44.104
472.08	44.211
472.43	43.342
472.78	42.199
473.13	45.186
473.48	42.821
473.83	44.085
474.17	43.124
474.52	43.548
474.87	43.666
475.22	43.239
475.57	41.483
475.92	42.804
476.27	42.841
476.61	43.133
476.96	43.375
477.31	42.386
477.66	43.818
478.01	41.401
478.36	42.200
478.70	42.160
479.05	41.906
479.40	42.016
479.75	41.535
480.10	41.302
480.45	41.409
480.79	41.185
481.14	41.683
481.49	41.481
481.84	41.610
482.19	40.981
482.53	40.826
482.88	41.042
483.23	41.542
483.58	41.765
483.92	41.284
484.27	39.826
484.62	40.690
484.97	40.599
485.31	40.137
485.66	38.864
486.01	37.233
486.36	35.852
486.70	36.072
487.05	37.055
487.40	37.385
487.75	38.445
488.09	38.490
488.44	39.293
488.79	40.579
489.13	39.649
489.48	40.131
489.83	39.965
490.17	40.552
490.52	40.213
490.87	39.484
491.22	39.609
491.56	39.089
491.91	40.158
492.26	38.999
492.60	40.184
492.95	39.383
493.30	40.000
493.64	40.644
493.99	38.579
494.34	39.778
494.68	39.194
495.03	40.179
495.37	38.623
495.72	40.205
496.07	39.211
496.41	37.832
496.76	39.226
497.11	39.172
497.45	39.683
497.80	39.155
498.14	39.034
498.49	39.805
498.84	38.639
499.18	39.857
499.53	39.031
499.87	39.096
500.22	38.530
500.56	39.126
500.91	37.163
501.26	38.265
501.60	39.915
501.95	37.993
502.29	37.863
502.64	38.920
502.98	38.569
503.33	37.614
503.67	37.912
504.02	38.167
504.36	37.061
504.71	38.837
505.06	38.072
505.40	37.822
505.75	38.332
506.09	37.949
506.44	38.333
506.78	39.113
507.13	39.324
507.47	38.384
507.82	38.703
508.16	38.602
508.51	38.204
508.85	38.034
509.19	37.347
509.54	38.112
509.88	37.816
510.23	38.560
510.57	37.822
510.92	37.701
511.26	37.307
511.61	37.396
511.95	37.474
512.30	37.858
512.64	37.937
512.98	38.746
513.33	38.651
513.67	37.567
514.02	37.067
514.36	37.848
514.70	38.462
515.05	37.479
515.39	37.072
515.74	37.613
516.08	37.731
516.42	38.069
516.77	38.963
517.11	36.404
517.46	37.641
517.80	39.315
518.14	37.927
518.49	38.623
518.83	37.102
519.17	37.529
519.52	38.144
519.86	37.536
520.20	37.110
520.55	38.300
520.89	38.078
521.23	37.998
521.58	37.695
521.92	37.722
522.26	36.486
522.61	37.570
522.95	37.017
523.29	36.579
523.64	37.439
523.98	37.585
524.32	36.852
524.66	37.462
525.01	37.500
525.35	37.175
525.69	36.761
526.04	37.445
526.38	37.767
526.72	36.258
527.06	37.163
527.41	35.396
527.75	38.585
528.09	36.994
528.43	36.329
528.78	37.738
529.12	35.818
529.46	36.865
529.80	36.448
530.15	36.636
530.49	35.508
530.83	36.266
531.17	37.598
531.51	38.003
531.86	36.581
532.20	37.549
532.54	36.387
532.88	37.035
533.22	35.603
533.57	35.617
533.91	35.461
534.25	36.087
534.59	35.082
534.93	34.563
535.27	35.969
535.62	35.592
535.96	36.033
536.30	35.664
536.64	36.059
536.98	35.700
537.32	35.418
537.66	36.800
538.01	36.076
538.35	36.005
538.69	36.439
539.03	35.737
539.37	35.591
539.71	35.386
540.05	35.686
540.39	35.282
540.73	34.929
541.07	35.886
541.42	35.747
541.76	36.000
542.10	35.705
542.44	34.834
542.78	36.759
543.12	33.845
543.46	35.869
543.80	35.133
544.14	34.788
544.48	35.365
544.82	35.407
545.16	35.003
545.50	34.447
545.84	35.618
546.18	35.152
546.52	35.857
546.86	35.189
547.20	36.682
547.54	35.070
547.88	34.694
548.22	34.371
548.56	34.214
548.90	34.123
549.24	34.747
549.58	36.289
549.92	34.959
550.26	35.014
550.60	33.887
550.94	34.296
551.28	34.309
551.62	35.873
551.96	34.877
552.30	34.744
552.64	34.415
552.98	35.051
553.32	34.255
553.66	34.697
554.00	34.454
554.34	33.954
554.68	35.765
555.02	33.992
555.36	34.795
555.69	33.829
556.03	33.782
556.37	34.584
556.71	33.697
557.05	35.014
557.39	34.220
557.73	34.439
558.07	34.590
558.41	34.370
558.75	33.872
559.08	34.899
559.42	34.845
559.76	34.853
560.10	33.476
560.44	33.823
560.78	33.267
561.12	32.652
561.45	33.963
561.79	33.619
562.13	33.602
562.47	33.470
562.81	33.124
563.15	34.181
563.48	32.958
563.82	33.920
564.16	32.374
564.50	33.268
564.84	32.807
565.17	32.690
565.51	33.035
565.85	32.868
566.19	31.747
566.52	32.996
566.86	31.404
567.20	32.547
567.54	32.249
567.88	31.722
568.21	31.058
568.55	31.244
568.89	31.469
569.23	30.392
569.56	30.040
569.90	28.906
570.24	29.745
570.57	29.038
570.91	28.345
571.25	28.907
571.59	28.542
571.92	27.909
572.26	28.105
572.60	28.468
572.93	28.516
573.27	28.690
573.61	28.392
573.95	27.984
574.28	27.487
574.62	27.648
574.96	27.168
575.29	27.425
575.63	27.820
575.97	27.363
576.30	27.430
576.64	27.142
576.98	26.762
577.31	27.842
577.65	27.362
577.98	26.739
578.32	26.549
578.66	26.667
578.99	27.026
579.33	26.918
579.67	26.782
580.00	27.284
580.34	27.527
580.67	27.369
581.01	26.940
581.35	26.856
581.68	26.706
582.02	26.482
582.35	26.564
582.69	26.777
583.02	26.888
583.36	27.392
583.70	27.423
584.03	27.665
584.37	27.958
584.70	27.351
585.04	27.593
585.37	26.911
585.71	27.326
586.04	27.108
586.38	27.403
586.72	28.307
587.05	26.759
587.39	26.939
587.72	27.287
588.06	26.841
588.39	27.023
588.73	27.838
589.06	28.233
589.40	27.980
589.73	28.687
590.07	27.936
590.40	28.498
590.73	28.649
591.07	28.734
591.40	28.849
591.74	29.567
592.07	28.229
592.41	28.483
592.74	27.640
593.08	27.082
593.41	26.606
593.75	27.046
594.08	27.321
594.41	27.819
594.75	28.096
595.08	27.487
595.42	28.581
595.75	27.493
596.09	28.164
596.42	28.487
596.75	29.337
597.09	29.221
597.42	28.288
597.75	28.590
598.09	29.130
598.42	28.308
598.76	27.767
599.09	27.366
599.42	27.001
599.76	27.343
600.09	27.760
600.42	27.064
600.76	27.143
601.09	27.031
601.42	28.120
601.76	27.249
602.09	27.510
602.42	27.508
602.76	28.094
603.09	28.403
603.42	27.880
603.76	27.515
604.09	27.685
604.42	27.966
604.76	28.511
605.09	27.523
605.42	27.790
605.75	27.732
606.09	27.572
606.42	28.157
606.75	27.333
607.09	28.129
607.42	28.070
607.75	27.131
608.08	27.573
608.42	28.014
608.75	27.232
609.08	27.845
609.41	27.891
609.75	27.585
610.08	28.652
610.41	27.933
610.74	27.625
611.07	28.804
611.41	27.920
611.74	28.758
612.07	28.727
612.40	29.801
612.73	28.368
613.07	29.418
613.40	29.331
613.73	28.264
614.06	28.011
614.39	28.002
614.72	28.211
615.06	28.099
615.39	27.866
615.72	28.834
616.05	27.858
616.38	28.516
616.71	29.513
617.05	29.329
617.38	28.743
617.71	28.829
618.04	29.207
618.37	28.977
618.70	29.309
619.03	30.263
619.36	29.939
619.69	30.423
620.03	30.220
620.36	29.011
620.69	30.616
621.02	30.973
621.35	30.070
621.68	30.062
622.01	29.567
622.34	31.467
622.67	30.951
623.00	28.833
623.33	29.021
623.66	29.378
623.99	30.339
624.32	28.673
624.65	29.732
624.99	29.037
625.32	29.254
625.65	29.527
625.98	30.515
626.31	30.249
626.64	31.592
626.97	31.505
627.30	31.920
627.63	31.747
627.96	32.044
628.29	30.796
628.62	31.747
628.95	32.642
629.28	31.204
629.61	32.631
629.94	32.000
630.26	31.363
630.59	32.412
