SpectraSuite Data File
++++++++++++++++++++++++++++++++++++
Date: Wed May 13 19:21:49 PDT 2015
User: schluterlab
Dark Spectrum Present: Yes
Reference Spectrum Present: Yes
Number of Sampled Component Spectra: 1
Spectrometers: USB2E3373
Integration Time (usec): 3000 (USB2E3373)
Spectra Averaged: 3 (USB2E3373)
Boxcar Smoothing: 0 (USB2E3373)
Correct for Electrical Dark: No (USB2E3373)
Strobe/Lamp Enabled: No (USB2E3373)
Correct for Detector Non-linearity: No (USB2E3373)
Correct for Stray Light: No (USB2E3373)
Number of Pixels in Processed Spectrum: 2048
>>>>>Begin Processed Spectral Data<<<<<
178.53	0.000
178.91	-1525.000
179.29	-1450.000
179.67	-222.222
180.04	-1350.000
180.42	2500.000
180.80	1040.000
181.18	-1400.000
181.56	828.571
181.94	0.000
182.31	-871.429
182.69	1933.333
183.07	-675.000
183.45	-522.222
183.83	572.727
184.20	-600.000
184.58	3100.000
184.96	6400.000
185.34	-960.000
185.72	-675.000
186.09	-2400.000
186.47	2750.000
186.85	3100.000
187.23	6100.000
187.61	-1966.667
187.98	1400.000
188.36	654.545
188.74	536.364
189.12	-1180.000
189.49	650.000
189.87	-5400.000
190.25	-1475.000
190.63	478.571
191.00	469.231
191.38	983.333
191.76	-1100.000
192.14	1400.000
192.51	662.500
192.89	1100.000
193.27	662.500
193.65	-1425.000
194.02	650.000
194.40	1280.000
194.78	650.000
195.15	575.000
195.53	630.000
195.91	-2650.000
196.29	337.500
196.66	305.263
197.04	-510.000
197.42	0.000
197.79	710.000
198.17	-5100.000
198.55	828.571
198.92	812.500
199.30	1240.000
199.68	0.000
200.05	422.222
200.43	842.857
200.81	4500.000
201.18	1733.333
201.56	-2033.333
201.94	566.667
202.31	733.333
202.69	458.333
203.07	590.000
203.44	0.000
203.82	1275.000
204.19	814.286
204.57	478.571
204.95	687.500
205.32	1666.667
205.70	481.818
206.08	428.571
206.45	2900.000
206.83	412.500
207.20	983.333
207.58	840.000
207.96	327.778
208.33	750.000
208.71	-1000.000
209.08	814.286
209.46	677.778
209.84	527.273
210.21	-1866.667
210.59	1525.000
210.96	-637.500
211.34	2650.000
211.71	690.000
212.09	866.667
212.46	0.000
212.84	2133.333
213.22	1500.000
213.59	-5700.000
213.97	1150.000
214.34	957.143
214.72	718.182
215.09	1120.000
215.47	-2400.000
215.84	-2800.000
216.22	1766.667
216.59	471.429
216.97	1200.000
217.34	572.727
217.72	-916.667
218.09	0.000
218.47	-5800.000
218.84	677.778
219.22	957.143
219.59	1866.667
219.97	-771.429
220.34	1440.000
220.72	-2133.333
221.09	407.143
221.47	1550.000
221.84	-883.333
222.22	0.000
222.59	1650.000
222.97	-2900.000
223.34	1160.000
223.72	453.846
224.09	1200.000
224.46	2700.000
224.84	-5600.000
225.21	-1300.000
225.59	-5100.000
225.96	670.000
226.34	350.000
226.71	3350.000
227.08	812.500
227.46	530.000
227.83	-1225.000
228.21	-2750.000
228.58	700.000
228.95	-2550.000
229.33	-2350.000
229.70	2300.000
230.08	985.714
230.45	-1020.000
230.82	491.667
231.20	1133.333
231.57	785.714
231.95	466.667
232.32	286.364
232.69	472.727
233.07	700.000
233.44	400.000
233.81	-1733.333
234.19	357.895
234.56	533.333
234.93	416.667
235.31	554.545
235.68	361.538
236.05	407.143
236.43	163.636
236.80	315.789
237.17	4400.000
237.55	261.905
237.92	214.286
238.29	285.714
238.67	183.871
239.04	203.448
239.41	152.778
239.79	123.913
240.16	150.000
240.53	156.818
240.91	94.118
241.28	124.000
241.65	116.000
242.02	92.754
242.40	82.258
242.77	110.000
243.14	82.796
243.51	79.775
243.89	78.824
244.26	67.778
244.63	69.892
245.00	80.851
245.38	73.267
245.75	57.944
246.12	53.211
246.49	63.504
246.87	69.600
247.24	67.692
247.61	50.714
247.98	54.902
248.36	42.568
248.73	54.777
249.10	52.229
249.47	44.633
249.84	47.059
250.22	48.663
250.59	42.604
250.96	42.929
251.33	36.019
251.70	47.030
252.08	40.476
252.45	42.601
252.82	37.391
253.19	38.723
253.56	35.294
253.94	38.589
254.31	36.719
254.68	37.308
255.05	37.638
255.42	36.992
255.79	36.765
256.16	35.379
256.54	27.562
256.91	34.520
257.28	27.698
257.65	29.043
258.02	33.540
258.39	28.707
258.76	30.100
259.14	32.143
259.51	29.179
259.88	27.329
260.25	29.003
260.62	26.012
260.99	31.677
261.36	32.132
261.73	29.799
262.10	26.453
262.47	31.831
262.85	25.905
263.22	23.932
263.59	31.624
263.96	26.923
264.33	27.937
264.70	25.789
265.07	26.343
265.44	28.283
265.81	23.358
266.18	28.392
266.55	25.122
266.92	26.290
267.29	25.694
267.66	26.147
268.03	24.773
268.40	26.636
268.77	26.253
269.14	24.775
269.51	25.282
269.88	25.874
270.25	26.185
270.62	24.045
270.99	26.667
271.36	25.751
271.73	24.766
272.10	25.870
272.47	26.667
272.84	24.892
273.21	23.690
273.58	24.672
273.95	24.109
274.32	22.314
274.69	24.625
275.06	22.638
275.43	24.043
275.80	25.050
276.17	23.014
276.54	21.622
276.91	20.949
277.28	23.828
277.65	24.952
278.02	22.360
278.39	25.586
278.76	22.727
279.13	23.208
279.50	21.415
279.87	22.510
280.23	21.956
280.60	21.470
280.97	22.921
281.34	22.478
281.71	22.909
282.08	22.073
282.45	20.182
282.82	22.025
283.19	19.073
283.56	22.632
283.92	24.027
284.29	20.635
284.66	21.416
285.03	20.976
285.40	20.951
285.77	20.707
286.14	20.725
286.51	20.833
286.87	20.684
287.24	20.847
287.61	19.904
287.98	20.942
288.35	19.176
288.72	19.626
289.08	18.936
289.45	18.946
289.82	20.163
290.19	18.838
290.56	20.214
290.93	17.825
291.29	20.399
291.66	19.764
292.03	19.331
292.40	20.117
292.77	18.639
293.13	19.403
293.50	17.638
293.87	17.037
294.24	19.111
294.60	18.049
294.97	17.297
295.34	19.182
295.71	18.182
296.08	16.524
296.44	16.369
296.81	16.909
297.18	18.699
297.55	14.512
297.91	17.150
298.28	17.671
298.65	18.407
299.02	18.050
299.38	17.530
299.75	15.364
300.12	15.837
300.48	16.875
300.85	14.920
301.22	16.815
301.59	14.394
301.95	15.869
302.32	17.073
302.69	15.412
303.05	16.121
303.42	16.049
303.79	14.723
304.15	15.152
304.52	14.948
304.89	16.144
305.25	14.385
305.62	15.855
305.99	16.647
306.35	13.647
306.72	15.247
307.09	15.316
307.45	17.005
307.82	13.728
308.19	15.673
308.55	17.691
308.92	16.327
309.29	14.995
309.65	13.892
310.02	15.645
310.38	15.914
310.75	15.523
311.12	15.660
311.48	16.301
311.85	16.981
312.22	15.401
312.58	15.073
312.95	15.734
313.31	15.728
313.68	16.944
314.05	18.245
314.41	16.583
314.78	16.918
315.14	16.783
315.51	18.435
315.87	17.426
316.24	18.272
316.61	17.544
316.97	18.493
317.34	17.319
317.70	18.451
318.07	19.346
318.43	18.787
318.80	18.744
319.16	20.527
319.53	19.231
319.89	21.714
320.26	21.600
320.62	22.123
320.99	20.707
321.35	21.414
321.72	22.382
322.08	22.804
322.45	23.483
322.81	22.965
323.18	24.759
323.54	24.397
323.91	24.245
324.27	22.562
324.64	23.765
325.00	22.272
325.37	25.751
325.73	25.494
326.10	24.713
326.46	25.000
326.83	25.108
327.19	25.875
327.56	26.481
327.92	25.459
328.29	28.039
328.65	27.716
329.01	26.805
329.38	26.827
329.74	26.962
330.11	27.238
330.47	27.732
330.84	27.941
331.20	26.867
331.56	28.532
331.93	28.519
332.29	26.619
332.66	28.142
333.02	27.331
333.38	26.378
333.75	28.342
334.11	28.203
334.48	27.862
334.84	27.574
335.20	27.818
335.57	28.468
335.93	27.232
336.29	27.289
336.66	29.486
337.02	27.692
337.38	29.167
337.75	26.916
338.11	27.574
338.47	27.532
338.84	28.139
339.20	27.890
339.56	29.745
339.93	27.273
340.29	27.808
340.65	27.897
341.02	27.836
341.38	28.114
341.74	27.544
342.11	27.686
342.47	28.194
342.83	27.997
343.20	29.177
343.56	27.043
343.92	28.421
344.28	27.296
344.65	28.977
345.01	28.704
345.37	27.101
345.73	27.157
346.10	28.389
346.46	28.475
346.82	28.501
347.19	27.151
347.55	27.011
347.91	27.832
348.27	28.020
348.63	28.177
349.00	27.832
349.36	27.586
349.72	27.987
350.08	28.120
350.45	29.373
350.81	27.782
351.17	28.201
351.53	28.174
351.89	27.558
352.26	29.282
352.62	28.228
352.98	28.201
353.34	28.513
353.70	27.987
354.07	28.710
354.43	28.333
354.79	27.916
355.15	28.093
355.51	28.217
355.87	29.061
356.24	27.687
356.60	27.265
356.96	28.801
357.32	27.800
357.68	28.425
358.04	28.266
358.40	29.216
358.77	28.951
359.13	28.256
359.49	28.706
359.85	27.778
360.21	28.868
360.57	30.272
360.93	29.538
361.29	29.554
361.66	28.638
362.02	30.149
362.38	30.266
362.74	29.464
363.10	28.423
363.46	29.054
363.82	29.856
364.18	29.515
364.54	30.832
364.90	31.303
365.26	29.926
365.62	30.606
365.98	30.168
366.35	29.298
366.71	30.586
367.07	31.391
367.43	31.350
367.79	31.620
368.15	31.034
368.51	30.523
368.87	31.121
369.23	30.944
369.59	31.861
369.95	31.324
370.31	31.838
370.67	31.087
371.03	33.109
371.39	32.216
371.75	30.441
372.11	30.299
372.47	32.698
372.83	32.349
373.19	32.442
373.55	31.929
373.91	33.873
374.27	32.852
374.63	33.018
374.99	33.686
375.35	32.938
375.71	32.557
376.07	32.442
376.42	33.494
376.78	34.526
377.14	33.514
377.50	34.305
377.86	32.513
378.22	34.576
378.58	33.396
378.94	33.627
379.30	34.542
379.66	34.327
380.02	34.644
380.38	34.062
380.74	35.174
381.09	35.636
381.45	36.509
381.81	35.934
382.17	36.051
382.53	36.101
382.89	35.864
383.25	36.710
383.61	36.927
383.97	36.648
384.32	36.619
384.68	37.113
385.04	37.246
385.40	36.656
385.76	37.715
386.12	37.565
386.48	37.697
386.83	39.513
387.19	38.652
387.55	39.023
387.91	39.178
388.27	37.646
388.62	38.906
388.98	38.145
389.34	39.737
389.70	38.811
390.06	39.987
390.42	38.781
390.77	39.059
391.13	40.268
391.49	39.657
391.85	39.847
392.20	39.495
392.56	40.593
392.92	40.553
393.28	40.296
393.64	40.887
393.99	39.218
394.35	40.943
394.71	40.652
395.07	40.125
395.42	41.842
395.78	42.048
396.14	41.962
396.50	42.857
396.85	42.657
397.21	41.554
397.57	42.405
397.92	41.827
398.28	41.816
398.64	42.772
399.00	42.753
399.35	41.286
399.71	41.493
400.07	43.288
400.42	43.497
400.78	44.150
401.14	42.988
401.49	43.224
401.85	41.984
402.21	43.234
402.57	43.924
402.92	43.947
403.28	43.785
403.63	43.936
403.99	43.694
404.35	43.939
404.70	44.245
405.06	43.914
405.42	44.666
405.77	43.257
406.13	42.269
406.49	44.175
406.84	43.296
407.20	43.558
407.55	44.288
407.91	44.867
408.27	44.608
408.62	44.491
408.98	44.914
409.34	44.157
409.69	44.710
410.05	44.672
410.40	44.526
410.76	44.265
411.11	43.788
411.47	43.642
411.83	45.388
412.18	43.847
412.54	45.268
412.89	43.373
413.25	45.396
413.60	45.337
413.96	43.169
414.31	44.654
414.67	45.437
415.03	45.232
415.38	45.747
415.74	45.209
416.09	45.722
416.45	45.382
416.80	45.539
417.16	45.174
417.51	45.587
417.87	45.022
418.22	44.101
418.58	46.675
418.93	45.455
419.29	44.430
419.64	45.718
420.00	45.366
420.35	44.464
420.71	45.846
421.06	43.974
421.42	44.620
421.77	44.619
422.12	45.312
422.48	44.738
422.83	45.137
423.19	45.304
423.54	44.806
423.90	45.739
424.25	45.282
424.61	45.655
424.96	45.190
425.31	44.408
425.67	44.719
426.02	44.571
426.38	45.971
426.73	44.587
427.09	45.350
427.44	44.336
427.79	44.566
428.15	44.881
428.50	44.412
428.85	44.875
429.21	44.064
429.56	44.686
429.92	44.288
430.27	44.141
430.62	43.523
430.98	44.266
431.33	44.588
431.68	44.450
432.04	44.089
432.39	45.003
432.74	45.063
433.10	46.010
433.45	44.898
433.80	45.344
434.16	44.498
434.51	44.368
434.86	44.641
435.22	45.192
435.57	44.985
435.92	44.587
436.28	44.899
436.63	45.033
436.98	45.507
437.34	45.081
437.69	46.499
438.04	44.351
438.39	46.388
438.75	45.555
439.10	44.804
439.45	43.920
439.81	44.048
440.16	43.704
440.51	44.054
440.86	44.470
441.22	44.327
441.57	45.223
441.92	44.831
442.27	45.210
442.63	44.128
442.98	45.127
443.33	43.967
443.68	44.502
444.03	44.119
444.39	43.476
444.74	44.426
445.09	44.798
445.44	43.521
445.79	43.840
446.15	43.197
446.50	43.780
446.85	43.936
447.20	43.498
447.55	44.779
447.91	44.843
448.26	43.684
448.61	43.697
448.96	44.574
449.31	44.882
449.66	43.275
450.02	43.733
450.37	43.027
450.72	44.557
451.07	44.363
451.42	42.979
451.77	44.921
452.12	44.573
452.47	43.532
452.83	43.823
453.18	43.154
453.53	44.341
453.88	44.300
454.23	42.917
454.58	44.700
454.93	43.929
455.28	43.828
455.63	43.811
455.98	44.107
456.34	43.656
456.69	43.206
457.04	43.529
457.39	41.964
457.74	43.297
458.09	43.071
458.44	43.101
458.79	42.028
459.14	43.736
459.49	42.674
459.84	42.438
460.19	43.135
460.54	41.725
460.89	42.074
461.24	43.473
461.59	43.928
461.94	41.862
462.29	42.552
462.64	41.736
462.99	40.859
463.34	42.533
463.69	42.026
464.04	42.783
464.39	41.797
464.74	41.652
465.09	41.797
465.44	41.108
465.79	40.101
466.14	40.339
466.49	40.601
466.84	42.032
467.19	42.004
467.54	41.000
467.89	40.336
468.24	41.827
468.59	41.819
468.94	39.951
469.29	41.067
469.64	43.039
469.99	41.813
470.34	41.215
470.68	42.170
471.03	41.156
471.38	41.070
471.73	40.440
472.08	40.921
472.43	39.698
472.78	40.026
473.13	41.207
473.48	40.574
473.83	40.610
474.17	40.510
474.52	40.943
474.87	40.630
475.22	40.221
475.57	38.743
475.92	39.883
476.27	39.459
476.61	39.934
476.96	39.032
477.31	38.566
477.66	39.333
478.01	37.794
478.36	39.186
478.70	38.629
479.05	39.084
479.40	38.690
479.75	38.536
480.10	38.469
480.45	37.887
480.79	37.172
481.14	38.552
481.49	38.206
481.84	37.952
482.19	38.301
482.53	37.477
482.88	37.180
483.23	37.804
483.58	37.716
483.92	37.957
484.27	36.340
484.62	37.241
484.97	37.209
485.31	37.158
485.66	36.259
486.01	34.580
486.36	33.903
486.70	33.455
487.05	33.829
487.40	34.704
487.75	34.666
488.09	35.760
488.44	34.923
488.79	35.371
489.13	36.478
489.48	35.808
489.83	35.736
490.17	35.467
490.52	35.164
490.87	35.957
491.22	34.970
491.56	34.761
491.91	35.319
492.26	34.910
492.60	35.576
492.95	34.939
493.30	35.000
493.64	34.764
493.99	34.355
494.34	34.505
494.68	35.119
495.03	34.633
495.37	34.295
495.72	35.721
496.07	34.246
496.41	33.407
496.76	33.641
497.11	34.039
497.45	34.606
497.80	33.781
498.14	33.913
498.49	33.220
498.84	33.988
499.18	33.810
499.53	33.428
499.87	33.411
500.22	33.914
500.56	34.660
500.91	32.788
501.26	33.523
501.60	34.029
501.95	33.135
502.29	32.990
502.64	33.101
502.98	32.492
503.33	32.084
503.67	32.900
504.02	33.115
504.36	32.475
504.71	31.607
505.06	32.337
505.40	31.891
505.75	31.774
506.09	31.438
506.44	32.610
506.78	32.197
507.13	32.055
507.47	32.273
507.82	32.016
508.16	31.104
508.51	31.811
508.85	31.579
509.19	31.071
509.54	32.041
509.88	31.633
510.23	31.157
510.57	32.250
510.92	30.968
511.26	30.884
511.61	31.432
511.95	30.637
512.30	30.965
512.64	31.166
512.98	31.940
513.33	31.263
513.67	31.163
514.02	30.574
514.36	31.404
514.70	31.212
515.05	31.121
515.39	31.239
515.74	30.236
516.08	31.582
516.42	30.577
516.77	31.271
517.11	31.021
517.46	30.926
517.80	30.139
518.14	29.299
518.49	30.922
518.83	30.455
519.17	30.485
519.52	29.825
519.86	28.979
520.20	30.405
520.55	30.461
520.89	30.231
521.23	30.277
521.58	29.412
521.92	30.006
522.26	29.225
522.61	30.280
522.95	28.607
523.29	29.884
523.64	29.390
523.98	30.129
524.32	29.192
524.66	29.405
525.01	28.860
525.35	28.501
525.69	28.571
526.04	28.785
526.38	29.103
526.72	29.141
527.06	29.253
527.41	28.280
527.75	28.939
528.09	29.608
528.43	29.254
528.78	27.904
529.12	27.636
529.46	28.843
529.80	29.208
530.15	29.283
530.49	28.308
530.83	28.861
531.17	28.655
531.51	28.859
531.86	28.065
532.20	29.270
532.54	28.571
532.88	28.370
533.22	27.608
533.57	28.148
533.91	28.116
534.25	27.886
534.59	27.639
534.93	27.424
535.27	28.002
535.62	27.717
535.96	27.495
536.30	26.828
536.64	27.109
536.98	27.405
537.32	27.123
537.66	27.467
538.01	26.991
538.35	27.149
538.69	27.888
539.03	26.511
539.37	26.773
539.71	25.535
540.05	26.797
540.39	27.375
540.73	26.003
541.07	26.866
541.42	26.484
541.76	26.903
542.10	27.038
542.44	25.960
542.78	26.877
543.12	25.912
543.46	26.098
543.80	26.025
544.14	25.353
544.48	26.349
544.82	25.722
545.16	26.675
545.50	25.514
545.84	27.419
546.18	26.061
546.52	25.465
546.86	25.086
547.20	26.972
547.54	26.453
547.88	26.339
548.22	25.342
548.56	25.346
548.90	24.264
549.24	25.387
549.58	25.784
549.92	25.137
550.26	26.065
550.60	25.035
550.94	25.070
551.28	24.726
551.62	25.593
551.96	24.842
552.30	25.529
552.64	24.544
552.98	26.441
553.32	25.421
553.66	25.699
554.00	24.846
554.34	25.328
554.68	25.751
555.02	24.260
555.36	24.913
555.69	24.966
556.03	24.899
556.37	24.147
556.71	24.693
557.05	25.140
557.39	23.933
557.73	24.629
558.07	24.293
558.41	24.674
558.75	23.733
559.08	23.788
559.42	24.868
559.76	24.191
560.10	24.839
560.44	24.458
560.78	23.420
561.12	22.955
561.45	23.924
561.79	23.270
562.13	23.206
562.47	23.975
562.81	24.128
563.15	23.411
563.48	23.939
563.82	23.027
564.16	23.479
564.50	22.852
564.84	22.124
565.17	22.072
565.51	22.620
565.85	23.477
566.19	22.480
566.52	22.799
566.86	22.363
567.20	23.172
567.54	22.945
567.88	22.488
568.21	23.122
568.55	22.194
568.89	21.936
569.23	22.059
569.56	21.336
569.90	20.679
570.24	20.990
570.57	20.537
570.91	19.845
571.25	20.506
571.59	20.412
571.92	20.075
572.26	20.451
572.60	20.931
572.93	19.790
573.27	20.112
573.61	20.380
573.95	20.155
574.28	19.925
574.62	20.068
574.96	19.713
575.29	19.496
575.63	19.970
575.97	19.500
576.30	19.729
576.64	19.712
576.98	19.859
577.31	19.894
577.65	19.739
577.98	19.522
578.32	19.023
578.66	19.203
578.99	19.493
579.33	19.342
579.67	18.973
580.00	19.108
580.34	19.079
580.67	19.144
581.01	19.834
581.35	19.513
581.68	19.416
582.02	18.384
582.35	19.132
582.69	18.723
583.02	18.791
583.36	19.207
583.70	19.406
584.03	19.175
584.37	19.183
584.70	19.201
585.04	19.349
585.37	19.245
585.71	18.985
586.04	18.893
586.38	19.410
586.72	19.415
587.05	19.071
587.39	18.522
587.72	19.093
588.06	18.517
588.39	19.150
588.73	18.862
589.06	19.289
589.40	19.192
589.73	19.676
590.07	19.324
590.40	19.109
590.73	19.165
591.07	19.862
591.40	20.202
591.74	19.913
592.07	18.848
592.41	19.760
592.74	19.288
593.08	19.354
593.41	19.140
593.75	18.832
594.08	18.874
594.41	19.017
594.75	18.632
595.08	19.077
595.42	19.054
595.75	18.910
596.09	19.264
596.42	19.489
596.75	19.122
597.09	20.043
597.42	18.634
597.75	19.060
598.09	18.957
598.42	19.287
598.76	18.606
599.09	18.092
599.42	18.668
599.76	19.034
600.09	18.616
600.42	18.408
600.76	18.036
601.09	18.980
601.42	18.836
601.76	18.482
602.09	18.419
602.42	19.108
602.76	19.549
603.09	18.765
603.42	18.352
603.76	18.369
604.09	18.340
604.42	19.160
604.76	19.485
605.09	18.392
605.42	18.256
605.75	18.998
606.09	17.893
606.42	18.349
606.75	18.374
607.09	18.920
607.42	18.656
607.75	18.776
608.08	18.194
608.42	19.364
608.75	18.395
609.08	18.224
609.41	18.705
609.75	17.770
610.08	19.180
610.41	18.156
610.74	18.023
611.07	18.725
611.41	18.302
611.74	18.904
612.07	19.410
612.40	18.625
612.73	18.368
613.07	19.397
613.40	19.063
613.73	18.458
614.06	18.441
614.39	19.402
614.72	19.053
615.06	18.855
615.39	18.206
615.72	18.558
616.05	18.341
616.38	19.233
616.71	19.062
617.05	18.728
617.38	18.340
617.71	18.559
618.04	19.772
618.37	17.682
618.70	18.917
619.03	20.197
619.36	19.552
619.69	19.225
620.03	19.643
620.36	20.321
620.69	20.411
621.02	19.543
621.35	19.734
621.68	19.237
622.01	19.427
622.34	19.592
622.67	19.620
623.00	18.562
623.33	19.157
623.66	20.014
623.99	20.250
624.32	18.402
624.65	18.503
624.99	18.697
625.32	18.610
625.65	18.783
625.98	19.831
626.31	20.373
626.64	19.918
626.97	19.618
627.30	19.368
627.63	20.180
627.96	20.185
628.29	19.860
628.62	20.494
628.95	21.887
629.28	20.164
629.61	21.540
629.94	20.381
630.26	20.782
630.59	20.400
