SpectraSuite Data File
++++++++++++++++++++++++++++++++++++
Date: Wed May 13 19:10:11 PDT 2015
User: schluterlab
Dark Spectrum Present: Yes
Reference Spectrum Present: Yes
Number of Sampled Component Spectra: 1
Spectrometers: USB2E3373
Integration Time (usec): 3000 (USB2E3373)
Spectra Averaged: 3 (USB2E3373)
Boxcar Smoothing: 0 (USB2E3373)
Correct for Electrical Dark: No (USB2E3373)
Strobe/Lamp Enabled: No (USB2E3373)
Correct for Detector Non-linearity: No (USB2E3373)
Correct for Stray Light: No (USB2E3373)
Number of Pixels in Processed Spectrum: 2048
>>>>>Begin Processed Spectral Data<<<<<
178.53	0.000
178.91	-1525.000
179.29	-1450.000
179.67	-283.333
180.04	-1450.000
180.42	2250.000
180.80	1080.000
181.18	-1350.000
181.56	885.714
181.94	0.000
182.31	-900.000
182.69	2000.000
183.07	-675.000
183.45	-566.667
183.83	490.909
184.20	-570.000
184.58	2550.000
184.96	5900.000
185.34	-1000.000
185.72	-637.500
186.09	-3000.000
186.47	2800.000
186.85	2750.000
187.23	6000.000
187.61	-1933.333
187.98	1750.000
188.36	645.455
188.74	618.182
189.12	-1040.000
189.49	610.000
189.87	-4700.000
190.25	-1475.000
190.63	500.000
191.00	500.000
191.38	950.000
191.76	-1500.000
192.14	1675.000
192.51	650.000
192.89	1050.000
193.27	737.500
193.65	-1300.000
194.02	710.000
194.40	1120.000
194.78	610.000
195.15	600.000
195.53	830.000
195.91	-2550.000
196.29	387.500
196.66	347.368
197.04	-470.000
197.42	0.000
197.79	640.000
198.17	-5700.000
198.55	742.857
198.92	712.500
199.30	1020.000
199.68	0.000
200.05	361.111
200.43	842.857
200.81	5000.000
201.18	2000.000
201.56	-1600.000
201.94	744.444
202.31	644.444
202.69	391.667
203.07	590.000
203.44	0.000
203.82	1275.000
204.19	842.857
204.57	492.857
204.95	762.500
205.32	2266.667
205.70	563.636
206.08	407.143
206.45	2850.000
206.83	443.750
207.20	900.000
207.58	1040.000
207.96	388.889
208.33	825.000
208.71	-966.667
209.08	885.714
209.46	600.000
209.84	500.000
210.21	-1866.667
210.59	1550.000
210.96	-500.000
211.34	3000.000
211.71	670.000
212.09	900.000
212.46	0.000
212.84	1833.333
213.22	1725.000
213.59	-5900.000
213.97	933.333
214.34	842.857
214.72	563.636
215.09	1240.000
215.47	-2750.000
215.84	-2600.000
216.22	1933.333
216.59	521.429
216.97	1425.000
217.34	536.364
217.72	-916.667
218.09	0.000
218.47	-5500.000
218.84	677.778
219.22	900.000
219.59	2033.333
219.97	-742.857
220.34	960.000
220.72	-1433.333
221.09	414.286
221.47	1550.000
221.84	-1250.000
222.22	0.000
222.59	1350.000
222.97	-2650.000
223.34	1560.000
223.72	484.615
224.09	1200.000
224.46	2750.000
224.84	-5300.000
225.21	-1080.000
225.59	-4800.000
225.96	660.000
226.34	360.000
226.71	2750.000
227.08	737.500
227.46	630.000
227.83	-1100.000
228.21	-2700.000
228.58	666.667
228.95	-2400.000
229.33	-2900.000
229.70	1933.333
230.08	900.000
230.45	-1000.000
230.82	566.667
231.20	933.333
231.57	828.571
231.95	525.000
232.32	295.455
232.69	463.636
233.07	671.429
233.44	392.308
233.81	-2000.000
234.19	389.474
234.56	541.667
234.93	408.333
235.31	500.000
235.68	446.154
236.05	485.714
236.43	190.909
236.80	394.737
237.17	5700.000
237.55	285.714
237.92	260.714
238.29	309.524
238.67	225.806
239.04	248.276
239.41	188.889
239.79	167.391
240.16	197.619
240.53	179.545
240.91	135.294
241.28	150.000
241.65	162.000
242.02	114.493
242.40	130.645
242.77	138.333
243.14	106.452
243.51	114.607
243.89	107.059
244.26	97.778
244.63	102.151
245.00	95.745
245.38	96.040
245.75	90.654
246.12	82.569
246.49	83.942
246.87	92.000
247.24	80.769
247.61	80.714
247.98	71.895
248.36	77.027
248.73	77.707
249.10	78.981
249.47	68.927
249.84	74.332
250.22	66.845
250.59	76.923
250.96	69.697
251.33	66.351
251.70	67.822
252.08	67.143
252.45	62.332
252.82	58.696
253.19	65.957
253.56	58.824
253.94	65.145
254.31	58.203
254.68	65.769
255.05	60.517
255.42	68.293
255.79	59.926
256.16	62.816
256.54	56.890
256.91	56.584
257.28	59.712
257.65	58.746
258.02	51.863
258.39	55.836
258.76	58.528
259.14	54.464
259.51	54.711
259.88	54.969
260.25	53.474
260.62	57.803
260.99	53.106
261.36	57.658
261.73	56.160
262.10	56.105
262.47	52.394
262.85	54.039
263.22	52.137
263.59	56.410
263.96	53.846
264.33	48.303
264.70	53.684
265.07	49.616
265.44	49.495
265.81	50.608
266.18	52.513
266.55	53.171
266.92	52.580
267.29	49.769
267.66	49.083
268.03	52.045
268.40	50.000
268.77	49.881
269.14	47.523
269.51	50.790
269.88	51.515
270.25	49.887
270.62	51.910
270.99	52.043
271.36	50.858
271.73	50.701
272.10	51.957
272.47	49.677
272.84	50.433
273.21	48.008
273.58	47.817
273.95	44.654
274.32	50.413
274.69	50.749
275.06	43.898
275.43	50.426
275.80	48.096
276.17	47.047
276.54	46.362
276.91	45.059
277.28	45.117
277.65	48.936
278.02	46.584
278.39	49.219
278.76	47.455
279.13	46.226
279.50	46.927
279.87	47.410
280.23	44.711
280.60	43.714
280.97	43.438
281.34	46.372
281.71	45.818
282.08	46.257
282.45	46.000
282.82	45.471
283.19	43.494
283.56	45.439
283.92	44.332
284.29	43.739
284.66	46.461
285.03	45.931
285.40	42.782
285.77	44.108
286.14	42.314
286.51	43.500
286.87	43.932
287.24	45.603
287.61	41.413
287.98	43.182
288.35	41.680
288.72	40.654
289.08	40.845
289.45	40.033
289.82	42.439
290.19	40.031
290.56	38.897
290.93	37.462
291.29	40.951
291.66	38.201
292.03	39.244
292.40	40.235
292.77	40.828
293.13	37.761
293.50	38.630
293.87	39.111
294.24	37.630
294.60	37.118
294.97	39.826
295.34	37.800
295.71	39.205
296.08	36.040
296.44	36.864
296.81	36.460
297.18	38.618
297.55	34.301
297.91	35.884
298.28	34.806
298.65	34.856
299.02	34.914
299.38	35.591
299.75	34.636
300.12	35.760
300.48	35.125
300.85	33.416
301.22	33.376
301.59	32.955
301.95	34.635
302.32	34.146
302.69	34.409
303.05	35.394
303.42	33.580
303.79	33.749
304.15	32.284
304.52	32.561
304.89	32.056
305.25	33.179
305.62	32.843
305.99	34.829
306.35	31.991
306.72	32.287
307.09	32.741
307.45	33.221
307.82	31.027
308.19	32.892
308.55	33.333
308.92	31.686
309.29	30.834
309.65	31.601
310.02	32.558
310.38	31.505
310.75	31.151
311.12	31.832
311.48	31.557
311.85	32.180
312.22	31.322
312.58	31.497
312.95	31.468
313.31	29.806
313.68	30.353
314.05	32.446
314.41	30.653
314.78	31.420
315.14	30.884
315.51	31.102
315.87	31.782
316.24	30.487
316.61	31.871
316.97	30.724
317.34	29.843
317.70	31.836
318.07	30.991
318.43	32.681
318.80	31.115
319.16	30.603
319.53	28.799
319.89	31.048
320.26	31.200
320.62	30.655
320.99	30.303
321.35	31.616
321.72	30.390
322.08	30.898
322.45	30.050
322.81	29.748
323.18	29.769
323.54	30.519
323.91	30.377
324.27	30.306
324.64	28.145
325.00	28.404
325.37	29.208
325.73	30.072
326.10	28.597
326.46	26.703
326.83	29.422
327.19	28.864
327.56	29.355
327.92	29.921
328.29	29.725
328.65	29.650
329.01	28.791
329.38	29.047
329.74	27.978
330.11	29.218
330.47	28.834
330.84	29.688
331.20	27.413
331.56	28.716
331.93	28.241
332.29	27.950
332.66	27.788
333.02	28.245
333.38	29.178
333.75	27.718
334.11	27.491
334.48	26.974
334.84	28.033
335.20	29.182
335.57	27.924
335.93	26.964
336.29	27.930
336.66	28.494
337.02	26.516
337.38	28.796
337.75	27.094
338.11	26.589
338.47	29.006
338.84	27.681
339.20	27.156
339.56	29.106
339.93	26.273
340.29	27.808
340.65	27.094
341.02	27.923
341.38	26.779
341.74	27.105
342.11	26.638
342.47	27.401
342.83	26.798
343.20	27.100
343.56	26.369
343.92	27.456
344.28	25.850
344.65	27.343
345.01	26.684
345.37	25.729
345.73	27.327
346.10	26.769
346.46	26.356
346.82	25.865
347.19	25.480
347.55	25.616
347.91	26.780
348.27	26.952
348.63	26.087
349.00	25.809
349.36	26.026
349.72	25.982
350.08	26.904
350.45	26.444
350.81	25.670
351.17	25.365
351.53	25.880
351.89	25.660
352.26	26.046
352.62	26.303
352.98	25.365
353.34	26.130
353.70	24.468
354.07	24.919
354.43	25.635
354.79	24.296
355.15	26.656
355.51	25.819
355.87	25.714
356.24	25.489
356.60	25.341
356.96	24.296
357.32	25.511
357.68	25.039
358.04	24.782
358.40	25.178
358.77	25.743
359.13	25.257
359.49	26.275
359.85	24.444
360.21	24.083
360.57	25.136
360.93	25.154
361.29	24.717
361.66	23.762
362.02	25.075
362.38	24.867
362.74	24.702
363.10	23.982
363.46	24.798
363.82	24.717
364.18	23.642
364.54	24.368
364.90	24.575
365.26	24.632
365.62	24.617
365.98	23.959
366.35	22.994
366.71	24.150
367.07	24.253
367.43	25.109
367.79	25.125
368.15	24.569
368.51	23.328
368.87	23.911
369.23	23.994
369.59	24.692
369.95	24.412
370.31	25.071
370.67	23.768
371.03	24.869
371.39	24.344
371.75	23.897
372.11	23.826
372.47	25.073
372.83	24.784
373.19	23.049
373.55	25.203
373.91	24.227
374.27	23.368
374.63	23.273
374.99	23.658
375.35	23.168
375.71	22.755
376.07	24.074
376.42	23.659
376.78	24.122
377.14	22.659
377.50	23.510
377.86	23.005
378.22	22.946
378.58	22.118
378.94	23.130
379.30	22.074
379.66	23.033
380.02	22.482
380.38	22.890
380.74	22.869
381.09	23.350
381.45	22.803
381.81	22.727
382.17	23.631
382.53	22.579
382.89	23.457
383.25	22.764
383.61	23.296
383.97	23.077
384.32	22.707
384.68	21.871
385.04	22.495
385.40	22.477
385.76	22.727
386.12	22.798
386.48	23.159
386.83	23.861
387.19	22.882
387.55	22.696
387.91	22.128
388.27	22.318
388.62	23.725
388.98	22.297
389.34	23.404
389.70	22.318
390.06	22.370
390.42	22.892
390.77	23.092
391.13	22.144
391.49	23.604
391.85	22.597
392.20	22.524
392.56	22.222
392.92	22.778
393.28	21.893
393.64	22.902
393.99	22.236
394.35	21.712
394.71	22.083
395.07	22.056
395.42	22.559
395.78	22.774
396.14	21.726
396.50	23.120
396.85	22.568
397.21	22.010
397.57	22.939
397.92	22.837
398.28	21.188
398.64	21.864
399.00	21.936
399.35	21.376
399.71	22.106
400.07	22.768
400.42	22.147
400.78	22.075
401.14	21.646
401.49	23.284
401.85	22.444
402.21	21.737
402.57	22.147
402.92	23.266
403.28	22.798
403.63	22.215
403.99	22.420
404.35	23.152
404.70	22.062
405.06	22.015
405.42	22.333
405.77	21.486
406.13	22.460
406.49	22.649
406.84	21.618
407.20	21.749
407.55	22.272
407.91	22.467
408.27	22.463
408.62	22.336
408.98	21.875
409.34	22.448
409.69	22.258
410.05	21.685
410.40	22.080
410.76	21.027
411.11	21.411
411.47	21.278
411.83	21.564
412.18	21.645
412.54	22.540
412.89	22.410
413.25	21.901
413.60	21.248
413.96	21.129
414.31	21.810
414.67	22.053
415.03	22.053
415.38	22.036
415.74	22.186
416.09	22.861
416.45	21.553
416.80	21.811
417.16	22.855
417.51	21.964
417.87	21.773
418.22	22.208
418.58	22.143
418.93	21.683
419.29	22.215
419.64	21.537
420.00	22.317
420.35	21.565
420.71	21.937
421.06	21.301
421.42	21.637
421.77	21.973
422.12	20.663
422.48	20.453
422.83	22.190
423.19	22.099
423.54	21.822
423.90	22.667
424.25	21.887
424.61	21.786
424.96	21.399
425.31	21.041
425.67	20.674
426.02	20.629
426.38	22.650
426.73	20.597
427.09	20.669
427.44	21.392
427.79	21.737
428.15	21.905
428.50	21.533
428.85	21.692
429.21	21.369
429.56	20.840
429.92	21.339
430.27	20.506
430.62	21.249
430.98	21.328
431.33	20.979
431.68	21.204
432.04	21.033
432.39	21.245
432.74	20.886
433.10	22.071
433.45	21.399
433.80	21.341
434.16	21.154
434.51	21.632
434.86	21.494
435.22	21.234
435.57	21.763
435.92	21.358
436.28	21.945
436.63	22.185
436.98	20.664
437.34	22.123
437.69	22.812
438.04	21.192
438.39	21.493
438.75	22.196
439.10	21.341
439.45	21.547
439.81	21.208
440.16	21.062
440.51	21.968
440.86	21.598
441.22	21.746
441.57	20.913
441.92	22.006
442.27	21.744
442.63	20.169
442.98	21.746
443.33	20.924
443.68	21.012
444.03	20.986
444.39	20.448
444.74	20.942
445.09	21.725
445.44	21.323
445.79	21.524
446.15	21.387
446.50	21.002
446.85	21.531
447.20	21.265
447.55	21.720
447.91	20.629
448.26	21.647
448.61	21.764
448.96	22.536
449.31	21.822
449.66	21.384
450.02	21.504
450.37	20.748
450.72	21.658
451.07	20.293
451.42	21.216
451.77	21.785
452.12	21.478
452.47	22.201
452.83	21.795
453.18	21.210
453.53	21.398
453.88	21.677
454.23	21.817
454.58	22.532
454.93	23.077
455.28	21.135
455.63	21.117
455.98	22.976
456.34	21.671
456.69	21.853
457.04	21.920
457.39	21.099
457.74	21.532
458.09	21.737
458.44	22.634
458.79	20.933
459.14	22.291
459.49	21.074
459.84	21.108
460.19	20.978
460.54	21.586
460.89	20.680
461.24	20.886
461.59	22.487
461.94	20.160
462.29	22.789
462.64	21.825
462.99	21.535
463.34	22.333
463.69	21.201
464.04	20.812
464.39	21.623
464.74	21.925
465.09	20.748
465.44	20.776
465.79	20.358
466.14	21.730
466.49	21.413
466.84	22.067
467.19	22.209
467.54	21.312
467.89	21.429
468.24	21.757
468.59	22.283
468.94	21.625
469.29	22.237
469.64	22.758
469.99	21.989
470.34	22.853
470.68	22.198
471.03	21.156
471.38	21.543
471.73	22.318
472.08	22.105
472.43	21.357
472.78	22.186
473.13	22.208
473.48	21.848
473.83	21.402
474.17	21.033
474.52	21.588
474.87	21.424
475.22	21.358
475.57	20.903
475.92	20.605
476.27	21.759
476.61	21.346
476.96	21.220
477.31	21.193
477.66	21.718
478.01	20.857
478.36	20.465
478.70	20.457
479.05	20.767
479.40	20.880
479.75	21.098
480.10	20.775
480.45	20.752
480.79	20.592
481.14	21.282
481.49	20.930
481.84	20.165
482.19	20.809
482.53	20.459
482.88	20.335
483.23	20.140
483.58	20.610
483.92	21.040
484.27	20.000
484.62	20.603
484.97	20.339
485.31	20.274
485.66	19.444
486.01	18.662
486.36	18.144
486.70	17.954
487.05	18.426
487.40	18.973
487.75	19.031
488.09	19.594
488.44	19.813
488.79	20.289
489.13	20.474
489.48	21.166
489.83	20.457
490.17	20.737
490.52	19.929
490.87	20.715
491.22	19.873
491.56	19.271
491.91	20.382
492.26	20.441
492.60	20.507
492.95	19.878
493.30	20.187
493.64	20.859
493.99	19.963
494.34	20.120
494.68	20.833
495.03	20.207
495.37	20.289
495.72	20.322
496.07	20.696
496.41	19.912
496.76	20.493
497.11	20.351
497.45	20.587
497.80	20.345
498.14	20.386
498.49	20.878
498.84	21.524
499.18	20.238
499.53	20.608
499.87	20.084
500.22	20.772
500.56	20.825
500.91	20.673
501.26	20.294
501.60	20.930
501.95	20.761
502.29	21.040
502.64	20.298
502.98	20.944
503.33	20.338
503.67	20.000
504.02	19.972
504.36	20.122
504.71	20.811
505.06	21.012
505.40	20.661
505.75	19.817
506.09	20.505
506.44	20.375
506.78	20.068
507.13	20.495
507.47	20.859
507.82	20.567
508.16	20.466
508.51	21.055
508.85	20.010
509.19	20.306
509.54	20.051
509.88	20.093
510.23	20.154
510.57	21.259
510.92	20.715
511.26	20.761
511.61	21.369
511.95	20.355
512.30	20.201
512.64	21.171
512.98	21.490
513.33	21.467
513.67	20.918
514.02	20.671
514.36	20.317
514.70	21.306
515.05	20.636
515.39	21.481
515.74	21.227
516.08	20.961
516.42	21.421
516.77	21.349
517.11	21.143
517.46	21.275
517.80	21.951
518.14	20.556
518.49	21.120
518.83	20.852
519.17	22.286
519.52	21.788
519.86	20.479
520.20	21.503
520.55	20.766
520.89	20.803
521.23	21.713
521.58	20.948
521.92	22.474
522.26	20.927
522.61	21.246
522.95	20.626
523.29	20.937
523.64	21.890
523.98	21.134
524.32	21.592
524.66	21.828
525.01	21.630
525.35	21.933
525.69	21.921
526.04	21.558
526.38	20.927
526.72	22.270
527.06	22.159
527.41	20.978
527.75	21.158
528.09	21.708
528.43	22.307
528.78	22.495
529.12	21.333
529.46	21.617
529.80	22.153
530.15	21.745
530.49	21.354
530.83	22.278
531.17	21.867
531.51	21.660
531.86	20.903
532.20	22.686
532.54	22.101
532.88	21.630
533.22	21.986
533.57	21.914
533.91	21.011
534.25	21.264
534.59	21.599
534.93	20.999
535.27	21.243
535.62	21.978
535.96	21.532
536.30	20.915
536.64	21.700
536.98	22.362
537.32	22.383
537.66	21.200
538.01	22.449
538.35	21.978
538.69	22.655
539.03	21.507
539.37	21.470
539.71	20.998
540.05	21.961
540.39	21.395
540.73	21.604
541.07	22.583
541.42	22.114
541.76	22.129
542.10	22.445
542.44	21.656
542.78	22.069
543.12	21.049
543.46	21.705
543.80	21.666
544.14	20.860
544.48	22.349
544.82	21.360
545.16	21.926
545.50	21.658
545.84	22.177
546.18	22.155
546.52	22.299
546.86	21.168
547.20	22.724
547.54	21.844
547.88	22.258
548.22	21.793
548.56	21.447
548.90	21.255
549.24	21.481
549.58	22.851
549.92	21.772
550.26	22.017
550.60	21.992
550.94	22.324
551.28	20.775
551.62	22.646
551.96	21.684
552.30	22.253
552.64	22.448
552.98	21.898
553.32	21.982
553.66	22.631
554.00	22.375
554.34	21.739
554.68	21.888
555.02	22.355
555.36	21.364
555.69	20.974
556.03	22.342
556.37	22.101
556.71	21.351
557.05	22.479
557.39	22.323
557.73	21.030
558.07	22.698
558.41	22.721
558.75	22.851
559.08	22.521
559.42	22.751
559.76	22.206
560.10	22.127
560.44	21.523
560.78	21.557
561.12	21.768
561.45	21.708
561.79	20.962
562.13	22.267
562.47	22.199
562.81	21.548
563.15	21.338
563.48	21.220
563.82	20.678
564.16	21.452
564.50	20.964
564.84	21.049
565.17	20.849
565.51	20.895
565.85	20.749
566.19	20.601
566.52	20.266
566.86	20.615
567.20	21.757
567.54	21.347
567.88	20.261
568.21	20.952
568.55	20.172
568.89	20.136
569.23	20.187
569.56	19.514
569.90	20.000
570.24	19.483
570.57	19.517
570.91	19.360
571.25	19.179
571.59	19.057
571.92	19.124
572.26	19.324
572.60	19.219
572.93	19.220
573.27	19.639
573.61	19.654
573.95	18.966
574.28	19.146
574.62	19.339
574.96	19.020
575.29	18.574
575.63	18.928
575.97	19.136
576.30	19.039
576.64	18.954
576.98	18.644
577.31	19.316
577.65	19.023
577.98	18.838
578.32	18.666
578.66	18.679
578.99	18.831
579.33	19.003
579.67	18.584
580.00	19.348
580.34	19.625
580.67	18.554
581.01	18.912
581.35	19.022
581.68	18.951
582.02	18.489
582.35	18.445
582.69	18.533
583.02	18.435
583.36	18.976
583.70	18.956
584.03	19.122
584.37	19.157
584.70	19.331
585.04	19.203
585.37	19.152
585.71	19.267
586.04	18.966
586.38	19.331
586.72	18.862
587.05	19.234
587.39	18.892
587.72	19.273
588.06	19.184
588.39	19.424
588.73	19.097
589.06	19.726
589.40	19.428
589.73	19.782
590.07	20.107
590.40	19.583
590.73	19.711
591.07	20.798
591.40	20.624
591.74	21.255
592.07	20.288
592.41	20.298
592.74	19.775
593.08	19.887
593.41	19.899
593.75	18.738
594.08	19.712
594.41	19.512
594.75	20.555
595.08	19.757
595.42	19.930
595.75	20.370
596.09	20.240
596.42	20.393
596.75	19.966
597.09	20.476
597.42	20.067
597.75	20.569
598.09	20.217
598.42	20.447
598.76	19.822
599.09	19.042
599.42	20.306
599.76	20.132
600.09	19.818
600.42	19.503
600.76	19.214
601.09	19.417
601.42	19.482
601.76	19.583
602.09	20.514
602.42	20.462
602.76	20.153
603.09	20.417
603.42	20.500
603.76	20.122
604.09	20.047
604.42	20.098
604.76	20.371
605.09	19.921
605.42	20.393
605.75	19.536
606.09	19.967
606.42	20.229
606.75	20.282
607.09	20.134
607.42	19.726
607.75	20.000
608.08	20.148
608.42	20.753
608.75	20.424
609.08	19.611
609.41	20.704
609.75	20.629
610.08	21.065
610.41	19.134
610.74	19.678
611.07	21.443
611.41	20.363
611.74	21.368
612.07	20.756
612.40	20.094
612.73	20.474
613.07	20.905
613.40	20.958
613.73	20.241
614.06	20.269
614.39	20.556
614.72	20.474
615.06	21.376
615.39	20.329
615.72	20.348
616.05	20.202
616.38	20.956
616.71	20.962
617.05	22.026
617.38	21.648
617.71	21.081
618.04	21.575
618.37	21.999
618.70	21.344
619.03	22.105
619.36	21.996
619.69	22.183
620.03	21.978
620.36	21.791
620.69	22.466
621.02	23.156
621.35	20.908
621.68	21.963
622.01	22.988
622.34	22.769
622.67	22.205
623.00	21.350
623.33	21.515
623.66	22.516
623.99	21.649
624.32	22.111
624.65	21.328
624.99	21.459
625.32	22.158
625.65	21.863
625.98	21.906
626.31	22.240
626.64	22.367
626.97	22.195
627.30	21.696
627.63	23.134
627.96	22.960
628.29	22.485
628.62	23.879
628.95	24.151
629.28	22.172
629.61	23.648
629.94	24.476
630.26	23.451
630.59	23.070
