SpectraSuite Data File
++++++++++++++++++++++++++++++++++++
Date: Tue May 12 19:44:12 PDT 2015
User: schluterlab
Dark Spectrum Present: Yes
Reference Spectrum Present: Yes
Number of Sampled Component Spectra: 1
Spectrometers: USB2E3373
Integration Time (usec): 3000 (USB2E3373)
Spectra Averaged: 3 (USB2E3373)
Boxcar Smoothing: 0 (USB2E3373)
Correct for Electrical Dark: No (USB2E3373)
Strobe/Lamp Enabled: No (USB2E3373)
Correct for Detector Non-linearity: No (USB2E3373)
Correct for Stray Light: No (USB2E3373)
Number of Pixels in Processed Spectrum: 2048
>>>>>Begin Processed Spectral Data<<<<<
178.53	0.000
178.91	-120.000
179.29	-216.667
179.67	400.000
180.04	0.000
180.42	100.000
180.80	-100.000
181.18	450.000
181.56	-250.000
181.94	50.000
182.31	1500.000
182.69	-71.429
183.07	0.000
183.45	200.000
183.83	100.000
184.20	183.333
184.58	450.000
184.96	350.000
185.34	-233.333
185.72	21.429
186.09	-116.667
186.47	-700.000
186.85	0.000
187.23	66.667
187.61	-100.000
187.98	-40.000
188.36	300.000
188.74	-50.000
189.12	-88.889
189.49	-20.000
189.87	-50.000
190.25	233.333
190.63	766.667
191.00	360.000
191.38	-300.000
191.76	380.000
192.14	-28.571
192.51	-70.000
192.89	0.000
193.27	-40.000
193.65	-66.667
194.02	-100.000
194.40	200.000
194.78	-37.500
195.15	-128.571
195.53	233.333
195.91	160.000
196.29	-325.000
196.66	133.333
197.04	-171.429
197.42	120.000
197.79	-100.000
198.17	-33.333
198.55	500.000
198.92	-66.667
199.30	-0.000
199.68	-100.000
200.05	-700.000
200.43	-22.222
200.81	-50.000
201.18	450.000
201.56	-500.000
201.94	-1500.000
202.31	-75.000
202.69	11.111
203.07	33.333
203.44	-300.000
203.82	0.000
204.19	275.000
204.57	-300.000
204.95	90.909
205.32	200.000
205.70	325.000
206.08	0.000
206.45	-40.000
206.83	1300.000
207.20	-111.111
207.58	69.231
207.96	166.667
208.33	566.667
208.71	400.000
209.08	-50.000
209.46	-44.444
209.84	66.667
210.21	-233.333
210.59	100.000
210.96	166.667
211.34	-100.000
211.71	750.000
212.09	-140.000
212.46	-175.000
212.84	-50.000
213.22	28.571
213.59	-100.000
213.97	0.000
214.34	-250.000
214.72	-200.000
215.09	900.000
215.47	26.667
215.84	25.000
216.22	-1000.000
216.59	1000.000
216.97	-50.000
217.34	-83.333
217.72	11.111
218.09	275.000
218.47	21.053
218.84	-150.000
219.22	-7.143
219.59	-30.000
219.97	-20.000
220.34	250.000
220.72	90.909
221.09	0.000
221.47	0.000
221.84	250.000
222.22	-275.000
222.59	-125.000
222.97	13.043
223.34	113.333
223.72	328.571
224.09	0.000
224.46	146.154
224.84	0.000
225.21	-550.000
225.59	-150.000
225.96	15.000
226.34	266.667
226.71	90.000
227.08	-76.923
227.46	42.857
227.83	-75.000
228.21	-150.000
228.58	183.333
228.95	42.105
229.33	0.000
229.70	-250.000
230.08	-44.444
230.45	-266.667
230.82	-1100.000
231.20	9.524
231.57	-420.000
231.95	-233.333
232.32	122.222
232.69	-750.000
233.07	25.000
233.44	-137.500
233.81	35.484
234.19	-260.000
234.56	-16.667
234.93	-133.333
235.31	48.148
235.68	11.111
236.05	-30.769
236.43	-52.632
236.80	-27.273
237.17	-21.429
237.55	-60.000
237.92	11.628
238.29	29.032
238.67	35.714
239.04	42.857
239.41	9.804
239.79	30.000
240.16	12.500
240.53	20.690
240.91	34.247
241.28	29.577
241.65	34.375
242.02	7.018
242.40	-2.667
242.77	14.737
243.14	25.882
243.51	21.505
243.89	22.857
244.26	30.556
244.63	37.755
245.00	12.500
245.38	21.849
245.75	18.644
246.12	31.250
246.49	24.800
246.87	18.852
247.24	15.493
247.61	23.179
247.98	26.966
248.36	28.302
248.73	28.409
249.10	32.778
249.47	26.562
249.84	26.904
250.22	26.562
250.59	35.393
250.96	31.364
251.33	37.264
251.70	31.193
252.08	34.632
252.45	30.204
252.82	29.114
253.19	33.463
253.56	34.118
253.94	32.927
254.31	35.252
254.68	33.681
255.05	36.755
255.42	33.455
255.79	40.397
256.16	36.458
256.54	35.758
256.91	39.103
257.28	37.662
257.65	36.393
258.02	35.435
258.39	38.066
258.76	38.226
259.14	38.235
259.51	38.592
259.88	37.752
260.25	37.784
260.62	33.708
260.99	40.947
261.36	39.080
261.73	41.600
262.10	42.779
262.47	45.455
262.85	41.131
263.22	40.054
263.59	41.823
263.96	39.426
264.33	39.084
264.70	42.015
265.07	40.148
265.44	40.984
265.81	41.687
266.18	42.623
266.55	44.524
266.92	41.741
267.29	41.556
267.66	41.818
268.03	42.796
268.40	42.334
268.77	43.207
269.14	40.336
269.51	42.534
269.88	40.598
270.25	43.249
270.62	43.697
270.99	40.000
271.36	45.916
271.73	40.208
272.10	46.888
272.47	38.400
272.84	39.278
273.21	41.336
273.58	41.020
273.95	41.633
274.32	42.553
274.69	42.270
275.06	43.527
275.43	42.600
275.80	43.021
276.17	43.676
276.54	43.726
276.91	44.914
277.28	43.327
277.65	43.100
278.02	43.371
278.39	45.554
278.76	44.134
279.13	44.186
279.50	45.487
279.87	44.528
280.23	43.169
280.60	41.696
280.97	44.112
281.34	43.051
281.71	40.675
282.08	44.186
282.45	45.326
282.82	42.593
283.19	42.088
283.56	45.734
283.92	43.918
284.29	45.516
284.66	44.602
285.03	40.137
285.40	44.500
285.77	46.798
286.14	43.265
286.51	43.248
286.87	43.760
287.24	43.590
287.61	43.056
287.98	44.757
288.35	43.101
288.72	43.272
289.08	43.396
289.45	42.902
289.82	42.236
290.19	41.818
290.56	40.955
290.93	41.211
291.29	43.830
291.66	41.573
292.03	42.755
292.40	42.014
292.77	40.962
293.13	38.767
293.50	41.322
293.87	42.164
294.24	40.871
294.60	41.393
294.97	39.889
295.34	38.630
295.71	41.054
296.08	38.798
296.44	39.526
296.81	39.327
297.18	41.009
297.55	38.568
297.91	40.355
298.28	38.619
298.65	40.621
299.02	39.334
299.38	40.179
299.75	40.283
300.12	38.489
300.48	36.502
300.85	38.264
301.22	39.543
301.59	36.861
301.95	39.512
302.32	39.368
302.69	39.358
303.05	39.079
303.42	39.976
303.79	37.753
304.15	38.958
304.52	38.436
304.89	39.121
305.25	41.284
305.62	38.636
305.99	37.514
306.35	38.479
306.72	40.414
307.09	38.955
307.45	37.756
307.82	38.847
308.19	39.934
308.55	39.768
308.92	38.771
309.29	40.795
309.65	38.184
310.02	39.099
310.38	40.405
310.75	40.061
311.12	39.064
311.48	40.699
311.85	37.082
312.22	39.360
312.58	40.785
312.95	39.322
313.31	38.840
313.68	38.232
314.05	39.821
314.41	40.275
314.78	39.598
315.14	40.353
315.51	40.814
315.87	39.746
316.24	40.653
316.61	40.971
316.97	39.314
317.34	40.574
317.70	39.869
318.07	41.080
318.43	41.021
318.80	40.073
319.16	39.888
319.53	40.660
319.89	39.205
320.26	40.610
320.62	40.795
320.99	41.837
321.35	39.723
321.72	42.121
322.08	41.485
322.45	41.223
322.81	42.167
323.18	41.515
323.54	41.422
323.91	41.556
324.27	41.755
324.64	40.300
325.00	41.310
325.37	41.996
325.73	40.602
326.10	41.068
326.46	42.974
326.83	42.128
327.19	43.057
327.56	44.209
327.92	41.667
328.29	42.832
328.65	43.032
329.01	42.385
329.38	42.149
329.74	43.268
330.11	42.964
330.47	42.644
330.84	42.669
331.20	44.547
331.56	42.358
331.93	43.367
332.29	43.201
332.66	43.942
333.02	43.454
333.38	44.210
333.75	45.105
334.11	43.309
334.48	43.918
334.84	43.474
335.20	43.330
335.57	44.414
335.93	44.558
336.29	45.155
336.66	45.537
337.02	45.150
337.38	45.943
337.75	45.727
338.11	46.946
338.47	46.518
338.84	45.028
339.20	45.830
339.56	44.362
339.93	48.108
340.29	45.603
340.65	47.306
341.02	45.173
341.38	45.278
341.74	46.708
342.11	48.011
342.47	46.416
342.83	45.447
343.20	45.800
343.56	46.941
343.92	47.944
344.28	46.312
344.65	46.062
345.01	47.125
345.37	47.350
345.73	48.234
346.10	47.710
346.46	47.714
346.82	46.559
347.19	48.192
347.55	48.129
347.91	47.338
348.27	47.430
348.63	48.920
349.00	48.414
349.36	48.722
349.72	48.768
350.08	48.036
350.45	47.437
350.81	47.812
351.17	47.199
351.53	47.262
351.89	49.136
352.26	49.431
352.62	49.223
352.98	49.707
353.34	48.037
353.70	48.313
354.07	49.423
354.43	49.249
354.79	47.869
355.15	48.426
355.51	49.959
355.87	50.874
356.24	48.693
356.60	48.748
356.96	48.183
357.32	49.547
357.68	49.881
358.04	49.595
358.40	49.918
358.77	50.201
359.13	48.594
359.49	49.040
359.85	49.800
360.21	49.167
360.57	51.037
360.93	50.515
361.29	49.299
361.66	48.502
362.02	49.765
362.38	50.272
362.74	51.038
363.10	50.075
363.46	49.210
363.82	49.770
364.18	49.281
364.54	51.145
364.90	50.889
365.26	48.361
365.62	51.022
365.98	50.900
366.35	50.530
366.71	50.934
367.07	50.185
367.43	49.747
367.79	50.363
368.15	50.259
368.51	51.760
368.87	51.836
369.23	51.400
369.59	50.515
369.95	49.627
370.31	52.045
370.67	49.624
371.03	50.542
371.39	51.737
371.75	49.851
372.11	50.519
372.47	50.111
372.83	51.570
373.19	51.280
373.55	51.198
373.91	50.985
374.27	51.950
374.63	51.841
374.99	50.293
375.35	52.032
375.71	50.000
376.07	51.873
376.42	51.107
376.78	50.035
377.14	52.235
377.50	50.410
377.86	53.134
378.22	51.585
378.58	51.908
378.94	52.783
379.30	51.287
379.66	51.152
380.02	51.430
380.38	52.926
380.74	52.082
381.09	52.033
381.45	52.635
381.81	52.232
382.17	51.466
382.53	53.123
382.89	52.790
383.25	51.490
383.61	51.875
383.97	53.476
384.32	51.355
384.68	51.660
385.04	51.178
385.40	51.757
385.76	51.676
386.12	51.485
386.48	52.642
386.83	52.337
387.19	53.384
387.55	51.554
387.91	51.900
388.27	53.423
388.62	52.332
388.98	51.654
389.34	51.139
389.70	53.846
390.06	53.993
390.42	53.347
390.77	53.320
391.13	52.895
391.49	53.167
391.85	53.826
392.20	54.191
392.56	51.473
392.92	54.051
393.28	53.621
393.64	52.692
393.99	53.377
394.35	53.731
394.71	53.179
395.07	53.714
395.42	52.889
395.78	54.099
396.14	53.897
396.50	54.269
396.85	54.395
397.21	52.846
397.57	54.510
397.92	55.089
398.28	54.317
398.64	54.286
399.00	54.150
399.35	54.631
399.71	52.994
400.07	53.490
400.42	54.167
400.78	54.511
401.14	53.598
401.49	54.154
401.85	55.492
402.21	54.695
402.57	55.634
402.92	57.371
403.28	53.511
403.63	54.936
403.99	53.963
404.35	55.605
404.70	55.161
405.06	55.549
405.42	55.042
405.77	53.151
406.13	54.241
406.49	56.088
406.84	56.102
407.20	55.204
407.55	55.377
407.91	55.944
408.27	54.920
408.62	54.727
408.98	55.856
409.34	55.378
409.69	55.920
410.05	54.404
410.40	56.069
410.76	55.604
411.11	55.850
411.47	55.306
411.83	56.600
412.18	56.414
412.54	55.951
412.89	56.412
413.25	57.994
413.60	55.293
413.96	55.275
414.31	54.748
414.67	56.246
415.03	56.846
415.38	57.242
415.74	57.555
416.09	56.582
416.45	57.113
416.80	56.120
417.16	56.065
417.51	56.350
417.87	57.934
418.22	56.484
418.58	56.807
418.93	57.640
419.29	58.277
419.64	59.547
420.00	57.695
420.35	57.376
420.71	57.810
421.06	58.339
421.42	58.281
421.77	58.039
422.12	57.118
422.48	58.024
422.83	57.386
423.19	58.412
423.54	57.117
423.90	57.787
424.25	59.094
424.61	58.452
424.96	57.801
425.31	58.394
425.67	57.939
426.02	59.876
426.38	57.915
426.73	58.380
427.09	59.225
427.44	57.531
427.79	58.540
428.15	57.387
428.50	57.789
428.85	58.242
429.21	58.936
429.56	57.514
429.92	57.977
430.27	56.960
430.62	57.923
430.98	56.797
431.33	58.621
431.68	57.440
432.04	58.400
432.39	57.398
432.74	58.950
433.10	58.824
433.45	58.708
433.80	57.798
434.16	58.976
434.51	57.079
434.86	58.429
435.22	58.265
435.57	60.488
435.92	57.833
436.28	57.659
436.63	60.405
436.98	59.691
437.34	61.804
437.69	58.951
438.04	57.933
438.39	59.726
438.75	57.723
439.10	60.476
439.45	59.435
439.81	59.873
440.16	58.380
440.51	59.356
440.86	60.417
441.22	58.249
441.57	57.949
441.92	59.415
442.27	58.686
442.63	59.312
442.98	60.208
443.33	58.813
443.68	58.791
444.03	58.299
444.39	58.928
444.74	60.504
445.09	60.449
445.44	58.601
445.79	59.277
446.15	59.300
446.50	59.398
446.85	59.076
447.20	58.972
447.55	58.406
447.91	59.847
448.26	60.593
448.61	60.725
448.96	59.432
449.31	60.036
449.66	59.201
450.02	59.231
450.37	59.660
450.72	59.186
451.07	60.712
451.42	59.947
451.77	59.079
452.12	59.211
452.47	60.434
452.83	60.336
453.18	60.770
453.53	62.182
453.88	60.370
454.23	60.511
454.58	61.358
454.93	60.286
455.28	61.236
455.63	61.598
455.98	61.548
456.34	60.147
456.69	60.799
457.04	59.121
457.39	61.049
457.74	61.568
458.09	60.050
458.44	61.987
458.79	59.953
459.14	61.002
459.49	61.146
459.84	59.929
460.19	60.663
460.54	59.912
460.89	60.412
461.24	62.338
461.59	62.650
461.94	62.590
462.29	61.090
462.64	61.699
462.99	62.509
463.34	63.004
463.69	61.043
464.04	62.476
464.39	63.280
464.74	61.064
465.09	59.936
465.44	60.588
465.79	61.011
466.14	61.217
466.49	60.678
466.84	59.951
467.19	60.104
467.54	59.615
467.89	60.483
468.24	60.543
468.59	60.602
468.94	62.677
469.29	61.799
469.64	63.457
469.99	61.716
470.34	62.447
470.68	61.923
471.03	60.803
471.38	63.500
471.73	61.701
472.08	62.562
472.43	63.209
472.78	63.017
473.13	62.667
473.48	63.624
473.83	62.483
474.17	60.640
474.52	62.760
474.87	64.205
475.22	63.215
475.57	61.868
475.92	62.081
476.27	62.266
476.61	60.993
476.96	62.359
477.31	63.756
477.66	62.347
478.01	62.448
478.36	62.579
478.70	63.831
479.05	61.695
479.40	62.576
479.75	63.489
480.10	62.662
480.45	62.880
480.79	63.415
481.14	63.890
481.49	62.211
481.84	63.232
482.19	62.537
482.53	62.108
482.88	61.820
483.23	63.467
483.58	63.119
483.92	63.317
484.27	61.907
484.62	62.942
484.97	61.995
485.31	60.209
485.66	60.207
486.01	58.193
486.36	59.164
486.70	59.605
487.05	59.946
487.40	59.724
487.75	59.634
488.09	59.649
488.44	60.325
488.79	60.703
489.13	62.053
489.48	61.617
489.83	61.211
490.17	62.775
490.52	62.333
490.87	63.007
491.22	61.834
491.56	63.488
491.91	62.952
492.26	65.171
492.60	64.388
492.95	64.014
493.30	63.774
493.64	64.148
493.99	64.476
494.34	64.521
494.68	62.785
495.03	62.880
495.37	63.558
495.72	63.291
496.07	63.337
496.41	62.154
496.76	63.276
497.11	64.106
497.45	63.486
497.80	63.707
498.14	63.622
498.49	63.962
498.84	64.046
499.18	63.259
499.53	64.330
499.87	64.311
500.22	63.325
500.56	63.684
500.91	65.076
501.26	63.937
501.60	63.812
501.95	64.330
502.29	64.084
502.64	63.315
502.98	63.352
503.33	62.406
503.67	63.961
504.02	65.220
504.36	63.636
504.71	64.255
505.06	64.221
505.40	64.182
505.75	63.718
506.09	64.572
506.44	64.109
506.78	64.829
507.13	64.007
507.47	65.485
507.82	64.342
508.16	64.421
508.51	65.810
508.85	65.604
509.19	64.564
509.54	66.686
509.88	65.880
510.23	64.944
510.57	65.077
510.92	65.816
511.26	64.963
511.61	65.011
511.95	64.372
512.30	65.913
512.64	65.689
512.98	65.859
513.33	65.182
513.67	64.910
514.02	66.647
514.36	67.616
514.70	67.092
515.05	67.012
515.39	67.378
515.74	67.544
516.08	66.416
516.42	68.303
516.77	68.012
517.11	64.893
517.46	68.582
517.80	68.347
518.14	67.489
518.49	67.076
518.83	67.445
519.17	68.059
519.52	67.333
519.86	66.498
520.20	66.879
520.55	68.146
520.89	69.231
521.23	68.671
521.58	68.056
521.92	68.224
522.26	68.660
522.61	69.283
522.95	68.356
523.29	67.341
523.64	70.692
523.98	67.540
524.32	67.744
524.66	69.748
525.01	69.622
525.35	68.741
525.69	67.584
526.04	70.472
526.38	69.294
526.72	69.583
527.06	69.831
527.41	70.163
527.75	69.347
528.09	68.388
528.43	69.454
528.78	68.344
529.12	67.671
529.46	66.844
529.80	68.278
530.15	69.006
530.49	69.874
530.83	70.716
531.17	68.997
531.51	68.023
531.86	67.857
532.20	67.605
532.54	67.626
532.88	68.145
533.22	69.684
533.57	68.759
533.91	68.823
534.25	69.382
534.59	68.501
534.93	68.368
535.27	69.428
535.62	67.117
535.96	67.900
536.30	67.502
536.64	68.956
536.98	69.764
537.32	69.717
537.66	67.375
538.01	68.409
538.35	67.782
538.69	67.516
539.03	67.700
539.37	68.055
539.71	68.913
540.05	69.537
540.39	68.264
540.73	68.718
541.07	67.868
541.42	68.924
541.76	67.842
542.10	69.154
542.44	68.714
542.78	68.109
543.12	67.653
543.46	68.927
543.80	67.405
544.14	67.670
544.48	67.649
544.82	67.566
545.16	69.203
545.50	68.341
545.84	70.080
546.18	68.989
546.52	70.177
546.86	68.248
547.20	69.015
547.54	67.551
547.88	67.165
548.22	67.018
548.56	68.851
548.90	67.509
549.24	68.056
549.58	69.300
549.92	68.421
550.26	68.958
550.60	70.103
550.94	71.111
551.28	70.407
551.62	71.253
551.96	68.371
552.30	68.450
552.64	68.370
552.98	68.945
553.32	67.803
553.66	67.906
554.00	70.193
554.34	69.688
554.68	69.697
555.02	70.317
555.36	70.056
555.69	67.333
556.03	67.627
556.37	68.342
556.71	68.778
557.05	67.344
557.39	69.317
557.73	68.475
558.07	68.858
558.41	67.997
558.75	72.946
559.08	70.894
559.42	69.314
559.76	70.598
560.10	69.764
560.44	68.963
560.78	68.595
561.12	69.572
561.45	67.708
561.79	68.062
562.13	69.311
562.47	68.425
562.81	68.840
563.15	68.365
563.48	67.341
563.82	67.831
564.16	67.417
564.50	68.410
564.84	66.974
565.17	68.670
565.51	68.754
565.85	67.254
566.19	67.363
566.52	69.391
566.86	67.896
567.20	67.332
567.54	67.709
567.88	66.383
568.21	67.233
568.55	65.874
568.89	67.088
569.23	64.458
569.56	64.828
569.90	63.812
570.24	63.121
570.57	62.942
570.91	63.719
571.25	62.225
571.59	62.000
571.92	60.744
572.26	61.308
572.60	61.867
572.93	61.231
573.27	61.226
573.61	60.724
573.95	60.311
574.28	60.634
574.62	59.781
574.96	60.339
575.29	59.344
575.63	59.674
575.97	59.105
576.30	60.093
576.64	60.226
576.98	59.883
577.31	60.528
577.65	60.244
577.98	59.895
578.32	59.987
578.66	59.052
578.99	59.885
579.33	59.678
579.67	59.937
580.00	59.813
580.34	59.634
580.67	59.385
581.01	59.751
581.35	59.762
581.68	59.198
582.02	59.261
582.35	58.768
582.69	60.178
583.02	60.078
583.36	59.779
583.70	60.669
584.03	61.102
584.37	60.976
584.70	60.709
585.04	60.215
585.37	60.491
585.71	60.222
586.04	61.108
586.38	61.673
586.72	61.525
587.05	61.579
587.39	60.838
587.72	61.906
588.06	61.845
588.39	62.372
588.73	61.899
589.06	61.483
589.40	62.795
589.73	62.678
590.07	63.144
590.40	63.859
590.73	64.265
591.07	64.242
591.40	64.322
591.74	65.252
592.07	63.849
592.41	66.354
592.74	65.232
593.08	62.998
593.41	63.181
593.75	64.240
594.08	64.641
594.41	63.866
594.75	63.743
595.08	64.511
595.42	64.251
595.75	64.432
596.09	65.252
596.42	64.778
596.75	67.136
597.09	64.599
597.42	65.603
597.75	66.792
598.09	65.824
598.42	66.351
598.76	65.938
599.09	65.672
599.42	64.241
599.76	65.555
600.09	65.125
600.42	63.516
600.76	64.088
601.09	66.000
601.42	65.419
601.76	65.422
602.09	65.145
602.42	67.130
602.76	65.794
603.09	67.102
603.42	65.332
603.76	66.429
604.09	67.084
604.42	66.209
604.76	67.275
605.09	67.454
605.42	67.014
605.75	65.783
606.09	67.422
606.42	66.185
606.75	66.430
607.09	68.050
607.42	67.049
607.75	67.355
608.08	68.382
608.42	67.119
608.75	68.834
609.08	66.532
609.41	68.326
609.75	68.246
610.08	67.700
610.41	69.059
610.74	67.088
611.07	68.271
611.41	68.094
611.74	68.498
612.07	69.308
612.40	68.691
612.73	70.544
613.07	69.583
613.40	69.293
613.73	68.671
614.06	69.262
614.39	70.123
614.72	70.425
615.06	69.460
615.39	69.284
615.72	69.205
616.05	69.855
616.38	69.573
616.71	69.154
617.05	68.970
617.38	68.710
617.71	72.306
618.04	72.536
618.37	71.550
618.70	72.894
619.03	73.024
619.36	73.417
619.69	72.862
620.03	71.854
620.36	73.621
620.69	71.619
621.02	72.605
621.35	76.511
621.68	76.868
622.01	77.718
622.34	73.367
622.67	74.452
623.00	73.710
623.33	73.858
623.66	74.980
623.99	72.648
624.32	72.359
624.65	72.188
624.99	73.438
625.32	74.013
625.65	73.179
625.98	75.833
626.31	75.498
626.64	75.135
626.97	77.206
627.30	75.463
627.63	77.581
627.96	75.512
628.29	78.107
628.62	76.907
628.95	78.881
629.28	80.062
629.61	77.429
629.94	78.734
630.26	78.661
630.59	77.173
630.92	75.659
631.25	78.771
631.58	80.116
631.91	79.157
632.24	80.237
632.57	83.115
632.90	81.427
633.23	84.129
