SpectraSuite Data File
++++++++++++++++++++++++++++++++++++
Date: Wed May 13 19:58:54 PDT 2015
User: schluterlab
Dark Spectrum Present: Yes
Reference Spectrum Present: Yes
Number of Sampled Component Spectra: 1
Spectrometers: USB2E3373
Integration Time (usec): 3000 (USB2E3373)
Spectra Averaged: 3 (USB2E3373)
Boxcar Smoothing: 0 (USB2E3373)
Correct for Electrical Dark: No (USB2E3373)
Strobe/Lamp Enabled: No (USB2E3373)
Correct for Detector Non-linearity: No (USB2E3373)
Correct for Stray Light: No (USB2E3373)
Number of Pixels in Processed Spectrum: 2048
>>>>>Begin Processed Spectral Data<<<<<
178.53	0.000
178.91	-1225.000
179.29	-1275.000
179.67	-216.667
180.04	-1450.000
180.42	2900.000
180.80	1020.000
181.18	-875.000
181.56	700.000
181.94	0.000
182.31	-714.286
182.69	1500.000
183.07	-600.000
183.45	-488.889
183.83	527.273
184.20	-380.000
184.58	1600.000
184.96	4300.000
185.34	-720.000
185.72	-512.500
186.09	-2300.000
186.47	2750.000
186.85	2200.000
187.23	5300.000
187.61	-1600.000
187.98	1525.000
188.36	545.455
188.74	527.273
189.12	-1040.000
189.49	550.000
189.87	-3700.000
190.25	-1050.000
190.63	385.714
191.00	392.308
191.38	750.000
191.76	-1075.000
192.14	1300.000
192.51	500.000
192.89	850.000
193.27	537.500
193.65	-1175.000
194.02	580.000
194.40	1040.000
194.78	450.000
195.15	433.333
195.53	520.000
195.91	-1950.000
196.29	312.500
196.66	284.211
197.04	-310.000
197.42	0.000
197.79	450.000
198.17	-5300.000
198.55	614.286
198.92	650.000
199.30	1020.000
199.68	0.000
200.05	311.111
200.43	885.714
200.81	4400.000
201.18	1333.333
201.56	-1666.667
201.94	477.778
202.31	555.556
202.69	366.667
203.07	490.000
203.44	0.000
203.82	1300.000
204.19	842.857
204.57	371.429
204.95	537.500
205.32	1333.333
205.70	581.818
206.08	407.143
206.45	2450.000
206.83	293.750
207.20	833.333
207.58	780.000
207.96	322.222
208.33	550.000
208.71	-850.000
209.08	685.714
209.46	544.444
209.84	500.000
210.21	-1733.333
210.59	1450.000
210.96	-462.500
211.34	2350.000
211.71	540.000
212.09	750.000
212.46	0.000
212.84	1833.333
213.22	1225.000
213.59	-3700.000
213.97	850.000
214.34	871.429
214.72	527.273
215.09	780.000
215.47	-2000.000
215.84	-2350.000
216.22	1566.667
216.59	385.714
216.97	1125.000
217.34	445.455
217.72	-716.667
218.09	0.000
218.47	-5100.000
218.84	566.667
219.22	728.571
219.59	1466.667
219.97	-614.286
220.34	940.000
220.72	-1666.667
221.09	321.429
221.47	1400.000
221.84	-866.667
222.22	0.000
222.59	1275.000
222.97	-2050.000
223.34	1100.000
223.72	423.077
224.09	1100.000
224.46	1950.000
224.84	-5300.000
225.21	-1100.000
225.59	-5200.000
225.96	580.000
226.34	320.000
226.71	2400.000
227.08	612.500
227.46	540.000
227.83	-1150.000
228.21	-2350.000
228.58	633.333
228.95	-2050.000
229.33	-1950.000
229.70	1733.333
230.08	757.143
230.45	-760.000
230.82	433.333
231.20	866.667
231.57	614.286
231.95	466.667
232.32	222.727
232.69	427.273
233.07	700.000
233.44	353.846
233.81	-1533.333
234.19	257.895
234.56	400.000
234.93	441.667
235.31	381.818
235.68	261.538
236.05	300.000
236.43	212.121
236.80	236.842
237.17	3700.000
237.55	166.667
237.92	167.857
238.29	176.190
238.67	158.065
239.04	179.310
239.41	119.444
239.79	106.522
240.16	95.238
240.53	111.364
240.91	100.000
241.28	68.000
241.65	76.000
242.02	68.116
242.40	83.871
242.77	56.667
243.14	52.688
243.51	73.034
243.89	54.118
244.26	55.556
244.63	46.237
245.00	45.745
245.38	53.465
245.75	41.121
246.12	44.037
246.49	43.066
246.87	47.200
247.24	44.615
247.61	40.714
247.98	32.026
248.36	30.405
248.73	29.936
249.10	35.032
249.47	28.814
249.84	32.620
250.22	32.086
250.59	26.036
250.96	31.313
251.33	28.436
251.70	24.257
252.08	29.048
252.45	17.937
252.82	27.826
253.19	25.532
253.56	24.314
253.94	26.141
254.31	25.000
254.68	25.000
255.05	23.616
255.42	19.512
255.79	23.162
256.16	25.271
256.54	15.901
256.91	21.708
257.28	16.906
257.65	20.792
258.02	19.876
258.39	20.505
258.76	20.067
259.14	19.345
259.51	17.933
259.88	15.217
260.25	19.335
260.62	19.653
260.99	17.391
261.36	21.321
261.73	18.625
262.10	17.151
262.47	20.845
262.85	17.549
263.22	13.105
263.59	18.803
263.96	15.659
264.33	16.971
264.70	15.789
265.07	16.880
265.44	16.919
265.81	13.625
266.18	19.347
266.55	14.878
266.92	14.988
267.29	15.278
267.66	13.761
268.03	16.136
268.40	15.187
268.77	12.411
269.14	13.063
269.51	16.027
269.88	15.152
270.25	13.770
270.62	15.955
270.99	15.914
271.36	15.021
271.73	14.019
272.10	14.130
272.47	13.763
272.84	12.554
273.21	16.352
273.58	10.044
273.95	11.111
274.32	13.636
274.69	14.561
275.06	13.189
275.43	13.617
275.80	12.826
276.17	12.220
276.54	15.593
276.91	12.846
277.28	15.234
277.65	12.766
278.02	13.251
278.39	13.086
278.76	12.364
279.13	13.396
279.50	13.780
279.87	12.948
280.23	13.573
280.60	12.573
280.97	12.569
281.34	12.566
281.71	14.182
282.08	12.860
282.45	9.636
282.82	14.032
283.19	12.478
283.56	11.754
283.92	11.844
284.29	11.111
284.66	12.341
285.03	12.658
285.40	14.613
285.77	12.626
286.14	11.917
286.51	11.167
286.87	10.769
287.24	12.541
287.61	11.717
287.98	13.149
288.35	10.777
288.72	11.994
289.08	12.363
289.45	12.356
289.82	11.545
290.19	9.890
290.56	10.567
290.93	7.704
291.29	10.736
291.66	10.472
292.03	11.337
292.40	10.866
292.77	8.728
293.13	10.746
293.50	10.496
293.87	9.778
294.24	9.481
294.60	9.025
294.97	11.192
295.34	10.014
295.71	11.648
296.08	10.256
296.44	8.803
296.81	7.794
297.18	12.060
297.55	7.916
297.91	8.971
298.28	10.710
298.65	10.052
299.02	10.145
299.38	9.429
299.75	8.356
300.12	9.579
300.48	7.750
300.85	8.508
301.22	8.662
301.59	8.207
301.95	9.068
302.32	8.729
302.69	8.483
303.05	7.515
303.42	6.914
303.79	8.834
304.15	7.576
304.52	7.648
304.89	7.201
305.25	8.237
305.62	8.947
305.99	8.146
306.35	7.718
306.72	8.969
307.09	10.433
307.45	10.360
307.82	6.585
308.19	8.830
308.55	7.659
308.92	7.519
309.29	7.497
309.65	8.059
310.02	8.562
310.38	7.312
310.75	7.920
311.12	8.802
311.48	8.986
311.85	9.119
312.22	6.868
312.58	7.692
312.95	7.814
313.31	8.350
313.68	8.524
314.05	9.369
314.41	9.246
314.78	9.063
315.14	9.136
315.51	8.445
315.87	9.901
316.24	8.838
316.61	8.869
316.97	10.176
317.34	8.219
317.70	9.847
318.07	10.395
318.43	10.665
318.80	11.059
319.16	11.299
319.53	9.944
319.89	11.905
320.26	11.500
320.62	11.607
320.99	13.535
321.35	11.919
321.72	12.526
322.08	13.031
322.45	13.632
322.81	13.469
323.18	14.066
323.54	14.100
323.91	15.094
324.27	14.149
324.64	14.911
325.00	13.526
325.37	15.560
325.73	16.248
326.10	16.328
326.46	15.591
326.83	18.292
327.19	16.652
327.56	16.638
327.92	18.023
328.29	18.811
328.65	18.785
329.01	19.134
329.38	19.704
329.74	19.206
330.11	19.698
330.47	20.845
330.84	20.312
331.20	19.581
331.56	20.550
331.93	20.000
332.29	20.852
332.66	20.354
333.02	20.018
333.38	20.958
333.75	21.925
334.11	20.907
334.48	20.674
334.84	21.599
335.20	22.091
335.57	20.490
335.93	21.071
336.29	21.154
336.66	20.830
337.02	21.267
337.38	22.500
337.75	20.945
338.11	21.844
338.47	22.560
338.84	22.548
339.20	21.101
339.56	23.631
339.93	20.727
340.29	22.645
340.65	22.906
341.02	22.600
341.38	22.776
341.74	22.105
342.11	22.533
342.47	22.907
342.83	23.031
343.20	22.857
343.56	22.578
343.92	20.439
344.28	22.364
344.65	23.302
345.01	21.886
345.37	21.784
345.73	23.435
346.10	21.824
346.46	21.102
346.82	21.911
347.19	21.972
347.55	21.757
347.91	22.977
348.27	23.336
348.63	21.739
349.00	21.521
349.36	21.593
349.72	22.053
350.08	21.151
350.45	23.271
350.81	22.340
351.17	23.420
351.53	22.195
351.89	22.360
352.26	23.678
352.62	24.058
352.98	22.609
353.34	22.432
353.70	22.995
354.07	22.581
354.43	22.063
354.79	22.124
355.15	23.703
355.51	23.261
355.87	23.184
356.24	22.068
356.60	22.534
356.96	23.089
357.32	23.303
357.68	23.937
358.04	23.674
358.40	24.466
358.77	22.379
359.13	23.204
359.49	22.745
359.85	23.095
360.21	23.126
360.57	23.502
360.93	22.846
361.29	22.525
361.66	23.916
362.02	24.179
362.38	23.270
362.74	23.661
363.10	22.576
363.46	23.404
363.82	23.432
364.18	23.495
364.54	24.071
364.90	23.796
365.26	23.971
365.62	24.032
365.98	22.863
366.35	22.923
366.71	24.150
367.07	23.379
367.43	24.093
367.79	24.839
368.15	24.784
368.51	23.619
368.87	23.840
369.23	23.628
369.59	23.823
369.95	23.676
370.31	24.858
370.67	23.841
371.03	23.895
371.39	23.980
371.75	23.971
372.11	24.324
372.47	24.853
372.83	25.144
373.19	23.772
373.55	24.464
373.91	24.890
374.27	24.880
374.63	24.218
374.99	24.576
375.35	24.006
375.71	23.715
376.07	23.594
376.42	24.209
376.78	24.917
377.14	24.695
377.50	24.702
377.86	23.670
378.22	25.095
378.58	24.060
378.94	24.701
379.30	24.491
379.66	25.190
380.02	24.386
380.38	24.529
380.74	24.730
381.09	24.511
381.45	24.216
381.81	25.860
382.17	25.287
382.53	24.340
382.89	24.877
383.25	24.015
383.61	25.465
383.97	25.704
384.32	25.140
384.68	24.411
385.04	24.401
385.40	24.458
385.76	25.184
386.12	25.777
386.48	25.236
386.83	26.299
387.19	25.170
387.55	24.428
387.91	24.426
388.27	25.567
388.62	25.569
388.98	24.693
389.34	25.094
389.70	26.180
390.06	25.539
390.42	25.616
390.77	25.509
391.13	25.144
391.49	26.269
391.85	25.207
392.20	24.984
392.56	25.631
392.92	25.603
393.28	24.320
393.64	25.839
393.99	25.290
394.35	25.372
394.71	25.659
395.07	25.109
395.42	25.773
395.78	25.636
396.14	25.140
396.50	25.877
396.85	25.493
397.21	26.017
397.57	25.666
397.92	25.300
398.28	24.103
398.64	25.448
399.00	25.182
399.35	24.817
399.71	24.653
400.07	25.902
400.42	25.706
400.78	25.573
401.14	24.878
401.49	25.433
401.85	24.561
402.21	24.671
402.57	25.416
402.92	24.905
403.28	25.547
403.63	25.743
403.99	25.605
404.35	25.576
404.70	24.101
405.06	24.869
405.42	25.016
405.77	24.857
406.13	24.944
406.49	24.719
406.84	24.690
407.20	24.527
407.55	24.378
407.91	25.000
408.27	24.505
408.62	24.985
408.98	24.877
409.34	24.047
409.69	25.677
410.05	24.411
410.40	24.648
410.76	24.373
411.11	24.487
411.47	25.112
411.83	25.229
412.18	23.624
412.54	24.595
412.89	24.217
413.25	23.731
413.60	24.089
413.96	23.801
414.31	23.147
414.67	25.032
415.03	24.437
415.38	24.549
415.74	24.244
416.09	24.298
416.45	23.963
416.80	23.596
417.16	24.129
417.51	25.149
417.87	23.571
418.22	24.606
418.58	24.661
418.93	24.447
419.29	24.188
419.64	24.118
420.00	23.780
420.35	23.536
420.71	24.208
421.06	23.449
421.42	23.977
421.77	24.552
422.12	23.189
422.48	22.450
422.83	23.471
423.19	23.481
423.54	23.389
423.90	24.116
424.25	23.116
424.61	23.095
424.96	23.440
425.31	23.311
425.67	22.247
426.02	23.714
426.38	23.626
426.73	23.698
427.09	23.283
427.44	23.749
427.79	22.254
428.15	23.869
428.50	22.411
428.85	23.004
429.21	22.308
429.56	22.551
429.92	22.345
430.27	22.294
430.62	22.171
430.98	22.626
431.33	22.474
431.68	22.251
432.04	22.258
432.39	22.844
432.74	22.861
433.10	22.298
433.45	22.741
433.80	22.062
434.16	22.062
434.51	22.211
434.86	22.406
435.22	22.346
435.57	21.702
435.92	21.475
436.28	23.250
436.63	23.400
436.98	21.637
437.34	23.017
437.69	22.695
438.04	22.203
438.39	22.627
438.75	22.313
439.10	22.346
439.45	21.960
439.81	21.208
440.16	22.473
440.51	22.378
440.86	21.888
441.22	22.525
441.57	22.505
441.92	21.597
442.27	21.690
442.63	21.222
442.98	21.521
443.33	22.283
443.68	21.270
444.03	21.523
444.39	21.032
444.74	21.591
445.09	22.534
445.44	21.651
445.79	21.722
446.15	21.758
446.50	21.055
446.85	21.634
447.20	21.265
447.55	22.222
447.91	20.905
448.26	21.814
448.61	21.538
448.96	21.705
449.31	22.497
449.66	21.384
450.02	21.003
450.37	20.635
450.72	20.756
451.07	21.146
451.42	20.790
451.77	21.785
452.12	20.497
452.47	21.766
452.83	21.445
453.18	21.271
453.53	21.769
453.88	20.732
454.23	20.980
454.58	21.381
454.93	21.805
455.28	20.948
455.63	20.692
455.98	21.667
456.34	21.545
456.69	20.977
457.04	20.495
457.39	20.573
457.74	20.313
458.09	21.047
458.44	20.353
458.79	20.282
459.14	20.316
459.49	21.133
459.84	20.554
460.19	19.328
460.54	19.618
460.89	19.912
461.24	20.704
461.59	21.732
461.94	19.852
462.29	20.950
462.64	19.847
462.99	19.258
463.34	20.867
463.69	19.762
464.04	19.072
464.39	18.957
464.74	19.727
465.09	20.084
465.44	19.778
465.79	19.016
466.14	19.485
466.49	19.410
466.84	19.615
467.19	20.157
467.54	19.125
467.89	18.307
468.24	19.023
468.59	19.902
468.94	19.426
469.29	19.923
469.64	19.478
469.99	19.892
470.34	18.428
470.68	18.894
471.03	19.116
471.38	20.083
471.73	19.054
472.08	20.263
472.43	18.719
472.78	18.631
473.13	19.063
473.48	18.727
473.83	18.232
474.17	17.735
474.52	18.610
474.87	18.914
475.22	18.630
475.57	18.162
475.92	17.578
476.27	18.151
476.61	18.588
476.96	17.537
477.31	17.478
477.66	18.818
478.01	17.041
478.36	17.663
478.70	17.030
479.05	17.199
479.40	17.656
479.75	17.133
480.10	16.948
480.45	17.040
480.79	17.057
481.14	17.906
481.49	17.038
481.84	16.872
482.19	17.129
482.53	16.927
482.88	17.357
483.23	16.776
483.58	16.879
483.92	16.589
484.27	15.730
484.62	16.853
484.97	15.885
485.31	15.788
485.66	14.872
486.01	14.628
486.36	14.228
486.70	14.056
487.05	14.659
487.40	14.811
487.75	14.896
488.09	14.983
488.44	15.444
488.79	15.769
489.13	15.661
489.48	15.579
489.83	15.667
490.17	16.352
490.52	15.633
490.87	15.242
491.22	15.871
491.56	14.989
491.91	15.961
492.26	15.388
492.60	16.037
492.95	15.201
493.30	14.720
493.64	15.352
493.99	15.552
494.34	16.050
494.68	15.476
495.03	15.038
495.37	15.170
495.72	14.912
496.07	15.267
496.41	14.823
496.76	15.259
497.11	14.633
497.45	15.603
497.80	14.491
498.14	14.541
498.49	14.537
498.84	14.813
499.18	14.619
499.53	14.957
499.87	14.818
500.22	15.073
500.56	15.340
500.91	14.135
501.26	15.031
501.60	15.520
501.95	14.390
502.29	14.808
502.64	14.292
502.98	14.353
503.33	14.580
503.67	14.664
504.02	14.312
504.36	14.974
504.71	14.460
505.06	14.554
505.40	14.584
505.75	14.658
506.09	14.334
506.44	14.356
506.78	14.954
507.13	14.740
507.47	15.051
507.82	14.134
508.16	14.032
508.51	14.409
508.85	14.350
509.19	13.571
509.54	14.133
509.88	14.426
510.23	14.344
510.57	15.222
510.92	14.863
511.26	14.337
511.61	14.263
511.95	13.570
512.30	13.945
512.64	13.971
512.98	13.558
513.33	14.293
513.67	14.034
514.02	13.961
514.36	14.746
514.70	14.112
515.05	14.110
515.39	14.526
515.74	14.358
516.08	14.310
516.42	14.317
516.77	14.493
517.11	13.984
517.46	15.124
517.80	13.879
518.14	14.418
518.49	14.527
518.83	14.545
519.17	14.319
519.52	13.809
519.86	14.832
520.20	13.642
520.55	15.320
520.89	14.538
521.23	14.355
521.58	14.526
521.92	14.758
522.26	14.765
522.61	14.579
522.95	13.812
523.29	14.425
523.64	14.512
523.98	14.787
524.32	14.596
524.66	13.891
525.01	14.154
525.35	14.126
525.69	13.855
526.04	14.206
526.38	14.033
526.72	14.601
527.06	14.501
527.41	12.933
527.75	14.148
528.09	14.001
528.43	14.277
528.78	14.259
529.12	12.970
529.46	14.513
529.80	15.037
530.15	14.766
530.49	14.277
530.83	14.937
531.17	14.491
531.51	15.435
531.86	13.935
532.20	14.733
532.54	13.965
532.88	14.634
533.22	13.741
533.57	14.568
533.91	13.426
534.25	14.399
534.59	13.850
534.93	13.385
535.27	14.001
535.62	14.408
535.96	14.062
536.30	14.812
536.64	15.003
536.98	13.404
537.32	13.167
537.66	14.067
538.01	13.891
538.35	14.350
538.69	15.635
539.03	14.035
539.37	13.419
539.71	12.832
540.05	14.118
540.39	13.821
540.73	13.713
541.07	14.406
541.42	14.155
541.76	14.774
542.10	14.101
542.44	14.106
542.78	14.888
543.12	13.500
543.46	14.164
543.80	13.988
544.14	13.030
544.48	14.095
544.82	13.855
545.16	12.752
545.50	12.661
545.84	13.172
546.18	13.333
546.52	13.558
546.86	14.158
547.20	14.295
547.54	13.560
547.88	14.732
548.22	13.076
548.56	13.899
548.90	13.316
549.24	12.997
549.58	13.915
549.92	13.942
550.26	14.418
550.60	13.762
550.94	13.873
551.28	12.509
551.62	13.947
551.96	14.596
552.30	14.061
552.64	13.590
552.98	14.169
553.32	13.891
553.66	13.497
554.00	12.972
554.34	13.251
554.68	13.591
555.02	13.258
555.36	13.431
555.69	13.532
556.03	13.324
556.37	13.779
556.71	13.302
557.05	13.235
557.39	13.506
557.73	12.985
558.07	13.561
558.41	13.097
558.75	13.740
559.08	13.423
559.42	13.454
559.76	13.750
560.10	13.062
560.44	13.836
560.78	12.442
561.12	13.456
561.45	13.625
561.79	12.854
562.13	12.072
562.47	13.525
562.81	13.389
563.15	12.508
563.48	12.997
563.82	12.459
564.16	12.492
564.50	12.305
564.84	12.389
565.17	12.999
565.51	12.971
565.85	11.739
566.19	12.273
566.52	12.033
566.86	12.176
567.20	12.736
567.54	12.100
567.88	11.950
568.21	12.751
568.55	12.285
568.89	12.111
569.23	11.319
569.56	11.781
569.90	11.434
570.24	11.087
570.57	10.473
570.91	10.472
571.25	10.716
571.59	10.633
571.92	10.369
572.26	10.427
572.60	10.871
572.93	10.255
573.27	10.618
573.61	10.469
573.95	10.413
574.28	10.000
574.62	10.107
574.96	9.964
575.29	9.918
575.63	10.188
575.97	10.049
576.30	10.276
576.64	9.932
576.98	9.674
577.31	9.935
577.65	9.794
577.98	9.731
578.32	9.651
578.66	9.853
578.99	9.861
579.33	10.046
579.67	9.462
580.00	9.878
580.34	10.062
580.67	9.856
581.01	9.804
581.35	9.961
581.68	9.541
582.02	9.795
582.35	10.018
582.69	9.930
583.02	9.688
583.36	10.007
583.70	10.015
584.03	9.848
584.37	10.224
584.70	9.404
585.04	10.103
585.37	9.716
585.71	10.244
586.04	9.954
586.38	10.084
586.72	10.522
587.05	10.079
587.39	9.710
587.72	10.049
588.06	9.899
588.39	9.849
588.73	10.150
589.06	10.439
589.40	10.000
589.73	10.137
590.07	10.498
590.40	10.230
590.73	10.539
591.07	10.745
591.40	11.008
591.74	10.563
592.07	11.082
592.41	10.955
592.74	10.637
593.08	10.726
593.41	10.376
593.75	9.869
594.08	10.057
594.41	10.569
594.75	10.018
595.08	10.236
595.42	10.508
595.75	10.185
596.09	10.590
596.42	11.159
596.75	10.975
597.09	10.952
597.42	10.582
597.75	10.608
598.09	10.696
598.42	10.481
598.76	10.215
599.09	10.376
599.42	9.789
599.76	10.286
600.09	10.055
600.42	10.153
600.76	9.714
601.09	9.800
601.42	10.198
601.76	10.057
602.09	10.395
602.42	10.549
602.76	10.762
603.09	10.307
603.42	10.035
603.76	10.290
604.09	10.004
604.42	10.192
604.76	11.472
605.09	10.703
605.42	10.688
605.75	11.010
606.09	10.167
606.42	10.339
606.75	10.577
607.09	11.302
607.42	10.398
607.75	10.211
608.08	10.161
608.42	10.533
608.75	10.415
609.08	10.916
609.41	10.852
609.75	11.053
610.08	10.556
610.41	10.289
610.74	10.738
611.07	10.672
611.41	10.844
611.74	11.362
612.07	11.335
612.40	11.175
612.73	10.632
613.07	10.345
613.40	12.006
613.73	10.645
614.06	10.645
614.39	11.484
614.72	10.737
615.06	11.082
615.39	10.244
615.72	10.787
616.05	10.420
616.38	11.062
616.71	11.876
617.05	10.777
617.38	11.365
617.71	10.991
618.04	11.358
618.37	11.413
618.70	11.263
619.03	12.632
619.36	11.134
619.69	11.831
620.03	12.431
620.36	12.567
620.69	12.534
621.02	13.348
621.35	11.355
621.68	12.150
622.01	12.307
622.34	12.632
622.67	11.787
623.00	11.445
623.33	11.365
623.66	12.437
623.99	11.856
624.32	12.553
624.65	11.158
624.99	11.402
625.32	12.093
625.65	11.871
625.98	12.068
626.31	13.530
626.64	12.653
626.97	12.219
627.30	12.801
627.63	13.454
627.96	12.784
628.29	12.161
628.62	13.541
628.95	14.245
629.28	13.412
629.61	13.749
629.94	12.476
630.26	12.107
630.59	13.155
630.92	13.410
631.25	12.340
631.58	14.214
631.91	13.185
632.24	13.397
632.57	15.005
632.90	13.048
