SpectraSuite Data File
++++++++++++++++++++++++++++++++++++
Date: Tue May 12 19:53:23 PDT 2015
User: schluterlab
Dark Spectrum Present: Yes
Reference Spectrum Present: Yes
Number of Sampled Component Spectra: 1
Spectrometers: USB2E3373
Integration Time (usec): 3000 (USB2E3373)
Spectra Averaged: 3 (USB2E3373)
Boxcar Smoothing: 0 (USB2E3373)
Correct for Electrical Dark: No (USB2E3373)
Strobe/Lamp Enabled: No (USB2E3373)
Correct for Detector Non-linearity: No (USB2E3373)
Correct for Stray Light: No (USB2E3373)
Number of Pixels in Processed Spectrum: 2048
>>>>>Begin Processed Spectral Data<<<<<
178.53	0.000
178.91	-190.000
179.29	-116.667
179.67	766.667
180.04	0.000
180.42	-280.000
180.80	-566.667
181.18	800.000
181.56	-650.000
181.94	500.000
182.31	3100.000
182.69	-42.857
183.07	0.000
183.45	300.000
183.83	300.000
184.20	316.667
184.58	1400.000
184.96	450.000
185.34	-766.667
185.72	-121.429
186.09	-216.667
186.47	-1700.000
186.85	-360.000
187.23	258.333
187.61	-242.857
187.98	-220.000
188.36	1150.000
188.74	-375.000
189.12	-211.111
189.49	-220.000
189.87	575.000
190.25	177.778
190.63	1033.333
191.00	400.000
191.38	-600.000
191.76	540.000
192.14	-257.143
192.51	-210.000
192.89	-260.000
193.27	-620.000
193.65	-700.000
194.02	-283.333
194.40	1500.000
194.78	-287.500
195.15	-200.000
195.53	433.333
195.91	480.000
196.29	-575.000
196.66	-200.000
197.04	-228.571
197.42	280.000
197.79	-350.000
198.17	-158.333
198.55	-800.000
198.92	-177.778
199.30	1150.000
199.68	-300.000
200.05	-850.000
200.43	-50.000
200.81	-133.333
201.18	483.333
201.56	-850.000
201.94	-2700.000
202.31	-108.333
202.69	-22.222
203.07	-91.667
203.44	-475.000
203.82	0.000
204.19	362.500
204.57	-966.667
204.95	190.909
205.32	420.000
205.70	500.000
206.08	-1900.000
206.45	-300.000
206.83	2100.000
207.20	-222.222
207.58	-76.923
207.96	533.333
208.33	666.667
208.71	666.667
209.08	1200.000
209.46	-66.667
209.84	1000.000
210.21	-766.667
210.59	1000.000
210.96	300.000
211.34	-725.000
211.71	1800.000
212.09	-280.000
212.46	-312.500
212.84	-125.000
213.22	71.429
213.59	-112.500
213.97	0.000
214.34	-900.000
214.72	-2600.000
215.09	1250.000
215.47	-66.667
215.84	-225.000
216.22	-2500.000
216.59	2200.000
216.97	-125.000
217.34	-283.333
217.72	5.556
218.09	500.000
218.47	-131.579
218.84	-225.000
219.22	-78.571
219.59	-140.000
219.97	-120.000
220.34	283.333
220.72	145.455
221.09	-1350.000
221.47	0.000
221.84	1200.000
222.22	-475.000
222.59	-650.000
222.97	-47.826
223.34	166.667
223.72	442.857
224.09	-383.333
224.46	215.385
224.84	-100.000
225.21	-500.000
225.59	-775.000
225.96	-90.000
226.34	366.667
226.71	350.000
227.08	-115.385
227.46	-157.143
227.83	-50.000
228.21	-1200.000
228.58	416.667
228.95	-84.211
229.33	-75.000
229.70	-300.000
230.08	-288.889
230.45	-733.333
230.82	-1500.000
231.20	-19.048
231.57	-320.000
231.95	-500.000
232.32	277.778
232.69	-1150.000
233.07	-12.500
233.44	-187.500
233.81	-22.581
234.19	-620.000
234.56	-111.111
234.93	-450.000
235.31	-37.037
235.68	-85.185
236.05	-73.077
236.43	-84.211
236.80	-72.727
237.17	-214.286
237.55	-145.000
237.92	-9.302
238.29	-51.613
238.67	-42.857
239.04	-34.286
239.41	-45.098
239.79	-30.000
240.16	-45.000
240.53	-39.655
240.91	-4.110
241.28	-21.127
241.65	-21.875
242.02	-35.088
242.40	-14.667
242.77	-8.421
243.14	-1.176
243.51	-3.226
243.89	-18.095
244.26	-10.185
244.63	-16.327
245.00	-19.643
245.38	-15.966
245.75	-11.864
246.12	-9.375
246.49	-12.000
246.87	-10.656
247.24	-8.451
247.61	-7.947
247.98	-5.618
248.36	-10.063
248.73	-6.818
249.10	-7.778
249.47	-3.646
249.84	-4.569
250.22	-4.688
250.59	-2.247
250.96	-3.636
251.33	1.887
251.70	-1.835
252.08	3.463
252.45	-3.673
252.82	-5.907
253.19	-4.669
253.56	-3.922
253.94	-2.846
254.31	1.799
254.68	0.694
255.05	2.318
255.42	-4.364
255.79	0.993
256.16	-1.736
256.54	0.909
256.91	3.846
257.28	1.948
257.65	-1.639
258.02	1.201
258.39	0.604
258.76	-2.446
259.14	0.294
259.51	3.944
259.88	3.458
260.25	-3.125
260.62	0.562
260.99	1.950
261.36	-0.287
261.73	1.067
262.10	-1.090
262.47	0.275
262.85	3.342
263.22	-0.538
263.59	2.949
263.96	0.261
264.33	-3.235
264.70	-0.246
265.07	0.000
265.44	3.044
265.81	3.133
266.18	1.171
266.55	1.190
266.92	5.357
267.29	1.333
267.66	-0.227
268.03	4.301
268.40	-0.458
268.77	2.004
269.14	0.840
269.51	0.905
269.88	1.923
270.25	-0.422
270.62	1.471
270.99	0.211
271.36	-1.325
271.73	3.333
272.10	3.320
272.47	1.200
272.84	-1.486
273.21	0.626
273.58	2.449
273.95	0.996
274.32	1.741
274.69	0.783
275.06	1.689
275.43	2.800
275.80	3.824
276.17	1.383
276.54	2.662
276.91	0.960
277.28	0.387
277.65	1.512
278.02	0.379
278.39	2.359
278.76	3.538
279.13	4.651
279.50	4.693
279.87	1.132
280.23	3.097
280.60	1.413
280.97	1.933
281.34	0.508
281.71	2.487
282.08	-0.179
282.45	2.822
282.82	2.525
283.19	3.367
283.56	4.949
283.92	2.054
284.29	2.030
284.66	1.239
285.03	-1.201
285.40	2.000
285.77	2.135
286.14	1.268
286.51	1.768
286.87	0.486
287.24	1.442
287.61	1.852
287.98	1.721
288.35	3.256
288.72	3.517
289.08	0.157
289.45	0.000
289.82	-0.621
290.19	1.667
290.56	2.894
290.93	1.920
291.29	3.121
291.66	3.792
292.03	2.726
292.40	3.165
292.77	2.478
293.13	1.322
293.50	2.342
293.87	1.387
294.24	1.826
294.60	3.005
294.97	0.693
295.34	1.507
295.71	0.555
296.08	0.137
296.44	2.372
296.81	-0.129
297.18	2.975
297.55	1.382
297.91	2.284
298.28	0.512
298.65	1.552
299.02	2.959
299.38	1.913
299.75	2.703
300.12	2.518
300.48	2.465
300.85	0.489
301.22	3.005
301.59	1.338
301.95	1.463
302.32	1.580
302.69	1.189
303.05	1.889
303.42	3.140
303.79	1.461
304.15	3.624
304.52	3.575
304.89	2.706
305.25	1.491
305.62	3.182
305.99	2.576
306.35	2.573
306.72	2.288
307.09	2.503
307.45	1.510
307.82	3.202
308.19	4.070
308.55	3.903
308.92	3.178
309.29	2.929
309.65	3.199
310.02	3.983
310.38	3.838
310.75	3.996
311.12	3.764
311.48	4.214
311.85	2.533
312.22	4.236
312.58	3.424
312.95	3.799
313.31	4.425
313.68	4.866
314.05	5.362
314.41	6.189
314.78	4.925
315.14	5.975
315.51	6.157
315.87	7.227
316.24	7.122
316.61	7.573
316.97	7.843
317.34	7.847
317.70	7.003
318.07	8.679
318.43	7.940
318.80	8.379
319.16	9.320
319.53	9.340
319.89	10.511
320.26	10.029
320.62	10.562
320.99	10.714
321.35	12.549
321.72	13.030
322.08	13.366
322.45	13.116
322.81	13.793
323.18	14.765
323.54	15.071
323.91	14.706
324.27	15.043
324.64	16.963
325.00	16.652
325.37	18.525
325.73	18.431
326.10	19.264
326.46	18.858
326.83	20.932
327.19	20.873
327.56	22.193
327.92	22.396
328.29	22.670
328.65	23.258
329.01	22.202
329.38	24.334
329.74	24.605
330.11	24.604
330.47	23.743
330.84	25.940
331.20	25.508
331.56	25.849
331.93	25.435
332.29	27.845
332.66	25.949
333.02	27.484
333.38	27.114
333.75	27.722
334.11	26.401
334.48	26.655
334.84	27.887
335.20	27.663
335.57	29.428
335.93	27.628
336.29	28.245
336.66	29.144
337.02	28.558
337.38	29.811
337.75	28.727
338.11	29.444
338.47	29.898
338.84	28.361
339.20	28.598
339.56	29.637
339.93	29.189
340.29	29.918
340.65	29.589
341.02	29.141
341.38	29.656
341.74	30.605
342.11	29.443
342.47	29.895
342.83	30.095
343.20	28.912
343.56	29.895
343.92	30.709
344.28	28.473
344.65	29.538
345.01	30.401
345.37	30.427
345.73	29.888
346.10	31.201
346.46	29.681
346.82	29.992
347.19	30.950
347.55	30.187
347.91	30.221
348.27	30.160
348.63	30.596
349.00	30.885
349.36	30.998
349.72	31.034
350.08	30.360
350.45	29.780
350.81	29.480
351.17	30.066
351.53	30.515
351.89	30.743
352.26	29.837
352.62	31.480
352.98	31.381
353.34	30.409
353.70	30.288
354.07	31.384
354.43	30.885
354.79	31.066
355.15	30.912
355.51	32.192
355.87	31.640
356.24	31.781
356.60	31.219
356.96	30.490
357.32	31.523
357.68	30.947
358.04	31.767
358.40	32.979
358.77	31.968
359.13	32.851
359.49	30.880
359.85	32.054
360.21	31.007
360.57	30.781
360.93	32.225
361.29	32.632
361.66	31.861
362.02	33.124
362.38	32.168
362.74	32.129
363.10	32.730
363.46	31.828
363.82	31.776
364.18	32.400
364.54	31.527
364.90	32.000
365.26	31.073
365.62	32.021
365.98	32.159
366.35	32.829
366.71	32.711
367.07	32.841
367.43	31.769
367.79	33.140
368.15	32.098
368.51	32.135
368.87	33.700
369.23	32.627
369.59	33.382
369.95	32.191
370.31	33.333
370.67	32.857
371.03	31.966
371.39	33.912
371.75	32.987
372.11	32.000
372.47	32.739
372.83	33.163
373.19	32.681
373.55	32.410
373.91	32.727
374.27	33.333
374.63	33.211
374.99	31.479
375.35	33.019
375.71	33.931
376.07	31.873
376.42	32.089
376.78	32.753
377.14	32.542
377.50	32.763
377.86	34.053
378.22	33.223
378.58	33.487
378.94	34.250
379.30	32.819
379.66	32.330
380.02	33.312
380.38	32.952
380.74	33.250
381.09	32.592
381.45	33.333
381.81	33.036
382.17	33.550
382.53	33.531
382.89	32.713
383.25	33.545
383.61	33.058
383.97	33.593
384.32	34.000
384.68	34.100
385.04	33.100
385.40	33.355
385.76	33.080
386.12	33.531
386.48	32.811
386.83	32.785
387.19	33.780
387.55	32.513
387.91	32.897
388.27	32.118
388.62	33.096
388.98	33.969
389.34	32.791
389.70	32.756
390.06	33.531
390.42	33.739
390.77	32.394
391.13	32.466
391.49	34.367
391.85	32.269
392.20	33.267
392.56	32.286
392.92	34.199
393.28	32.735
393.64	31.729
393.99	31.883
394.35	33.355
394.71	32.583
395.07	32.825
395.42	31.619
395.78	32.124
396.14	32.179
396.50	32.212
396.85	31.593
397.21	32.342
397.57	31.731
397.92	32.570
398.28	32.374
398.64	31.937
399.00	32.734
399.35	32.122
399.71	31.557
400.07	31.686
400.42	32.436
400.78	32.694
401.14	31.629
401.49	31.730
401.85	32.508
402.21	32.805
402.57	31.938
402.92	32.603
403.28	31.925
403.63	31.987
403.99	31.044
404.35	30.573
404.70	31.729
405.06	31.122
405.42	31.034
405.77	31.332
406.13	31.183
406.49	30.852
406.84	31.320
407.20	30.669
407.55	31.396
407.91	30.559
408.27	31.316
408.62	30.289
408.98	31.017
409.34	30.922
409.69	31.037
410.05	30.764
410.40	29.801
410.76	30.386
411.11	30.834
411.47	30.204
411.83	30.071
412.18	31.414
412.54	29.819
412.89	30.117
413.25	30.470
413.60	30.166
413.96	29.903
414.31	28.872
414.67	31.600
415.03	30.152
415.38	31.407
415.74	30.222
416.09	28.877
416.45	30.219
416.80	28.790
417.16	29.196
417.51	30.396
417.87	30.369
418.22	30.013
418.58	28.404
418.93	29.916
419.29	29.783
419.64	30.769
420.00	29.535
420.35	29.755
420.71	30.282
421.06	29.851
421.42	29.799
421.77	31.121
422.12	28.766
422.48	29.812
422.83	30.091
423.19	30.471
423.54	29.811
423.90	29.728
424.25	30.272
424.61	30.065
424.96	29.607
425.31	30.978
425.67	30.121
426.02	30.870
426.38	30.309
426.73	30.031
427.09	30.466
427.44	30.988
427.79	31.250
428.15	29.930
428.50	30.779
428.85	30.276
429.21	31.799
429.56	30.331
429.92	30.287
430.27	30.720
430.62	30.827
430.98	30.360
431.33	30.923
431.68	31.674
432.04	30.783
432.39	31.254
432.74	30.424
433.10	31.474
433.45	31.856
433.80	30.536
434.16	29.919
434.51	31.327
434.86	31.360
435.22	31.024
435.57	31.794
435.92	29.845
436.28	31.507
436.63	31.127
436.98	31.358
437.34	32.182
437.69	30.802
438.04	31.490
438.39	31.397
438.75	30.769
439.10	32.024
439.45	31.836
439.81	30.857
440.16	32.468
440.51	30.793
440.86	31.566
441.22	31.864
441.57	31.396
441.92	30.591
442.27	31.886
442.63	31.998
442.98	31.846
443.33	31.669
443.68	32.002
444.03	30.928
444.39	31.130
444.74	32.570
445.09	32.290
445.44	31.020
445.79	31.769
446.15	31.545
446.50	32.678
446.85	31.188
447.20	31.291
447.55	31.530
447.91	32.099
448.26	31.751
448.61	31.299
448.96	31.638
449.31	31.103
449.66	31.477
450.02	31.183
450.37	31.835
450.72	32.376
451.07	32.432
451.42	31.686
451.77	30.580
452.12	30.890
452.47	31.233
452.83	31.320
453.18	31.533
453.53	32.593
453.88	32.163
454.23	31.629
454.58	32.180
454.93	30.381
455.28	31.636
455.63	31.644
455.98	31.789
456.34	31.145
456.69	32.431
457.04	31.693
457.39	31.273
457.74	31.922
458.09	30.803
458.44	31.698
458.79	30.565
459.14	30.173
459.49	31.656
459.84	31.153
460.19	31.520
460.54	30.808
460.89	29.706
461.24	31.494
461.59	31.420
461.94	31.690
462.29	31.830
462.64	31.755
462.99	31.980
463.34	31.209
463.69	32.099
464.04	31.623
464.39	31.383
464.74	30.889
465.09	31.511
465.44	29.754
465.79	30.987
466.14	30.609
466.49	29.863
466.84	30.098
467.19	30.344
467.54	28.912
467.89	30.568
468.24	29.987
468.59	30.825
468.94	29.724
469.29	30.796
469.64	30.853
469.99	30.786
470.34	29.562
470.68	30.000
471.03	30.146
471.38	29.693
471.73	31.395
472.08	29.822
472.43	30.152
472.78	29.442
473.13	30.596
473.48	31.466
473.83	30.317
474.17	29.153
474.52	30.342
474.87	29.230
475.22	30.813
475.57	29.318
475.92	29.392
476.27	30.259
476.61	30.083
476.96	30.350
477.31	30.537
477.66	29.402
478.01	29.606
478.36	29.570
478.70	29.746
479.05	29.135
479.40	28.524
479.75	30.174
480.10	29.600
480.45	29.372
480.79	29.891
481.14	29.889
481.49	29.409
481.84	29.040
482.19	29.756
482.53	29.265
482.88	28.521
483.23	29.698
483.58	28.960
483.92	28.693
484.27	29.477
484.62	29.373
484.97	29.218
485.31	28.306
485.66	27.189
486.01	26.842
486.36	27.171
486.70	27.717
487.05	28.020
487.40	28.034
487.75	27.827
488.09	27.036
488.44	28.465
488.79	27.943
489.13	27.889
489.48	27.959
489.83	27.693
490.17	28.880
490.52	28.155
490.87	28.882
491.22	28.797
491.56	28.360
491.91	27.962
492.26	28.710
492.60	29.082
492.95	28.850
493.30	28.437
493.64	28.600
493.99	29.004
494.34	28.687
494.68	28.345
495.03	27.586
495.37	28.434
495.72	28.217
496.07	27.992
496.41	28.211
496.76	27.985
497.11	27.671
497.45	28.830
497.80	27.934
498.14	27.930
498.49	28.564
498.84	27.254
499.18	28.230
499.53	28.453
499.87	27.957
500.22	27.584
500.56	29.252
500.91	29.051
501.26	27.822
501.60	27.727
501.95	27.175
502.29	28.014
502.64	26.282
502.98	27.713
503.33	26.311
503.67	27.310
504.02	28.192
504.36	27.016
504.71	28.723
505.06	27.477
505.40	28.311
505.75	27.172
506.09	27.302
506.44	27.575
506.78	26.552
507.13	26.547
507.47	29.141
507.82	26.842
508.16	28.118
508.51	28.173
508.85	27.143
509.19	27.372
509.54	27.422
509.88	27.043
510.23	27.247
510.57	26.746
510.92	26.701
511.26	27.168
511.61	26.541
511.95	26.084
512.30	27.710
512.64	26.745
512.98	27.407
513.33	26.436
513.67	26.527
514.02	27.284
514.36	27.106
514.70	27.019
515.05	27.439
515.39	28.168
515.74	28.258
516.08	26.428
516.42	27.657
516.77	26.708
517.11	27.217
517.46	28.170
517.80	28.015
518.14	28.020
518.49	27.426
518.83	27.562
519.17	27.314
519.52	26.858
519.86	28.119
520.20	27.516
520.55	26.893
520.89	27.733
521.23	28.190
521.58	27.447
521.92	26.903
522.26	27.629
522.61	27.235
522.95	27.329
523.29	27.058
523.64	26.662
523.98	27.419
524.32	26.936
524.66	28.212
525.01	26.942
525.35	27.428
525.69	27.116
526.04	27.696
526.38	27.005
526.72	27.778
527.06	27.496
527.41	26.364
527.75	26.274
528.09	25.884
528.43	26.648
528.78	26.834
529.12	26.027
529.46	26.047
529.80	25.800
530.15	27.102
530.49	26.499
530.83	25.886
531.17	25.847
531.51	26.624
531.86	26.891
532.20	26.263
532.54	26.403
532.88	26.036
533.22	26.796
533.57	25.862
533.91	26.290
534.25	26.137
534.59	26.754
534.93	25.520
535.27	25.320
535.62	25.388
535.96	25.820
536.30	25.122
536.64	26.753
536.98	25.221
537.32	25.521
537.66	25.147
538.01	26.362
538.35	26.327
538.69	24.558
539.03	25.451
539.37	24.192
539.71	25.072
540.05	25.832
540.39	25.418
540.73	26.300
541.07	24.853
541.42	25.944
541.76	24.676
542.10	25.108
542.44	25.795
542.78	23.607
543.12	23.827
543.46	26.528
543.80	24.803
544.14	25.591
544.48	23.930
544.82	24.698
545.16	25.580
545.50	25.109
545.84	25.238
546.18	24.494
546.52	25.519
546.86	24.407
547.20	24.697
547.54	25.095
547.88	23.718
548.22	23.840
548.56	25.511
548.90	24.702
549.24	24.561
549.58	23.994
549.92	24.887
550.26	25.405
550.60	24.742
550.94	24.921
551.28	25.528
551.62	25.553
551.96	24.840
552.30	24.109
552.64	24.418
552.98	24.368
553.32	24.318
553.66	23.748
554.00	23.938
554.34	24.141
554.68	24.801
555.02	23.492
555.36	23.828
555.69	23.751
556.03	23.799
556.37	23.556
556.71	23.756
557.05	24.609
557.39	22.892
557.73	23.899
558.07	24.726
558.41	22.506
558.75	24.813
559.08	25.787
559.42	23.746
559.76	23.842
560.10	23.961
560.44	23.595
560.78	25.019
561.12	22.389
561.45	23.512
561.79	21.733
562.13	22.906
562.47	23.242
562.81	22.593
563.15	22.281
563.48	24.270
563.82	23.435
564.16	22.206
564.50	22.994
564.84	22.466
565.17	22.389
565.51	22.519
565.85	23.028
566.19	23.104
566.52	23.441
566.86	22.336
567.20	22.156
567.54	21.570
567.88	21.056
568.21	22.333
568.55	22.241
568.89	21.593
569.23	21.787
569.56	21.839
569.90	21.585
570.24	21.355
570.57	20.090
570.91	20.670
571.25	21.625
571.59	19.902
571.92	20.465
572.26	20.488
572.60	19.820
572.93	20.203
573.27	19.468
573.61	19.684
573.95	19.547
574.28	19.310
574.62	19.197
574.96	19.035
575.29	18.869
575.63	18.975
575.97	19.177
576.30	19.780
576.64	18.826
576.98	19.178
577.31	19.456
577.65	19.890
577.98	19.114
578.32	18.902
578.66	18.390
578.99	18.810
579.33	19.151
579.67	19.066
580.00	18.769
580.34	19.319
580.67	18.795
581.01	18.705
581.35	18.918
581.68	18.210
582.02	18.314
582.35	18.670
582.69	19.308
583.02	19.163
583.36	18.591
583.70	18.959
584.03	18.781
584.37	19.184
584.70	18.440
585.04	18.493
585.37	18.502
585.71	18.127
586.04	18.384
586.38	19.341
586.72	18.958
587.05	18.515
587.39	18.691
587.72	19.005
588.06	18.839
588.39	19.398
588.73	18.520
589.06	18.814
589.40	19.395
589.73	19.409
590.07	18.815
590.40	18.940
590.73	19.409
591.07	19.177
591.40	19.187
591.74	19.170
592.07	19.245
592.41	19.447
592.74	19.173
593.08	18.520
593.41	18.478
593.75	19.043
594.08	18.448
594.41	18.953
594.75	19.029
595.08	18.699
595.42	18.551
595.75	19.053
596.09	18.495
596.42	19.323
596.75	19.909
597.09	19.403
597.42	18.771
597.75	18.715
598.09	19.195
598.42	19.120
598.76	19.171
599.09	18.529
599.42	18.686
599.76	18.321
600.09	18.782
600.42	17.695
600.76	18.322
601.09	18.471
601.42	19.444
601.76	19.237
602.09	18.475
602.42	18.845
602.76	19.415
603.09	19.060
603.42	18.186
603.76	17.583
604.09	18.755
604.42	19.021
604.76	18.165
605.09	18.753
605.42	18.768
605.75	18.182
606.09	19.200
606.42	18.241
606.75	18.917
607.09	19.216
607.42	19.229
607.75	18.365
608.08	18.709
608.42	18.962
608.75	18.459
609.08	17.567
609.41	19.336
609.75	18.641
610.08	18.295
610.41	18.321
610.74	18.352
611.07	18.456
611.41	18.148
611.74	18.770
612.07	19.085
612.40	19.276
612.73	18.171
613.07	19.143
613.40	18.746
613.73	18.041
614.06	18.091
614.39	19.215
614.72	18.536
615.06	19.747
615.39	18.591
615.72	18.029
616.05	17.913
616.38	17.734
616.71	18.595
617.05	18.342
617.38	18.839
617.71	19.791
618.04	18.463
618.37	18.182
618.70	18.614
619.03	19.144
619.36	19.661
619.69	19.207
620.03	18.764
620.36	18.972
620.69	18.108
621.02	19.240
621.35	19.830
621.68	20.072
622.01	19.519
622.34	19.598
622.67	19.983
623.00	19.492
623.33	18.504
623.66	18.805
623.99	19.617
624.32	19.380
624.65	18.516
624.99	18.672
625.32	18.325
625.65	17.774
625.98	20.500
626.31	19.134
626.64	19.730
626.97	19.301
627.30	18.148
627.63	19.442
627.96	19.739
628.29	19.120
628.62	20.515
628.95	20.275
629.28	20.558
629.61	19.749
629.94	19.295
630.26	18.724
630.59	21.047
630.92	18.335
631.25	18.771
631.58	20.000
631.91	19.248
632.24	20.000
632.57	21.165
632.90	22.017
633.23	21.548
633.56	18.994
633.89	19.789
634.22	21.538
