SpectraSuite Data File
++++++++++++++++++++++++++++++++++++
Date: Wed May 13 19:29:31 PDT 2015
User: schluterlab
Dark Spectrum Present: Yes
Reference Spectrum Present: Yes
Number of Sampled Component Spectra: 1
Spectrometers: USB2E3373
Integration Time (usec): 3000 (USB2E3373)
Spectra Averaged: 3 (USB2E3373)
Boxcar Smoothing: 0 (USB2E3373)
Correct for Electrical Dark: No (USB2E3373)
Strobe/Lamp Enabled: No (USB2E3373)
Correct for Detector Non-linearity: No (USB2E3373)
Correct for Stray Light: No (USB2E3373)
Number of Pixels in Processed Spectrum: 2048
>>>>>Begin Processed Spectral Data<<<<<
178.53	0.000
178.91	-1600.000
179.29	-1500.000
179.67	-255.556
180.04	-1150.000
180.42	2950.000
180.80	860.000
181.18	-975.000
181.56	700.000
181.94	0.000
182.31	-614.286
182.69	1900.000
183.07	-562.500
183.45	-522.222
183.83	572.727
184.20	-340.000
184.58	2750.000
184.96	5500.000
185.34	-860.000
185.72	-675.000
186.09	-2700.000
186.47	2650.000
186.85	2100.000
187.23	5100.000
187.61	-1400.000
187.98	1375.000
188.36	581.818
188.74	590.909
189.12	-920.000
189.49	530.000
189.87	-4200.000
190.25	-1350.000
190.63	378.571
191.00	423.077
191.38	766.667
191.76	-1325.000
192.14	1375.000
192.51	612.500
192.89	1033.333
193.27	825.000
193.65	-1100.000
194.02	460.000
194.40	940.000
194.78	550.000
195.15	475.000
195.53	610.000
195.91	-2200.000
196.29	375.000
196.66	305.263
197.04	-390.000
197.42	0.000
197.79	520.000
198.17	-5200.000
198.55	885.714
198.92	762.500
199.30	900.000
199.68	0.000
200.05	377.778
200.43	842.857
200.81	4400.000
201.18	1533.333
201.56	-1666.667
201.94	644.444
202.31	633.333
202.69	450.000
203.07	510.000
203.44	0.000
203.82	1225.000
204.19	700.000
204.57	500.000
204.95	625.000
205.32	1700.000
205.70	609.091
206.08	400.000
206.45	2600.000
206.83	393.750
207.20	883.333
207.58	600.000
207.96	327.778
208.33	712.500
208.71	-783.333
209.08	828.571
209.46	611.111
209.84	545.455
210.21	-1766.667
210.59	1250.000
210.96	-525.000
211.34	2250.000
211.71	580.000
212.09	850.000
212.46	0.000
212.84	1733.333
213.22	1300.000
213.59	-3300.000
213.97	850.000
214.34	814.286
214.72	563.636
215.09	1040.000
215.47	-2500.000
215.84	-2200.000
216.22	1800.000
216.59	471.429
216.97	1200.000
217.34	490.909
217.72	-750.000
218.09	0.000
218.47	-4800.000
218.84	811.111
219.22	914.286
219.59	1366.667
219.97	-642.857
220.34	1000.000
220.72	-1900.000
221.09	392.857
221.47	1550.000
221.84	-900.000
222.22	0.000
222.59	1350.000
222.97	-2400.000
223.34	1140.000
223.72	492.308
224.09	1140.000
224.46	2450.000
224.84	-5300.000
225.21	-900.000
225.59	-5400.000
225.96	580.000
226.34	290.000
226.71	2550.000
227.08	675.000
227.46	520.000
227.83	-900.000
228.21	-2100.000
228.58	644.444
228.95	-2300.000
229.33	-2050.000
229.70	1800.000
230.08	842.857
230.45	-800.000
230.82	541.667
231.20	883.333
231.57	728.571
231.95	491.667
232.32	231.818
232.69	472.727
233.07	771.429
233.44	284.615
233.81	-1700.000
234.19	315.789
234.56	491.667
234.93	358.333
235.31	527.273
235.68	300.000
236.05	371.429
236.43	175.758
236.80	247.368
237.17	3800.000
237.55	242.857
237.92	217.857
238.29	242.857
238.67	209.677
239.04	172.414
239.41	161.111
239.79	110.870
240.16	126.190
240.53	120.455
240.91	90.196
241.28	96.000
241.65	106.000
242.02	97.101
242.40	90.323
242.77	103.333
243.14	75.269
243.51	79.775
243.89	78.824
244.26	65.556
244.63	69.892
245.00	52.128
245.38	53.465
245.75	57.009
246.12	53.211
246.49	66.423
246.87	56.800
247.24	55.385
247.61	50.000
247.98	47.059
248.36	47.297
248.73	37.580
249.10	44.586
249.47	42.938
249.84	41.711
250.22	39.572
250.59	35.503
250.96	35.859
251.33	41.706
251.70	40.099
252.08	43.810
252.45	31.390
252.82	34.783
253.19	34.894
253.56	34.902
253.94	37.344
254.31	34.375
254.68	32.692
255.05	34.686
255.42	35.366
255.79	31.985
256.16	35.379
256.54	27.562
256.91	30.249
257.28	29.496
257.65	30.033
258.02	30.435
258.39	31.230
258.76	24.749
259.14	31.845
259.51	24.316
259.88	27.019
260.25	29.305
260.62	28.035
260.99	26.708
261.36	31.231
261.73	27.507
262.10	23.547
262.47	29.014
262.85	27.298
263.22	22.222
263.59	29.060
263.96	24.451
264.33	24.021
264.70	24.737
265.07	24.552
265.44	26.010
265.81	24.574
266.18	26.633
266.55	24.878
266.92	25.799
267.29	26.157
267.66	25.459
268.03	24.318
268.40	24.533
268.77	21.718
269.14	22.297
269.51	26.411
269.88	24.709
270.25	22.348
270.62	24.045
270.99	25.806
271.36	24.249
271.73	23.131
272.10	22.174
272.47	23.871
272.84	23.593
273.21	26.415
273.58	21.834
273.95	21.384
274.32	22.521
274.69	23.340
275.06	22.047
275.43	20.638
275.80	21.042
276.17	22.811
276.54	22.453
276.91	21.739
277.28	22.852
277.65	22.631
278.02	19.669
278.39	23.633
278.76	22.182
279.13	21.132
279.50	20.112
279.87	22.510
280.23	20.359
280.60	20.696
280.97	20.148
281.34	21.947
281.71	20.545
282.08	21.305
282.45	19.455
282.82	19.893
283.19	19.964
283.56	19.298
283.92	20.135
284.29	17.989
284.66	19.782
285.03	19.892
285.40	19.894
285.77	19.529
286.14	18.826
286.51	18.833
286.87	21.538
287.24	21.336
287.61	19.904
287.98	19.643
288.35	16.482
288.72	18.224
289.08	18.466
289.45	19.769
289.82	16.911
290.19	18.995
290.56	17.611
290.93	18.127
291.29	17.331
291.66	19.174
292.03	19.041
292.40	19.824
292.77	15.680
293.13	17.910
293.50	17.055
293.87	17.926
294.24	15.259
294.60	16.885
294.97	16.570
295.34	19.041
295.71	17.187
296.08	14.815
296.44	16.644
296.81	15.984
297.18	16.667
297.55	14.380
297.91	16.095
298.28	17.001
298.65	15.274
299.02	16.337
299.38	14.343
299.75	12.264
300.12	14.049
300.48	14.250
300.85	15.166
301.22	15.414
301.59	15.152
301.95	13.854
302.32	15.019
302.69	14.695
303.05	13.939
303.42	14.568
303.79	14.836
304.15	14.452
304.52	13.094
304.89	16.260
305.25	13.573
305.62	14.383
305.99	15.584
306.35	13.647
306.72	14.013
307.09	14.872
307.45	15.541
307.82	12.835
308.19	15.121
308.55	15.858
308.92	14.823
309.29	13.516
309.65	13.680
310.02	14.693
310.38	15.269
310.75	13.939
311.12	16.377
311.48	14.838
311.85	15.304
312.22	14.464
312.58	14.241
312.95	16.156
313.31	14.272
313.68	15.177
314.05	17.357
314.41	16.985
314.78	16.113
315.14	15.889
315.51	16.375
315.87	16.634
316.24	17.577
316.61	16.569
316.97	17.613
317.34	15.949
317.70	17.113
318.07	18.191
318.43	20.450
318.80	19.306
319.16	18.644
319.53	18.011
319.89	20.762
320.26	21.800
320.62	20.933
320.99	20.909
321.35	20.808
321.72	22.279
322.08	23.593
322.45	23.881
322.81	24.612
323.18	24.470
323.54	24.212
323.91	26.415
324.27	25.908
324.64	26.002
325.00	25.969
325.37	27.662
325.73	26.661
326.10	28.773
326.46	27.330
326.83	29.594
327.19	29.120
327.56	29.878
327.92	29.221
328.29	30.169
328.65	31.492
329.01	30.686
329.38	30.990
329.74	30.840
330.11	31.951
330.47	31.221
330.84	32.169
331.20	31.239
331.56	31.284
331.93	32.963
332.29	33.097
332.66	32.743
333.02	33.364
333.38	33.153
333.75	32.620
334.11	33.452
334.48	31.677
334.84	34.099
335.20	33.818
335.57	33.636
335.93	32.054
336.29	32.967
336.66	33.273
337.02	32.760
337.38	32.963
337.75	32.888
338.11	33.214
338.47	34.254
338.84	33.639
339.20	33.211
339.56	35.949
339.93	34.091
340.29	34.239
340.65	33.512
341.02	33.770
341.38	34.342
341.74	32.368
342.11	35.022
342.47	33.480
342.83	33.048
343.20	35.844
343.56	33.446
343.92	34.298
344.28	33.844
344.65	33.362
345.01	33.586
345.37	33.190
345.73	34.518
346.10	34.356
346.46	34.237
346.82	34.185
347.19	34.336
347.55	33.005
347.91	35.032
348.27	34.182
348.63	35.117
349.00	34.385
349.36	34.319
349.72	35.124
350.08	34.198
350.45	35.476
350.81	33.875
351.17	34.927
351.53	33.743
351.89	33.828
352.26	36.859
352.62	35.365
352.98	35.089
353.34	35.086
353.70	34.288
354.07	36.048
354.43	33.651
354.79	34.755
355.15	34.717
355.51	35.172
355.87	36.000
356.24	35.586
356.60	35.846
356.96	35.479
357.32	35.323
357.68	36.457
358.04	35.946
358.40	35.788
358.77	35.211
359.13	35.517
359.49	35.686
359.85	35.714
360.21	35.805
360.57	36.265
360.93	36.923
361.29	36.130
361.66	34.985
362.02	35.821
362.38	36.198
362.74	35.640
363.10	35.899
363.46	35.510
363.82	36.810
364.18	36.490
364.54	38.336
364.90	37.606
365.26	37.647
365.62	37.180
365.98	36.596
366.35	36.461
366.71	36.587
367.07	38.529
367.43	37.228
367.79	37.402
368.15	38.434
368.51	38.009
368.87	38.330
369.23	38.990
369.59	39.030
369.95	38.456
370.31	39.103
370.67	38.913
371.03	39.700
371.39	38.192
371.75	39.926
372.11	38.762
372.47	40.543
372.83	40.778
373.19	39.668
373.55	39.616
373.91	40.353
374.27	40.412
374.63	41.018
374.99	41.596
375.35	39.637
375.71	40.096
376.07	41.084
376.42	41.609
376.78	41.418
377.14	40.773
377.50	41.589
377.86	41.157
378.22	41.340
378.58	40.100
378.94	41.295
379.30	40.967
379.66	42.449
380.02	41.769
380.38	41.226
380.74	42.317
381.09	42.298
381.45	42.717
381.81	43.243
382.17	43.503
382.53	42.075
382.89	44.074
383.25	42.464
383.61	43.742
383.97	43.152
384.32	43.668
384.68	42.565
385.04	42.532
385.40	42.724
385.76	43.735
386.12	43.718
386.48	43.864
386.83	44.452
387.19	44.836
387.55	45.145
387.91	43.652
388.27	44.206
388.62	45.360
388.98	43.673
389.34	45.244
389.70	44.758
390.06	44.804
390.42	45.785
390.77	44.466
391.13	45.182
391.49	44.353
391.85	45.003
392.20	45.047
392.56	45.328
392.92	45.556
393.28	45.976
393.64	45.983
393.99	44.960
394.35	45.968
394.71	45.420
395.07	45.483
395.42	46.786
395.78	46.565
396.14	45.872
396.50	46.053
396.85	45.645
397.21	45.623
397.57	46.001
397.92	46.154
398.28	44.731
398.64	45.818
399.00	45.439
399.35	45.685
399.71	45.544
400.07	45.003
400.42	45.890
400.78	46.864
401.14	45.671
401.49	45.851
401.85	45.554
402.21	45.210
402.57	45.466
402.92	46.595
403.28	47.595
403.63	46.411
403.99	45.732
404.35	45.394
404.70	45.324
405.06	46.360
405.42	46.039
405.77	46.000
406.13	45.372
406.49	45.358
406.84	46.072
407.20	46.277
407.55	45.756
407.91	46.400
408.27	46.522
408.62	47.080
408.98	46.324
409.34	47.478
409.69	47.484
410.05	46.592
410.40	46.789
410.76	46.774
411.11	46.622
411.47	46.709
411.83	46.304
412.18	46.135
412.54	46.949
412.89	46.084
413.25	46.517
413.60	46.016
413.96	45.477
414.31	45.747
414.67	47.592
415.03	46.291
415.38	44.910
415.74	47.267
416.09	46.897
416.45	46.051
416.80	46.861
417.16	46.046
417.51	47.047
417.87	44.830
418.22	47.760
418.58	46.546
418.93	45.086
419.29	46.404
419.64	46.474
420.00	45.549
420.35	46.377
420.71	46.204
421.06	46.360
421.42	45.965
421.77	46.076
422.12	45.536
422.48	44.792
422.83	46.418
423.19	45.691
423.54	45.618
423.90	45.101
424.25	45.059
424.61	45.417
424.96	45.889
425.31	44.684
425.67	44.719
426.02	45.657
426.38	46.398
426.73	44.587
427.09	44.255
427.44	46.521
427.79	45.313
428.15	46.012
428.50	45.231
428.85	44.577
429.21	45.445
429.56	44.635
429.92	44.942
430.27	44.191
430.62	43.932
430.98	44.837
431.33	44.742
431.68	44.398
432.04	44.356
432.39	45.688
432.74	45.242
433.10	44.539
433.45	45.248
433.80	45.843
434.16	44.231
434.51	44.474
434.86	45.097
435.22	44.858
435.57	45.471
435.92	44.587
436.28	45.077
436.63	44.205
436.98	44.018
437.34	44.842
437.69	45.216
438.04	45.082
438.39	45.254
438.75	45.032
439.10	45.531
439.45	45.336
439.81	45.619
440.16	43.591
440.51	44.698
440.86	44.991
441.22	44.828
441.57	44.533
441.92	45.138
442.27	44.833
442.63	43.655
442.98	45.014
443.33	44.402
443.68	44.450
444.03	44.265
444.39	44.206
444.74	43.885
445.09	43.612
445.44	43.794
445.79	43.444
446.15	43.939
446.50	43.942
446.85	44.399
447.20	44.161
447.55	45.170
447.91	44.126
448.26	44.073
448.61	43.527
448.96	44.131
449.31	44.319
449.66	43.725
450.02	43.565
450.37	43.424
450.72	43.204
451.07	42.840
451.42	43.647
451.77	43.746
452.12	43.072
452.47	43.159
452.83	43.765
453.18	42.604
453.53	43.785
453.88	44.418
454.23	42.738
454.58	44.034
454.93	44.183
455.28	43.392
455.63	44.235
455.98	43.750
456.34	43.781
456.69	44.020
457.04	43.344
457.39	43.191
457.74	42.832
458.09	42.036
458.44	42.987
458.79	41.594
459.14	41.084
459.49	42.732
459.84	42.936
460.19	42.899
460.54	41.956
460.89	41.964
461.24	42.137
461.59	42.766
461.94	41.492
462.29	42.018
462.64	41.991
462.99	41.509
463.34	42.533
463.69	43.027
464.04	41.217
464.39	41.449
464.74	41.474
465.09	41.918
465.44	40.831
465.79	41.667
466.14	39.737
466.49	39.155
466.84	40.572
467.19	41.219
467.54	42.000
467.89	40.636
468.24	40.489
468.59	41.941
468.94	40.440
469.29	40.039
469.64	40.562
469.99	40.866
470.34	40.555
470.68	41.523
471.03	39.524
471.38	41.070
471.73	39.840
472.08	41.447
472.43	39.950
472.78	39.566
473.13	40.180
473.48	38.951
473.83	40.427
474.17	38.706
474.52	39.640
474.87	38.762
475.22	39.060
475.57	37.614
475.92	37.918
476.27	38.444
476.61	38.224
476.96	37.823
477.31	38.305
477.66	37.965
478.01	37.585
478.36	38.551
478.70	37.331
479.05	38.339
479.40	37.973
479.75	37.672
480.10	36.680
480.45	37.078
480.79	35.882
481.14	37.622
481.49	36.497
481.84	36.763
482.19	36.847
482.53	36.927
482.88	37.040
483.23	36.869
483.58	36.033
483.92	35.942
484.27	36.035
484.62	35.776
484.97	35.514
485.31	36.062
485.66	34.341
486.01	34.377
486.36	33.113
486.70	32.504
487.05	33.221
487.40	33.325
487.75	34.091
488.09	34.092
488.44	34.590
488.79	34.105
489.13	34.492
489.48	34.992
489.83	34.873
490.17	34.108
490.52	34.012
490.87	33.831
491.22	33.379
491.56	34.032
491.91	34.155
492.26	33.808
492.60	33.364
492.95	32.367
493.30	33.505
493.64	34.018
493.99	33.194
494.34	34.366
494.68	34.020
495.03	33.694
495.37	33.364
495.72	33.723
496.07	33.643
496.41	32.345
496.76	33.861
497.11	32.778
497.45	32.557
497.80	32.438
498.14	32.802
498.49	32.634
498.84	32.167
499.18	33.048
499.53	32.431
499.87	32.293
500.22	31.276
500.56	32.767
500.91	32.163
501.26	31.389
501.60	32.511
501.95	31.072
502.29	31.724
502.64	31.983
502.98	31.931
503.33	31.170
503.67	32.019
504.02	31.478
504.36	31.540
504.71	31.168
505.06	31.807
505.40	31.016
505.75	30.473
506.09	31.390
506.44	31.031
506.78	30.541
507.13	31.045
507.47	30.758
507.82	31.003
508.16	30.648
508.51	30.644
508.85	30.636
509.19	30.408
509.54	29.337
509.88	29.624
510.23	29.512
510.57	31.373
510.92	30.813
511.26	30.113
511.61	29.979
511.95	29.436
512.30	29.427
512.64	30.199
512.98	30.171
513.33	30.353
513.67	28.762
514.02	28.680
514.36	29.820
514.70	28.832
515.05	29.225
515.39	29.220
515.74	30.011
516.08	28.787
516.42	29.245
516.77	29.766
517.11	28.635
517.46	29.289
517.80	29.791
518.14	28.778
518.49	29.288
518.83	27.727
519.17	28.464
519.52	28.749
519.86	28.979
520.20	29.191
520.55	29.443
520.89	29.440
521.23	28.227
521.58	27.731
521.92	28.904
522.26	28.249
522.61	28.723
522.95	28.177
523.29	28.545
523.64	28.171
523.98	28.527
524.32	27.986
524.66	28.082
525.01	28.125
525.35	27.261
525.69	27.894
526.04	27.352
526.38	28.554
526.72	26.810
527.06	27.872
527.41	26.795
527.75	27.460
528.09	28.773
528.43	27.406
528.78	27.966
529.12	27.030
529.46	28.108
529.80	26.795
530.15	27.850
530.49	27.323
530.83	27.848
531.17	27.742
531.51	27.756
531.86	27.935
532.20	27.640
532.54	27.995
532.88	26.829
533.22	26.733
533.57	27.160
533.91	26.851
534.25	26.792
534.59	26.358
534.93	26.413
535.27	26.373
535.62	26.190
535.96	26.930
536.30	26.065
536.64	26.980
536.98	25.946
537.32	26.201
537.66	25.667
538.01	25.543
538.35	26.891
538.69	27.250
539.03	25.341
539.37	25.559
539.71	24.757
540.05	25.621
540.39	25.581
540.73	25.291
541.07	26.931
541.42	25.571
541.76	26.129
542.10	25.291
542.44	24.901
542.78	26.746
543.12	25.528
543.46	25.967
543.80	25.764
544.14	26.123
544.48	26.222
544.82	25.080
545.16	25.309
545.50	24.807
545.84	25.941
546.18	26.465
546.52	24.845
546.86	25.155
547.20	26.500
547.54	25.518
547.88	25.702
548.22	25.342
548.56	25.094
548.90	25.096
549.24	24.444
549.58	25.853
549.92	25.137
550.26	25.497
550.60	25.173
550.94	24.718
551.28	24.214
551.62	25.090
551.96	24.772
552.30	25.119
552.64	24.611
552.98	24.542
553.32	24.477
553.66	24.540
554.00	24.846
554.34	25.121
554.68	25.322
555.02	23.766
555.36	24.426
555.69	24.154
556.03	23.486
556.37	23.670
556.71	23.533
557.05	23.810
557.39	24.143
557.73	24.347
558.07	24.656
558.41	23.372
558.75	24.541
559.08	25.503
559.42	23.885
559.76	24.779
560.10	23.840
560.44	23.550
560.78	22.888
561.12	23.087
561.45	24.446
561.79	23.797
562.13	23.474
562.47	24.180
562.81	24.756
563.15	23.478
563.48	22.812
563.82	23.549
564.16	23.479
564.50	22.266
564.84	22.630
565.17	23.166
565.51	23.642
565.85	23.160
566.19	23.607
566.52	23.813
566.86	21.820
567.20	23.998
567.54	22.546
567.88	22.271
568.21	23.122
568.55	21.891
568.89	21.498
569.23	20.856
569.56	21.457
569.90	21.698
570.24	21.493
570.57	21.013
570.91	20.653
571.25	20.445
571.59	20.736
571.92	20.421
572.26	20.508
572.60	20.541
572.93	20.120
573.27	20.586
573.61	20.268
573.95	20.646
574.28	19.774
574.62	19.898
574.96	19.713
575.29	19.229
575.63	20.401
575.97	20.151
576.30	20.260
576.64	19.914
576.98	19.713
577.31	19.409
577.65	19.870
577.98	19.823
578.32	19.202
578.66	19.560
578.99	19.790
579.33	19.632
579.67	19.533
580.00	19.612
580.34	19.530
580.67	19.310
581.01	19.699
581.35	19.615
581.68	19.342
582.02	18.944
582.35	19.241
582.69	19.215
583.02	19.314
583.36	19.530
583.70	19.655
584.03	19.070
584.37	19.868
584.70	19.592
585.04	19.741
585.37	19.035
585.71	19.384
586.04	19.014
586.38	19.122
586.72	19.884
587.05	19.261
587.39	19.288
587.72	19.428
588.06	19.317
588.39	19.342
588.73	19.302
589.06	19.819
589.40	19.933
589.73	19.500
590.07	19.253
590.40	20.058
590.73	20.023
591.07	20.228
591.40	19.654
591.74	20.519
592.07	19.983
592.41	19.843
592.74	19.213
593.08	19.687
593.41	19.234
593.75	18.676
594.08	19.175
594.41	19.300
594.75	19.224
595.08	19.256
595.42	19.089
595.75	19.053
596.09	19.302
596.42	20.118
596.75	19.882
597.09	20.173
597.42	19.013
597.75	19.664
598.09	19.957
598.42	19.759
598.76	18.687
599.09	18.966
599.42	18.959
599.76	18.814
600.09	18.579
600.42	18.736
600.76	18.750
601.09	19.053
601.42	19.026
601.76	18.899
602.09	18.972
602.42	19.228
602.76	19.025
603.09	19.237
603.42	19.719
603.76	19.398
604.09	18.883
604.42	18.426
604.76	19.865
605.09	18.960
605.42	18.769
605.75	19.247
606.09	18.869
606.42	18.921
606.75	18.747
607.09	19.464
607.42	18.956
607.75	18.186
608.08	18.628
608.42	19.050
608.75	18.801
609.08	19.426
609.41	18.658
609.75	18.771
610.08	18.850
610.41	18.901
610.74	19.631
611.07	18.972
611.41	19.627
611.74	19.558
612.07	19.410
612.40	19.255
612.73	18.789
613.07	20.259
613.40	19.589
613.73	18.878
614.06	19.301
614.39	18.825
614.72	19.632
615.06	19.223
615.39	18.790
615.72	19.018
616.05	18.394
616.38	19.122
616.71	19.537
617.05	19.081
617.38	19.002
617.71	19.099
618.04	19.832
618.37	19.515
618.70	18.606
619.03	20.461
619.36	19.756
619.69	19.225
620.03	20.330
620.36	20.053
620.69	21.233
621.02	19.543
621.35	19.577
621.68	20.093
622.01	20.046
622.34	20.424
622.67	19.468
623.00	19.736
623.33	18.942
623.66	19.800
623.99	20.324
624.32	19.472
624.65	20.127
624.99	19.263
625.32	19.189
625.65	20.511
625.98	20.292
626.31	20.451
626.64	20.980
626.97	19.784
627.30	19.784
627.63	20.098
627.96	20.437
628.29	20.647
628.62	21.134
628.95	20.566
629.28	20.712
629.61	21.357
629.94	20.952
630.26	19.924
630.59	21.449
630.92	20.307
