SpectraSuite Data File
++++++++++++++++++++++++++++++++++++
Date: Wed May 13 19:41:30 PDT 2015
User: schluterlab
Dark Spectrum Present: Yes
Reference Spectrum Present: Yes
Number of Sampled Component Spectra: 1
Spectrometers: USB2E3373
Integration Time (usec): 3000 (USB2E3373)
Spectra Averaged: 3 (USB2E3373)
Boxcar Smoothing: 0 (USB2E3373)
Correct for Electrical Dark: No (USB2E3373)
Strobe/Lamp Enabled: No (USB2E3373)
Correct for Detector Non-linearity: No (USB2E3373)
Correct for Stray Light: No (USB2E3373)
Number of Pixels in Processed Spectrum: 2048
>>>>>Begin Processed Spectral Data<<<<<
178.53	0.000
178.91	-1375.000
179.29	-1250.000
179.67	-233.333
180.04	-1300.000
180.42	2850.000
180.80	1180.000
181.18	-1075.000
181.56	857.143
181.94	0.000
182.31	-742.857
182.69	1600.000
183.07	-575.000
183.45	-488.889
183.83	554.545
184.20	-430.000
184.58	1950.000
184.96	5200.000
185.34	-940.000
185.72	-550.000
186.09	-2000.000
186.47	2650.000
186.85	2350.000
187.23	4600.000
187.61	-1633.333
187.98	1425.000
188.36	627.273
188.74	536.364
189.12	-800.000
189.49	610.000
189.87	-4800.000
190.25	-1350.000
190.63	350.000
191.00	423.077
191.38	800.000
191.76	-1025.000
192.14	1625.000
192.51	737.500
192.89	1000.000
193.27	537.500
193.65	-1225.000
194.02	540.000
194.40	1080.000
194.78	590.000
195.15	525.000
195.53	660.000
195.91	-1950.000
196.29	356.250
196.66	326.316
197.04	-340.000
197.42	0.000
197.79	660.000
198.17	-5200.000
198.55	757.143
198.92	687.500
199.30	940.000
199.68	0.000
200.05	333.333
200.43	728.571
200.81	3900.000
201.18	1966.667
201.56	-1700.000
201.94	577.778
202.31	488.889
202.69	475.000
203.07	620.000
203.44	0.000
203.82	1375.000
204.19	800.000
204.57	450.000
204.95	550.000
205.32	1600.000
205.70	481.818
206.08	450.000
206.45	2400.000
206.83	381.250
207.20	766.667
207.58	780.000
207.96	311.111
208.33	825.000
208.71	-800.000
209.08	857.143
209.46	577.778
209.84	463.636
210.21	-1466.667
210.59	1300.000
210.96	-637.500
211.34	2600.000
211.71	540.000
212.09	850.000
212.46	0.000
212.84	1166.667
213.22	1350.000
213.59	-4400.000
213.97	666.667
214.34	742.857
214.72	518.182
215.09	860.000
215.47	-2350.000
215.84	-2600.000
216.22	1633.333
216.59	464.286
216.97	1325.000
217.34	472.727
217.72	-700.000
218.09	0.000
218.47	-4800.000
218.84	600.000
219.22	657.143
219.59	2066.667
219.97	-700.000
220.34	980.000
220.72	-1566.667
221.09	421.429
221.47	1500.000
221.84	-1016.667
222.22	0.000
222.59	1450.000
222.97	-2450.000
223.34	1040.000
223.72	453.846
224.09	1080.000
224.46	2000.000
224.84	-4900.000
225.21	-1040.000
225.59	-5600.000
225.96	620.000
226.34	295.000
226.71	2450.000
227.08	625.000
227.46	530.000
227.83	-1075.000
228.21	-2350.000
228.58	600.000
228.95	-2100.000
229.33	-1950.000
229.70	1666.667
230.08	728.571
230.45	-1040.000
230.82	458.333
231.20	766.667
231.57	614.286
231.95	508.333
232.32	254.545
232.69	363.636
233.07	671.429
233.44	315.385
233.81	-1900.000
234.19	273.684
234.56	466.667
234.93	316.667
235.31	436.364
235.68	284.615
236.05	335.714
236.43	172.727
236.80	247.368
237.17	3900.000
237.55	247.619
237.92	214.286
238.29	233.333
238.67	161.290
239.04	206.897
239.41	150.000
239.79	102.174
240.16	121.429
240.53	122.727
240.91	105.882
241.28	96.000
241.65	90.000
242.02	78.261
242.40	80.645
242.77	88.333
243.14	73.118
243.51	61.798
243.89	60.000
244.26	57.778
244.63	55.914
245.00	54.255
245.38	53.465
245.75	46.729
246.12	40.367
246.49	52.555
246.87	56.000
247.24	36.923
247.61	36.429
247.98	41.176
248.36	33.108
248.73	38.854
249.10	37.580
249.47	31.073
249.84	35.829
250.22	33.690
250.59	34.320
250.96	35.354
251.33	28.910
251.70	31.188
252.08	24.762
252.45	26.457
252.82	26.087
253.19	26.383
253.56	26.275
253.94	27.386
254.31	23.047
254.68	25.000
255.05	23.985
255.42	23.171
255.79	25.368
256.16	25.993
256.54	14.841
256.91	23.488
257.28	19.065
257.65	18.812
258.02	20.186
258.39	22.713
258.76	18.729
259.14	17.560
259.51	17.629
259.88	18.323
260.25	19.940
260.62	18.208
260.99	19.255
261.36	19.820
261.73	18.338
262.10	18.895
262.47	20.563
262.85	19.220
263.22	12.821
263.59	17.949
263.96	16.484
264.33	16.971
264.70	17.105
265.07	17.903
265.44	15.152
265.81	15.572
266.18	15.578
266.55	16.829
266.92	15.233
267.29	14.583
267.66	16.972
268.03	14.318
268.40	15.888
268.77	16.945
269.14	13.739
269.51	18.736
269.88	15.152
270.25	17.381
270.62	16.180
270.99	15.699
271.36	16.094
271.73	14.019
272.10	15.652
272.47	13.763
272.84	14.719
273.21	16.562
273.58	12.882
273.95	13.208
274.32	15.496
274.69	16.060
275.06	14.764
275.43	14.468
275.80	15.230
276.17	13.238
276.54	13.721
276.91	13.439
277.28	13.867
277.65	14.120
278.02	10.973
278.39	13.281
278.76	12.727
279.13	14.151
279.50	13.035
279.87	13.347
280.23	12.774
280.60	11.992
280.97	13.124
281.34	13.451
281.71	12.727
282.08	12.860
282.45	13.091
282.82	12.789
283.19	9.982
283.56	11.754
283.92	12.690
284.29	12.346
284.66	11.797
285.03	12.658
285.40	14.789
285.77	13.973
286.14	10.881
286.51	11.333
286.87	14.017
287.24	12.541
287.61	11.396
287.98	12.500
288.35	12.044
288.72	12.461
289.08	12.363
289.45	10.708
289.82	12.846
290.19	9.576
290.56	11.485
290.93	9.970
291.29	10.736
291.66	10.767
292.03	12.645
292.40	13.363
292.77	10.651
293.13	11.194
293.50	10.058
293.87	9.778
294.24	9.481
294.60	9.170
294.97	10.320
295.34	11.283
295.71	10.085
296.08	10.969
296.44	9.354
296.81	10.172
297.18	10.976
297.55	7.652
297.91	8.575
298.28	10.710
298.65	9.138
299.02	10.145
299.38	8.765
299.75	7.008
300.12	9.579
300.48	8.875
300.85	9.864
301.22	8.408
301.59	8.333
301.95	9.698
302.32	8.601
302.69	8.124
303.05	8.242
303.42	8.148
303.79	9.287
304.15	8.858
304.52	7.184
304.89	7.898
305.25	8.817
305.62	8.947
305.99	8.619
306.35	7.830
306.72	8.969
307.09	8.435
307.45	8.784
307.82	7.478
308.19	8.278
308.55	9.061
308.92	7.626
309.29	8.237
309.65	6.787
310.02	7.717
310.38	8.172
310.75	7.181
311.12	8.802
311.48	6.688
311.85	9.015
312.22	7.908
312.58	7.900
312.95	7.920
313.31	7.282
313.68	7.900
314.05	10.256
314.41	7.638
314.78	7.452
315.14	7.944
315.51	7.209
315.87	8.416
316.24	7.547
316.61	8.382
316.97	7.143
317.34	6.458
317.70	9.273
318.07	8.277
318.43	9.393
318.80	7.779
319.16	8.380
319.53	7.598
319.89	8.952
320.26	8.100
320.62	7.738
320.99	8.788
321.35	7.778
321.72	8.830
322.08	8.292
322.45	11.045
322.81	9.690
323.18	9.345
323.54	8.627
323.91	9.811
324.27	8.317
324.64	8.295
325.00	8.386
325.37	8.553
325.73	9.336
326.10	9.620
326.46	8.333
326.83	10.009
327.19	9.735
327.56	8.362
327.92	9.361
328.29	9.760
328.65	9.116
329.01	9.838
329.38	9.528
329.74	9.326
330.11	9.519
330.47	9.550
330.84	10.294
331.20	9.472
331.56	10.000
331.93	8.796
332.29	10.470
332.66	10.442
333.02	9.689
333.38	10.659
333.75	10.873
334.11	10.142
334.48	10.470
334.84	10.570
335.20	9.545
335.57	9.519
335.93	8.214
336.29	8.791
336.66	9.017
337.02	8.235
337.38	10.463
337.75	9.002
338.11	9.221
338.47	8.932
338.84	10.907
339.20	8.624
339.56	10.310
339.93	8.545
340.29	9.149
340.65	9.715
341.02	9.424
341.38	9.164
341.74	9.912
342.11	8.996
342.47	9.339
342.83	9.760
343.20	10.736
343.56	9.099
343.92	9.123
344.28	9.184
344.65	9.372
345.01	9.007
345.37	7.976
345.73	9.983
346.10	8.610
346.46	8.475
346.82	8.237
347.19	9.023
347.55	8.456
347.91	9.223
348.27	10.025
348.63	9.114
349.00	8.010
349.36	7.882
349.72	9.623
350.08	8.185
350.45	7.811
350.81	8.773
351.17	8.752
351.53	8.436
351.89	8.086
352.26	9.945
352.62	8.581
352.98	7.618
353.34	8.463
353.70	8.347
354.07	8.145
354.43	8.095
354.79	7.562
355.15	7.502
355.51	9.752
355.87	8.327
356.24	9.121
356.60	8.581
356.96	8.528
357.32	7.768
357.68	8.425
358.04	8.076
358.40	8.868
358.77	7.746
359.13	7.419
359.49	8.078
359.85	6.825
360.21	7.895
360.57	8.794
360.93	8.077
361.29	8.390
361.66	7.895
362.02	8.209
362.38	7.757
362.74	7.812
363.10	8.216
363.46	8.070
363.82	8.088
364.18	8.150
364.54	8.841
364.90	7.649
365.26	7.500
365.62	8.400
365.98	6.574
366.35	6.805
366.71	8.243
367.07	7.575
367.43	8.273
367.79	7.923
368.15	8.333
368.51	7.413
368.87	7.352
369.23	6.950
369.59	7.676
369.95	6.324
370.31	8.476
370.67	7.246
371.03	8.240
371.39	8.382
371.75	6.618
372.11	8.108
372.47	7.625
372.83	7.349
373.19	7.587
373.55	7.021
373.91	8.984
374.27	7.216
374.63	6.400
374.99	7.556
375.35	6.769
375.71	7.402
376.07	8.093
376.42	7.084
376.78	7.820
377.14	6.988
377.50	8.146
377.86	6.915
378.22	7.712
378.58	6.830
378.94	6.788
379.30	6.298
379.66	6.916
380.02	7.432
380.38	6.618
380.74	7.263
381.09	7.396
381.45	6.822
381.81	7.617
382.17	7.325
382.53	6.730
382.89	7.222
383.25	6.379
383.61	7.001
383.97	6.942
384.32	6.987
384.68	6.072
385.04	6.884
385.40	6.625
385.76	6.757
386.12	6.347
386.48	7.552
386.83	5.965
387.19	7.297
387.55	6.679
387.91	6.530
388.27	6.438
388.62	7.130
388.98	6.941
389.34	7.259
389.70	6.806
390.06	7.414
390.42	7.004
390.77	6.870
391.13	7.084
391.49	7.551
391.85	6.811
392.20	6.057
392.56	6.566
392.92	6.416
393.28	5.740
393.64	6.595
393.99	7.208
394.35	7.196
394.71	7.340
395.07	6.604
395.42	6.119
395.78	6.807
396.14	7.325
396.50	7.519
396.85	6.802
397.21	6.289
397.57	7.502
397.92	7.151
398.28	6.222
398.64	6.930
399.00	6.267
399.35	5.866
399.71	6.308
400.07	7.333
400.42	7.239
400.78	7.117
401.14	6.585
401.49	6.388
401.85	6.534
402.21	6.647
402.57	6.107
402.92	6.683
403.28	6.808
403.63	6.064
403.99	6.306
404.35	7.152
404.70	6.655
405.06	6.407
405.42	6.613
405.77	6.286
406.13	5.813
406.49	6.505
406.84	6.615
407.20	6.028
407.55	6.126
407.91	6.667
408.27	6.190
408.62	6.261
408.98	5.821
409.34	6.642
409.69	6.968
410.05	6.568
410.40	6.177
410.76	6.093
411.11	7.901
411.47	6.390
411.83	6.903
412.18	6.679
412.54	6.538
412.89	7.831
413.25	6.198
413.60	6.733
413.96	6.557
414.31	6.561
414.67	6.717
415.03	6.623
415.38	7.281
415.74	7.331
416.09	7.185
416.45	6.627
416.80	7.204
417.16	7.172
417.51	7.167
417.87	6.744
418.22	7.382
418.58	7.101
418.93	6.941
419.29	6.429
419.64	7.494
420.00	7.378
420.35	7.304
420.71	6.575
421.06	6.444
421.42	6.959
421.77	6.558
422.12	6.401
422.48	6.152
422.83	6.523
423.19	7.017
423.54	6.036
423.90	7.594
424.25	6.812
424.61	6.845
424.96	6.356
425.31	6.534
425.67	6.854
426.02	6.857
426.38	6.716
426.73	7.080
427.09	6.687
427.44	6.325
427.79	6.555
428.15	6.786
428.50	6.612
428.85	7.211
429.21	6.405
429.56	5.754
429.92	5.989
430.27	6.356
430.62	5.837
430.98	6.124
431.33	6.392
431.68	6.702
432.04	6.550
432.39	6.511
432.74	6.523
433.10	6.565
433.45	6.939
433.80	6.763
434.16	6.517
434.51	6.579
434.86	6.613
435.22	6.504
435.57	6.748
435.92	6.905
436.28	7.177
436.63	7.340
436.98	6.239
437.34	6.738
437.69	7.060
438.04	6.352
438.39	6.925
438.75	7.147
439.10	6.760
439.45	6.848
439.81	5.801
440.16	6.832
440.51	6.913
440.86	6.659
441.22	6.563
441.57	6.369
441.92	7.062
442.27	6.674
442.63	6.582
442.98	7.380
443.33	6.902
443.68	6.350
444.03	6.393
444.39	5.745
444.74	6.439
445.09	7.385
445.44	6.561
445.79	6.927
446.15	7.464
446.50	6.300
446.85	7.040
447.20	6.731
447.55	6.812
447.91	6.288
448.26	6.566
448.61	6.388
448.96	7.198
449.31	7.368
449.66	6.809
450.02	6.574
450.37	6.746
450.72	6.825
451.07	6.642
451.42	6.018
451.77	7.046
452.12	6.928
452.47	7.214
452.83	6.818
453.18	7.029
453.53	7.236
453.88	6.438
454.23	7.412
454.58	7.692
454.93	7.692
455.28	6.920
455.63	7.100
455.98	7.560
456.34	6.658
456.69	7.577
457.04	6.935
457.39	7.189
457.74	7.313
458.09	7.188
458.44	6.899
458.79	6.670
459.14	6.433
459.49	6.772
459.84	6.537
460.19	6.777
460.54	6.250
460.89	7.021
461.24	7.832
461.59	7.438
461.94	7.152
462.29	7.537
462.64	7.211
462.99	7.417
463.34	8.667
463.69	7.442
464.04	7.246
464.39	7.710
464.74	7.130
465.09	6.634
465.44	7.701
465.79	6.935
466.14	7.389
466.49	7.119
466.84	7.647
467.19	7.483
467.54	7.188
467.89	7.143
468.24	7.563
468.59	7.753
468.94	7.147
469.29	7.198
469.64	7.965
469.99	7.713
470.34	7.133
470.68	7.759
471.03	7.075
471.38	7.505
471.73	7.328
472.08	8.026
472.43	6.972
472.78	6.715
473.13	6.996
473.48	7.366
473.83	7.561
474.17	7.156
474.52	7.258
474.87	8.173
475.22	7.545
475.57	7.254
475.92	6.638
476.27	6.933
476.61	6.453
476.96	6.817
477.31	6.593
477.66	6.565
478.01	6.900
478.36	6.557
478.70	6.179
479.05	6.816
479.40	7.830
479.75	6.355
480.10	6.412
480.45	6.568
480.79	5.877
481.14	7.045
481.49	6.265
481.84	6.401
482.19	6.406
482.53	6.881
482.88	6.747
483.23	7.056
483.58	6.460
483.92	6.654
484.27	6.187
484.62	5.733
484.97	6.228
485.31	6.062
485.66	4.818
486.01	4.495
486.36	4.367
486.70	4.594
487.05	4.984
487.40	4.750
487.75	5.230
488.09	6.036
488.44	5.804
488.79	5.787
489.13	5.959
489.48	6.240
489.83	6.215
490.17	6.313
490.52	5.846
490.87	5.925
491.22	6.321
491.56	6.196
491.91	6.329
492.26	6.661
492.60	7.097
492.95	5.753
493.30	6.729
493.64	6.673
493.99	6.128
494.34	6.152
494.68	7.005
495.03	6.861
495.37	7.073
495.72	5.945
496.07	5.986
496.41	6.283
496.76	6.288
497.11	6.394
497.45	6.521
497.80	5.998
498.14	6.473
498.49	6.390
498.84	6.951
499.18	6.429
499.53	6.553
499.87	6.244
500.22	6.312
500.56	7.087
500.91	6.875
501.26	6.449
501.60	6.977
501.95	6.187
502.29	6.795
502.64	6.657
502.98	5.891
503.33	6.627
503.67	6.450
504.02	6.829
504.36	6.738
504.71	6.595
505.06	6.795
505.40	6.271
505.75	6.075
506.09	6.365
506.44	6.709
506.78	6.917
507.13	6.714
507.47	7.121
507.82	7.042
508.16	6.484
508.51	6.799
508.85	5.710
509.19	6.020
509.54	6.990
509.88	6.595
510.23	6.787
510.57	7.327
510.92	6.370
511.26	6.526
511.61	6.691
511.95	6.315
512.30	6.098
512.64	7.039
512.98	7.181
513.33	7.013
513.67	7.257
514.02	6.439
514.36	7.264
514.70	6.586
515.05	6.916
515.39	7.235
515.74	6.982
516.08	7.378
516.42	7.214
516.77	7.246
517.11	7.214
517.46	7.223
517.80	7.375
518.14	7.006
518.49	7.760
518.83	7.614
519.17	7.564
519.52	7.414
519.86	6.788
520.20	7.630
520.55	7.720
520.89	7.847
521.23	7.961
521.58	7.263
521.92	6.920
522.26	6.833
522.61	7.788
522.95	6.814
523.29	7.425
523.64	7.073
523.98	6.901
524.32	7.057
524.66	8.419
525.01	7.169
525.35	7.125
525.69	7.512
526.04	6.729
526.38	7.810
526.72	7.546
527.06	7.972
527.41	6.683
527.75	7.653
528.09	7.707
528.43	7.584
528.78	7.621
529.12	7.212
529.46	7.716
529.80	7.488
530.15	8.162
530.49	7.692
530.83	7.278
531.17	7.702
531.51	8.625
531.86	7.613
532.20	7.366
532.54	8.072
532.88	7.831
533.22	6.683
533.57	8.210
533.91	7.706
534.25	7.716
534.59	7.688
534.93	8.031
535.27	7.604
535.62	7.387
535.96	7.407
536.30	7.057
536.64	7.920
536.98	7.366
537.32	7.242
537.66	7.933
538.01	7.637
538.35	8.080
538.69	8.105
539.03	7.147
539.37	6.518
539.71	6.481
540.05	7.647
540.39	7.110
540.73	8.150
541.07	8.177
541.42	7.697
541.76	8.065
542.10	8.021
542.44	7.815
542.78	8.366
543.12	7.166
543.46	8.066
543.80	7.938
544.14	6.483
544.48	8.444
544.82	7.826
545.16	7.417
545.50	7.969
545.84	7.728
546.18	8.081
546.52	8.465
546.86	7.491
547.20	8.631
547.54	7.949
547.88	8.673
548.22	7.846
548.56	7.799
548.90	7.618
549.24	7.407
549.58	8.322
549.92	7.692
550.26	8.026
550.60	8.022
550.94	7.606
551.28	7.315
551.62	8.339
551.96	7.719
552.30	8.874
552.64	8.722
552.98	8.068
553.32	7.687
553.66	8.521
554.00	8.442
554.34	8.075
554.68	8.870
555.02	8.251
555.36	7.376
555.69	7.713
556.03	8.075
556.37	7.981
556.71	8.254
557.05	7.703
557.39	7.908
557.73	7.975
558.07	8.629
558.41	8.394
558.75	8.450
559.08	8.352
559.42	7.407
559.76	8.750
560.10	8.137
560.44	7.966
560.78	7.718
561.12	8.509
561.45	8.344
561.79	7.581
562.13	7.646
562.47	8.265
562.81	7.671
563.15	8.227
563.48	8.090
563.82	7.893
564.16	7.979
564.50	7.096
564.84	7.585
565.17	7.400
565.51	8.115
565.85	7.614
566.19	7.639
566.52	8.233
566.86	7.294
567.20	6.958
567.54	7.534
567.88	6.790
568.21	6.878
568.55	6.876
568.89	6.372
569.23	6.640
569.56	6.113
569.90	6.189
570.24	5.597
570.57	5.950
570.91	4.945
571.25	5.466
571.59	5.714
571.92	5.040
572.26	5.806
572.60	5.556
572.93	5.397
573.27	5.915
573.61	5.472
573.95	4.987
574.28	5.151
574.62	4.908
574.96	5.018
575.29	4.728
575.63	4.903
575.97	5.181
576.30	5.337
576.64	4.953
576.98	4.959
577.31	4.829
577.65	4.908
577.98	4.684
578.32	4.547
578.66	4.801
578.99	4.930
579.33	4.938
579.67	4.841
580.00	4.963
580.34	5.102
580.67	5.342
581.01	5.464
581.35	4.541
581.68	4.687
582.02	4.670
582.35	4.575
582.69	4.662
583.02	4.603
583.36	5.096
583.70	4.945
584.03	5.225
584.37	5.639
584.70	5.016
585.04	5.137
585.37	5.033
585.71	5.404
586.04	5.122
586.38	5.225
586.72	5.523
587.05	5.107
587.39	4.960
587.72	5.153
588.06	5.069
588.39	5.597
588.73	5.603
589.06	5.453
589.40	5.859
589.73	5.808
590.07	5.836
590.40	5.700
590.73	6.128
591.07	6.919
591.40	6.242
591.74	6.623
592.07	6.239
592.41	6.325
592.74	5.618
593.08	5.696
593.41	5.536
593.75	5.403
594.08	5.565
594.41	5.620
594.75	5.656
595.08	5.870
595.42	6.165
595.75	5.484
596.09	6.271
596.42	6.562
596.75	5.741
597.09	6.926
597.42	6.197
597.75	6.037
598.09	6.391
598.42	6.572
598.76	6.080
599.09	5.625
599.42	5.713
599.76	5.783
600.09	5.756
600.42	5.771
600.76	5.464
601.09	5.537
601.42	5.556
601.76	6.452
602.09	5.810
602.42	6.011
602.76	6.570
603.09	5.822
603.42	6.560
603.76	5.907
604.09	6.126
604.42	6.237
604.76	6.790
605.09	6.422
605.42	6.285
605.75	5.753
606.09	5.409
606.42	5.926
606.75	6.263
607.09	6.530
607.42	6.333
607.75	5.738
608.08	5.949
608.42	6.858
608.75	6.312
609.08	7.169
609.41	7.235
609.75	6.717
610.08	6.362
610.41	6.052
610.74	6.291
611.07	6.719
611.41	6.869
611.74	7.089
612.07	6.936
612.40	6.873
612.73	6.737
613.07	7.058
613.40	7.372
613.73	6.502
614.06	6.774
614.39	6.817
614.72	7.316
615.06	7.090
615.39	7.006
615.72	7.669
616.05	6.805
616.38	7.004
616.71	7.007
617.05	7.067
617.38	7.577
617.71	7.207
618.04	7.392
618.37	6.564
618.70	7.654
619.03	7.961
619.36	7.604
619.69	7.535
620.03	8.654
620.36	8.289
620.69	8.425
621.02	8.038
621.35	7.753
621.68	8.022
622.01	8.437
622.34	8.245
622.67	8.137
623.00	7.777
623.33	8.077
623.66	8.006
623.99	7.732
624.32	7.133
624.65	7.839
624.99	7.365
625.32	7.531
625.65	8.039
625.98	8.148
626.31	8.865
626.64	8.980
626.97	9.227
627.30	7.897
627.63	8.942
627.96	9.840
628.29	9.274
628.62	9.698
628.95	9.811
629.28	9.580
629.61	9.991
629.94	8.952
630.26	8.866
630.59	10.010
630.92	9.387
631.25	8.687
631.58	9.209
631.91	10.243
632.24	9.072
632.57	11.647
632.90	11.404
633.23	10.403
633.56	11.751
633.89	10.306
634.22	9.875
634.55	11.006
634.88	9.701
635.20	10.872
635.53	12.048
635.86	10.149
636.19	10.471
636.52	9.919
636.85	11.913
637.18	11.636
637.51	11.939
637.83	8.755
638.16	9.974
638.49	12.217
638.82	11.757
639.15	11.375
639.48	11.970
639.81	10.590
640.13	12.109
640.46	10.738
640.79	12.153
641.12	10.729
641.45	12.989
641.77	12.518
642.10	12.281
642.43	11.111
642.76	11.920
643.09	12.577
643.41	13.809
643.74	13.272
644.07	13.262
644.40	14.571
644.73	14.331
645.05	15.214
645.38	13.428
645.71	13.366
646.04	12.791
646.36	13.022
646.69	14.883
647.02	12.415
647.35	14.261
647.67	12.035
648.00	13.821
648.33	13.036
648.66	13.182
648.98	12.294
649.31	10.912
649.64	11.958
649.96	11.773
650.29	11.058
650.62	11.327
650.94	13.452
651.27	14.865
651.60	12.646
