SpectraSuite Data File
++++++++++++++++++++++++++++++++++++
Date: Wed May 13 19:15:34 PDT 2015
User: schluterlab
Dark Spectrum Present: Yes
Reference Spectrum Present: Yes
Number of Sampled Component Spectra: 1
Spectrometers: USB2E3373
Integration Time (usec): 3000 (USB2E3373)
Spectra Averaged: 3 (USB2E3373)
Boxcar Smoothing: 0 (USB2E3373)
Correct for Electrical Dark: No (USB2E3373)
Strobe/Lamp Enabled: No (USB2E3373)
Correct for Detector Non-linearity: No (USB2E3373)
Correct for Stray Light: No (USB2E3373)
Number of Pixels in Processed Spectrum: 2048
>>>>>Begin Processed Spectral Data<<<<<
178.53	0.000
178.91	-1550.000
179.29	-1450.000
179.67	-305.556
180.04	-1625.000
180.42	2950.000
180.80	1220.000
181.18	-1200.000
181.56	800.000
181.94	0.000
182.31	-785.714
182.69	1766.667
183.07	-600.000
183.45	-566.667
183.83	536.364
184.20	-520.000
184.58	2300.000
184.96	5100.000
185.34	-920.000
185.72	-625.000
186.09	-2550.000
186.47	3100.000
186.85	2550.000
187.23	6000.000
187.61	-1933.333
187.98	1450.000
188.36	672.727
188.74	545.455
189.12	-780.000
189.49	680.000
189.87	-5000.000
190.25	-1475.000
190.63	400.000
191.00	492.308
191.38	900.000
191.76	-1275.000
192.14	1825.000
192.51	662.500
192.89	1133.333
193.27	675.000
193.65	-1250.000
194.02	610.000
194.40	1060.000
194.78	550.000
195.15	566.667
195.53	650.000
195.91	-2850.000
196.29	343.750
196.66	352.632
197.04	-450.000
197.42	0.000
197.79	690.000
198.17	-5600.000
198.55	828.571
198.92	675.000
199.30	1240.000
199.68	0.000
200.05	327.778
200.43	800.000
200.81	4500.000
201.18	2066.667
201.56	-2066.667
201.94	666.667
202.31	666.667
202.69	450.000
203.07	640.000
203.44	0.000
203.82	1175.000
204.19	885.714
204.57	471.429
204.95	750.000
205.32	1766.667
205.70	572.727
206.08	400.000
206.45	2900.000
206.83	431.250
207.20	1016.667
207.58	980.000
207.96	372.222
208.33	787.500
208.71	-1083.333
209.08	814.286
209.46	677.778
209.84	563.636
210.21	-1700.000
210.59	1525.000
210.96	-550.000
211.34	2750.000
211.71	710.000
212.09	850.000
212.46	0.000
212.84	1933.333
213.22	1300.000
213.59	-5500.000
213.97	1116.667
214.34	914.286
214.72	518.182
215.09	1080.000
215.47	-2300.000
215.84	-2950.000
216.22	2066.667
216.59	492.857
216.97	1550.000
217.34	509.091
217.72	-950.000
218.09	0.000
218.47	-4300.000
218.84	744.444
219.22	857.143
219.59	1733.333
219.97	-828.571
220.34	960.000
220.72	-1966.667
221.09	478.571
221.47	1450.000
221.84	-1033.333
222.22	0.000
222.59	1450.000
222.97	-2750.000
223.34	1380.000
223.72	430.769
224.09	980.000
224.46	2300.000
224.84	-5400.000
225.21	-940.000
225.59	-6200.000
225.96	680.000
226.34	300.000
226.71	3000.000
227.08	750.000
227.46	650.000
227.83	-1475.000
228.21	-2300.000
228.58	600.000
228.95	-3100.000
229.33	-3100.000
229.70	2100.000
230.08	900.000
230.45	-920.000
230.82	483.333
231.20	900.000
231.57	857.143
231.95	516.667
232.32	286.364
232.69	463.636
233.07	742.857
233.44	376.923
233.81	-2133.333
234.19	368.421
234.56	516.667
234.93	466.667
235.31	545.455
235.68	353.846
236.05	435.714
236.43	193.939
236.80	310.526
237.17	6000.000
237.55	266.667
237.92	210.714
238.29	300.000
238.67	222.581
239.04	258.621
239.41	202.778
239.79	134.783
240.16	171.429
240.53	163.636
240.91	125.490
241.28	132.000
241.65	144.000
242.02	118.841
242.40	122.581
242.77	98.333
243.14	88.172
243.51	94.382
243.89	102.353
244.26	83.333
244.63	82.796
245.00	84.043
245.38	69.307
245.75	78.505
246.12	66.972
246.49	75.912
246.87	80.000
247.24	63.846
247.61	67.857
247.98	62.092
248.36	60.811
248.73	56.051
249.10	64.968
249.47	55.932
249.84	56.684
250.22	52.941
250.59	55.621
250.96	60.606
251.33	48.815
251.70	58.911
252.08	53.333
252.45	51.570
252.82	44.783
253.19	51.915
253.56	48.627
253.94	52.697
254.31	44.531
254.68	47.692
255.05	44.280
255.42	48.374
255.79	47.059
256.16	46.570
256.54	44.170
256.91	48.399
257.28	46.403
257.65	41.254
258.02	43.168
258.39	41.956
258.76	44.482
259.14	42.560
259.51	41.337
259.88	40.683
260.25	43.202
260.62	41.040
260.99	42.236
261.36	42.042
261.73	41.547
262.10	36.628
262.47	43.099
262.85	40.947
263.22	38.177
263.59	41.880
263.96	37.088
264.33	39.164
264.70	38.158
265.07	40.921
265.44	39.394
265.81	34.793
266.18	43.216
266.55	36.585
266.92	39.312
267.29	40.278
267.66	38.303
268.03	35.909
268.40	37.150
268.77	36.516
269.14	36.036
269.51	38.375
269.88	37.762
270.25	37.020
270.62	37.303
270.99	38.495
271.36	36.481
271.73	34.112
272.10	36.522
272.47	38.065
272.84	37.229
273.21	36.688
273.58	35.371
273.95	36.897
274.32	33.678
274.69	36.831
275.06	32.874
275.43	38.085
275.80	36.673
276.17	34.623
276.54	35.967
276.91	34.585
277.28	34.180
277.65	36.750
278.02	33.954
278.39	34.961
278.76	35.091
279.13	32.453
279.50	35.009
279.87	34.661
280.23	33.533
280.60	35.203
280.97	32.717
281.34	33.982
281.71	32.727
282.08	35.701
282.45	32.000
282.82	31.972
283.19	33.512
283.56	32.105
283.92	34.687
284.29	31.746
284.66	33.938
285.03	30.380
285.40	31.866
285.77	31.481
286.14	29.016
286.51	31.333
286.87	33.162
287.24	33.876
287.61	31.140
287.98	30.032
288.35	31.379
288.72	31.620
289.08	31.455
289.45	29.984
289.82	29.106
290.19	30.141
290.56	27.565
290.93	28.852
291.29	29.601
291.66	28.614
292.03	30.378
292.40	28.928
292.77	29.734
293.13	28.060
293.50	27.405
293.87	28.000
294.24	27.259
294.60	27.948
294.97	26.890
295.34	27.786
295.71	26.847
296.08	27.920
296.44	25.997
296.81	25.363
297.18	28.726
297.55	23.615
297.91	25.198
298.28	27.175
298.65	24.935
299.02	25.296
299.38	24.701
299.75	22.237
300.12	24.393
300.48	24.500
300.85	24.538
301.22	24.459
301.59	23.611
301.95	24.307
302.32	25.160
302.69	23.417
303.05	24.242
303.42	21.852
303.79	23.669
304.15	22.727
304.52	22.364
304.89	22.416
305.25	22.158
305.62	23.783
305.99	24.439
306.35	21.924
306.72	24.552
307.09	23.973
307.45	22.748
307.82	21.987
308.19	22.185
308.55	24.056
308.92	22.986
309.29	21.753
309.65	22.057
310.02	22.093
310.38	22.151
310.75	22.070
311.12	22.927
311.48	22.989
311.85	21.698
312.22	21.852
312.58	22.557
312.95	23.865
313.31	20.388
313.68	23.389
314.05	22.978
314.41	22.814
314.78	22.860
315.14	22.542
315.51	22.863
315.87	23.168
316.24	22.344
316.61	21.442
316.97	21.135
317.34	21.820
317.70	22.562
318.07	24.447
318.43	23.973
318.80	24.649
319.16	23.729
319.53	21.857
319.89	23.905
320.26	24.400
320.62	24.702
320.99	24.444
321.35	26.566
321.72	24.641
322.08	25.962
322.45	25.373
322.81	26.550
323.18	25.915
323.54	24.861
323.91	24.811
324.27	26.673
324.64	25.722
325.00	25.158
325.37	26.570
325.73	27.648
326.10	27.979
326.46	26.971
326.83	28.387
327.19	27.925
327.56	27.352
327.92	28.171
328.29	28.483
328.65	29.558
329.01	28.069
329.38	29.140
329.74	27.886
330.11	28.275
330.47	28.926
330.84	29.504
331.20	28.415
331.56	28.899
331.93	29.444
332.29	28.660
332.66	29.115
333.02	29.982
333.38	30.894
333.75	29.412
334.11	30.338
334.48	29.547
334.84	30.699
335.20	30.182
335.57	29.193
335.93	28.839
336.29	29.945
336.66	28.855
337.02	29.412
337.38	29.630
337.75	29.501
338.11	30.081
338.47	29.650
338.84	30.431
339.20	29.174
339.56	29.106
339.93	29.182
340.29	28.533
340.65	29.144
341.02	29.232
341.38	29.448
341.74	29.912
342.11	29.607
342.47	29.692
342.83	29.366
343.20	30.476
343.56	28.559
343.92	29.474
344.28	28.912
344.65	28.719
345.01	28.620
345.37	27.959
345.73	28.849
346.10	28.559
346.46	29.492
346.82	29.819
347.19	28.154
347.55	28.982
347.91	29.935
348.27	29.663
348.63	29.264
349.00	28.560
349.36	27.586
349.72	29.190
350.08	28.525
350.45	28.723
350.81	28.757
351.17	28.525
351.53	27.682
351.89	28.548
352.26	29.676
352.62	29.110
352.98	28.768
353.34	28.431
353.70	27.741
354.07	29.274
354.43	27.619
354.79	27.755
355.15	28.013
355.51	29.496
355.87	27.347
356.24	28.990
356.60	28.709
356.96	27.031
357.32	28.700
357.68	28.268
358.04	28.029
358.40	27.553
358.77	26.604
359.13	28.019
359.49	29.569
359.85	27.540
360.21	27.751
360.57	29.105
360.93	28.308
361.29	26.757
361.66	27.941
362.02	27.612
362.38	27.529
362.74	29.613
363.10	27.239
363.46	27.660
363.82	28.345
364.18	28.561
364.54	29.718
364.90	27.691
365.26	29.044
365.62	28.050
365.98	27.684
366.35	26.648
366.71	28.200
367.07	28.842
367.43	28.737
367.79	28.908
368.15	28.376
368.51	28.343
368.87	28.765
369.23	28.310
369.59	29.182
369.95	28.750
370.31	28.775
370.67	28.406
371.03	28.914
371.39	28.207
371.75	28.309
372.11	28.663
372.47	28.739
372.83	29.251
373.19	28.107
373.55	28.825
373.91	29.234
374.27	27.423
374.63	28.582
374.99	28.602
375.35	27.983
375.71	28.787
376.07	29.698
376.42	29.436
376.78	29.357
377.14	28.833
377.50	29.073
377.86	27.460
378.22	28.508
378.58	28.321
378.94	28.850
379.30	29.262
379.66	29.442
380.02	28.931
380.38	28.112
380.74	29.892
381.09	29.218
381.45	29.318
381.81	29.975
382.17	29.554
382.53	29.811
382.89	30.309
383.25	28.956
383.61	31.041
383.97	30.206
384.32	30.006
384.68	29.244
385.04	29.994
385.40	29.226
385.76	30.221
386.12	30.246
386.48	30.711
386.83	31.430
387.19	31.540
387.55	30.860
387.91	30.411
388.27	30.104
388.62	30.977
388.98	30.098
389.34	30.225
389.70	30.901
390.06	31.622
390.42	31.388
390.77	31.170
391.13	30.440
391.49	31.345
391.85	31.127
392.20	29.716
392.56	30.808
392.92	31.195
393.28	30.178
393.64	31.475
393.99	30.422
394.35	31.079
394.71	32.622
395.07	31.526
395.42	31.520
395.78	32.188
396.14	31.285
396.50	32.143
396.85	32.994
397.21	31.381
397.57	32.610
397.92	32.031
398.28	31.446
398.64	32.855
399.00	32.233
399.35	32.205
399.71	32.002
400.07	33.057
400.42	32.945
400.78	33.172
401.14	33.171
401.49	32.955
401.85	32.547
402.21	32.934
402.57	33.436
402.92	33.417
403.28	33.167
403.63	32.488
403.99	32.866
404.35	33.879
404.70	33.273
405.06	33.023
405.42	33.812
405.77	33.486
406.13	33.352
406.49	34.358
406.84	34.495
407.20	33.333
407.55	34.652
407.91	35.000
408.27	34.780
408.62	34.859
408.98	34.314
409.34	34.379
409.69	35.677
410.05	34.634
410.40	34.618
410.76	34.588
411.11	35.163
411.47	34.058
411.83	35.247
412.18	35.127
412.54	34.932
412.89	34.217
413.25	35.124
413.60	34.342
413.96	36.308
414.31	35.115
414.67	36.122
415.03	36.159
415.38	37.049
415.74	36.141
416.09	36.643
416.45	37.082
416.80	36.153
417.16	37.131
417.51	36.828
417.87	36.352
418.22	36.341
418.58	36.475
418.93	37.592
419.29	35.964
419.64	37.028
420.00	36.524
420.35	37.449
420.71	37.956
421.06	35.859
421.42	37.544
421.77	36.715
422.12	36.946
422.48	36.104
422.83	37.507
423.19	36.740
423.54	37.551
423.90	38.377
424.25	38.414
424.61	37.321
424.96	37.959
425.31	37.763
425.67	36.292
426.02	38.114
426.38	38.584
426.73	38.444
427.09	38.298
427.44	38.298
427.79	37.895
428.15	39.464
428.50	40.140
428.85	37.485
429.21	37.769
429.56	39.606
429.92	38.349
430.27	37.984
430.62	37.942
430.98	38.713
431.33	38.299
431.68	39.424
432.04	38.179
432.39	39.634
432.74	40.096
433.10	40.407
433.45	40.233
433.80	38.914
434.16	39.103
434.51	38.895
434.86	39.909
435.22	40.745
435.57	39.878
435.92	39.789
436.28	41.578
436.63	40.784
436.98	40.927
437.34	41.264
437.69	41.249
438.04	40.753
438.39	41.493
438.75	42.592
439.10	41.117
439.45	41.381
439.81	41.631
440.16	39.752
440.51	41.301
440.86	42.154
441.22	42.214
441.57	42.410
441.92	41.965
442.27	42.034
442.63	41.548
442.98	43.099
443.33	42.011
443.68	42.230
444.03	42.801
444.39	41.967
444.74	42.749
445.09	42.210
445.44	43.302
445.79	42.504
446.15	42.615
446.50	41.842
446.85	43.114
447.20	42.478
447.55	44.444
447.91	43.795
448.26	43.406
448.61	42.906
448.96	44.352
449.31	44.094
449.66	43.219
450.02	43.510
450.37	43.027
450.72	44.106
451.07	43.205
451.42	43.708
451.77	44.275
452.12	43.245
452.47	43.719
452.83	43.065
453.18	44.071
453.53	45.640
453.88	44.595
454.23	43.873
454.58	44.761
454.93	44.565
455.28	44.514
455.63	44.417
455.98	44.702
456.34	44.786
456.69	45.460
457.04	45.449
457.39	44.711
457.74	44.167
458.09	44.738
458.44	44.812
458.79	43.980
459.14	43.623
459.49	45.009
459.84	43.989
460.19	44.844
460.54	42.882
460.89	43.884
461.24	45.841
461.59	43.870
461.94	44.821
462.29	45.282
462.64	45.437
462.99	45.088
463.34	47.067
463.69	46.404
464.04	44.870
464.39	45.333
464.74	44.088
465.09	45.356
465.44	44.377
465.79	44.463
466.14	44.718
466.49	44.216
466.84	45.359
467.19	46.228
467.54	46.875
467.89	44.838
468.24	44.735
468.59	45.482
468.94	45.266
469.29	45.758
469.64	47.590
469.99	47.903
470.34	45.509
470.68	46.695
471.03	46.190
471.38	47.880
471.73	47.302
472.08	47.039
472.43	45.980
472.78	46.346
473.13	46.277
473.48	46.130
473.83	47.073
474.17	46.235
474.52	46.898
474.87	47.344
475.22	46.257
475.57	45.137
475.92	45.566
476.27	45.829
476.61	46.332
476.96	46.509
477.31	45.474
477.66	46.444
478.01	45.792
478.36	47.329
478.70	45.898
479.05	46.326
479.40	47.544
479.75	46.568
480.10	45.278
480.45	45.645
480.79	45.389
481.14	45.890
481.49	46.037
481.84	45.953
482.19	45.298
482.53	45.275
482.88	45.510
483.23	46.822
483.58	46.269
483.92	46.064
484.27	44.139
484.62	44.009
484.97	44.856
485.31	45.308
485.66	44.027
486.01	42.004
486.36	40.316
486.70	40.007
487.05	41.498
487.40	42.901
487.75	43.319
488.09	44.283
488.44	43.729
488.79	45.606
489.13	45.531
489.48	45.840
489.83	45.533
490.17	46.778
490.52	45.217
490.87	45.319
491.22	45.430
491.56	44.419
491.91	44.579
492.26	45.567
492.60	44.747
492.95	44.902
493.30	44.673
493.64	45.404
493.99	45.450
494.34	45.791
494.68	46.245
495.03	46.147
495.37	44.532
495.72	45.906
496.07	46.543
496.41	45.044
496.76	46.174
497.11	44.665
497.45	45.738
497.80	45.250
498.14	46.039
498.49	46.829
498.84	46.165
499.18	44.857
499.53	45.062
499.87	45.107
500.22	45.125
500.56	46.845
500.91	46.106
501.26	46.041
501.60	46.559
501.95	45.005
502.29	46.298
502.64	46.648
502.98	46.424
503.33	45.612
503.67	46.311
504.02	45.837
504.36	46.139
504.71	47.093
505.06	46.843
505.40	46.913
505.75	45.323
506.09	47.279
506.44	47.114
506.78	48.027
507.13	48.460
507.47	47.677
507.82	48.734
508.16	47.923
508.51	49.264
508.85	46.971
509.19	48.622
509.54	48.163
509.88	47.810
510.23	49.203
510.57	50.052
510.92	50.078
511.26	48.407
511.61	49.222
511.95	48.539
512.30	48.091
512.64	49.275
512.98	50.107
513.33	50.054
513.67	50.907
514.02	48.972
514.36	50.246
514.70	50.802
515.05	50.139
515.39	50.421
515.74	51.745
516.08	50.699
516.42	51.110
516.77	53.010
517.11	51.054
517.46	51.862
517.80	52.149
518.14	52.461
518.49	53.676
518.83	51.477
519.17	52.425
519.52	52.122
519.86	51.854
520.20	52.832
520.55	54.339
520.89	54.380
521.23	53.559
521.58	52.761
521.92	52.848
522.26	52.410
522.61	53.956
522.95	53.530
523.29	54.169
523.64	54.573
523.98	54.467
524.32	53.076
524.66	53.097
525.01	54.289
525.35	53.656
525.69	53.756
526.04	54.642
526.38	53.935
526.72	54.049
527.06	55.807
527.41	53.899
527.75	56.270
528.09	55.556
528.43	55.959
528.78	55.562
529.12	53.455
529.46	54.991
529.80	55.012
530.15	55.826
530.49	53.662
530.83	55.443
531.17	56.593
531.51	57.263
531.86	56.452
532.20	56.649
532.54	55.221
532.88	56.098
533.22	55.465
533.57	54.506
533.91	55.027
534.25	55.164
534.59	55.522
534.93	54.432
535.27	55.341
535.62	55.311
535.96	55.932
536.30	55.435
536.64	54.926
536.98	56.204
537.32	55.892
537.66	55.800
538.01	56.024
538.35	54.880
538.69	55.839
539.03	55.556
539.37	54.569
539.71	54.828
540.05	55.556
540.39	55.748
540.73	54.463
541.07	55.548
541.42	56.817
541.76	56.645
542.10	55.821
542.44	55.828
542.78	55.929
543.12	55.022
543.46	54.426
543.80	56.539
544.14	54.942
544.48	55.683
544.82	55.741
545.16	55.498
545.50	55.206
545.84	56.250
546.18	55.488
546.52	57.054
546.86	56.357
547.20	56.642
547.54	55.311
547.88	56.824
548.22	55.604
548.56	55.157
548.90	55.186
549.24	55.286
549.58	56.003
549.92	55.495
550.26	56.108
550.60	55.671
550.94	56.972
551.28	57.425
551.62	57.225
551.96	57.614
552.30	55.222
552.64	56.592
552.98	55.322
553.32	54.147
553.66	55.556
554.00	56.280
554.34	55.141
554.68	57.225
555.02	57.123
555.36	56.089
555.69	54.127
556.03	55.182
556.37	56.003
556.71	56.003
557.05	57.003
557.39	56.823
557.73	56.175
558.07	57.433
558.41	57.381
558.75	57.164
559.08	57.196
559.42	56.614
559.76	56.765
560.10	56.602
560.44	54.717
560.78	55.223
561.12	54.617
561.45	54.824
561.79	55.109
562.13	56.740
562.47	56.421
562.81	58.159
563.15	55.251
563.48	54.708
563.82	53.881
564.16	55.003
564.50	56.771
564.84	54.362
565.17	54.826
565.51	56.102
565.85	54.949
566.19	55.103
566.52	55.098
566.86	55.154
567.20	55.366
567.54	54.795
567.88	53.395
568.21	53.598
568.55	53.084
568.89	53.307
569.23	51.337
569.56	51.296
569.90	51.094
570.24	51.238
570.57	49.405
570.91	49.418
571.25	49.599
571.59	49.161
571.92	49.251
572.26	50.231
572.60	50.450
572.93	49.655
573.27	50.725
573.61	49.302
573.95	50.155
574.28	48.216
574.62	48.907
574.96	48.913
575.29	49.661
575.63	48.831
575.97	49.024
576.30	49.310
576.64	48.825
576.98	48.882
577.31	49.238
577.65	48.469
577.98	48.995
578.32	47.975
578.66	48.344
578.99	49.144
579.33	48.899
579.67	48.601
580.00	49.029
580.34	49.146
580.67	48.570
581.01	48.527
581.35	48.619
581.68	48.280
582.02	47.787
582.35	47.848
582.69	48.228
583.02	48.650
583.36	49.112
583.70	49.775
584.03	49.425
584.37	49.460
584.70	50.183
585.04	48.973
585.37	48.719
585.71	49.154
586.04	48.804
586.38	49.896
586.72	50.069
587.05	49.362
587.39	49.393
587.72	49.575
588.06	49.493
588.39	49.931
588.73	50.132
589.06	51.137
589.40	51.044
589.73	50.792
590.07	50.356
590.40	51.041
590.73	51.952
591.07	52.300
591.40	51.708
591.74	52.468
592.07	51.876
592.41	51.881
592.74	49.625
593.08	50.000
593.41	50.174
593.75	49.126
594.08	49.883
594.41	50.901
594.75	50.721
595.08	50.573
595.42	51.243
595.75	51.318
596.09	51.408
596.42	50.884
596.75	52.132
597.09	51.602
597.42	50.253
597.75	51.962
598.09	51.739
598.42	51.503
598.76	50.628
599.09	49.601
599.42	49.782
599.76	50.183
600.09	50.200
600.42	50.000
600.76	50.179
601.09	49.362
601.42	50.647
601.76	49.715
602.09	50.514
602.42	52.030
602.76	51.552
603.09	51.613
603.42	51.308
603.76	50.381
604.09	50.911
604.42	51.366
604.76	51.497
605.09	50.896
605.42	50.363
605.75	51.738
606.09	50.549
606.42	50.838
606.75	51.058
607.09	51.151
607.42	50.535
607.75	49.494
608.08	50.239
608.42	51.009
608.75	50.947
609.08	51.156
609.41	51.214
609.75	51.120
610.08	51.272
610.41	50.885
610.74	51.325
611.07	53.014
611.41	51.276
611.74	51.634
612.07	52.950
612.40	52.204
612.73	52.211
613.07	52.101
613.40	51.869
613.73	52.229
614.06	51.935
614.39	51.390
614.72	50.895
615.06	51.050
615.39	51.805
615.72	50.767
616.05	51.356
616.38	52.752
616.71	54.216
617.05	53.357
617.38	52.616
617.71	53.874
618.04	53.065
618.37	52.395
618.70	53.205
619.03	53.684
619.36	53.632
619.69	54.085
620.03	54.670
620.36	54.011
620.69	54.384
621.02	54.499
621.35	53.876
621.68	53.193
622.01	53.947
622.34	54.917
622.67	53.308
623.00	53.558
623.33	52.538
623.66	54.753
623.99	53.314
624.32	53.281
624.65	52.684
624.99	52.195
625.32	54.019
625.65	54.095
625.98	54.804
626.31	53.110
626.64	55.429
626.97	56.193
627.30	54.032
627.63	54.553
627.96	55.341
628.29	55.818
628.62	55.352
628.95	55.943
629.28	55.292
629.61	55.362
629.94	56.190
630.26	56.244
630.59	54.719
