SpectraSuite Data File
++++++++++++++++++++++++++++++++++++
Date: Wed May 13 19:54:23 PDT 2015
User: schluterlab
Dark Spectrum Present: Yes
Reference Spectrum Present: Yes
Number of Sampled Component Spectra: 1
Spectrometers: USB2E3373
Integration Time (usec): 3000 (USB2E3373)
Spectra Averaged: 3 (USB2E3373)
Boxcar Smoothing: 0 (USB2E3373)
Correct for Electrical Dark: No (USB2E3373)
Strobe/Lamp Enabled: No (USB2E3373)
Correct for Detector Non-linearity: No (USB2E3373)
Correct for Stray Light: No (USB2E3373)
Number of Pixels in Processed Spectrum: 2048
>>>>>Begin Processed Spectral Data<<<<<
178.53	0.000
178.91	-1450.000
179.29	-1200.000
179.67	-261.111
180.04	-1225.000
180.42	2850.000
180.80	920.000
181.18	-1075.000
181.56	771.429
181.94	0.000
182.31	-628.571
182.69	2066.667
183.07	-537.500
183.45	-511.111
183.83	590.909
184.20	-400.000
184.58	2700.000
184.96	5100.000
185.34	-720.000
185.72	-600.000
186.09	-2150.000
186.47	2600.000
186.85	2750.000
187.23	5600.000
187.61	-1966.667
187.98	1375.000
188.36	590.909
188.74	518.182
189.12	-840.000
189.49	550.000
189.87	-5600.000
190.25	-1075.000
190.63	442.857
191.00	469.231
191.38	883.333
191.76	-1300.000
192.14	1400.000
192.51	750.000
192.89	1000.000
193.27	600.000
193.65	-1175.000
194.02	600.000
194.40	920.000
194.78	580.000
195.15	525.000
195.53	660.000
195.91	-2100.000
196.29	375.000
196.66	373.684
197.04	-440.000
197.42	0.000
197.79	610.000
198.17	-4100.000
198.55	742.857
198.92	650.000
199.30	960.000
199.68	0.000
200.05	344.444
200.43	842.857
200.81	4500.000
201.18	1566.667
201.56	-1633.333
201.94	444.444
202.31	544.444
202.69	458.333
203.07	530.000
203.44	0.000
203.82	1400.000
204.19	771.429
204.57	442.857
204.95	637.500
205.32	1833.333
205.70	445.455
206.08	335.714
206.45	2450.000
206.83	412.500
207.20	916.667
207.58	740.000
207.96	350.000
208.33	700.000
208.71	-933.333
209.08	871.429
209.46	588.889
209.84	536.364
210.21	-1633.333
210.59	1250.000
210.96	-462.500
211.34	2850.000
211.71	590.000
212.09	766.667
212.46	0.000
212.84	1466.667
213.22	1400.000
213.59	-6000.000
213.97	916.667
214.34	871.429
214.72	627.273
215.09	1080.000
215.47	-2500.000
215.84	-2700.000
216.22	1633.333
216.59	414.286
216.97	1400.000
217.34	527.273
217.72	-816.667
218.09	0.000
218.47	-5500.000
218.84	588.889
219.22	814.286
219.59	1733.333
219.97	-757.143
220.34	960.000
220.72	-1800.000
221.09	442.857
221.47	1650.000
221.84	-883.333
222.22	0.000
222.59	1300.000
222.97	-2400.000
223.34	1360.000
223.72	407.692
224.09	1060.000
224.46	2400.000
224.84	-5200.000
225.21	-1120.000
225.59	-5500.000
225.96	560.000
226.34	310.000
226.71	3000.000
227.08	750.000
227.46	550.000
227.83	-1100.000
228.21	-2500.000
228.58	633.333
228.95	-2400.000
229.33	-2850.000
229.70	1766.667
230.08	771.429
230.45	-900.000
230.82	400.000
231.20	783.333
231.57	742.857
231.95	441.667
232.32	304.545
232.69	427.273
233.07	671.429
233.44	376.923
233.81	-1700.000
234.19	315.789
234.56	483.333
234.93	433.333
235.31	509.091
235.68	330.769
236.05	350.000
236.43	190.909
236.80	300.000
237.17	4600.000
237.55	257.143
237.92	182.143
238.29	261.905
238.67	196.774
239.04	224.138
239.41	166.667
239.79	132.609
240.16	154.762
240.53	140.909
240.91	109.804
241.28	136.000
241.65	96.000
242.02	101.449
242.40	95.161
242.77	95.000
243.14	78.495
243.51	80.899
243.89	72.941
244.26	64.444
244.63	63.441
245.00	71.277
245.38	73.267
245.75	59.813
246.12	66.055
246.49	60.584
246.87	62.400
247.24	59.231
247.61	47.857
247.98	53.595
248.36	44.595
248.73	45.860
249.10	52.229
249.47	45.198
249.84	49.198
250.22	45.989
250.59	44.970
250.96	39.899
251.33	43.128
251.70	43.069
252.08	42.857
252.45	36.771
252.82	37.391
253.19	36.596
253.56	38.431
253.94	41.494
254.31	41.406
254.68	34.615
255.05	39.483
255.42	36.585
255.79	36.397
256.16	35.740
256.54	36.749
256.91	37.011
257.28	33.813
257.65	35.644
258.02	33.540
258.39	34.069
258.76	34.448
259.14	33.036
259.51	31.003
259.88	28.882
260.25	33.535
260.62	31.503
260.99	31.677
261.36	33.033
261.73	31.232
262.10	31.105
262.47	32.113
262.85	33.148
263.22	30.484
263.59	31.909
263.96	27.473
264.33	28.982
264.70	33.421
265.07	28.645
265.44	29.293
265.81	27.494
266.18	30.653
266.55	30.244
266.92	27.518
267.29	28.935
267.66	26.376
268.03	27.955
268.40	28.738
268.77	27.446
269.14	28.378
269.51	28.442
269.88	29.604
270.25	28.894
270.62	27.191
270.99	31.828
271.36	27.253
271.73	25.000
272.10	29.348
272.47	30.753
272.84	28.355
273.21	28.721
273.58	25.328
273.95	26.625
274.32	25.207
274.69	25.696
275.06	25.197
275.43	26.596
275.80	25.251
276.17	27.699
276.54	27.235
276.91	25.099
277.28	23.242
277.65	24.952
278.02	25.880
278.39	27.930
278.76	27.091
279.13	25.660
279.50	26.257
279.87	26.494
280.23	25.349
280.60	26.306
280.97	26.063
281.34	26.372
281.71	26.182
282.08	26.104
282.45	24.364
282.82	25.933
283.19	21.747
283.56	25.088
283.92	26.227
284.29	26.279
284.66	25.590
285.03	24.774
285.40	23.415
285.77	22.727
286.14	22.798
286.51	23.667
286.87	24.103
287.24	23.453
287.61	24.398
287.98	26.461
288.35	22.187
288.72	23.053
289.08	21.753
289.45	21.582
289.82	22.276
290.19	21.664
290.56	22.511
290.93	20.091
291.29	22.699
291.66	20.206
292.03	23.401
292.40	21.439
292.77	19.822
293.13	21.343
293.50	18.950
293.87	21.630
294.24	20.296
294.60	20.233
294.97	20.203
295.34	21.862
295.71	19.886
296.08	18.803
296.44	20.633
296.81	19.287
297.18	20.461
297.55	17.942
297.91	19.129
298.28	20.884
298.65	18.538
299.02	20.685
299.38	18.327
299.75	17.251
300.12	17.114
300.48	18.625
300.85	18.866
301.22	17.580
301.59	18.939
301.95	18.010
302.32	17.715
302.69	17.324
303.05	17.212
303.42	17.778
303.79	17.894
304.15	15.734
304.52	16.454
304.89	17.886
305.25	16.473
305.62	18.573
305.99	17.828
306.35	18.009
306.72	16.256
307.09	18.424
307.45	17.455
307.82	16.518
308.19	16.998
308.55	17.907
308.92	16.327
309.29	16.156
309.65	17.497
310.02	18.182
310.38	17.742
310.75	17.212
311.12	17.093
311.48	17.032
311.85	19.078
312.22	16.337
312.58	16.528
312.95	17.846
313.31	15.825
313.68	18.711
314.05	19.724
314.41	18.794
314.78	17.221
315.14	18.371
315.51	17.611
315.87	19.406
316.24	18.669
316.61	18.519
316.97	19.276
317.34	19.961
317.70	19.598
318.07	20.308
318.43	21.624
318.80	21.837
319.16	21.751
319.53	21.670
319.89	22.571
320.26	25.700
320.62	24.802
320.99	25.556
321.35	25.657
321.72	26.899
322.08	27.937
322.45	29.353
322.81	31.008
323.18	30.636
323.54	31.725
323.91	33.113
324.27	33.939
324.64	34.762
325.00	33.454
325.37	37.125
325.73	39.497
326.10	39.982
326.46	39.964
326.83	43.054
327.19	45.944
327.56	45.209
327.92	47.157
328.29	48.004
328.65	49.908
329.01	50.181
329.38	51.989
329.74	52.909
330.11	53.346
330.47	54.913
330.84	56.710
331.20	56.193
331.56	57.064
331.93	60.000
332.29	57.941
332.66	60.088
333.02	60.878
333.38	60.976
333.75	60.784
334.11	62.456
334.48	62.112
334.84	63.787
335.20	64.818
335.57	64.823
335.93	64.554
336.29	66.117
336.66	66.456
337.02	66.154
337.38	67.037
337.75	66.578
338.11	69.472
338.47	68.600
338.84	69.019
339.20	69.908
339.56	69.799
339.93	70.909
340.29	70.380
340.65	69.697
341.02	70.855
341.38	71.619
341.74	72.193
342.11	72.140
342.47	72.159
342.83	71.062
343.20	70.909
343.56	69.334
343.92	72.193
344.28	72.024
344.65	73.001
345.01	71.380
345.37	72.384
345.73	73.435
346.10	73.402
346.46	74.068
346.82	72.488
347.19	73.768
347.55	73.317
347.91	74.919
348.27	75.431
348.63	75.167
349.00	73.301
349.36	74.631
349.72	73.536
350.08	73.663
350.45	75.997
350.81	74.005
351.17	74.554
351.53	76.331
351.89	74.422
352.26	76.243
352.62	75.621
352.98	76.661
353.34	76.089
353.70	75.123
354.07	75.323
354.43	75.397
354.79	75.463
355.15	77.015
355.51	76.259
355.87	79.102
356.24	77.524
356.60	74.178
356.96	78.198
357.32	77.187
357.68	75.984
358.04	76.326
358.40	76.643
358.77	77.308
359.13	76.322
359.49	77.020
359.85	76.270
360.21	78.628
360.57	78.833
360.93	77.769
361.29	78.534
361.66	77.399
362.02	78.060
362.38	78.403
362.74	77.679
363.10	76.758
363.46	77.476
363.82	78.534
364.18	77.093
364.54	79.569
364.90	77.975
365.26	78.676
365.62	77.867
365.98	79.036
366.35	75.358
366.71	77.585
367.07	79.170
367.43	79.536
367.79	79.729
368.15	79.167
368.51	78.997
368.87	78.587
369.23	78.859
369.59	78.783
369.95	77.574
370.31	76.567
370.67	78.841
371.03	80.300
371.39	79.592
371.75	78.971
372.11	77.952
372.47	79.692
372.83	79.971
373.19	79.263
373.55	79.970
373.91	79.381
374.27	77.526
374.63	79.927
374.99	79.308
375.35	79.693
375.71	77.999
376.07	78.807
376.42	78.817
376.78	78.661
377.14	78.494
377.50	78.212
377.86	77.793
378.22	80.215
378.58	77.068
378.94	78.190
379.30	80.534
379.66	79.632
380.02	78.870
380.38	78.142
380.74	78.992
381.09	80.012
381.45	79.840
381.81	78.071
382.17	78.217
382.53	79.182
382.89	80.123
383.25	79.675
383.61	79.120
383.97	80.613
384.32	78.478
384.68	79.306
385.04	78.611
385.40	78.885
385.76	77.580
386.12	77.720
386.48	79.043
386.83	79.282
387.19	79.963
387.55	77.922
387.91	79.202
388.27	78.786
388.62	79.226
388.98	77.211
389.34	78.411
389.70	77.866
390.06	78.644
390.42	80.285
390.77	78.690
391.13	77.983
391.49	77.855
391.85	77.403
392.20	78.927
392.56	79.356
392.92	77.516
393.28	77.160
393.64	78.657
393.99	76.359
394.35	78.040
394.71	77.478
395.07	77.695
395.42	78.863
395.78	77.163
396.14	76.909
396.50	78.571
396.85	77.750
397.21	76.202
397.57	77.433
397.92	77.284
398.28	75.336
398.64	76.464
399.00	77.280
399.35	75.296
399.71	76.505
400.07	76.700
400.42	76.810
400.78	75.935
401.14	77.134
401.49	76.119
401.85	76.104
402.21	75.749
402.57	75.756
402.92	76.860
403.28	76.390
403.63	76.238
403.99	77.134
404.35	74.424
404.70	74.880
405.06	75.946
405.42	77.230
405.77	75.714
406.13	73.251
406.49	75.222
406.84	73.538
407.20	73.759
407.55	75.686
407.91	75.400
408.27	74.537
408.62	74.654
408.98	74.449
409.34	74.293
409.69	73.935
410.05	73.606
410.40	74.312
410.76	75.388
411.11	72.859
411.47	72.396
411.83	73.549
412.18	73.469
412.54	74.471
412.89	72.711
413.25	72.314
413.60	72.761
413.96	71.949
414.31	73.329
414.67	71.736
415.03	72.649
415.38	71.843
415.74	73.119
416.09	74.526
416.45	73.628
416.80	73.430
417.16	73.660
417.51	72.528
417.87	72.575
418.22	73.565
418.58	72.692
418.93	72.850
419.29	72.884
419.64	73.426
420.00	72.195
420.35	70.841
420.71	73.341
421.06	69.153
421.42	70.643
421.77	70.796
422.12	70.803
422.48	70.588
422.83	72.161
423.19	69.890
423.54	71.619
423.90	70.841
424.25	70.073
424.61	70.179
424.96	71.720
425.31	69.546
425.67	70.000
426.02	70.686
426.38	70.879
426.73	70.919
427.09	70.638
427.44	71.823
427.79	69.638
428.15	69.524
428.50	70.626
428.85	69.964
429.21	70.293
429.56	69.155
429.92	68.546
430.27	67.676
430.62	68.817
430.98	68.915
431.33	67.165
431.68	69.005
432.04	68.956
432.39	69.960
432.74	68.402
433.10	69.553
433.45	70.496
433.80	69.235
434.16	68.162
434.51	67.789
434.86	68.301
435.22	70.039
435.57	70.334
435.92	67.700
436.28	70.996
436.63	68.488
436.98	68.346
437.34	70.364
437.69	69.078
438.04	69.702
438.39	68.597
438.75	68.913
439.10	69.385
439.45	68.182
439.81	69.607
440.16	68.154
440.51	68.307
440.86	69.543
441.22	68.910
441.57	67.994
441.92	68.833
442.27	67.169
442.63	67.983
442.98	67.380
443.33	66.413
443.68	65.720
444.03	66.032
444.39	66.991
444.74	67.587
445.09	67.871
445.44	66.703
445.79	66.304
446.15	65.537
446.50	65.051
446.85	65.827
447.20	65.528
447.55	67.616
447.91	65.803
448.26	65.832
448.61	67.044
448.96	67.220
449.31	67.379
449.66	66.460
450.02	65.237
450.37	66.553
450.72	67.231
451.07	64.899
451.42	65.714
451.77	67.234
452.12	65.531
452.47	66.107
452.83	65.967
453.18	64.914
453.53	66.296
453.88	65.800
454.23	64.435
454.58	66.323
454.93	66.624
455.28	64.464
455.63	65.898
455.98	66.429
456.34	65.389
456.69	66.187
457.04	65.635
457.39	65.167
457.74	65.467
458.09	64.117
458.44	64.196
458.79	63.178
459.14	65.745
459.49	63.573
459.84	62.992
460.19	63.406
460.54	61.921
460.89	63.851
461.24	64.420
461.59	63.858
461.94	62.639
462.29	63.976
462.64	63.816
462.99	64.346
463.34	63.133
463.69	64.415
464.04	61.971
464.39	62.609
464.74	62.448
465.09	61.882
465.44	63.767
465.79	60.962
466.14	60.591
466.49	60.178
466.84	61.646
467.19	61.497
467.54	63.000
467.89	61.044
468.24	60.442
468.59	62.943
468.94	60.599
469.29	63.368
469.64	64.391
469.99	63.058
470.34	63.276
470.68	63.506
471.03	62.109
471.38	63.099
471.73	60.959
472.08	63.355
472.43	61.244
472.78	61.422
473.13	61.489
473.48	61.049
473.83	61.585
474.17	61.045
474.52	61.663
474.87	61.821
475.22	60.302
475.57	59.592
475.92	59.745
476.27	59.470
476.61	59.735
476.96	60.693
477.31	59.498
477.66	60.722
478.01	58.233
478.36	59.122
478.70	59.190
479.05	58.892
479.40	59.519
479.75	59.126
480.10	58.151
480.45	57.449
480.79	57.382
481.14	58.806
481.49	58.614
481.84	57.796
482.19	58.292
482.53	58.532
482.88	58.167
483.23	58.318
483.58	57.052
483.92	58.294
484.27	55.338
484.62	56.810
484.97	55.538
485.31	56.062
485.66	53.097
486.01	51.308
486.36	49.871
486.70	50.201
487.05	50.429
487.40	52.094
487.75	52.601
488.09	54.110
488.44	54.670
488.79	56.022
489.13	56.150
489.48	56.077
489.83	56.668
490.17	56.817
490.52	56.067
490.87	57.078
491.22	55.161
491.56	55.034
491.91	56.259
492.26	54.800
492.60	55.806
492.95	55.987
493.30	55.047
493.64	56.416
493.99	55.896
494.34	56.059
494.68	55.769
495.03	55.357
495.37	55.142
495.72	56.384
496.07	56.288
496.41	52.743
496.76	53.914
497.11	54.435
497.45	54.960
497.80	54.798
498.14	55.604
498.49	55.073
498.84	55.513
499.18	54.286
499.53	55.223
499.87	55.266
500.22	54.545
500.56	56.214
500.91	54.567
501.26	54.481
501.60	54.533
501.95	53.804
502.29	54.545
502.64	54.702
502.98	54.745
503.33	52.102
503.67	52.947
504.02	53.742
504.36	54.048
504.71	54.861
505.06	53.590
505.40	53.719
505.75	53.472
506.09	53.644
506.44	54.070
506.78	53.093
507.13	54.417
507.47	54.242
507.82	55.623
508.16	53.901
508.51	54.997
508.85	53.128
509.19	53.673
509.54	52.908
509.88	54.508
510.23	54.756
510.57	54.850
510.92	54.894
511.26	52.775
511.61	54.098
511.95	53.445
512.30	54.030
512.64	54.326
512.98	54.716
513.33	53.908
513.67	52.882
514.02	53.463
514.36	54.997
514.70	55.174
515.05	53.820
515.39	54.571
515.74	54.167
516.08	54.500
516.42	54.162
516.77	54.571
517.11	52.386
517.46	54.007
517.80	53.891
518.14	52.866
518.49	54.901
518.83	53.125
519.17	52.771
519.52	53.198
519.86	54.478
520.20	54.104
520.55	56.014
520.89	54.380
521.23	55.066
521.58	54.922
521.92	55.052
522.26	53.935
522.61	55.078
522.95	54.266
523.29	53.439
523.64	55.061
523.98	54.467
524.32	53.679
524.66	54.299
525.01	52.880
525.35	53.841
525.69	52.340
526.04	52.773
526.38	54.240
526.72	53.006
527.06	53.923
527.41	52.599
527.75	56.077
528.09	53.757
528.43	53.282
528.78	52.797
529.12	50.909
529.46	52.970
529.80	54.022
530.15	53.022
530.49	52.554
530.83	53.418
531.17	54.961
531.51	54.345
531.86	53.806
532.20	53.716
532.54	54.644
532.88	54.108
533.22	51.655
533.57	50.741
533.91	52.137
534.25	52.430
534.59	50.946
534.93	50.982
535.27	51.116
535.62	52.259
535.96	51.915
536.30	50.922
536.64	52.093
536.98	53.285
537.32	51.152
537.66	52.933
538.01	52.930
538.35	52.101
538.69	52.457
539.03	50.162
539.37	50.607
539.71	50.227
540.05	52.614
540.39	51.960
540.73	50.841
541.07	51.914
541.42	52.577
541.76	51.677
542.10	51.682
542.44	51.523
542.78	51.581
543.12	50.352
543.46	51.016
543.80	51.399
544.14	50.321
544.48	51.111
544.82	50.674
545.16	50.618
545.50	49.293
545.84	50.941
546.18	50.303
546.52	50.998
546.86	51.753
547.20	50.506
547.54	51.035
547.88	49.872
548.22	49.191
548.56	49.119
548.90	49.296
549.24	49.428
549.58	50.819
549.92	51.511
550.26	50.994
550.60	50.622
550.94	52.606
551.28	51.207
551.62	51.186
551.96	51.789
552.30	50.580
552.64	51.251
552.98	51.322
553.32	49.966
553.66	50.988
554.00	50.309
554.34	50.449
554.68	52.146
555.02	51.128
555.36	50.313
555.69	49.188
556.03	49.596
556.37	49.591
556.71	50.477
557.05	50.140
557.39	49.545
557.73	50.176
558.07	51.849
558.41	50.579
558.75	49.155
559.08	51.976
559.42	51.247
559.76	50.588
560.10	50.107
560.44	48.987
560.78	47.505
561.12	48.681
561.45	49.739
561.79	49.110
562.13	48.960
562.47	49.454
562.81	48.884
563.15	49.097
563.48	48.873
563.82	48.924
564.16	49.248
564.50	47.721
564.84	47.092
565.17	48.906
565.51	47.604
565.85	48.287
566.19	47.589
566.52	46.675
566.86	47.378
567.20	47.406
567.54	46.176
567.88	46.062
568.21	46.085
568.55	44.237
568.89	43.872
569.23	43.360
569.56	42.348
569.90	41.283
570.24	41.335
570.57	40.462
570.91	39.496
571.25	39.469
571.59	39.205
571.92	39.343
572.26	39.399
572.60	39.489
572.93	38.861
573.27	39.456
573.61	39.112
573.95	38.734
574.28	38.166
574.62	38.047
574.96	37.491
575.29	37.318
575.63	37.551
575.97	38.011
576.30	38.370
576.64	37.402
576.98	37.190
577.31	37.361
577.65	37.372
577.98	37.254
578.32	35.842
578.66	36.310
578.99	37.229
579.33	37.231
579.67	37.242
580.00	37.018
580.34	37.304
580.67	37.083
581.01	36.631
581.35	36.470
581.68	35.987
582.02	35.141
582.35	35.552
582.69	35.399
583.02	36.179
583.36	37.261
583.70	37.388
584.03	37.513
584.37	38.235
584.70	37.539
585.04	36.473
585.37	36.277
585.71	36.701
586.04	36.796
586.38	36.964
586.72	37.780
587.05	36.294
587.39	36.913
587.72	37.027
588.06	36.980
588.39	37.668
588.73	37.636
589.06	38.423
589.40	38.485
589.73	38.719
590.07	39.288
590.40	37.669
590.73	39.383
591.07	40.659
591.40	39.814
591.74	40.779
592.07	41.318
592.41	40.885
592.74	38.502
593.08	37.308
593.41	37.267
593.75	36.196
594.08	37.714
594.41	38.423
594.75	38.336
595.08	37.724
595.42	38.494
595.75	37.749
596.09	39.016
596.42	39.528
596.75	40.186
597.09	39.784
597.42	38.617
597.75	39.974
598.09	39.913
598.42	39.519
598.76	38.508
599.09	37.704
599.42	37.664
599.76	36.786
600.09	38.106
600.42	37.253
600.76	37.607
601.09	37.486
601.42	37.785
601.76	37.685
602.09	37.826
602.42	38.296
602.76	39.379
603.09	39.064
603.42	38.149
603.76	38.224
604.09	38.232
604.42	38.361
604.76	39.350
605.09	39.275
605.42	39.119
605.75	38.121
606.09	38.105
606.42	38.455
606.75	38.905
607.09	38.594
607.42	38.383
607.75	38.228
608.08	38.124
608.42	39.489
608.75	39.540
609.08	38.529
609.41	38.934
609.75	39.543
610.08	40.763
610.41	38.687
610.74	38.978
611.07	39.625
611.41	39.745
611.74	40.020
612.07	40.166
612.40	41.343
612.73	39.895
613.07	40.140
613.40	40.495
613.73	38.857
614.06	39.785
614.39	39.696
614.72	40.053
615.06	40.284
615.39	39.437
615.72	38.139
616.05	38.915
616.38	39.855
616.71	41.983
617.05	41.932
617.38	41.371
617.71	41.381
618.04	40.625
618.37	40.863
618.70	42.564
619.03	42.434
619.36	43.177
619.69	43.380
620.03	42.995
620.36	42.714
620.69	43.288
621.02	43.142
621.35	44.166
621.68	43.536
622.01	45.433
622.34	43.343
622.67	43.650
623.00	43.360
623.33	42.745
623.66	42.959
623.99	42.857
624.32	43.367
624.65	42.938
624.99	41.997
625.32	42.723
625.65	44.102
625.98	44.197
626.31	44.946
626.64	44.735
626.97	45.220
627.30	43.973
627.63	45.611
627.96	46.341
628.29	45.144
628.62	45.837
628.95	48.491
629.28	46.077
629.61	46.654
629.94	46.190
630.26	46.997
630.59	46.997
630.92	47.031
