SpectraSuite Data File
++++++++++++++++++++++++++++++++++++
Date: Wed May 13 19:57:12 PDT 2015
User: schluterlab
Dark Spectrum Present: Yes
Reference Spectrum Present: Yes
Number of Sampled Component Spectra: 1
Spectrometers: USB2E3373
Integration Time (usec): 3000 (USB2E3373)
Spectra Averaged: 3 (USB2E3373)
Boxcar Smoothing: 0 (USB2E3373)
Correct for Electrical Dark: No (USB2E3373)
Strobe/Lamp Enabled: No (USB2E3373)
Correct for Detector Non-linearity: No (USB2E3373)
Correct for Stray Light: No (USB2E3373)
Number of Pixels in Processed Spectrum: 2048
>>>>>Begin Processed Spectral Data<<<<<
178.53	0.000
178.91	-1475.000
179.29	-1325.000
179.67	-233.333
180.04	-1425.000
180.42	2500.000
180.80	1060.000
181.18	-1125.000
181.56	685.714
181.94	0.000
182.31	-600.000
182.69	1833.333
183.07	-650.000
183.45	-622.222
183.83	581.818
184.20	-380.000
184.58	2100.000
184.96	4900.000
185.34	-740.000
185.72	-587.500
186.09	-1700.000
186.47	2950.000
186.85	2400.000
187.23	5400.000
187.61	-1833.333
187.98	1250.000
188.36	572.727
188.74	454.545
189.12	-1000.000
189.49	650.000
189.87	-3800.000
190.25	-1325.000
190.63	478.571
191.00	453.846
191.38	883.333
191.76	-1225.000
192.14	1200.000
192.51	725.000
192.89	850.000
193.27	587.500
193.65	-1075.000
194.02	530.000
194.40	900.000
194.78	540.000
195.15	541.667
195.53	650.000
195.91	-2150.000
196.29	393.750
196.66	342.105
197.04	-350.000
197.42	0.000
197.79	620.000
198.17	-5200.000
198.55	600.000
198.92	725.000
199.30	760.000
199.68	0.000
200.05	377.778
200.43	800.000
200.81	4400.000
201.18	1666.667
201.56	-1466.667
201.94	677.778
202.31	555.556
202.69	433.333
203.07	570.000
203.44	0.000
203.82	1175.000
204.19	800.000
204.57	435.714
204.95	612.500
205.32	1600.000
205.70	463.636
206.08	371.429
206.45	2450.000
206.83	343.750
207.20	883.333
207.58	700.000
207.96	355.556
208.33	637.500
208.71	-833.333
209.08	714.286
209.46	577.778
209.84	418.182
210.21	-1300.000
210.59	1475.000
210.96	-487.500
211.34	2100.000
211.71	540.000
212.09	850.000
212.46	0.000
212.84	1666.667
213.22	1625.000
213.59	-3600.000
213.97	850.000
214.34	800.000
214.72	527.273
215.09	1160.000
215.47	-1650.000
215.84	-2150.000
216.22	1700.000
216.59	392.857
216.97	1325.000
217.34	481.818
217.72	-833.333
218.09	0.000
218.47	-5300.000
218.84	700.000
219.22	857.143
219.59	1433.333
219.97	-571.429
220.34	860.000
220.72	-1833.333
221.09	407.143
221.47	1375.000
221.84	-983.333
222.22	0.000
222.59	1400.000
222.97	-2600.000
223.34	1280.000
223.72	400.000
224.09	1160.000
224.46	2100.000
224.84	-5000.000
225.21	-1020.000
225.59	-4500.000
225.96	580.000
226.34	290.000
226.71	2650.000
227.08	600.000
227.46	660.000
227.83	-1000.000
228.21	-2300.000
228.58	577.778
228.95	-2400.000
229.33	-2350.000
229.70	2033.333
230.08	771.429
230.45	-980.000
230.82	433.333
231.20	683.333
231.57	700.000
231.95	533.333
232.32	250.000
232.69	400.000
233.07	700.000
233.44	361.538
233.81	-1533.333
234.19	352.632
234.56	433.333
234.93	400.000
235.31	509.091
235.68	376.923
236.05	342.857
236.43	154.545
236.80	242.105
237.17	4000.000
237.55	276.190
237.92	217.857
238.29	242.857
238.67	190.323
239.04	186.207
239.41	130.556
239.79	132.609
240.16	145.238
240.53	140.909
240.91	98.039
241.28	100.000
241.65	112.000
242.02	101.449
242.40	72.581
242.77	96.667
243.14	70.968
243.51	80.899
243.89	71.765
244.26	76.667
244.63	70.968
245.00	59.574
245.38	66.337
245.75	64.486
246.12	53.211
246.49	68.613
246.87	72.000
247.24	53.846
247.61	55.714
247.98	56.209
248.36	54.054
248.73	51.592
249.10	55.414
249.47	49.718
249.84	51.337
250.22	42.246
250.59	46.154
250.96	46.465
251.33	45.024
251.70	48.020
252.08	38.571
252.45	43.946
252.82	37.826
253.19	45.106
253.56	40.784
253.94	39.834
254.31	36.719
254.68	41.154
255.05	36.900
255.42	40.244
255.79	37.500
256.16	36.101
256.54	33.922
256.91	35.231
257.28	33.094
257.65	38.284
258.02	34.783
258.39	31.861
258.76	34.783
259.14	31.548
259.51	33.131
259.88	27.329
260.25	34.441
260.62	35.260
260.99	32.919
261.36	32.432
261.73	34.097
262.10	34.012
262.47	34.085
262.85	31.198
263.22	29.345
263.59	28.775
263.96	31.044
264.33	32.376
264.70	29.737
265.07	28.389
265.44	32.323
265.81	26.521
266.18	30.151
266.55	28.780
266.92	30.221
267.29	28.241
267.66	30.505
268.03	29.545
268.40	29.439
268.77	28.401
269.14	27.027
269.51	30.248
269.88	32.401
270.25	29.120
270.62	28.539
270.99	30.753
271.36	29.185
271.73	28.972
272.10	26.522
272.47	26.237
272.84	29.654
273.21	28.931
273.58	27.511
273.95	24.109
274.32	26.240
274.69	27.409
275.06	24.409
275.43	28.723
275.80	27.054
276.17	26.477
276.54	27.235
276.91	26.087
277.28	25.586
277.65	27.660
278.02	25.466
278.39	27.539
278.76	26.909
279.13	27.358
279.50	27.747
279.87	27.092
280.23	28.144
280.60	24.758
280.97	26.248
281.34	23.894
281.71	26.727
282.08	29.175
282.45	26.727
282.82	26.821
283.19	22.638
283.56	25.439
283.92	27.750
284.29	25.044
284.66	22.868
285.03	23.689
285.40	25.352
285.77	25.253
286.14	24.525
286.51	26.000
286.87	26.667
287.24	25.896
287.61	24.559
287.98	22.078
288.35	22.187
288.72	24.766
289.08	23.318
289.45	23.888
289.82	22.439
290.19	22.920
290.56	21.899
290.93	20.544
291.29	22.853
291.66	22.271
292.03	24.273
292.40	23.495
292.77	19.822
293.13	21.791
293.50	21.137
293.87	20.444
294.24	21.333
294.60	20.961
294.97	20.494
295.34	22.285
295.71	20.028
296.08	23.077
296.44	19.670
296.81	20.476
297.18	21.409
297.55	18.997
297.91	18.602
298.28	20.884
298.65	20.235
299.02	19.895
299.38	18.592
299.75	17.790
300.12	17.880
300.48	19.250
300.85	20.099
301.22	19.363
301.59	19.318
301.95	18.262
302.32	20.411
302.69	18.519
303.05	19.030
303.42	18.519
303.79	18.573
304.15	17.949
304.52	18.772
304.89	18.815
305.25	18.794
305.62	18.913
305.99	18.890
306.35	19.575
306.72	18.274
307.09	19.312
307.45	19.482
307.82	18.080
308.19	20.199
308.55	18.662
308.92	18.582
309.29	18.163
309.65	18.982
310.02	18.499
310.38	19.785
310.75	19.747
311.12	20.164
311.48	19.122
311.85	21.384
312.22	20.604
312.58	20.478
312.95	21.331
313.31	20.097
313.68	20.894
314.05	24.458
314.41	21.608
314.78	22.759
315.14	21.450
315.51	23.687
315.87	24.653
316.24	24.131
316.61	24.269
316.97	23.288
317.34	24.560
317.70	25.908
318.07	25.602
318.43	27.691
318.80	27.648
319.16	29.096
319.53	29.268
319.89	29.619
320.26	31.400
320.62	30.655
320.99	31.919
321.35	32.626
321.72	34.805
322.08	34.650
322.45	36.517
322.81	36.725
323.18	38.054
323.54	38.312
323.91	39.623
324.27	40.344
324.64	39.981
325.00	40.036
325.37	42.948
325.73	44.973
326.10	45.366
326.46	45.430
326.83	47.023
327.19	47.481
327.56	49.042
327.92	49.344
328.29	51.020
328.65	52.118
329.01	52.256
329.38	52.451
329.74	52.539
330.11	54.100
330.47	55.005
330.84	55.147
331.20	54.554
331.56	55.688
331.93	56.574
332.29	56.167
332.66	55.841
333.02	56.764
333.38	56.640
333.75	56.774
334.11	58.452
334.48	58.119
334.84	58.088
335.20	58.091
335.57	57.752
335.93	57.857
336.29	59.615
336.66	58.882
337.02	60.452
337.38	59.722
337.75	58.556
338.11	59.087
338.47	60.221
338.84	60.587
339.20	59.908
339.56	61.040
339.93	60.000
340.29	59.149
340.65	61.230
341.02	61.082
341.38	61.210
341.74	60.789
342.11	60.786
342.47	61.498
342.83	60.959
343.20	60.693
343.56	59.225
343.92	60.877
344.28	60.119
344.65	61.307
345.01	59.680
345.37	58.834
345.73	60.745
346.10	60.358
346.46	60.932
346.82	60.544
347.19	58.647
347.55	60.016
347.91	62.379
348.27	61.956
348.63	61.288
349.00	59.466
349.36	59.852
349.72	59.342
350.08	58.833
350.45	59.561
350.81	59.870
351.17	59.887
351.53	58.231
351.89	59.241
352.26	58.564
352.62	60.385
352.98	59.562
353.34	60.477
353.70	59.002
354.07	59.919
354.43	58.651
354.79	59.694
355.15	59.298
355.51	58.913
355.87	61.306
356.24	59.528
356.60	58.460
356.96	59.775
357.32	59.280
357.68	58.346
358.04	58.670
358.40	59.620
358.77	58.294
359.13	59.195
359.49	57.412
359.85	59.048
360.21	58.214
360.57	59.377
360.93	58.692
361.29	58.730
361.66	58.050
362.02	57.910
362.38	58.631
362.74	58.557
363.10	56.699
363.46	57.960
363.82	58.503
364.18	58.443
364.54	58.470
364.90	58.640
365.26	58.456
365.62	58.948
365.98	57.779
366.35	56.805
366.71	57.195
367.07	56.737
367.43	59.289
367.79	57.602
368.15	58.764
368.51	57.267
368.87	57.959
369.23	57.864
369.59	57.784
369.95	56.912
370.31	57.835
370.67	56.014
371.03	57.678
371.39	57.070
371.75	57.353
372.11	54.979
372.47	57.771
372.83	59.510
373.19	56.575
373.55	57.945
373.91	58.837
374.27	55.739
374.63	56.509
374.99	56.780
375.35	56.385
375.71	56.546
376.07	56.859
376.42	57.497
376.78	57.256
377.14	57.259
377.50	56.821
377.86	56.649
378.22	55.942
378.58	54.950
378.94	55.437
379.30	56.616
379.66	56.599
380.02	56.020
380.38	55.495
380.74	55.762
381.09	55.134
381.45	56.238
381.81	55.713
382.17	56.051
382.53	56.038
382.89	55.494
383.25	55.097
383.61	55.204
383.97	54.722
384.32	55.396
384.68	55.328
385.04	54.702
385.40	55.728
385.76	55.651
386.12	56.023
386.48	56.828
386.83	56.511
387.19	56.030
387.55	55.659
387.91	55.381
388.27	54.813
388.62	55.931
388.98	54.607
389.34	55.006
389.70	54.568
390.06	54.689
390.42	55.577
390.77	54.644
391.13	56.541
391.49	54.061
391.85	54.042
392.20	54.574
392.56	53.157
392.92	54.208
393.28	53.964
393.64	53.957
393.99	52.841
394.35	53.474
394.71	54.203
395.07	53.271
395.42	53.832
395.78	53.753
396.14	52.886
396.50	54.511
396.85	53.719
397.21	51.973
397.57	53.627
397.92	52.103
398.28	52.130
398.64	52.270
399.00	52.434
399.35	52.059
399.71	51.852
400.07	50.976
400.42	52.331
400.78	53.378
401.14	52.622
401.49	52.000
401.85	51.785
402.21	51.796
402.57	51.265
402.92	52.270
403.28	51.218
403.63	50.371
403.99	51.656
404.35	49.939
404.70	50.240
405.06	49.913
405.42	50.530
405.77	49.086
406.13	49.492
406.49	50.621
406.84	49.675
407.20	48.936
407.55	49.713
407.91	50.400
408.27	50.351
408.62	48.224
408.98	48.223
409.34	49.016
409.69	49.419
410.05	49.009
410.40	48.746
410.76	47.730
411.11	47.467
411.47	47.923
411.83	47.770
412.18	47.495
412.54	48.132
412.89	46.807
413.25	47.285
413.60	49.166
413.96	46.023
414.31	47.691
414.67	47.782
415.03	46.623
415.38	47.874
415.74	46.881
416.09	46.767
416.45	45.984
416.80	47.588
417.16	47.587
417.51	46.516
417.87	45.857
418.22	46.877
418.58	45.513
418.93	47.052
419.29	45.831
419.64	45.718
420.00	45.427
420.35	45.739
420.71	45.666
421.06	44.332
421.42	44.912
421.77	45.067
422.12	44.469
422.48	44.360
422.83	44.205
423.19	43.702
423.54	44.457
423.90	44.174
424.25	43.551
424.61	44.405
424.96	43.848
425.31	44.075
425.67	42.472
426.02	42.514
426.38	44.994
426.73	42.539
427.09	42.553
427.44	43.301
427.79	42.783
428.15	43.631
428.50	43.417
428.85	43.206
429.21	42.242
429.56	41.265
429.92	40.966
430.27	41.063
430.62	40.655
430.98	42.086
431.33	40.361
431.68	41.937
432.04	40.948
432.39	40.891
432.74	41.532
433.10	41.766
433.45	41.050
433.80	40.632
434.16	40.919
434.51	40.158
434.86	40.536
435.22	40.467
435.57	41.094
435.92	40.433
436.28	40.569
436.63	39.349
436.98	38.809
437.34	40.012
437.69	40.898
438.04	39.910
438.39	39.881
438.75	39.686
439.10	40.335
439.45	38.607
439.81	39.698
440.16	37.493
440.51	39.484
440.86	38.680
441.22	38.265
441.57	38.057
441.92	38.997
442.27	38.644
442.63	37.757
442.98	39.437
443.33	38.261
443.68	38.771
444.03	36.701
444.39	37.244
444.74	39.177
445.09	38.976
445.44	37.015
445.79	37.358
446.15	37.057
446.50	37.049
446.85	36.845
447.20	37.073
447.55	36.516
447.91	36.349
448.26	36.728
448.61	35.670
448.96	37.320
449.31	36.670
449.66	36.804
450.02	35.432
450.37	36.224
450.72	35.702
451.07	36.076
451.42	35.623
451.77	36.876
452.12	35.450
452.47	35.075
452.83	36.131
453.18	36.064
453.53	35.622
453.88	36.149
454.23	35.804
454.58	35.918
454.93	35.982
455.28	35.474
455.63	35.194
455.98	36.012
456.34	35.050
456.69	35.316
457.04	35.975
457.39	34.366
457.74	35.287
458.09	34.100
458.44	35.063
458.79	34.273
459.14	34.424
459.49	34.442
459.84	33.795
460.19	33.883
460.54	33.854
460.89	33.077
461.24	34.608
461.59	34.515
461.94	34.032
462.29	33.531
462.64	33.504
462.99	33.507
463.34	34.533
463.69	32.645
464.04	34.087
464.39	33.333
464.74	32.799
465.09	33.293
465.44	32.687
465.79	33.277
466.14	33.771
466.49	33.037
466.84	32.399
467.19	32.287
467.54	33.500
467.89	32.653
468.24	32.344
468.59	32.540
468.94	31.765
469.29	32.262
469.64	34.337
469.99	32.612
470.34	32.166
470.68	32.830
471.03	32.041
471.38	32.940
471.73	32.179
472.08	32.368
472.43	32.538
472.78	31.863
473.13	32.542
473.48	32.022
473.83	31.768
474.17	31.425
474.52	31.514
474.87	31.757
475.22	32.037
475.57	30.629
475.92	30.324
476.27	31.060
476.61	31.219
476.96	30.511
477.31	30.717
477.66	30.908
478.01	30.214
478.36	30.830
478.70	30.945
479.05	30.884
479.40	30.757
479.75	30.859
480.10	30.268
480.45	30.509
480.79	30.244
481.14	30.235
481.49	30.043
481.84	30.041
482.19	29.714
482.53	29.817
482.88	30.572
483.23	29.346
483.58	29.982
483.92	29.428
484.27	28.584
484.62	28.362
484.97	27.907
485.31	28.664
485.66	27.286
486.01	26.308
486.36	26.104
486.70	26.318
487.05	26.184
487.40	26.609
487.75	27.163
488.09	27.571
488.44	27.585
488.79	27.450
489.13	27.731
489.48	27.977
489.83	28.615
490.17	28.189
490.52	27.236
490.87	27.770
491.22	28.149
491.56	28.064
491.91	28.385
492.26	28.434
492.60	28.341
492.95	27.128
493.30	28.271
493.64	27.485
493.99	28.134
494.34	28.168
494.68	27.839
495.03	27.726
495.37	27.920
495.72	28.216
496.07	28.724
496.41	27.080
496.76	28.012
497.11	27.915
497.45	27.806
497.80	27.591
498.14	27.150
498.49	27.854
498.84	28.380
499.18	27.048
499.53	27.398
499.87	27.120
500.22	27.414
500.56	27.670
500.91	27.308
501.26	27.264
501.60	27.527
501.95	26.673
502.29	27.976
502.64	27.188
502.98	26.741
503.33	26.920
503.67	27.703
504.02	26.660
504.36	26.392
504.71	27.113
505.06	27.036
505.40	27.175
505.75	26.374
506.09	27.162
506.44	26.591
506.78	26.985
507.13	27.562
507.47	26.717
507.82	27.964
508.16	27.102
508.51	28.006
508.85	26.961
509.19	26.633
509.54	26.531
509.88	26.172
510.23	26.324
510.57	27.864
510.92	26.463
511.26	26.310
511.61	26.245
511.95	26.305
512.30	26.352
512.64	26.384
512.98	25.884
513.33	27.677
513.67	26.628
514.02	26.623
514.36	27.144
514.70	26.729
515.05	26.436
515.39	26.697
515.74	27.196
516.08	27.166
516.42	26.526
516.77	26.589
517.11	26.304
517.46	26.806
517.80	26.539
518.14	25.999
518.49	26.254
518.83	26.364
519.17	26.039
519.52	26.938
519.86	27.096
520.20	26.994
520.55	27.588
520.89	26.460
521.23	26.478
521.58	25.750
521.92	26.516
522.26	26.297
522.61	26.854
522.95	25.660
523.29	26.659
523.64	26.707
523.98	26.494
524.32	26.719
524.66	27.721
525.01	27.083
525.35	26.766
525.69	25.800
526.04	25.670
526.38	26.907
526.72	27.178
527.06	26.303
527.41	24.876
527.75	26.752
528.09	26.590
528.43	26.386
528.78	27.167
529.12	25.152
529.46	26.516
529.80	25.990
530.15	26.542
530.49	25.908
530.83	26.013
531.17	26.828
531.51	26.589
531.86	25.935
532.20	26.728
532.54	25.945
532.88	26.252
533.22	26.109
533.57	26.358
533.91	25.707
534.25	25.091
534.59	25.991
534.93	24.866
535.27	24.925
535.62	25.702
535.96	25.675
536.30	25.048
536.64	25.370
536.98	26.476
537.32	25.938
537.66	25.600
538.01	26.004
538.35	25.404
538.69	26.356
539.03	25.731
539.37	25.559
539.71	23.461
540.05	26.078
540.39	25.382
540.73	25.809
541.07	25.762
541.42	27.071
541.76	26.323
542.10	25.679
542.44	24.901
542.78	25.889
543.12	23.672
543.46	25.311
543.80	26.610
544.14	25.481
544.48	25.651
544.82	25.465
545.16	25.439
545.50	24.614
545.84	25.336
546.18	25.657
546.52	25.740
546.86	25.704
547.20	25.489
547.54	25.317
547.88	25.829
548.22	25.405
548.56	25.283
548.90	24.072
549.24	24.916
549.58	25.989
549.92	25.755
550.26	26.136
550.60	25.173
550.94	24.718
551.28	23.921
551.62	24.802
551.96	24.351
552.30	25.051
552.64	24.679
552.98	24.949
553.32	25.893
553.66	25.699
554.00	25.120
554.34	24.086
554.68	26.395
555.02	24.471
555.36	24.495
555.69	23.275
556.03	25.303
556.37	24.966
556.71	24.557
557.05	24.580
557.39	24.143
557.73	25.406
558.07	25.453
558.41	24.023
558.75	25.349
559.08	25.652
559.42	24.339
559.76	24.853
560.10	24.483
560.44	25.017
560.78	24.152
561.12	24.274
561.45	24.837
561.79	24.588
562.13	24.816
562.47	25.137
562.81	24.407
563.15	24.147
563.48	24.867
563.82	24.331
564.16	24.853
564.50	23.828
564.84	24.463
565.17	24.067
565.51	24.217
565.85	23.921
566.19	24.170
566.52	24.066
566.86	22.966
567.20	23.703
567.54	23.002
567.88	22.651
568.21	24.286
568.55	22.295
568.89	22.033
569.23	22.415
569.56	21.619
569.90	21.925
570.24	21.995
570.57	21.149
570.91	20.394
571.25	21.032
571.59	20.795
571.92	20.651
572.26	20.191
572.60	21.171
572.93	20.750
573.27	21.088
573.61	20.463
573.95	20.801
574.28	20.327
574.62	20.360
574.96	19.785
575.29	20.441
575.63	19.512
575.97	20.203
576.30	19.835
576.64	20.243
576.98	19.956
577.31	19.709
577.65	19.739
577.98	19.481
578.32	19.102
578.66	19.539
578.99	19.493
579.33	20.261
579.67	19.655
580.00	19.252
580.34	19.934
580.67	19.452
581.01	20.126
581.35	19.329
581.68	19.249
582.02	19.171
582.35	19.132
582.69	19.045
583.02	19.188
583.36	19.875
583.70	19.730
584.03	19.619
584.37	19.974
584.70	20.193
585.04	19.472
585.37	19.548
585.71	20.089
586.04	19.425
586.38	19.984
586.72	19.994
587.05	19.125
587.39	19.815
587.72	20.124
588.06	19.824
588.39	19.396
588.73	19.889
589.06	20.100
589.40	20.135
589.73	20.345
590.07	20.712
590.40	19.949
590.73	20.570
591.07	21.490
591.40	21.299
591.74	21.602
592.07	20.768
592.41	20.835
592.74	20.487
593.08	20.187
593.41	20.215
593.75	20.206
594.08	20.717
594.41	20.643
594.75	20.333
595.08	20.651
595.42	20.771
595.75	20.940
596.09	20.804
596.42	20.550
596.75	21.444
597.09	20.779
597.42	19.688
597.75	20.612
598.09	20.609
598.42	20.189
598.76	20.430
599.09	19.954
599.42	19.614
599.76	19.985
600.09	19.745
600.42	19.905
600.76	19.679
601.09	20.255
601.42	19.559
601.76	19.924
602.09	20.158
602.42	20.263
602.76	21.080
603.09	20.496
603.42	20.539
603.76	20.503
604.09	19.698
604.42	20.261
604.76	20.793
605.09	20.402
605.42	19.581
605.75	20.281
606.09	20.130
606.42	20.025
606.75	20.324
607.09	20.469
607.42	19.213
607.75	19.873
608.08	19.323
608.42	20.887
608.75	20.739
609.08	19.750
609.41	20.752
609.75	20.724
610.08	20.170
610.41	20.484
610.74	20.624
611.07	20.553
611.41	20.363
611.74	22.122
612.07	21.636
612.40	20.829
612.73	21.158
613.07	21.767
613.40	21.801
613.73	20.451
614.06	20.806
614.39	21.238
614.72	21.474
615.06	21.008
615.39	20.382
615.72	20.961
616.05	20.521
616.38	20.623
616.71	21.081
617.05	21.437
617.38	21.407
617.71	21.682
618.04	21.995
618.37	21.644
618.70	21.780
619.03	21.842
619.36	21.792
619.69	23.099
620.03	22.459
620.36	21.925
620.69	23.425
621.02	23.156
621.35	22.944
621.68	21.885
622.01	23.220
622.34	23.222
622.67	21.977
623.00	21.277
623.33	22.230
623.66	21.801
623.99	22.091
624.32	22.611
624.65	22.458
624.99	21.671
625.32	20.782
625.65	23.216
625.98	24.058
626.31	22.862
626.64	24.245
626.97	22.693
627.30	22.195
627.63	23.052
627.96	24.054
628.29	22.572
628.62	23.788
628.95	24.528
629.28	23.631
629.61	24.840
629.94	24.762
630.26	22.879
630.59	24.404
630.92	24.138
