SpectraSuite Data File
++++++++++++++++++++++++++++++++++++
Date: Wed May 13 19:32:05 PDT 2015
User: schluterlab
Dark Spectrum Present: Yes
Reference Spectrum Present: Yes
Number of Sampled Component Spectra: 1
Spectrometers: USB2E3373
Integration Time (usec): 3000 (USB2E3373)
Spectra Averaged: 3 (USB2E3373)
Boxcar Smoothing: 0 (USB2E3373)
Correct for Electrical Dark: No (USB2E3373)
Strobe/Lamp Enabled: No (USB2E3373)
Correct for Detector Non-linearity: No (USB2E3373)
Correct for Stray Light: No (USB2E3373)
Number of Pixels in Processed Spectrum: 2048
>>>>>Begin Processed Spectral Data<<<<<
178.53	0.000
178.91	-1075.000
179.29	-1350.000
179.67	-272.222
180.04	-1375.000
180.42	2900.000
180.80	1360.000
181.18	-1100.000
181.56	700.000
181.94	0.000
182.31	-642.857
182.69	1500.000
183.07	-750.000
183.45	-555.556
183.83	536.364
184.20	-470.000
184.58	2750.000
184.96	6400.000
185.34	-880.000
185.72	-675.000
186.09	-2600.000
186.47	2850.000
186.85	2500.000
187.23	4800.000
187.61	-1600.000
187.98	1575.000
188.36	654.545
188.74	500.000
189.12	-780.000
189.49	630.000
189.87	-4900.000
190.25	-1375.000
190.63	571.429
191.00	476.923
191.38	800.000
191.76	-1300.000
192.14	1325.000
192.51	625.000
192.89	1033.333
193.27	537.500
193.65	-1450.000
194.02	560.000
194.40	1260.000
194.78	560.000
195.15	550.000
195.53	610.000
195.91	-2100.000
196.29	368.750
196.66	342.105
197.04	-350.000
197.42	0.000
197.79	620.000
198.17	-5000.000
198.55	671.429
198.92	862.500
199.30	1040.000
199.68	0.000
200.05	322.222
200.43	757.143
200.81	4900.000
201.18	1833.333
201.56	-1600.000
201.94	600.000
202.31	677.778
202.69	491.667
203.07	590.000
203.44	0.000
203.82	1325.000
204.19	728.571
204.57	457.143
204.95	587.500
205.32	1800.000
205.70	536.364
206.08	485.714
206.45	2800.000
206.83	381.250
207.20	1016.667
207.58	740.000
207.96	394.444
208.33	737.500
208.71	-716.667
209.08	914.286
209.46	622.222
209.84	481.818
210.21	-1333.333
210.59	1725.000
210.96	-550.000
211.34	3300.000
211.71	610.000
212.09	833.333
212.46	0.000
212.84	2266.667
213.22	1400.000
213.59	-4500.000
213.97	1050.000
214.34	814.286
214.72	600.000
215.09	980.000
215.47	-2600.000
215.84	-2450.000
216.22	1833.333
216.59	435.714
216.97	1350.000
217.34	463.636
217.72	-816.667
218.09	0.000
218.47	-4900.000
218.84	666.667
219.22	642.857
219.59	1733.333
219.97	-757.143
220.34	1020.000
220.72	-1900.000
221.09	400.000
221.47	1725.000
221.84	-1000.000
222.22	0.000
222.59	1525.000
222.97	-2600.000
223.34	1160.000
223.72	423.077
224.09	1100.000
224.46	2350.000
224.84	-5600.000
225.21	-980.000
225.59	-5000.000
225.96	640.000
226.34	365.000
226.71	3250.000
227.08	737.500
227.46	590.000
227.83	-1175.000
228.21	-2250.000
228.58	611.111
228.95	-2450.000
229.33	-2600.000
229.70	1666.667
230.08	828.571
230.45	-920.000
230.82	491.667
231.20	1033.333
231.57	785.714
231.95	533.333
232.32	290.909
232.69	454.545
233.07	700.000
233.44	315.385
233.81	-1700.000
234.19	321.053
234.56	433.333
234.93	458.333
235.31	590.909
235.68	369.231
236.05	364.286
236.43	148.485
236.80	278.947
237.17	4000.000
237.55	209.524
237.92	232.143
238.29	233.333
238.67	193.548
239.04	200.000
239.41	169.444
239.79	128.261
240.16	138.095
240.53	131.818
240.91	107.843
241.28	108.000
241.65	84.000
242.02	101.449
242.40	93.548
242.77	93.333
243.14	75.269
243.51	66.292
243.89	74.118
244.26	56.667
244.63	54.839
245.00	61.702
245.38	56.436
245.75	58.879
246.12	47.706
246.49	54.745
246.87	61.600
247.24	58.462
247.61	47.857
247.98	49.673
248.36	38.514
248.73	41.401
249.10	45.223
249.47	40.113
249.84	42.781
250.22	39.037
250.59	38.462
250.96	38.889
251.33	34.597
251.70	41.089
252.08	34.286
252.45	29.596
252.82	31.304
253.19	30.638
253.56	32.941
253.94	36.515
254.31	26.172
254.68	35.000
255.05	32.472
255.42	25.610
255.79	29.779
256.16	28.881
256.54	26.148
256.91	28.470
257.28	26.619
257.65	25.743
258.02	26.398
258.39	27.760
258.76	27.090
259.14	27.976
259.51	25.228
259.88	25.466
260.25	25.378
260.62	25.145
260.99	28.571
261.36	27.027
261.73	24.069
262.10	23.837
262.47	24.507
262.85	23.677
263.22	21.368
263.59	23.932
263.96	21.154
264.33	23.238
264.70	23.158
265.07	26.343
265.44	23.232
265.81	22.384
266.18	22.613
266.55	21.463
266.92	22.359
267.29	23.148
267.66	20.413
268.03	20.227
268.40	22.196
268.77	20.048
269.14	20.045
269.51	23.025
269.88	21.212
270.25	23.251
270.62	20.674
270.99	23.656
271.36	22.318
271.73	19.626
272.10	20.870
272.47	21.505
272.84	22.511
273.21	21.384
273.58	19.214
273.95	17.610
274.32	17.355
274.69	21.413
275.06	18.898
275.43	19.787
275.80	18.838
276.17	19.756
276.54	20.374
276.91	19.763
277.28	18.945
277.65	19.342
278.02	18.841
278.39	20.508
278.76	21.273
279.13	18.868
279.50	19.739
279.87	17.331
280.23	19.561
280.60	18.762
280.97	18.669
281.34	18.938
281.71	18.727
282.08	20.729
282.45	18.182
282.82	17.940
283.19	15.152
283.56	18.070
283.92	19.797
284.29	16.755
284.66	17.967
285.03	16.817
285.40	17.430
285.77	17.340
286.14	16.580
286.51	16.667
286.87	16.068
287.24	20.033
287.61	16.693
287.98	18.019
288.35	16.957
288.72	18.224
289.08	15.649
289.45	16.474
289.82	16.748
290.19	15.071
290.56	16.845
290.93	14.350
291.29	15.491
291.66	16.667
292.03	17.878
292.40	16.740
292.77	15.385
293.13	17.164
293.50	16.764
293.87	15.556
294.24	14.815
294.60	15.138
294.97	14.826
295.34	15.656
295.71	14.773
296.08	15.100
296.44	13.480
296.81	13.738
297.18	15.854
297.55	12.797
297.91	14.908
298.28	14.324
298.65	15.927
299.02	15.283
299.38	12.351
299.75	13.208
300.12	13.665
300.48	13.250
300.85	14.057
301.22	14.140
301.59	12.500
301.95	13.224
302.32	13.607
302.69	13.381
303.05	12.970
303.42	13.086
303.79	13.250
304.15	12.471
304.52	12.283
304.89	12.311
305.25	12.645
305.62	14.156
305.99	14.286
306.35	13.982
306.72	13.229
307.09	13.541
307.45	14.302
307.82	11.496
308.19	14.459
308.55	14.132
308.92	12.567
309.29	12.672
309.65	12.301
310.02	12.474
310.38	12.688
310.75	13.411
311.12	12.692
311.48	13.793
311.85	13.941
312.22	14.152
312.58	14.033
312.95	14.678
313.31	12.913
313.68	13.825
314.05	15.976
314.41	14.975
314.78	13.998
315.14	14.201
315.51	15.448
315.87	14.950
316.24	14.598
316.61	13.938
316.97	14.090
317.34	14.579
317.70	16.922
318.07	15.688
318.43	16.341
318.80	16.589
319.16	16.855
319.53	15.478
319.89	18.762
320.26	17.400
320.62	18.155
320.99	19.697
321.35	19.495
321.72	20.123
322.08	19.941
322.45	20.498
322.81	20.833
323.18	21.773
323.54	21.521
323.91	22.736
324.27	22.371
324.64	22.088
325.00	22.723
325.37	24.841
325.73	25.404
326.10	24.360
326.46	24.552
326.83	24.159
327.19	26.644
327.56	26.655
327.92	27.034
328.29	28.838
328.65	28.453
329.01	28.069
329.38	27.937
329.74	28.901
330.11	29.877
330.47	31.129
330.84	30.699
331.20	30.692
331.56	31.101
331.93	30.093
332.29	31.854
332.66	31.062
333.02	30.256
333.38	31.978
333.75	32.353
334.11	31.940
334.48	33.097
334.84	31.985
335.20	33.091
335.57	31.913
335.93	30.268
336.29	31.777
336.66	32.011
337.02	32.127
337.38	33.426
337.75	32.353
338.11	33.124
338.47	32.413
338.84	33.456
339.20	32.110
339.56	33.485
339.93	32.818
340.29	32.337
340.65	33.244
341.02	32.635
341.38	32.562
341.74	32.105
342.11	32.926
342.47	32.687
342.83	32.106
343.20	33.680
343.56	32.266
343.92	32.018
344.28	32.823
344.65	32.502
345.01	32.071
345.37	30.532
345.73	33.926
346.10	32.822
346.46	33.136
346.82	32.372
347.19	31.579
347.55	32.020
347.91	33.010
348.27	33.854
348.63	32.609
349.00	32.524
349.36	32.020
349.72	31.836
350.08	31.442
350.45	32.954
350.81	32.900
351.17	33.955
351.53	33.333
351.89	33.003
352.26	33.149
352.62	31.355
352.98	32.577
353.34	32.539
353.70	31.342
354.07	32.177
354.43	30.556
354.79	31.215
355.15	32.402
355.51	32.054
355.87	32.408
356.24	32.736
356.60	30.954
356.96	31.939
357.32	33.279
357.68	32.520
358.04	31.512
358.40	32.146
358.77	31.847
359.13	30.860
359.49	32.235
359.85	32.381
360.21	30.781
360.57	31.984
360.93	31.769
361.29	32.200
361.66	31.811
362.02	31.343
362.38	31.939
362.74	32.440
363.10	30.792
363.46	31.548
363.82	32.124
364.18	30.984
364.54	31.872
364.90	32.011
365.26	31.176
365.62	31.702
365.98	31.410
366.35	32.235
366.71	31.960
367.07	31.755
367.43	32.221
367.79	32.120
368.15	32.112
368.51	30.959
368.87	31.263
369.23	31.017
369.59	31.571
369.95	30.882
370.31	31.695
370.67	31.014
371.03	33.258
371.39	32.216
371.75	31.324
372.11	31.437
372.47	31.452
372.83	32.277
373.19	32.081
373.55	31.486
373.91	31.517
374.27	31.203
374.63	31.418
374.99	32.062
375.35	31.054
375.71	30.843
376.07	31.207
376.42	31.637
376.78	31.279
377.14	31.343
377.50	30.795
377.86	30.120
378.22	31.037
378.58	30.201
378.94	29.730
379.30	29.962
379.66	30.393
380.02	31.327
380.38	30.176
380.74	30.492
381.09	30.990
381.45	30.486
381.81	30.467
382.17	30.828
382.53	30.126
382.89	30.556
383.25	30.457
383.61	31.413
383.97	30.582
384.32	30.568
384.68	29.058
385.04	30.547
385.40	30.464
385.76	30.037
386.12	30.505
386.48	29.641
386.83	30.853
387.19	30.056
387.55	30.365
387.91	29.746
388.27	29.982
388.62	29.994
388.98	29.791
389.34	30.788
389.70	30.166
390.06	30.355
390.42	29.702
390.77	29.580
391.13	29.930
391.49	29.695
391.85	29.790
392.20	28.517
392.56	29.104
392.92	30.312
393.28	28.935
393.64	29.856
393.99	29.688
394.35	29.777
394.71	29.737
395.07	29.283
395.42	30.346
395.78	29.835
396.14	29.795
396.50	30.451
396.85	29.498
397.21	30.395
397.57	30.440
397.92	29.928
398.28	28.363
398.64	29.152
399.00	28.875
399.35	28.426
399.71	28.819
400.07	29.332
400.42	29.755
400.78	29.735
401.14	28.110
401.49	28.776
401.85	29.099
402.21	28.922
402.57	29.241
402.92	29.445
403.28	28.857
403.63	29.146
403.99	29.427
404.35	28.788
404.70	28.477
405.06	28.189
405.42	28.821
405.77	27.829
406.13	27.991
406.49	29.568
406.84	28.234
407.20	28.310
407.55	28.845
407.91	28.800
408.27	28.271
408.62	27.935
408.98	28.860
409.34	27.306
409.69	28.968
410.05	26.580
410.40	27.462
410.76	27.838
411.11	27.986
411.47	27.796
411.83	28.528
412.18	27.953
412.54	28.207
412.89	28.133
413.25	28.217
413.60	27.610
413.96	26.897
414.31	28.007
414.67	28.327
415.03	27.550
415.38	27.577
415.74	27.203
416.09	28.347
416.45	28.380
416.80	27.495
417.16	28.820
417.51	27.339
417.87	26.076
418.22	28.013
418.58	28.857
418.93	27.273
419.29	28.008
419.64	28.149
420.00	27.866
420.35	27.362
420.71	28.273
421.06	27.446
421.42	26.550
421.77	26.906
422.12	27.400
422.48	26.012
422.83	27.665
423.19	27.017
423.54	26.582
423.90	28.116
424.25	27.471
424.61	26.905
424.96	27.755
425.31	27.076
425.67	26.854
426.02	26.343
426.38	27.900
426.73	26.156
427.09	26.626
427.44	26.797
427.79	27.027
428.15	27.262
428.50	26.507
428.85	26.996
429.21	26.284
429.56	26.594
429.92	26.925
430.27	25.819
430.62	24.936
430.98	26.881
431.33	26.443
431.68	27.435
432.04	26.624
432.39	26.670
432.74	27.110
433.10	26.938
433.45	27.230
433.80	26.386
434.16	26.442
434.51	26.105
434.86	27.651
435.22	27.293
435.57	26.565
435.92	26.858
436.28	27.817
436.63	26.987
436.98	26.789
437.34	27.191
437.69	28.471
438.04	27.150
438.39	26.567
438.75	28.065
439.10	27.095
439.45	25.915
439.81	27.674
440.16	26.652
440.51	26.772
440.86	26.346
441.22	26.418
441.57	26.592
441.92	26.305
442.27	27.180
442.63	26.014
442.98	27.662
443.33	26.196
443.68	26.794
444.03	26.257
444.39	25.609
444.74	26.407
445.09	26.900
445.44	26.408
445.79	25.482
446.15	26.945
446.50	26.225
446.85	26.619
447.20	26.058
447.55	26.186
447.91	25.869
448.26	26.043
448.61	27.021
448.96	26.744
449.31	26.940
449.66	26.843
450.02	26.128
450.37	26.474
450.72	26.001
451.07	25.960
451.42	25.593
451.77	26.424
452.12	25.693
452.47	26.306
452.83	26.399
453.18	26.345
453.53	26.716
453.88	24.926
454.23	26.181
454.58	26.469
454.93	27.273
455.28	26.060
455.63	26.578
455.98	27.381
456.34	26.005
456.69	26.425
457.04	26.006
457.39	26.534
457.74	26.291
458.09	26.624
458.44	26.682
458.79	24.946
459.14	26.185
459.49	26.036
459.84	25.319
460.19	25.162
460.54	25.868
460.89	25.837
461.24	25.987
461.59	26.787
461.94	24.908
462.29	26.469
462.64	25.654
462.99	25.960
463.34	26.933
463.69	25.829
464.04	25.913
464.39	25.101
464.74	25.431
465.09	25.935
465.44	24.488
465.79	24.832
466.14	25.233
466.49	25.250
466.84	25.628
467.19	25.709
467.54	25.562
467.89	25.330
468.24	25.247
468.59	26.129
468.94	25.535
469.29	25.578
469.64	26.640
469.99	26.658
470.34	24.967
470.68	25.216
471.03	25.986
471.38	27.241
471.73	26.449
472.08	26.513
472.43	25.942
472.78	26.070
473.13	26.252
473.48	25.468
473.83	24.817
474.17	24.953
474.52	25.496
474.87	25.744
475.22	24.318
475.57	23.751
475.92	25.119
476.27	24.014
476.61	24.324
476.96	24.134
477.31	24.751
477.66	25.164
478.01	24.412
478.36	24.802
478.70	23.572
479.05	24.388
479.40	24.923
479.75	23.793
480.10	24.006
480.45	24.036
480.79	23.220
481.14	24.217
481.49	23.398
481.84	23.960
482.19	24.035
482.53	24.220
482.88	23.918
483.23	23.738
483.58	24.295
483.92	24.133
484.27	22.745
484.62	23.750
484.97	22.665
485.31	23.151
485.66	21.313
486.01	20.228
486.36	19.384
486.70	19.143
487.05	19.982
487.40	20.761
487.75	21.632
488.09	22.354
488.44	22.782
488.79	23.110
489.13	22.536
489.48	23.532
489.83	23.306
490.17	24.244
490.52	23.206
490.87	22.705
491.22	22.647
491.56	22.779
491.91	22.383
492.26	22.830
492.60	22.811
492.95	22.217
493.30	22.617
493.64	23.052
493.99	22.981
494.34	22.988
494.68	23.443
495.03	23.496
495.37	23.034
495.72	22.904
496.07	22.831
496.41	22.389
496.76	22.867
497.11	22.828
497.45	22.357
497.80	22.745
498.14	22.512
498.49	22.780
498.84	22.819
499.18	22.286
499.53	22.745
499.87	23.346
500.22	22.374
500.56	23.010
500.91	22.452
501.26	22.665
501.60	23.446
501.95	23.144
502.29	23.055
502.64	22.346
502.98	22.534
503.33	22.349
503.67	23.016
504.02	22.778
504.36	22.695
504.71	22.325
505.06	22.843
505.40	22.703
505.75	22.420
506.09	22.692
506.44	22.398
506.78	22.942
507.13	22.716
507.47	22.677
507.82	23.202
508.16	22.239
508.51	22.780
508.85	22.244
509.19	22.296
509.54	22.755
509.88	22.463
510.23	22.622
510.57	22.497
510.92	22.475
511.26	22.199
511.61	22.977
511.95	21.973
512.30	22.800
512.64	23.321
512.98	23.848
513.33	23.287
513.67	22.519
514.02	22.078
514.36	22.720
514.70	23.188
515.05	22.532
515.39	23.444
515.74	22.579
516.08	22.862
516.42	22.697
516.77	23.077
517.11	21.976
517.46	23.138
517.80	23.810
518.14	22.525
518.49	23.337
518.83	23.068
519.17	23.095
519.52	22.694
519.86	23.331
520.20	23.237
520.55	23.399
520.89	23.601
521.23	24.005
521.58	24.310
521.92	23.454
522.26	22.148
522.61	23.240
522.95	23.082
523.29	23.494
523.64	23.171
523.98	23.105
524.32	23.764
524.66	24.173
525.01	23.346
525.35	22.615
525.69	23.276
526.04	23.676
526.38	22.270
526.72	22.209
527.06	23.101
527.41	22.277
527.75	22.637
528.09	23.186
528.43	23.773
528.78	23.786
529.12	21.636
529.46	22.841
529.80	22.649
530.15	23.676
530.49	22.585
530.83	23.608
531.17	24.086
531.51	23.800
531.86	23.548
532.20	23.859
532.54	23.254
532.88	23.556
533.22	21.861
533.57	22.222
533.91	22.757
534.25	22.236
534.59	22.026
534.93	21.118
535.27	21.907
535.62	22.344
535.96	23.854
536.30	22.187
536.64	23.181
536.98	22.628
537.32	22.844
537.66	22.733
538.01	22.515
538.35	22.560
538.69	22.591
539.03	22.677
539.37	22.045
539.71	21.257
540.05	22.026
540.39	22.458
540.73	21.216
541.07	22.648
541.42	22.440
541.76	23.613
542.10	22.639
542.44	21.391
542.78	22.859
543.12	21.625
543.46	22.361
543.80	22.511
544.14	21.117
544.48	22.984
544.82	21.681
545.16	21.470
545.50	21.787
545.84	23.185
546.18	22.222
546.52	22.643
546.86	21.512
547.20	23.129
547.54	21.109
547.88	22.449
548.22	21.731
548.56	22.201
548.90	21.383
549.24	21.616
549.58	22.510
549.92	21.978
550.26	23.011
550.60	22.337
550.94	21.761
551.28	22.165
551.62	22.286
551.96	22.105
552.30	21.775
552.64	22.380
552.98	22.305
553.32	22.387
553.66	22.904
554.00	23.061
554.34	22.498
554.68	23.104
555.02	21.791
555.36	22.129
555.69	21.989
556.03	22.275
556.37	21.214
556.71	20.805
557.05	22.059
557.39	21.833
557.73	21.807
558.07	22.190
558.41	21.563
558.75	22.263
559.08	22.371
559.42	22.449
559.76	22.426
560.10	21.770
560.44	20.964
560.78	21.690
561.12	21.306
561.45	22.099
561.79	20.699
562.13	21.328
562.47	21.311
562.81	21.757
563.15	20.736
563.48	20.756
563.82	21.918
564.16	21.125
564.50	20.182
564.84	21.049
565.17	20.849
565.51	21.214
565.85	21.129
566.19	20.789
566.52	20.456
566.86	19.831
567.20	20.755
567.54	20.662
567.88	19.663
568.21	20.476
568.55	19.110
568.89	19.115
569.23	17.736
569.56	17.895
569.90	17.736
570.24	17.510
570.57	17.137
570.91	17.065
571.25	16.615
571.59	17.231
571.92	16.475
572.26	16.869
572.60	17.297
572.93	16.672
573.27	16.800
573.61	16.443
573.95	16.615
574.28	15.930
574.62	15.986
574.96	15.221
575.29	15.786
575.63	15.879
575.97	16.064
576.30	16.543
576.64	15.896
576.98	15.654
577.31	15.411
577.65	15.722
577.98	15.078
578.32	15.131
578.66	15.472
578.99	15.681
579.33	15.589
579.67	15.787
580.00	15.584
580.34	15.733
580.67	15.930
581.01	15.561
581.35	15.095
581.68	14.878
582.02	14.693
582.35	14.738
582.69	14.648
583.02	15.526
583.36	15.425
583.70	15.759
584.03	16.014
584.37	15.995
584.70	16.118
585.04	15.362
585.37	15.680
585.71	15.461
586.04	15.777
586.38	15.883
586.72	16.239
587.05	15.376
587.39	15.488
587.72	15.563
588.06	15.715
588.39	15.830
588.73	16.398
589.06	16.703
589.40	16.970
589.73	16.614
590.07	16.940
590.40	16.880
590.73	17.252
591.07	17.298
591.40	17.419
591.74	18.182
592.07	16.928
592.41	17.363
592.74	16.667
593.08	16.156
593.41	16.102
593.75	15.553
594.08	16.024
594.41	16.189
594.75	16.414
595.08	16.321
595.42	16.637
595.75	16.417
596.09	16.973
596.42	17.053
596.75	17.349
597.09	17.749
597.42	16.568
597.75	17.335
598.09	17.217
598.42	17.741
598.76	16.579
599.09	16.268
599.42	15.939
599.76	16.325
600.09	15.883
600.42	15.924
600.76	16.107
601.09	16.284
601.42	16.743
601.76	17.040
602.09	17.352
602.42	17.277
602.76	16.848
603.09	16.680
603.42	16.986
603.76	16.311
604.09	15.936
604.42	16.714
604.76	17.166
605.09	16.907
605.42	16.930
605.75	16.267
606.09	16.470
606.42	16.387
606.75	16.757
607.09	16.702
607.42	16.731
607.75	16.203
608.08	16.934
608.42	17.078
608.75	16.772
609.08	16.883
609.41	17.420
609.75	17.008
610.08	17.154
610.41	16.993
610.74	17.360
611.07	17.836
611.41	16.928
611.74	18.200
612.07	18.116
612.40	18.468
612.73	17.263
613.07	19.450
613.40	18.905
613.73	17.305
614.06	17.419
614.39	18.825
614.72	17.842
615.06	17.069
615.39	16.773
615.72	17.280
616.05	17.491
616.38	17.732
616.71	18.468
617.05	18.669
617.38	17.679
617.71	17.778
618.04	18.630
618.37	18.451
618.70	19.042
619.03	19.342
619.36	19.688
619.69	19.296
620.03	20.536
620.36	19.385
620.69	19.315
621.02	20.501
621.35	20.673
621.68	18.536
622.01	19.659
622.34	20.121
622.67	19.696
623.00	19.222
623.33	19.014
623.66	18.656
623.99	18.704
624.32	19.401
624.65	18.715
624.99	19.476
625.32	18.175
625.65	19.985
625.98	20.446
626.31	20.995
626.64	21.388
626.97	22.111
627.30	19.202
627.63	20.098
627.96	22.456
628.29	20.822
628.62	21.409
628.95	21.981
629.28	21.715
629.61	20.348
629.94	22.381
630.26	21.830
630.59	22.688
