SpectraSuite Data File
++++++++++++++++++++++++++++++++++++
Date: Wed May 13 19:57:25 PDT 2015
User: schluterlab
Dark Spectrum Present: Yes
Reference Spectrum Present: Yes
Number of Sampled Component Spectra: 1
Spectrometers: USB2E3373
Integration Time (usec): 3000 (USB2E3373)
Spectra Averaged: 3 (USB2E3373)
Boxcar Smoothing: 0 (USB2E3373)
Correct for Electrical Dark: No (USB2E3373)
Strobe/Lamp Enabled: No (USB2E3373)
Correct for Detector Non-linearity: No (USB2E3373)
Correct for Stray Light: No (USB2E3373)
Number of Pixels in Processed Spectrum: 2048
>>>>>Begin Processed Spectral Data<<<<<
178.53	0.000
178.91	-1425.000
179.29	-1375.000
179.67	-227.778
180.04	-1275.000
180.42	2850.000
180.80	1080.000
181.18	-1000.000
181.56	685.714
181.94	0.000
182.31	-614.286
182.69	1300.000
183.07	-512.500
183.45	-522.222
183.83	600.000
184.20	-510.000
184.58	2350.000
184.96	6600.000
185.34	-920.000
185.72	-462.500
186.09	-1800.000
186.47	2650.000
186.85	2000.000
187.23	3800.000
187.61	-1733.333
187.98	1450.000
188.36	500.000
188.74	518.182
189.12	-980.000
189.49	570.000
189.87	-4800.000
190.25	-1175.000
190.63	392.857
191.00	400.000
191.38	733.333
191.76	-1300.000
192.14	1225.000
192.51	675.000
192.89	983.333
193.27	512.500
193.65	-1225.000
194.02	540.000
194.40	980.000
194.78	480.000
195.15	491.667
195.53	660.000
195.91	-1900.000
196.29	343.750
196.66	331.579
197.04	-310.000
197.42	0.000
197.79	590.000
198.17	-4300.000
198.55	657.143
198.92	662.500
199.30	1020.000
199.68	0.000
200.05	366.667
200.43	785.714
200.81	4200.000
201.18	1700.000
201.56	-1566.667
201.94	555.556
202.31	544.444
202.69	500.000
203.07	540.000
203.44	0.000
203.82	1125.000
204.19	700.000
204.57	464.286
204.95	625.000
205.32	1800.000
205.70	527.273
206.08	421.429
206.45	2700.000
206.83	362.500
207.20	933.333
207.58	800.000
207.96	350.000
208.33	737.500
208.71	-750.000
209.08	785.714
209.46	577.778
209.84	436.364
210.21	-1533.333
210.59	1550.000
210.96	-437.500
211.34	2350.000
211.71	650.000
212.09	666.667
212.46	0.000
212.84	1666.667
213.22	1450.000
213.59	-4000.000
213.97	833.333
214.34	857.143
214.72	645.455
215.09	860.000
215.47	-3000.000
215.84	-2750.000
216.22	1533.333
216.59	357.143
216.97	1450.000
217.34	490.909
217.72	-750.000
218.09	0.000
218.47	-4900.000
218.84	666.667
219.22	685.714
219.59	1700.000
219.97	-628.571
220.34	860.000
220.72	-1700.000
221.09	378.571
221.47	1475.000
221.84	-883.333
222.22	0.000
222.59	1525.000
222.97	-2100.000
223.34	1320.000
223.72	392.308
224.09	1220.000
224.46	2500.000
224.84	-4200.000
225.21	-840.000
225.59	-4700.000
225.96	700.000
226.34	280.000
226.71	2550.000
227.08	662.500
227.46	440.000
227.83	-1075.000
228.21	-2250.000
228.58	633.333
228.95	-2450.000
229.33	-2300.000
229.70	1633.333
230.08	814.286
230.45	-780.000
230.82	491.667
231.20	850.000
231.57	814.286
231.95	450.000
232.32	231.818
232.69	354.545
233.07	600.000
233.44	323.077
233.81	-1533.333
234.19	231.579
234.56	450.000
234.93	341.667
235.31	545.455
235.68	384.615
236.05	321.429
236.43	175.758
236.80	215.789
237.17	3100.000
237.55	223.810
237.92	160.714
238.29	228.571
238.67	145.161
239.04	175.862
239.41	116.667
239.79	102.174
240.16	116.667
240.53	100.000
240.91	96.078
241.28	104.000
241.65	84.000
242.02	81.159
242.40	82.258
242.77	95.000
243.14	69.892
243.51	68.539
243.89	68.235
244.26	43.333
244.63	54.839
245.00	51.064
245.38	48.515
245.75	40.187
246.12	42.202
246.49	47.445
246.87	55.200
247.24	39.231
247.61	39.286
247.98	39.869
248.36	31.081
248.73	31.847
249.10	37.580
249.47	21.469
249.84	36.364
250.22	29.412
250.59	29.586
250.96	31.313
251.33	24.171
251.70	28.713
252.08	25.714
252.45	26.457
252.82	23.478
253.19	25.957
253.56	23.922
253.94	22.407
254.31	25.781
254.68	21.538
255.05	22.140
255.42	21.138
255.79	18.750
256.16	25.632
256.54	15.194
256.91	22.420
257.28	15.468
257.65	18.812
258.02	15.839
258.39	15.142
258.76	18.060
259.14	18.155
259.51	18.845
259.88	14.596
260.25	17.825
260.62	15.318
260.99	15.839
261.36	18.619
261.73	16.046
262.10	13.372
262.47	15.775
262.85	13.928
263.22	13.960
263.59	19.658
263.96	12.912
264.33	15.144
264.70	15.526
265.07	14.322
265.44	16.162
265.81	13.869
266.18	14.070
266.55	14.146
266.92	14.496
267.29	17.593
267.66	12.844
268.03	14.091
268.40	13.551
268.77	13.604
269.14	12.162
269.51	16.253
269.88	12.821
270.25	12.867
270.62	13.483
270.99	14.409
271.36	14.163
271.73	13.084
272.10	13.696
272.47	11.613
272.84	15.584
273.21	14.465
273.58	12.009
273.95	11.950
274.32	10.950
274.69	11.991
275.06	12.205
275.43	14.043
275.80	9.820
276.17	11.609
276.54	14.969
276.91	13.834
277.28	11.133
277.65	11.412
278.02	9.524
278.39	13.672
278.76	12.182
279.13	12.642
279.50	11.732
279.87	12.550
280.23	11.377
280.60	10.445
280.97	8.872
281.34	13.628
281.71	13.455
282.08	12.860
282.45	10.000
282.82	11.901
283.19	9.626
283.56	10.351
283.92	12.183
284.29	11.464
284.66	9.256
285.03	9.584
285.40	10.387
285.77	11.279
286.14	10.017
286.51	11.667
286.87	11.966
287.24	10.586
287.61	9.470
287.98	10.714
288.35	10.618
288.72	9.813
289.08	10.329
289.45	11.203
289.82	9.756
290.19	7.378
290.56	10.567
290.93	7.855
291.29	8.742
291.66	9.292
292.03	11.483
292.40	9.251
292.77	9.320
293.13	8.806
293.50	9.475
293.87	9.185
294.24	8.593
294.60	7.132
294.97	7.849
295.34	10.296
295.71	8.949
296.08	9.259
296.44	9.629
296.81	8.983
297.18	9.621
297.55	5.805
297.91	6.860
298.28	9.906
298.65	9.269
299.02	8.169
299.38	7.304
299.75	6.469
300.12	8.557
300.48	7.500
300.85	8.631
301.22	8.025
301.59	7.071
301.95	8.816
302.32	8.216
302.69	7.049
303.05	8.000
303.42	7.901
303.79	8.041
304.15	6.760
304.52	6.605
304.89	7.666
305.25	8.469
305.62	7.701
305.99	7.084
306.35	7.942
306.72	7.399
307.09	7.769
307.45	7.658
307.82	5.804
308.19	7.395
308.55	7.983
308.92	6.015
309.29	7.392
309.65	6.469
310.02	7.400
310.38	6.452
310.75	7.286
311.12	8.086
311.48	7.732
311.85	7.233
312.22	6.764
312.58	8.108
312.95	7.709
313.31	7.184
313.68	8.004
314.05	9.172
314.41	7.940
314.78	7.150
315.14	7.746
315.51	8.754
315.87	8.218
316.24	8.143
316.61	8.187
316.97	9.198
317.34	7.534
317.70	9.273
318.07	9.240
318.43	8.219
318.80	9.841
319.16	8.945
319.53	9.475
319.89	9.714
320.26	10.900
320.62	10.516
320.99	11.010
321.35	9.899
321.72	11.602
322.08	12.043
322.45	11.940
322.81	12.791
323.18	11.464
323.54	13.173
323.91	12.736
324.27	12.046
324.64	11.370
325.00	12.714
325.37	14.013
325.73	13.375
326.10	13.063
326.46	12.366
326.83	14.064
327.19	14.518
327.56	14.721
327.92	15.136
328.29	15.173
328.65	15.009
329.01	15.072
329.38	15.449
329.74	14.681
330.11	16.023
330.47	16.070
330.84	16.912
331.20	15.574
331.56	17.156
331.93	15.833
332.29	16.504
332.66	15.664
333.02	17.459
333.38	17.615
333.75	17.023
334.11	17.705
334.48	16.859
334.84	17.279
335.20	17.636
335.57	17.044
335.93	15.625
336.29	17.308
336.66	17.042
337.02	16.109
337.38	17.870
337.75	17.469
338.11	18.263
338.47	17.772
338.84	19.523
339.20	16.697
339.56	17.701
339.93	17.636
340.29	17.029
340.65	16.399
341.02	17.801
341.38	17.171
341.74	16.667
342.11	17.729
342.47	16.916
342.83	16.096
343.20	18.182
343.56	17.776
343.92	16.754
344.28	18.197
344.65	17.885
345.01	17.593
345.37	16.038
345.73	17.851
346.10	17.562
346.46	18.220
346.82	17.792
347.19	16.959
347.55	17.570
347.91	18.285
348.27	18.077
348.63	18.395
349.00	17.718
349.36	17.570
349.72	16.600
350.08	17.261
350.45	17.331
350.81	17.872
351.17	17.342
351.53	17.609
351.89	16.997
352.26	17.522
352.62	18.043
352.98	17.747
353.34	17.831
353.70	17.021
354.07	18.548
354.43	17.302
354.79	17.297
355.15	17.638
355.51	18.545
355.87	16.980
356.24	19.218
356.60	17.241
356.96	17.780
357.32	17.661
357.68	18.425
358.04	17.023
358.40	18.844
358.77	19.092
359.13	17.837
359.49	18.510
359.85	16.905
360.21	18.581
360.57	19.066
360.93	19.385
361.29	17.763
361.66	16.796
362.02	19.478
362.38	18.251
362.74	18.006
363.10	18.431
363.46	18.709
363.82	18.896
364.18	18.135
364.54	19.762
364.90	19.618
365.26	18.897
365.62	18.408
365.98	19.065
366.35	18.481
366.71	19.812
367.07	19.446
367.43	18.868
367.79	20.271
368.15	20.977
368.51	19.186
368.87	19.914
369.23	19.605
369.59	19.986
369.95	19.632
370.31	20.726
370.67	19.783
371.03	20.674
371.39	19.461
371.75	20.809
372.11	20.341
372.47	21.041
372.83	20.389
373.19	19.942
373.55	20.251
373.91	21.060
374.27	20.206
374.63	20.582
374.99	21.398
375.35	20.167
375.71	21.042
376.07	21.879
376.42	21.389
376.78	21.736
377.14	21.235
377.50	21.722
377.86	20.878
378.22	22.061
378.58	20.802
378.94	22.187
379.30	21.374
379.66	22.779
380.02	21.867
380.38	21.736
380.74	22.509
381.09	22.433
381.45	22.250
381.81	22.850
382.17	23.567
382.53	22.013
382.89	22.901
383.25	22.952
383.61	23.854
383.97	23.515
384.32	23.768
384.68	23.048
385.04	22.618
385.40	23.034
385.76	23.342
386.12	23.964
386.48	24.670
386.83	23.669
387.19	24.613
387.55	23.562
387.91	24.123
388.27	23.850
388.62	23.909
388.98	24.386
389.34	24.406
389.70	23.483
390.06	25.475
390.42	24.968
390.77	25.382
391.13	25.080
391.49	25.127
391.85	25.525
392.20	23.975
392.56	24.937
392.92	24.662
393.28	23.964
393.64	25.540
393.99	25.657
394.35	24.690
394.71	25.659
395.07	24.548
395.42	25.093
395.78	25.763
396.14	26.133
396.50	25.752
396.85	26.955
397.21	25.092
397.57	26.224
397.92	25.240
398.28	25.280
398.64	25.926
399.00	25.014
399.35	25.324
399.71	25.116
400.07	25.843
400.42	25.828
400.78	25.814
401.14	25.915
401.49	25.672
401.85	25.832
402.21	25.569
402.57	25.478
402.92	25.914
403.28	25.671
403.63	26.238
403.99	26.051
404.35	25.939
404.70	25.659
405.06	25.451
405.42	25.889
405.77	25.086
406.13	25.169
406.49	24.837
406.84	24.513
407.20	25.000
407.55	25.846
407.91	25.267
408.27	24.952
408.62	24.744
408.98	25.184
409.34	25.523
409.69	26.452
410.05	25.279
410.40	25.076
410.76	24.910
411.11	25.211
411.47	24.728
411.83	25.657
412.18	24.737
412.54	24.782
412.89	25.361
413.25	25.089
413.60	25.757
413.96	25.015
414.31	25.456
414.67	25.919
415.03	24.503
415.38	25.193
415.74	25.659
416.09	26.584
416.45	24.431
416.80	25.578
417.16	26.944
417.51	26.145
417.87	25.177
418.22	25.868
418.58	25.759
418.93	25.369
419.29	24.889
419.64	25.630
420.00	25.915
420.35	25.333
420.71	25.523
421.06	24.821
421.42	24.444
421.77	24.776
422.12	25.267
422.48	24.501
422.83	25.684
423.19	25.525
423.54	24.666
423.90	25.565
424.25	25.740
424.61	25.357
424.96	25.539
425.31	24.751
425.67	24.326
426.02	25.200
426.38	25.824
426.73	24.108
427.09	24.255
427.44	25.244
427.79	24.382
428.15	25.536
428.50	24.927
428.85	25.507
429.21	23.965
429.56	25.298
429.92	25.013
430.27	23.982
430.62	24.629
430.98	24.390
431.33	24.330
431.68	24.084
432.04	24.228
432.39	24.500
432.74	24.716
433.10	24.448
433.45	25.073
433.80	24.002
434.16	25.053
434.51	23.947
434.86	24.572
435.22	24.402
435.57	25.046
435.92	24.166
436.28	23.962
436.63	24.448
436.98	23.812
437.34	24.389
437.69	25.321
438.04	24.227
438.39	23.701
438.75	24.753
439.10	24.637
439.45	24.852
439.81	23.988
440.16	24.224
440.51	24.605
440.86	24.493
441.22	24.194
441.57	24.416
441.92	24.104
442.27	24.112
442.63	23.433
442.98	24.113
443.33	24.348
443.68	24.058
444.03	24.451
444.39	23.174
444.74	23.864
445.09	23.612
445.44	24.221
445.79	23.503
446.15	24.563
446.50	22.994
446.85	23.587
447.20	23.508
447.55	23.674
447.91	23.001
448.26	23.261
448.61	24.308
448.96	24.252
449.31	24.128
449.66	23.635
450.02	23.621
450.37	23.526
450.72	23.407
451.07	23.035
451.42	24.195
451.77	24.662
452.12	23.614
452.47	23.383
452.83	24.417
453.18	23.227
453.53	23.562
453.88	22.504
454.23	23.610
454.58	23.501
454.93	23.649
455.28	23.441
455.63	23.119
455.98	23.690
456.34	23.869
456.69	23.482
457.04	23.653
457.39	22.794
457.74	22.461
458.09	22.427
458.44	22.805
458.79	22.831
459.14	23.307
459.49	21.891
459.84	22.548
460.19	21.921
460.54	21.875
460.89	22.106
461.24	22.587
461.59	22.719
461.94	21.763
462.29	23.027
462.64	22.463
462.99	21.991
463.34	23.733
463.69	22.764
464.04	21.797
464.39	21.971
464.74	22.103
465.09	21.472
465.44	21.994
465.79	21.309
466.14	21.620
466.49	21.746
466.84	21.716
467.19	21.485
467.54	22.625
467.89	21.429
468.24	21.990
468.59	22.405
468.94	21.564
469.29	21.851
469.64	21.821
469.99	22.395
470.34	22.523
470.68	22.270
471.03	21.293
471.38	21.682
471.73	21.452
472.08	20.921
472.43	19.975
472.78	20.737
473.13	21.181
473.48	21.286
473.83	21.037
474.17	20.473
474.52	21.402
474.87	20.432
475.22	20.720
475.57	20.258
475.92	20.181
476.27	20.519
476.61	20.574
476.96	19.516
477.31	19.937
477.66	19.912
478.01	19.707
478.36	20.095
478.70	19.159
479.05	19.968
479.40	19.601
479.75	19.725
480.10	18.887
480.45	18.801
480.79	18.634
481.14	18.640
481.49	19.317
481.84	17.878
482.19	19.128
482.53	18.532
482.88	18.846
483.23	18.505
483.58	19.108
483.92	17.854
484.27	17.081
484.62	18.276
484.97	17.698
485.31	17.671
485.66	17.306
486.01	16.194
486.36	16.146
486.70	16.160
487.05	16.306
487.40	16.420
487.75	16.840
488.09	17.106
488.44	16.711
488.79	17.288
489.13	17.571
489.48	17.537
489.83	17.091
490.17	17.536
490.52	17.272
490.87	17.368
491.22	17.144
491.56	16.856
491.91	17.217
492.26	17.042
492.60	17.235
492.95	16.090
493.30	16.963
493.64	17.266
493.99	16.620
494.34	17.160
494.68	17.079
495.03	17.293
495.37	16.985
495.72	16.326
496.07	16.845
496.41	16.637
496.76	16.007
497.11	16.074
497.45	15.976
497.80	16.267
498.14	16.232
498.49	16.780
498.84	16.635
499.18	16.381
499.53	16.097
499.87	15.377
500.22	15.827
500.56	16.262
500.91	15.913
501.26	15.789
501.60	16.184
501.95	15.582
502.29	16.120
502.64	15.503
502.98	15.475
503.33	15.722
503.67	15.545
504.02	15.482
504.36	15.161
504.71	15.730
505.06	15.855
505.40	15.897
505.75	15.140
506.09	14.917
506.44	15.244
506.78	15.343
507.13	15.346
507.47	15.354
507.82	15.957
508.16	15.096
508.51	14.866
508.85	14.499
509.19	14.643
509.54	15.714
509.88	15.404
510.23	14.447
510.57	15.944
510.92	15.381
511.26	14.645
511.61	15.249
511.95	15.344
512.30	14.634
512.64	15.099
512.98	15.273
513.33	15.685
513.67	14.461
514.02	13.907
514.36	14.910
514.70	14.887
515.05	14.334
515.39	15.367
515.74	15.090
516.08	14.645
516.42	14.983
516.77	14.548
517.11	13.818
517.46	14.786
517.80	14.518
518.14	14.418
518.49	14.586
518.83	14.205
519.17	13.972
519.52	13.922
519.86	13.919
520.20	14.335
520.55	14.423
520.89	13.990
521.23	14.174
521.58	14.226
521.92	14.758
522.26	14.277
522.61	14.330
522.95	13.505
523.29	14.790
523.64	13.963
523.98	14.664
524.32	14.475
524.66	14.432
525.01	14.338
525.35	13.755
525.69	13.300
526.04	14.206
526.38	14.155
526.72	14.785
527.06	14.062
527.41	12.871
527.75	13.633
528.09	13.809
528.43	13.576
528.78	13.891
529.12	12.909
529.46	14.268
529.80	13.490
530.15	13.645
530.49	12.800
530.83	13.861
531.17	14.099
531.51	14.397
531.86	13.419
532.20	14.602
532.54	14.222
532.88	12.965
533.22	13.554
533.57	13.148
533.91	13.004
534.25	13.123
534.59	13.423
534.93	13.325
535.27	12.010
535.62	13.553
535.96	13.559
536.30	12.397
536.64	12.943
536.98	13.271
537.32	12.508
537.66	12.867
538.01	12.772
538.35	12.864
538.69	14.295
539.03	12.541
539.37	12.460
539.71	11.925
540.05	13.464
540.39	13.422
540.73	11.837
541.07	13.173
541.42	13.112
541.76	13.806
542.10	13.389
542.44	12.450
542.78	14.032
543.12	11.772
543.46	13.311
543.80	12.622
544.14	12.259
544.48	13.397
544.82	12.957
545.16	12.947
545.50	12.661
545.84	12.231
546.18	13.131
546.52	12.801
546.86	12.646
547.20	12.947
547.54	12.959
547.88	13.648
548.22	12.765
548.56	12.453
548.90	11.972
549.24	11.313
549.58	12.892
549.92	12.431
550.26	12.571
550.60	12.241
550.94	12.183
551.28	11.339
551.62	12.293
551.96	13.544
552.30	13.311
552.64	12.847
552.98	12.610
553.32	12.340
553.66	13.429
554.00	12.491
554.34	12.353
554.68	13.448
555.02	12.130
555.36	12.526
555.69	11.164
556.03	12.719
556.37	11.664
556.71	11.119
557.05	12.115
557.39	12.806
557.73	12.279
558.07	12.038
558.41	12.156
558.75	12.123
559.08	12.677
559.42	11.640
559.76	12.426
560.10	11.563
560.44	11.810
560.78	11.710
561.12	12.203
561.45	11.995
561.79	12.195
562.13	12.072
562.47	12.227
562.81	11.227
563.15	11.839
563.48	11.141
563.82	12.264
564.16	11.576
564.50	11.003
564.84	11.757
565.17	11.326
565.51	11.629
565.85	11.865
566.19	10.895
566.52	11.970
566.86	10.970
567.20	11.675
567.54	10.845
567.88	10.972
568.21	11.270
568.55	10.870
568.89	10.311
569.23	10.517
569.56	10.243
569.90	10.075
570.24	9.903
570.57	9.487
570.91	9.535
571.25	9.666
571.59	9.779
571.92	9.159
572.26	9.850
572.60	9.459
572.93	9.595
573.27	9.553
573.61	9.324
573.95	9.121
574.28	9.121
574.62	9.354
574.96	8.411
575.29	8.778
575.63	8.943
575.97	9.268
576.30	9.373
576.64	8.744
576.98	8.751
577.31	8.595
577.65	8.903
577.98	8.665
578.32	8.618
578.66	9.182
578.99	8.925
579.33	8.666
579.67	8.757
580.00	8.679
580.34	8.757
580.67	8.863
581.01	8.770
581.35	8.509
581.68	8.667
582.02	8.396
582.35	8.264
582.69	8.698
583.02	8.726
583.36	8.831
583.70	8.691
584.03	8.804
584.37	8.775
584.70	8.804
585.04	8.708
585.37	8.714
585.71	8.717
586.04	8.698
586.38	9.248
586.72	9.141
587.05	8.693
587.39	8.338
587.72	8.632
588.06	8.618
588.39	8.724
588.73	8.800
589.06	8.975
589.40	9.360
589.73	9.011
590.07	9.324
590.40	8.805
590.73	9.290
591.07	9.565
591.40	9.574
591.74	9.654
592.07	9.206
592.41	9.384
592.74	9.213
593.08	8.761
593.41	9.048
593.75	9.275
594.08	8.649
594.41	8.978
594.75	9.205
595.08	9.234
595.42	9.527
595.75	8.903
596.09	9.087
596.42	9.784
596.75	9.835
597.09	9.697
597.42	9.401
597.75	9.314
598.09	9.217
598.42	9.021
598.76	9.080
599.09	9.008
599.42	8.806
599.76	9.517
600.09	8.525
600.42	8.583
600.76	9.036
601.09	8.816
601.42	9.094
601.76	9.032
602.09	8.972
602.42	8.997
602.76	9.754
603.09	9.009
603.42	8.629
603.76	9.527
604.09	8.686
604.42	8.683
604.76	9.532
605.09	9.262
605.42	8.807
605.75	9.603
606.09	8.987
606.42	8.868
606.75	9.623
607.09	9.418
607.42	8.900
607.75	8.987
608.08	8.641
608.42	9.502
608.75	9.558
609.08	9.204
609.41	9.710
609.75	9.528
610.08	9.519
610.41	9.590
610.74	9.319
611.07	9.140
611.41	9.274
611.74	10.256
612.07	9.265
612.40	9.759
612.73	8.789
613.07	9.968
613.40	9.847
613.73	9.177
614.06	9.624
614.39	9.596
614.72	9.368
615.06	9.454
615.39	9.183
615.72	9.765
616.05	9.357
616.38	10.283
616.71	9.561
617.05	10.012
617.38	10.283
617.71	8.889
618.04	9.736
618.37	10.112
618.70	10.454
619.03	10.789
619.36	10.319
619.69	9.930
620.03	10.989
620.36	10.160
620.69	10.548
621.02	10.546
621.35	10.572
621.68	10.514
622.01	10.526
622.34	10.363
622.67	10.646
623.00	9.758
623.33	10.293
623.66	11.079
623.99	9.794
624.32	10.699
624.65	10.593
624.99	10.482
625.32	10.717
625.65	10.518
625.98	10.069
626.31	10.886
626.64	11.184
626.97	10.973
627.30	9.476
627.63	11.239
627.96	11.606
628.29	11.111
628.62	11.619
628.95	12.642
629.28	11.588
629.61	12.741
629.94	10.476
630.26	10.486
630.59	10.963
630.92	11.207
631.25	10.760
631.58	12.012
631.91	11.765
632.24	12.025
632.57	12.907
632.90	11.075
633.23	11.409
633.56	12.881
633.89	12.118
634.22	12.826
634.55	12.544
634.88	11.737
635.20	13.501
635.53	12.651
635.86	12.500
636.19	12.706
