SpectraSuite Data File
++++++++++++++++++++++++++++++++++++
Date: Wed May 13 19:23:23 PDT 2015
User: schluterlab
Dark Spectrum Present: Yes
Reference Spectrum Present: Yes
Number of Sampled Component Spectra: 1
Spectrometers: USB2E3373
Integration Time (usec): 3000 (USB2E3373)
Spectra Averaged: 3 (USB2E3373)
Boxcar Smoothing: 0 (USB2E3373)
Correct for Electrical Dark: No (USB2E3373)
Strobe/Lamp Enabled: No (USB2E3373)
Correct for Detector Non-linearity: No (USB2E3373)
Correct for Stray Light: No (USB2E3373)
Number of Pixels in Processed Spectrum: 2048
>>>>>Begin Processed Spectral Data<<<<<
178.53	0.000
178.91	-1525.000
179.29	-1525.000
179.67	-272.222
180.04	-1525.000
180.42	2700.000
180.80	1080.000
181.18	-975.000
181.56	600.000
181.94	0.000
182.31	-628.571
182.69	1866.667
183.07	-600.000
183.45	-488.889
183.83	636.364
184.20	-500.000
184.58	3000.000
184.96	5700.000
185.34	-880.000
185.72	-600.000
186.09	-2550.000
186.47	3200.000
186.85	2400.000
187.23	5300.000
187.61	-1666.667
187.98	1225.000
188.36	536.364
188.74	509.091
189.12	-1020.000
189.49	720.000
189.87	-5800.000
190.25	-1225.000
190.63	442.857
191.00	415.385
191.38	983.333
191.76	-1150.000
192.14	1725.000
192.51	775.000
192.89	1100.000
193.27	662.500
193.65	-1425.000
194.02	580.000
194.40	1020.000
194.78	650.000
195.15	525.000
195.53	660.000
195.91	-2700.000
196.29	412.500
196.66	336.842
197.04	-390.000
197.42	0.000
197.79	620.000
198.17	-5700.000
198.55	800.000
198.92	787.500
199.30	1100.000
199.68	0.000
200.05	366.667
200.43	1000.000
200.81	4800.000
201.18	1933.333
201.56	-2100.000
201.94	555.556
202.31	788.889
202.69	391.667
203.07	640.000
203.44	0.000
203.82	1375.000
204.19	942.857
204.57	492.857
204.95	637.500
205.32	1833.333
205.70	590.909
206.08	442.857
206.45	2650.000
206.83	400.000
207.20	833.333
207.58	940.000
207.96	327.778
208.33	800.000
208.71	-1000.000
209.08	857.143
209.46	722.222
209.84	472.727
210.21	-1533.333
210.59	1400.000
210.96	-612.500
211.34	2800.000
211.71	590.000
212.09	916.667
212.46	0.000
212.84	1600.000
213.22	1825.000
213.59	-4900.000
213.97	850.000
214.34	1000.000
214.72	654.545
215.09	1120.000
215.47	-3000.000
215.84	-2650.000
216.22	1900.000
216.59	471.429
216.97	1500.000
217.34	518.182
217.72	-916.667
218.09	0.000
218.47	-5600.000
218.84	622.222
219.22	1000.000
219.59	1833.333
219.97	-685.714
220.34	1100.000
220.72	-2000.000
221.09	500.000
221.47	1450.000
221.84	-1000.000
222.22	0.000
222.59	1400.000
222.97	-2900.000
223.34	1140.000
223.72	523.077
224.09	1240.000
224.46	2300.000
224.84	-5300.000
225.21	-1040.000
225.59	-6000.000
225.96	600.000
226.34	315.000
226.71	2750.000
227.08	675.000
227.46	650.000
227.83	-1350.000
228.21	-2550.000
228.58	588.889
228.95	-3250.000
229.33	-3050.000
229.70	2066.667
230.08	785.714
230.45	-980.000
230.82	466.667
231.20	966.667
231.57	814.286
231.95	533.333
232.32	272.727
232.69	481.818
233.07	771.429
233.44	446.154
233.81	-1900.000
234.19	310.526
234.56	541.667
234.93	458.333
235.31	545.455
235.68	323.077
236.05	364.286
236.43	193.939
236.80	363.158
237.17	6000.000
237.55	266.667
237.92	264.286
238.29	290.476
238.67	206.452
239.04	255.172
239.41	202.778
239.79	143.478
240.16	183.333
240.53	170.455
240.91	123.529
241.28	114.000
241.65	142.000
242.02	114.493
242.40	116.129
242.77	126.667
243.14	95.699
243.51	100.000
243.89	95.294
244.26	85.556
244.63	91.398
245.00	87.234
245.38	88.119
245.75	80.374
246.12	79.817
246.49	86.861
246.87	80.000
247.24	75.385
247.61	65.714
247.98	71.242
248.36	67.568
248.73	59.236
249.10	67.516
249.47	67.797
249.84	65.241
250.22	60.428
250.59	61.538
250.96	65.657
251.33	60.664
251.70	67.822
252.08	54.762
252.45	54.709
252.82	56.522
253.19	60.000
253.56	57.647
253.94	59.751
254.31	53.516
254.68	52.692
255.05	51.661
255.42	50.813
255.79	54.044
256.16	55.235
256.54	47.350
256.91	53.381
257.28	48.921
257.65	54.785
258.02	49.379
258.39	45.426
258.76	49.164
259.14	49.405
259.51	44.073
259.88	46.584
260.25	47.130
260.62	46.243
260.99	48.447
261.36	48.348
261.73	48.711
262.10	45.930
262.47	50.986
262.85	47.632
263.22	44.444
263.59	48.433
263.96	44.231
264.33	46.214
264.70	43.947
265.07	43.478
265.44	43.687
265.81	42.822
266.18	46.734
266.55	43.171
266.92	43.980
267.29	43.056
267.66	45.642
268.03	42.045
268.40	42.290
268.77	42.243
269.14	41.441
269.51	43.341
269.88	41.725
270.25	39.955
270.62	41.573
270.99	43.226
271.36	43.562
271.73	42.290
272.10	42.609
272.47	44.301
272.84	41.342
273.21	43.396
273.58	42.358
273.95	40.671
274.32	37.810
274.69	43.041
275.06	38.583
275.43	43.404
275.80	41.283
276.17	40.733
276.54	40.748
276.91	42.885
277.28	41.602
277.65	41.006
278.02	40.166
278.39	40.820
278.76	37.818
279.13	38.491
279.50	40.596
279.87	39.841
280.23	39.521
280.60	39.265
280.97	39.002
281.34	39.469
281.71	39.273
282.08	42.610
282.45	36.545
282.82	38.721
283.19	37.790
283.56	38.246
283.92	39.255
284.29	35.979
284.66	36.479
285.03	38.336
285.40	38.204
285.77	38.047
286.14	38.515
286.51	37.000
286.87	36.239
287.24	38.111
287.61	35.152
287.98	36.201
288.35	34.707
288.72	36.604
289.08	35.681
289.45	37.232
289.82	37.561
290.19	35.479
290.56	34.456
290.93	33.988
291.29	35.276
291.66	32.891
292.03	33.140
292.40	33.627
292.77	31.953
293.13	32.836
293.50	34.840
293.87	34.222
294.24	33.037
294.60	31.732
294.97	33.430
295.34	33.992
295.71	31.250
296.08	30.342
296.44	31.499
296.81	32.365
297.18	31.030
297.55	29.024
297.91	31.003
298.28	31.325
298.65	30.679
299.02	30.435
299.38	29.615
299.75	28.302
300.12	28.736
300.48	28.250
300.85	27.867
301.22	29.299
301.59	27.525
301.95	30.227
302.32	29.910
302.69	28.554
303.05	29.939
303.42	26.790
303.79	29.332
304.15	27.506
304.52	28.158
304.89	27.526
305.25	28.306
305.62	28.766
305.99	28.099
306.35	28.523
306.72	29.821
307.09	28.302
307.45	28.829
307.82	27.455
308.19	27.704
308.55	28.695
308.92	27.712
309.29	27.455
309.65	29.056
310.02	28.647
310.38	27.957
310.75	29.250
311.12	28.250
311.48	28.213
311.85	28.931
312.22	29.136
312.58	28.378
312.95	29.461
313.31	28.155
313.68	30.665
314.05	31.262
314.41	30.452
314.78	29.809
315.14	30.685
315.51	31.514
315.87	31.782
316.24	31.678
316.61	32.651
316.97	32.094
317.34	30.333
317.70	32.983
318.07	32.820
318.43	33.855
318.80	33.177
319.16	33.145
319.53	33.021
319.89	34.857
320.26	35.100
320.62	35.317
320.99	36.667
321.35	36.566
321.72	37.269
322.08	38.697
322.45	39.701
322.81	38.953
323.18	39.595
323.54	40.260
323.91	39.717
324.27	40.631
324.64	40.820
325.00	40.577
325.37	42.220
325.73	43.178
326.10	43.954
326.46	43.728
326.83	44.607
327.19	45.004
327.56	46.341
327.92	46.107
328.29	46.939
328.65	47.882
329.01	48.375
329.38	47.919
329.74	47.738
330.11	49.670
330.47	50.413
330.84	48.989
331.20	50.911
331.56	48.991
331.93	51.204
332.29	48.980
332.66	50.265
333.02	49.634
333.38	50.858
333.75	51.604
334.11	51.957
334.48	49.867
334.84	51.930
335.20	49.636
335.57	51.043
335.93	51.250
336.29	51.282
336.66	53.201
337.02	50.407
337.38	50.833
337.75	50.891
338.11	52.014
338.47	52.855
338.84	52.246
339.20	50.459
339.56	53.832
339.93	52.636
340.29	51.902
340.65	51.783
341.02	53.490
341.38	52.224
341.74	52.632
342.11	53.100
342.47	53.040
342.83	51.541
343.20	52.468
343.56	51.811
343.92	52.281
344.28	51.531
344.65	53.052
345.01	52.525
345.37	50.515
345.73	52.707
346.10	52.515
346.46	53.644
346.82	51.977
347.19	51.713
347.55	52.135
347.91	51.294
348.27	53.492
348.63	52.759
349.00	51.214
349.36	53.120
349.72	52.606
350.08	52.836
350.45	55.004
350.81	53.046
351.17	51.621
351.53	52.007
351.89	52.723
352.26	52.565
352.62	51.965
352.98	53.323
353.34	52.424
353.70	51.309
354.07	52.097
354.43	52.143
354.79	52.051
355.15	52.993
355.51	55.076
355.87	53.959
356.24	54.642
356.60	53.408
356.96	52.132
357.32	53.148
357.68	54.646
358.04	52.019
358.40	52.573
358.77	53.599
359.13	53.986
359.49	53.255
359.85	53.810
360.21	54.386
360.57	55.019
360.93	54.077
361.29	54.800
361.66	54.102
362.02	53.358
362.38	55.057
362.74	54.762
363.10	53.886
363.46	53.338
363.82	55.026
364.18	54.185
364.54	55.126
364.90	55.595
365.26	54.191
365.62	55.442
365.98	53.397
366.35	53.868
366.71	54.591
367.07	54.115
367.43	54.427
367.79	55.817
368.15	56.034
368.51	54.578
368.87	56.388
369.23	55.669
369.59	55.612
369.95	55.294
370.31	55.413
370.67	54.275
371.03	55.655
371.39	55.831
371.75	55.809
372.11	55.263
372.47	57.111
372.83	56.412
373.19	54.697
373.55	58.167
373.91	58.247
374.27	54.570
374.63	56.800
374.99	56.780
375.35	56.595
375.71	56.477
376.07	58.162
376.42	56.740
376.78	56.991
377.14	57.259
377.50	57.550
377.86	56.316
378.22	57.459
378.58	55.702
378.94	56.317
379.30	57.125
379.66	57.424
380.02	57.555
380.38	56.588
380.74	57.923
381.09	57.213
381.45	58.636
381.81	57.494
382.17	58.917
382.53	57.547
382.89	59.383
383.25	58.474
383.61	60.099
383.97	57.098
384.32	58.016
384.68	58.426
385.04	58.697
385.40	58.204
385.76	57.862
386.12	59.909
386.48	59.031
386.83	60.103
387.19	58.503
387.55	59.246
387.91	58.646
388.27	58.369
388.62	59.066
388.98	58.538
389.34	59.011
389.70	59.595
390.06	60.773
390.42	59.144
390.77	60.051
391.13	60.370
391.49	59.454
391.85	59.389
392.20	58.864
392.56	59.596
392.92	58.034
393.28	59.467
393.64	59.592
393.99	57.483
394.35	58.809
394.71	59.159
395.07	59.065
395.42	59.209
395.78	57.824
396.14	58.597
396.50	60.338
396.85	59.886
397.21	59.741
397.57	59.826
397.92	58.774
398.28	58.016
398.64	58.722
399.00	59.317
399.35	58.940
399.71	59.491
400.07	60.319
400.42	60.123
400.78	59.952
401.14	59.207
401.49	59.224
401.85	58.197
402.21	59.042
402.57	59.901
402.92	59.458
403.28	58.588
403.63	59.963
403.99	59.236
404.35	58.788
404.70	58.993
405.06	58.416
405.42	59.451
405.77	58.571
406.13	57.562
406.49	58.368
406.84	57.767
407.20	58.570
407.55	59.221
407.91	59.200
408.27	60.179
408.62	58.579
408.98	58.517
409.34	58.733
409.69	58.258
410.05	58.612
410.40	58.716
410.76	58.244
411.11	57.358
411.47	57.700
411.83	58.705
412.18	57.576
412.54	60.149
412.89	58.735
413.25	57.084
413.60	59.111
413.96	57.741
414.31	58.870
414.67	57.985
415.03	57.881
415.38	57.603
415.74	58.264
416.09	59.634
416.45	58.367
416.80	59.418
417.16	59.517
417.51	59.522
417.87	57.868
418.22	59.243
418.58	58.618
418.93	57.862
419.29	57.798
419.64	58.060
420.00	57.195
420.35	58.783
420.71	59.833
421.06	58.174
421.42	58.655
421.77	57.848
422.12	57.215
422.48	56.287
422.83	58.765
423.19	57.403
423.54	58.445
423.90	57.275
424.25	57.901
424.61	58.274
424.96	58.834
425.31	57.309
425.67	56.517
426.02	57.886
426.38	58.120
426.73	58.338
427.09	58.967
427.44	58.654
427.79	58.654
428.15	58.393
428.50	57.402
428.85	58.462
429.21	58.200
429.56	58.165
429.92	58.027
430.27	57.349
430.62	56.887
430.98	57.862
431.33	57.887
431.68	58.220
432.04	57.082
432.39	59.338
432.74	59.605
433.10	59.819
433.45	59.650
433.80	58.814
434.16	57.906
434.51	58.368
434.86	58.951
435.22	59.255
435.57	60.000
435.92	60.035
436.28	60.439
436.63	59.547
436.98	59.473
437.34	59.928
437.69	59.627
438.04	59.528
438.39	59.164
438.75	60.604
439.10	59.609
439.45	60.213
439.81	60.302
440.16	59.853
440.51	60.691
440.86	61.378
441.22	60.512
441.57	59.820
441.92	60.798
442.27	60.065
442.63	58.978
442.98	60.563
443.33	60.000
443.68	59.577
444.03	61.005
444.39	58.861
444.74	60.444
445.09	61.348
445.44	61.126
445.79	60.416
446.15	60.614
446.50	60.097
446.85	61.048
447.20	59.969
447.55	61.139
447.91	60.563
448.26	61.658
448.61	61.447
448.96	60.465
449.31	61.980
449.66	60.889
450.02	61.616
450.37	61.508
450.72	61.196
451.07	61.182
451.42	61.094
451.77	61.362
452.12	60.739
452.47	61.940
452.83	62.296
453.18	61.002
453.53	62.709
453.88	62.374
454.23	61.984
454.58	61.599
454.93	63.064
455.28	62.344
455.63	62.197
455.98	63.452
456.34	62.249
456.69	61.866
457.04	63.158
457.39	62.244
457.74	60.940
458.09	61.070
458.44	61.460
458.79	60.033
459.14	60.892
459.49	60.887
459.84	60.388
460.19	61.520
460.54	59.838
460.89	63.028
461.24	61.931
461.59	62.580
461.94	59.926
462.29	61.840
462.64	61.455
462.99	60.703
463.34	62.600
463.69	61.851
464.04	61.043
464.39	61.217
464.74	61.735
465.09	61.037
465.44	59.723
465.79	60.067
466.14	59.770
466.49	60.234
466.84	60.479
467.19	61.074
467.54	61.250
467.89	61.104
468.24	60.558
468.59	60.623
468.94	59.071
469.29	62.339
469.64	61.714
469.99	62.788
470.34	60.964
470.68	62.069
471.03	61.156
471.38	62.543
471.73	60.826
472.08	62.632
472.43	59.987
472.78	60.303
473.13	60.462
473.48	60.737
473.83	61.037
474.17	60.299
474.52	61.663
474.87	60.362
475.22	59.605
475.57	59.001
475.92	58.895
476.27	59.414
476.61	59.184
476.96	60.308
477.31	59.445
477.66	59.409
478.01	58.390
478.36	59.016
478.70	58.879
479.05	58.786
479.40	59.980
479.75	59.736
480.10	59.692
480.45	58.591
480.79	58.863
481.14	59.589
481.49	59.136
481.84	58.116
482.19	59.064
482.53	58.578
482.88	59.702
483.23	58.131
483.58	58.326
483.92	59.091
484.27	57.211
484.62	57.974
484.97	56.918
485.31	58.390
485.66	55.752
486.01	53.998
486.36	52.111
486.70	51.739
487.05	52.977
487.40	54.392
487.75	55.066
488.09	56.051
488.44	56.838
488.79	58.047
489.13	58.327
489.48	57.993
489.83	58.092
490.17	57.694
490.52	57.617
490.87	57.711
491.22	56.935
491.56	56.948
491.91	57.329
492.26	57.740
492.60	57.097
492.95	57.063
493.30	56.729
493.64	58.329
493.99	56.917
494.34	56.660
494.68	57.601
495.03	57.895
495.37	56.026
495.72	58.090
496.07	57.262
496.41	55.000
496.76	55.981
497.11	56.416
497.45	56.730
497.80	56.430
498.14	55.990
498.49	56.537
498.84	56.616
499.18	55.619
499.53	56.410
499.87	55.638
500.22	55.911
500.56	56.408
500.91	56.635
501.26	56.093
501.60	57.285
501.95	55.087
502.29	56.420
502.64	56.331
502.98	56.335
503.33	55.393
503.67	54.756
504.02	55.239
504.36	53.954
504.71	56.033
505.06	55.855
505.40	54.837
505.75	54.291
506.09	54.859
506.44	55.007
506.78	56.405
507.13	56.335
507.47	55.909
507.82	56.383
508.16	55.623
508.51	55.251
508.85	55.015
509.19	56.071
509.54	56.173
509.88	55.126
510.23	55.219
510.57	56.605
510.92	55.308
511.26	54.830
511.61	56.017
511.95	53.967
512.30	54.348
512.64	55.024
512.98	55.145
513.33	54.872
513.67	53.842
514.02	54.113
514.36	55.926
514.70	55.506
515.05	54.099
515.39	55.188
515.74	54.955
516.08	55.003
516.42	55.161
516.77	55.351
517.11	54.939
517.46	55.474
517.80	55.981
518.14	52.808
518.49	55.134
518.83	54.148
519.17	53.926
519.52	54.839
519.86	54.706
520.20	54.913
520.55	55.236
520.89	55.596
521.23	54.946
521.58	54.742
521.92	55.113
522.26	53.325
522.61	54.143
522.95	53.346
523.29	54.413
523.64	55.305
523.98	54.775
524.32	54.644
524.66	54.179
525.01	53.738
525.35	52.912
525.69	53.448
526.04	53.146
526.38	53.691
526.72	53.374
527.06	54.112
527.41	51.547
527.75	54.148
528.09	54.656
528.43	54.493
528.78	54.210
529.12	51.879
529.46	53.460
529.80	53.527
530.15	52.773
530.49	52.000
530.83	53.924
531.17	53.133
531.51	54.799
531.86	53.097
532.20	54.824
532.54	53.684
532.88	52.696
533.22	52.405
533.57	50.802
533.91	52.137
534.25	51.762
534.59	51.312
534.93	50.982
535.27	51.961
535.62	52.076
535.96	51.601
536.30	50.858
536.64	52.157
536.98	52.555
537.32	52.205
537.66	50.400
538.01	51.547
538.35	52.489
538.69	51.436
539.03	52.177
539.37	49.712
539.71	50.292
540.05	51.961
540.39	51.030
540.73	50.712
541.07	52.239
541.42	50.033
541.76	51.806
542.10	50.453
542.44	50.927
542.78	52.503
543.12	49.456
543.46	50.951
543.80	51.139
544.14	49.743
544.48	49.905
544.82	49.711
545.16	49.967
545.50	49.936
545.84	50.403
546.18	50.370
546.52	50.654
546.86	50.172
547.20	50.169
547.54	50.568
547.88	50.000
548.22	48.692
548.56	49.497
548.90	48.656
549.24	49.832
549.58	50.000
549.92	49.313
550.26	50.852
550.60	50.415
550.94	50.070
551.28	48.647
551.62	49.605
551.96	48.772
552.30	50.102
552.64	49.358
552.98	51.322
553.32	48.753
553.66	49.489
554.00	49.005
554.34	47.757
554.68	49.428
555.02	48.872
555.36	48.643
555.69	47.632
556.03	47.174
556.37	47.885
556.71	47.817
557.05	48.810
557.39	47.656
557.73	48.553
558.07	49.674
558.41	47.902
558.75	48.420
559.08	49.068
559.42	49.584
559.76	48.897
560.10	47.823
560.44	48.567
560.78	46.440
561.12	46.834
561.45	48.631
561.79	47.198
562.13	47.686
562.47	46.790
562.81	48.187
563.15	46.756
563.48	47.546
563.82	46.967
564.16	48.136
564.50	47.070
564.84	46.903
565.17	46.911
565.51	47.284
565.85	46.827
566.19	45.585
566.52	46.675
566.86	45.148
567.20	47.229
567.54	46.347
567.88	44.378
568.21	44.974
568.55	43.883
568.89	44.261
569.23	43.093
569.56	42.874
569.90	43.019
570.24	42.626
570.57	41.516
570.91	40.659
571.25	41.013
571.59	41.915
571.92	40.870
572.26	41.306
572.60	40.781
572.93	40.570
573.27	40.994
573.61	40.676
573.95	40.568
574.28	40.201
574.62	39.723
574.96	39.618
575.29	39.040
575.63	40.346
575.97	40.146
576.30	39.671
576.64	39.929
576.98	39.353
577.31	39.695
577.65	39.544
577.98	39.566
578.32	38.721
578.66	38.973
578.99	39.443
579.33	38.998
579.67	38.944
580.00	39.655
580.34	39.748
580.67	39.754
581.01	39.465
581.35	39.108
581.68	38.981
582.02	38.342
582.35	38.101
582.69	38.412
583.02	38.816
583.36	39.359
583.70	39.835
584.03	39.525
584.37	40.158
584.70	39.943
585.04	38.943
585.37	38.537
585.71	39.356
586.04	39.043
586.38	39.969
586.72	39.989
587.05	39.310
587.39	38.391
587.72	38.804
588.06	39.301
588.39	38.546
588.73	39.865
589.06	40.231
589.40	40.202
589.73	40.092
590.07	40.320
590.40	39.971
590.73	41.023
591.07	41.595
591.40	41.038
591.74	41.991
592.07	40.271
592.41	40.967
592.74	39.663
593.08	39.207
593.41	38.975
593.75	38.257
594.08	38.217
594.41	39.307
594.75	39.778
595.08	40.193
595.42	39.299
595.75	39.601
596.09	39.805
596.42	40.354
596.75	40.650
597.09	40.736
597.42	39.376
597.75	39.974
598.09	41.043
598.42	39.648
598.76	39.278
599.09	38.769
599.42	38.574
599.76	39.495
600.09	37.559
600.42	38.934
600.76	37.964
601.09	39.271
601.42	38.128
601.76	39.279
602.09	38.854
602.42	40.406
602.76	39.541
603.09	39.300
603.42	39.828
603.76	39.062
604.09	38.465
604.42	40.196
604.76	39.772
605.09	39.275
605.42	39.803
605.75	38.700
606.09	39.488
606.42	39.313
606.75	38.822
607.09	38.677
607.42	39.324
607.75	38.017
608.08	39.904
608.42	39.937
608.75	39.044
609.08	38.483
609.41	39.362
609.75	39.209
610.08	40.009
610.41	39.385
610.74	39.877
611.07	40.860
611.41	39.941
611.74	40.422
612.07	40.787
612.40	40.714
612.73	40.368
613.07	39.709
613.40	40.126
613.73	39.801
614.06	39.301
614.39	39.539
614.72	38.421
615.06	39.233
615.39	38.907
615.72	38.753
616.05	39.288
616.38	39.967
616.71	40.677
617.05	39.399
617.38	39.387
617.71	40.541
618.04	40.865
618.37	40.095
618.70	40.884
619.03	41.053
619.36	41.141
619.69	41.338
620.03	42.102
620.36	41.444
620.69	41.644
621.02	41.814
621.35	42.678
621.68	40.498
622.01	41.641
622.34	42.057
622.67	41.293
623.00	41.233
623.33	40.672
623.66	41.172
623.99	41.605
624.32	40.086
624.65	41.172
624.99	39.589
625.32	40.406
625.65	41.172
625.98	42.967
626.31	42.302
626.64	42.041
626.97	41.895
627.30	41.397
627.63	43.068
627.96	41.716
628.29	42.432
628.62	43.367
628.95	43.868
629.28	41.423
629.61	43.538
629.94	43.143
630.26	42.421
630.59	43.661
