SpectraSuite Data File
++++++++++++++++++++++++++++++++++++
Date: Wed May 13 19:12:32 PDT 2015
User: schluterlab
Dark Spectrum Present: Yes
Reference Spectrum Present: Yes
Number of Sampled Component Spectra: 1
Spectrometers: USB2E3373
Integration Time (usec): 3000 (USB2E3373)
Spectra Averaged: 3 (USB2E3373)
Boxcar Smoothing: 0 (USB2E3373)
Correct for Electrical Dark: No (USB2E3373)
Strobe/Lamp Enabled: No (USB2E3373)
Correct for Detector Non-linearity: No (USB2E3373)
Correct for Stray Light: No (USB2E3373)
Number of Pixels in Processed Spectrum: 2048
>>>>>Begin Processed Spectral Data<<<<<
178.53	0.000
178.91	-1475.000
179.29	-1500.000
179.67	-277.778
180.04	-1050.000
180.42	3000.000
180.80	1220.000
181.18	-1350.000
181.56	800.000
181.94	0.000
182.31	-628.571
182.69	1733.333
183.07	-600.000
183.45	-677.778
183.83	572.727
184.20	-510.000
184.58	2150.000
184.96	6100.000
185.34	-1080.000
185.72	-637.500
186.09	-2750.000
186.47	2700.000
186.85	2800.000
187.23	4300.000
187.61	-2000.000
187.98	1625.000
188.36	609.091
188.74	636.364
189.12	-1040.000
189.49	570.000
189.87	-4800.000
190.25	-1400.000
190.63	471.429
191.00	492.308
191.38	1083.333
191.76	-1275.000
192.14	1700.000
192.51	637.500
192.89	1083.333
193.27	650.000
193.65	-1350.000
194.02	550.000
194.40	1140.000
194.78	580.000
195.15	616.667
195.53	710.000
195.91	-2600.000
196.29	375.000
196.66	363.158
197.04	-390.000
197.42	0.000
197.79	620.000
198.17	-5000.000
198.55	800.000
198.92	800.000
199.30	1040.000
199.68	0.000
200.05	366.667
200.43	900.000
200.81	4800.000
201.18	1933.333
201.56	-2066.667
201.94	600.000
202.31	688.889
202.69	550.000
203.07	610.000
203.44	0.000
203.82	1250.000
204.19	828.571
204.57	492.857
204.95	675.000
205.32	1866.667
205.70	581.818
206.08	392.857
206.45	3150.000
206.83	393.750
207.20	916.667
207.58	1060.000
207.96	372.222
208.33	750.000
208.71	-983.333
209.08	1014.286
209.46	711.111
209.84	490.909
210.21	-1833.333
210.59	1675.000
210.96	-512.500
211.34	3100.000
211.71	550.000
212.09	816.667
212.46	0.000
212.84	2066.667
213.22	1525.000
213.59	-5500.000
213.97	966.667
214.34	942.857
214.72	645.455
215.09	1260.000
215.47	-2650.000
215.84	-3150.000
216.22	1833.333
216.59	485.714
216.97	1500.000
217.34	563.636
217.72	-866.667
218.09	0.000
218.47	-5800.000
218.84	733.333
219.22	842.857
219.59	1866.667
219.97	-628.571
220.34	1020.000
220.72	-1900.000
221.09	450.000
221.47	1350.000
221.84	-1000.000
222.22	0.000
222.59	1525.000
222.97	-3250.000
223.34	1260.000
223.72	446.154
224.09	1280.000
224.46	2550.000
224.84	-6100.000
225.21	-1140.000
225.59	-5700.000
225.96	720.000
226.34	330.000
226.71	3450.000
227.08	687.500
227.46	590.000
227.83	-875.000
228.21	-2500.000
228.58	666.667
228.95	-2650.000
229.33	-3000.000
229.70	2000.000
230.08	828.571
230.45	-900.000
230.82	491.667
231.20	866.667
231.57	614.286
231.95	558.333
232.32	300.000
232.69	545.455
233.07	742.857
233.44	500.000
233.81	-1900.000
234.19	326.316
234.56	516.667
234.93	475.000
235.31	536.364
235.68	392.308
236.05	421.429
236.43	193.939
236.80	368.421
237.17	5200.000
237.55	295.238
237.92	271.429
238.29	347.619
238.67	206.452
239.04	220.690
239.41	197.222
239.79	160.870
240.16	145.238
240.53	152.273
240.91	125.490
241.28	140.000
241.65	128.000
242.02	105.797
242.40	125.806
242.77	130.000
243.14	100.000
243.51	101.124
243.89	95.294
244.26	94.444
244.63	93.548
245.00	94.681
245.38	94.059
245.75	83.178
246.12	81.651
246.49	87.591
246.87	88.000
247.24	82.308
247.61	72.143
247.98	62.092
248.36	70.270
248.73	75.159
249.10	67.516
249.47	66.667
249.84	70.053
250.22	63.102
250.59	68.639
250.96	62.626
251.33	60.664
251.70	65.842
252.08	60.952
252.45	54.709
252.82	62.174
253.19	58.723
253.56	54.902
253.94	58.091
254.31	57.031
254.68	56.923
255.05	53.875
255.42	59.756
255.79	57.721
256.16	57.401
256.54	53.710
256.91	56.584
257.28	49.640
257.65	52.805
258.02	48.758
258.39	50.789
258.76	49.498
259.14	50.298
259.51	50.760
259.88	48.137
260.25	51.964
260.62	51.445
260.99	49.068
261.36	50.150
261.73	49.570
262.10	49.709
262.47	47.606
262.85	46.240
263.22	48.433
263.59	48.433
263.96	48.626
264.33	45.170
264.70	46.579
265.07	47.059
265.44	44.192
265.81	44.039
266.18	48.995
266.55	46.829
266.92	47.174
267.29	46.296
267.66	44.037
268.03	44.545
268.40	45.794
268.77	45.107
269.14	43.919
269.51	46.050
269.88	45.688
270.25	44.470
270.62	44.944
270.99	46.237
271.36	44.635
271.73	42.290
272.10	43.696
272.47	46.237
272.84	44.805
273.21	43.606
273.58	43.668
273.95	43.396
274.32	41.736
274.69	45.182
275.06	41.535
275.43	46.170
275.80	42.685
276.17	41.955
276.54	44.283
276.91	43.281
277.28	39.844
277.65	41.973
278.02	40.787
278.39	42.578
278.76	38.909
279.13	43.208
279.50	40.782
279.87	42.231
280.23	41.717
280.60	42.166
280.97	40.850
281.34	41.593
281.71	40.545
282.08	42.610
282.45	39.273
282.82	38.544
283.19	38.146
283.56	40.877
283.92	40.609
284.29	39.153
284.66	40.653
285.03	38.879
285.40	38.908
285.77	39.226
286.14	39.206
286.51	39.167
286.87	39.145
287.24	40.717
287.61	39.807
287.98	37.500
288.35	37.084
288.72	36.449
289.08	36.933
289.45	36.409
289.82	37.236
290.19	37.049
290.56	34.916
290.93	33.535
291.29	35.736
291.66	34.218
292.03	36.628
292.40	34.508
292.77	33.580
293.13	33.284
293.50	32.507
293.87	33.926
294.24	33.630
294.60	31.732
294.97	33.576
295.34	33.568
295.71	34.091
296.08	32.194
296.44	32.187
296.81	31.572
297.18	33.604
297.55	29.815
297.91	30.739
298.28	30.522
298.65	30.940
299.02	30.830
299.38	30.279
299.75	28.976
300.12	29.885
300.48	28.625
300.85	29.963
301.22	29.682
301.59	30.303
301.95	29.219
302.32	29.140
302.69	28.435
303.05	29.455
303.42	28.395
303.79	28.652
304.15	28.438
304.52	27.578
304.89	29.036
305.25	27.262
305.62	27.746
305.99	29.044
306.35	26.063
306.72	28.027
307.09	29.190
307.45	29.167
307.82	26.451
308.19	28.035
308.55	29.234
308.92	28.034
309.29	27.350
309.65	26.935
310.02	27.167
310.38	26.452
310.75	27.561
311.12	27.226
311.48	27.586
311.85	27.358
312.22	27.575
312.58	27.235
312.95	28.511
313.31	26.117
313.68	27.859
314.05	29.684
314.41	28.040
314.78	28.499
315.14	27.607
315.51	27.703
315.87	28.614
316.24	27.706
316.61	26.608
316.97	27.789
317.34	26.223
317.70	28.489
318.07	28.970
318.43	29.159
318.80	29.616
319.16	28.531
319.53	29.174
319.89	29.333
320.26	28.900
320.62	30.357
320.99	31.717
321.35	29.899
321.72	32.752
322.08	30.997
322.45	31.443
322.81	29.748
323.18	30.443
323.54	30.148
323.91	31.792
324.27	31.453
324.64	30.475
325.00	31.921
325.37	32.484
325.73	33.034
326.10	31.862
326.46	32.258
326.83	33.563
327.19	32.109
327.56	33.188
327.92	32.633
328.29	33.984
328.65	34.715
329.01	33.032
329.38	34.690
329.74	34.257
330.11	33.553
330.47	33.150
330.84	34.283
331.20	34.153
331.56	35.413
331.93	34.444
332.29	34.783
332.66	35.664
333.02	33.455
333.38	36.043
333.75	35.829
334.11	34.698
334.48	34.428
334.84	33.824
335.20	36.091
335.57	33.817
335.93	34.196
336.29	33.700
336.66	34.986
337.02	34.570
337.38	34.815
337.75	33.957
338.11	35.184
338.47	34.530
338.84	36.205
339.20	34.495
339.56	36.040
339.93	34.455
340.29	35.054
340.65	36.096
341.02	36.126
341.38	35.765
341.74	35.526
342.11	35.721
342.47	35.771
342.83	35.360
343.20	35.671
343.56	35.046
343.92	36.228
344.28	35.289
344.65	35.942
345.01	35.185
345.37	34.734
345.73	35.279
346.10	35.806
346.46	35.932
346.82	34.843
347.19	35.088
347.55	36.289
347.91	35.518
348.27	37.387
348.63	35.870
349.00	35.841
349.36	36.125
349.72	36.728
350.08	35.737
350.45	36.615
350.81	36.556
351.17	34.846
351.53	36.773
351.89	37.211
352.26	38.122
352.62	36.808
352.98	36.467
353.34	37.305
353.70	36.007
354.07	37.258
354.43	37.143
354.79	37.168
355.15	37.271
355.51	37.010
355.87	37.878
356.24	37.704
356.60	37.129
356.96	37.892
357.32	38.103
357.68	37.638
358.04	37.451
358.40	36.975
358.77	37.559
359.13	36.543
359.49	39.059
359.85	38.016
360.21	37.959
360.57	38.988
360.93	38.692
361.29	38.398
361.66	38.700
362.02	39.104
362.38	39.924
362.74	38.318
363.10	37.824
363.46	38.665
363.82	39.607
364.18	39.060
364.54	40.193
364.90	40.368
365.26	40.221
365.62	40.248
365.98	39.737
366.35	40.043
366.71	40.492
367.07	40.277
367.43	41.945
367.79	41.756
368.15	41.092
368.51	40.334
368.87	41.185
369.23	41.185
369.59	41.202
369.95	42.132
370.31	41.880
370.67	40.217
371.03	42.697
371.39	41.399
371.75	43.456
372.11	41.892
372.47	43.035
372.83	43.012
373.19	42.702
373.55	43.237
373.91	42.415
374.27	42.131
374.63	42.618
374.99	44.350
375.35	41.940
375.71	43.797
376.07	45.062
376.42	43.673
376.78	44.732
377.14	43.623
377.50	45.762
377.86	44.481
378.22	45.006
378.58	43.797
378.94	45.255
379.30	45.611
379.66	46.003
380.02	45.086
380.38	45.598
380.74	46.279
381.09	46.210
381.45	47.142
381.81	46.314
382.17	46.369
382.53	46.604
382.89	48.272
383.25	46.467
383.61	48.141
383.97	48.155
384.32	47.848
384.68	47.646
385.04	48.679
385.40	48.545
385.76	48.956
386.12	48.575
386.48	49.465
386.83	50.353
387.19	50.588
387.55	49.784
387.91	48.972
388.27	48.743
388.62	50.707
388.98	49.263
389.34	49.750
389.70	49.111
390.06	50.951
390.42	50.843
390.77	51.399
391.13	50.989
391.49	50.952
391.85	50.477
392.20	50.599
392.56	51.705
392.92	51.677
393.28	51.302
393.64	52.158
393.99	51.313
394.35	51.427
394.71	52.572
395.07	52.087
395.42	53.028
395.78	53.181
396.14	51.955
396.50	53.258
396.85	52.511
397.21	52.281
397.57	52.201
397.92	52.344
398.28	52.298
398.64	53.465
399.00	52.714
399.35	52.679
399.71	53.414
400.07	52.868
400.42	52.577
400.78	54.282
401.14	53.110
401.49	53.134
401.85	53.479
402.21	52.515
402.57	53.547
402.92	53.972
403.28	55.465
403.63	53.156
403.99	53.885
404.35	54.061
404.70	55.456
405.06	54.222
405.42	55.084
405.77	54.000
406.13	53.612
406.49	53.992
406.84	53.160
407.20	53.783
407.55	53.925
407.91	55.600
408.27	55.712
408.62	53.642
408.98	55.025
409.34	53.936
409.69	55.419
410.05	54.399
410.40	54.679
410.76	54.421
411.11	54.946
411.47	53.546
411.83	54.856
412.18	54.422
412.54	55.168
412.89	54.217
413.25	54.604
413.60	55.466
413.96	53.370
414.31	54.982
414.67	53.676
415.03	54.503
415.38	55.155
415.74	56.270
416.09	56.630
416.45	55.154
416.80	56.048
417.16	55.496
417.51	56.603
417.87	54.849
418.22	55.962
418.58	55.972
418.93	56.327
419.29	55.570
419.64	54.660
420.00	55.366
420.35	55.478
420.71	55.290
421.06	54.714
421.42	55.380
421.77	55.661
422.12	55.194
422.48	54.344
422.83	56.552
423.19	55.304
423.54	55.543
423.90	56.406
424.25	54.941
424.61	54.762
424.96	55.743
425.31	55.260
425.67	54.213
426.02	54.857
426.38	55.006
426.73	54.535
427.09	55.745
427.44	55.147
427.79	55.549
428.15	55.417
428.50	55.237
428.85	55.483
429.21	55.273
429.56	54.121
429.92	55.209
430.27	52.781
430.62	53.200
430.98	54.852
431.33	54.124
431.68	54.293
432.04	54.579
432.39	54.769
432.74	55.955
433.10	56.140
433.45	55.452
433.80	53.991
434.16	54.701
434.51	54.421
434.86	56.214
435.22	55.364
435.57	55.137
435.92	55.003
436.28	55.575
436.63	55.298
436.98	53.349
437.34	56.291
437.69	56.126
438.04	55.087
438.39	54.925
438.75	55.840
439.10	54.972
439.45	55.490
439.81	56.254
440.16	54.828
440.51	55.185
440.86	54.372
441.22	53.893
441.57	54.140
441.92	54.452
442.27	53.821
442.63	54.450
442.98	55.268
443.33	54.022
443.68	53.640
444.03	53.490
444.39	53.700
444.74	53.842
445.09	54.447
445.44	53.964
445.79	54.082
446.15	53.679
446.50	52.719
446.85	54.060
447.20	53.493
447.55	55.667
447.91	54.220
448.26	54.535
448.61	54.664
448.96	54.540
449.31	54.949
449.66	52.167
450.02	53.593
450.37	52.834
450.72	53.694
451.07	52.956
451.42	52.827
451.77	53.435
452.12	53.002
452.47	52.799
452.83	54.429
453.18	53.240
453.53	54.174
453.88	54.223
454.23	53.138
454.58	53.907
454.93	53.655
455.28	53.803
455.63	53.277
455.98	54.107
456.34	53.078
456.69	53.976
457.04	53.498
457.39	53.068
457.74	52.815
458.09	53.767
458.44	53.079
458.79	51.790
459.14	53.555
459.49	52.715
459.84	52.521
460.19	52.033
460.54	50.405
460.89	52.276
461.24	52.763
461.59	52.469
461.94	51.356
462.29	53.472
462.64	52.010
462.99	51.074
463.34	53.133
463.69	52.345
464.04	51.652
464.39	51.652
464.74	51.456
465.09	51.749
465.44	50.970
465.79	50.559
466.14	49.918
466.49	49.666
466.84	51.138
467.19	50.935
467.54	52.000
467.89	49.580
468.24	50.087
468.59	51.099
468.94	51.374
469.29	50.643
469.64	52.677
469.99	50.541
470.34	50.661
470.68	51.724
471.03	51.224
471.38	51.633
471.73	50.566
472.08	50.329
472.43	50.000
472.78	50.230
473.13	50.578
473.48	50.562
473.83	51.585
474.17	49.098
474.52	50.496
474.87	50.029
475.22	50.725
475.57	48.415
475.92	49.495
476.27	49.042
476.61	48.649
476.96	48.268
477.31	47.776
477.66	49.289
478.01	47.987
478.36	49.286
478.70	48.079
479.05	49.042
479.40	47.544
479.75	47.941
480.10	48.111
480.45	46.216
480.79	46.918
481.14	47.847
481.49	46.844
481.84	47.874
482.19	47.660
482.53	47.156
482.88	46.626
483.23	46.822
483.58	47.225
483.92	46.954
484.27	44.749
484.62	46.552
484.97	45.369
485.31	46.507
485.66	44.518
486.01	43.110
486.36	41.299
486.70	40.190
487.05	41.362
487.40	42.492
487.75	42.771
488.09	42.796
488.44	43.062
488.79	45.136
489.13	45.684
489.48	45.147
489.83	44.411
490.17	45.550
490.52	45.571
490.87	45.364
491.22	44.338
491.56	44.419
491.91	44.672
492.26	43.500
492.60	44.470
492.95	44.528
493.30	43.832
493.64	43.957
493.99	43.361
494.34	43.941
494.68	43.956
495.03	44.831
495.37	43.183
495.72	44.055
496.07	44.687
496.41	42.965
496.76	43.140
497.11	43.224
497.45	43.689
497.80	43.426
498.14	44.686
498.49	43.415
498.84	43.145
499.18	42.714
499.53	42.403
499.87	42.171
500.22	41.780
500.56	43.981
500.91	42.692
501.26	41.726
501.60	43.522
501.95	42.346
502.29	42.737
502.64	42.412
502.98	41.935
503.33	40.722
503.67	43.155
504.02	41.581
504.36	41.554
504.71	41.182
505.06	41.687
505.40	42.878
505.75	40.984
506.09	41.254
506.44	41.983
506.78	41.305
507.13	41.696
507.47	42.273
507.82	41.489
508.16	41.641
508.51	42.922
508.85	40.715
509.19	41.122
509.54	40.204
509.88	40.907
510.23	40.925
510.57	42.673
510.92	40.963
511.26	40.956
511.61	41.649
511.95	39.823
512.30	40.138
512.64	40.838
512.98	41.854
513.33	41.274
513.67	40.021
514.02	39.665
514.36	41.944
514.70	41.782
515.05	40.714
515.39	41.054
515.74	41.441
516.08	40.693
516.42	40.954
516.77	41.806
517.11	40.566
517.46	40.914
517.80	41.580
518.14	40.591
518.49	41.599
518.83	39.716
519.17	41.109
519.52	41.143
519.86	40.616
520.20	41.503
520.55	41.652
520.89	41.058
521.23	40.290
521.58	39.976
521.92	41.090
522.26	40.207
522.61	40.748
522.95	39.656
523.29	39.684
523.64	40.671
523.98	40.727
524.32	40.531
524.66	40.168
525.01	40.319
525.35	38.724
525.69	39.163
526.04	40.125
526.38	40.390
526.72	38.896
527.06	40.050
527.41	39.109
527.75	41.158
528.09	39.756
528.43	40.663
528.78	39.152
529.12	39.333
529.46	39.804
529.80	38.985
530.15	39.128
530.49	38.523
530.83	38.671
531.17	40.470
531.51	41.180
531.86	39.484
532.20	39.831
532.54	39.718
532.88	39.345
533.22	37.726
533.57	37.840
533.91	38.531
534.25	37.728
534.59	38.804
534.93	38.548
535.27	37.417
535.62	37.851
535.96	38.544
536.30	37.508
536.64	38.957
536.98	39.615
537.32	38.512
537.66	38.867
538.01	38.841
538.35	38.268
538.69	38.928
539.03	38.142
539.37	37.061
539.71	38.302
540.05	38.105
540.39	36.944
540.73	36.999
541.07	37.897
541.42	37.312
541.76	38.000
542.10	38.616
542.44	37.682
542.78	37.681
543.12	36.340
543.46	37.115
543.80	37.411
544.14	36.906
544.48	37.841
544.82	36.690
545.16	37.280
545.50	36.761
545.84	36.962
546.18	36.902
546.52	37.440
546.86	37.663
547.20	36.682
547.54	36.807
547.88	37.500
548.22	36.675
548.56	35.786
548.90	36.108
549.24	36.566
549.58	36.903
549.92	36.813
550.26	38.707
550.60	37.483
550.94	36.620
551.28	36.357
551.62	36.377
551.96	36.772
552.30	37.474
552.64	36.984
552.98	37.220
553.32	36.008
553.66	36.537
554.00	37.268
554.34	36.370
554.68	36.838
555.02	36.389
555.36	36.395
555.69	36.130
556.03	35.599
556.37	36.085
556.71	36.016
557.05	36.134
557.39	36.599
557.73	36.344
558.07	36.548
558.41	36.107
558.75	37.105
559.08	35.645
559.42	35.903
559.76	36.544
560.10	35.974
560.44	36.198
560.78	34.597
561.12	34.763
561.45	35.658
561.79	34.806
562.13	35.815
562.47	34.221
562.81	36.332
563.15	34.649
563.48	35.279
563.82	35.225
564.16	35.644
564.50	34.635
564.84	33.439
565.17	34.299
565.51	35.080
565.85	34.645
566.19	34.314
566.52	33.819
566.86	33.635
567.20	33.903
567.54	33.105
567.88	32.808
568.21	32.487
568.55	32.002
568.89	32.442
569.23	31.016
569.56	30.769
569.90	30.981
570.24	29.566
570.57	29.582
570.91	29.218
571.25	28.598
571.59	29.308
571.92	28.888
572.26	28.885
572.60	28.709
572.93	28.336
573.27	28.897
573.61	28.169
573.95	28.450
574.28	28.015
574.62	28.207
574.96	27.790
575.29	27.231
575.63	27.693
575.97	27.831
576.30	28.093
576.64	28.127
576.98	27.516
577.31	27.241
577.65	27.731
577.98	27.161
578.32	26.767
578.66	27.065
578.99	26.889
579.33	27.136
579.67	26.855
580.00	27.044
580.34	27.219
580.67	27.039
581.01	27.727
581.35	27.061
581.68	26.855
582.02	26.168
582.35	26.474
582.69	26.587
583.02	26.428
583.36	27.323
583.70	27.273
584.03	26.698
584.37	27.484
584.70	27.456
585.04	27.324
585.37	26.980
585.71	26.903
586.04	26.939
586.38	27.377
586.72	27.644
587.05	27.139
587.39	26.781
587.72	27.132
588.06	27.241
588.39	27.545
588.73	27.750
589.06	27.579
589.40	27.138
589.73	28.159
590.07	28.470
590.40	27.475
590.73	28.571
591.07	28.694
591.40	28.511
591.74	29.437
592.07	29.538
592.41	29.310
592.74	27.266
593.08	27.482
593.41	27.238
593.75	26.546
594.08	26.919
594.41	27.642
594.75	27.948
595.08	27.487
595.42	27.110
595.75	27.386
596.09	27.788
596.42	28.055
596.75	28.155
597.09	28.485
597.42	27.445
597.75	28.590
598.09	27.957
598.42	28.393
598.76	28.050
599.09	27.746
599.42	26.565
599.76	27.343
600.09	27.687
600.42	26.991
600.76	26.750
601.09	26.740
601.42	27.131
601.76	27.438
602.09	27.549
602.42	27.309
602.76	28.174
603.09	26.908
603.42	27.606
603.76	26.486
604.09	27.026
604.42	27.517
604.76	28.089
605.09	27.523
605.42	27.747
605.75	28.022
606.09	27.369
606.42	26.849
606.75	27.540
607.09	27.292
607.42	27.172
607.75	26.920
608.08	26.791
608.42	27.835
608.75	27.547
609.08	27.567
609.41	27.844
609.75	27.870
610.08	28.322
610.41	27.607
610.74	27.436
611.07	28.063
611.41	27.429
611.74	28.507
612.07	28.364
612.40	28.594
612.73	27.947
613.07	28.233
613.40	28.594
613.73	27.216
614.06	28.172
614.39	27.950
614.72	27.789
615.06	28.992
615.39	27.813
615.72	28.272
616.05	27.858
616.38	28.849
616.71	28.444
617.05	29.505
617.38	28.984
617.71	29.189
618.04	28.906
618.37	29.627
618.70	28.874
619.03	29.408
619.36	28.445
619.69	30.070
620.03	30.838
620.36	30.615
620.69	29.521
621.02	30.310
621.35	30.619
621.68	30.062
622.01	30.882
622.34	30.787
622.67	30.570
623.00	29.127
623.33	29.593
623.66	29.593
623.99	30.265
624.32	30.742
624.65	28.743
624.99	28.824
625.32	29.978
625.65	29.527
625.98	30.131
626.31	30.482
626.64	32.980
626.97	30.923
627.30	29.426
627.63	31.419
627.96	31.455
628.29	31.671
628.62	32.205
628.95	33.585
629.28	31.934
629.61	31.531
629.94	32.381
630.26	32.221
630.59	31.459
