SpectraSuite Data File
++++++++++++++++++++++++++++++++++++
Date: Wed May 13 19:49:43 PDT 2015
User: schluterlab
Dark Spectrum Present: Yes
Reference Spectrum Present: Yes
Number of Sampled Component Spectra: 1
Spectrometers: USB2E3373
Integration Time (usec): 3000 (USB2E3373)
Spectra Averaged: 3 (USB2E3373)
Boxcar Smoothing: 0 (USB2E3373)
Correct for Electrical Dark: No (USB2E3373)
Strobe/Lamp Enabled: No (USB2E3373)
Correct for Detector Non-linearity: No (USB2E3373)
Correct for Stray Light: No (USB2E3373)
Number of Pixels in Processed Spectrum: 2048
>>>>>Begin Processed Spectral Data<<<<<
178.53	0.000
178.91	-1350.000
179.29	-1175.000
179.67	-255.556
180.04	-1375.000
180.42	2100.000
180.80	1260.000
181.18	-1025.000
181.56	828.571
181.94	0.000
182.31	-585.714
182.69	1766.667
183.07	-587.500
183.45	-555.556
183.83	600.000
184.20	-440.000
184.58	2450.000
184.96	6200.000
185.34	-860.000
185.72	-662.500
186.09	-2400.000
186.47	2650.000
186.85	3150.000
187.23	5300.000
187.61	-1700.000
187.98	1450.000
188.36	581.818
188.74	481.818
189.12	-980.000
189.49	510.000
189.87	-4900.000
190.25	-1150.000
190.63	414.286
191.00	507.692
191.38	916.667
191.76	-1200.000
192.14	1075.000
192.51	550.000
192.89	1016.667
193.27	662.500
193.65	-1050.000
194.02	600.000
194.40	1060.000
194.78	510.000
195.15	541.667
195.53	660.000
195.91	-2150.000
196.29	356.250
196.66	347.368
197.04	-370.000
197.42	0.000
197.79	600.000
198.17	-4800.000
198.55	728.571
198.92	825.000
199.30	1040.000
199.68	0.000
200.05	327.778
200.43	771.429
200.81	4400.000
201.18	1666.667
201.56	-1500.000
201.94	455.556
202.31	600.000
202.69	450.000
203.07	590.000
203.44	0.000
203.82	1250.000
204.19	871.429
204.57	442.857
204.95	612.500
205.32	2033.333
205.70	490.909
206.08	392.857
206.45	2650.000
206.83	387.500
207.20	916.667
207.58	780.000
207.96	338.889
208.33	650.000
208.71	-883.333
209.08	685.714
209.46	677.778
209.84	572.727
210.21	-1366.667
210.59	1600.000
210.96	-612.500
211.34	2850.000
211.71	590.000
212.09	950.000
212.46	0.000
212.84	1733.333
213.22	1350.000
213.59	-4700.000
213.97	916.667
214.34	942.857
214.72	554.545
215.09	1100.000
215.47	-2500.000
215.84	-2600.000
216.22	1766.667
216.59	421.429
216.97	1275.000
217.34	600.000
217.72	-883.333
218.09	0.000
218.47	-4900.000
218.84	666.667
219.22	714.286
219.59	1833.333
219.97	-642.857
220.34	980.000
220.72	-1733.333
221.09	500.000
221.47	1775.000
221.84	-816.667
222.22	0.000
222.59	1300.000
222.97	-2750.000
223.34	1300.000
223.72	423.077
224.09	1120.000
224.46	2550.000
224.84	-4600.000
225.21	-980.000
225.59	-4600.000
225.96	660.000
226.34	285.000
226.71	3050.000
227.08	662.500
227.46	560.000
227.83	-1050.000
228.21	-2200.000
228.58	600.000
228.95	-2500.000
229.33	-2150.000
229.70	1800.000
230.08	942.857
230.45	-800.000
230.82	516.667
231.20	916.667
231.57	771.429
231.95	516.667
232.32	304.545
232.69	445.455
233.07	728.571
233.44	453.846
233.81	-1900.000
234.19	310.526
234.56	558.333
234.93	525.000
235.31	481.818
235.68	446.154
236.05	378.571
236.43	166.667
236.80	300.000
237.17	4600.000
237.55	252.381
237.92	228.571
238.29	261.905
238.67	187.097
239.04	234.483
239.41	180.556
239.79	123.913
240.16	178.571
240.53	172.727
240.91	135.294
241.28	128.000
241.65	126.000
242.02	115.942
242.40	119.355
242.77	116.667
243.14	91.398
243.51	86.517
243.89	85.882
244.26	93.333
244.63	90.323
245.00	81.915
245.38	78.218
245.75	73.832
246.12	71.560
246.49	78.102
246.87	77.600
247.24	70.769
247.61	64.286
247.98	60.784
248.36	64.189
248.73	64.331
249.10	68.153
249.47	56.497
249.84	64.171
250.22	51.872
250.59	57.396
250.96	59.091
251.33	56.872
251.70	55.446
252.08	55.238
252.45	51.121
252.82	53.478
253.19	54.894
253.56	57.647
253.94	52.282
254.31	47.656
254.68	51.538
255.05	49.815
255.42	52.439
255.79	50.735
256.16	50.542
256.54	44.876
256.91	47.331
257.28	44.604
257.65	46.205
258.02	48.758
258.39	46.372
258.76	47.157
259.14	41.964
259.51	47.720
259.88	45.031
260.25	48.338
260.62	47.110
260.99	47.205
261.36	44.745
261.73	43.553
262.10	45.058
262.47	46.479
262.85	41.783
263.22	41.311
263.59	46.154
263.96	44.231
264.33	43.603
264.70	46.579
265.07	45.013
265.44	41.919
265.81	40.389
266.18	41.206
266.55	40.000
266.92	43.980
267.29	42.824
267.66	40.367
268.03	42.273
268.40	39.252
268.77	40.573
269.14	38.288
269.51	41.084
269.88	41.725
270.25	41.986
270.62	42.472
270.99	41.290
271.36	40.343
271.73	40.421
272.10	39.348
272.47	37.204
272.84	40.909
273.21	39.413
273.58	39.738
273.95	40.042
274.32	35.537
274.69	37.687
275.06	38.780
275.43	41.489
275.80	36.874
276.17	38.697
276.54	39.293
276.91	39.723
277.28	35.938
277.65	41.006
278.02	36.439
278.39	38.672
278.76	36.909
279.13	38.491
279.50	37.430
279.87	38.247
280.23	43.114
280.60	38.685
280.97	36.229
281.34	36.283
281.71	36.545
282.08	39.731
282.45	36.545
282.82	36.590
283.19	33.690
283.56	34.211
283.92	38.409
284.29	32.451
284.66	36.661
285.03	35.262
285.40	38.732
285.77	37.205
286.14	35.579
286.51	33.833
286.87	36.239
287.24	36.482
287.61	35.634
287.98	34.578
288.35	33.439
288.72	33.022
289.08	33.646
289.45	32.455
289.82	34.797
290.19	33.752
290.56	33.691
290.93	31.722
291.29	32.055
291.66	31.268
292.03	33.866
292.40	32.746
292.77	30.325
293.13	29.851
293.50	31.195
293.87	29.185
294.24	31.259
294.60	28.239
294.97	31.395
295.34	30.324
295.71	30.114
296.08	28.632
296.44	30.261
296.81	28.534
297.18	31.301
297.55	26.781
297.91	28.100
298.28	29.719
298.65	29.112
299.02	29.644
299.38	27.888
299.75	26.685
300.12	30.140
300.48	27.250
300.85	27.497
301.22	28.280
301.59	27.399
301.95	27.582
302.32	27.471
302.69	26.762
303.05	27.758
303.42	27.901
303.79	27.520
304.15	25.991
304.52	25.492
304.89	24.855
305.25	26.566
305.62	25.708
305.99	27.391
306.35	26.846
306.72	26.906
307.09	26.415
307.45	26.689
307.82	25.558
308.19	25.276
308.55	25.674
308.92	25.349
309.29	25.977
309.65	25.133
310.02	26.321
310.38	25.054
310.75	25.554
311.12	25.179
311.48	26.646
311.85	26.730
312.22	26.015
312.58	25.676
312.95	27.666
313.31	24.369
313.68	27.131
314.05	29.093
314.41	27.437
314.78	27.190
315.14	27.706
315.51	27.085
315.87	27.426
316.24	28.401
316.61	28.558
316.97	27.593
317.34	28.082
317.70	28.298
318.07	27.238
318.43	29.452
318.80	29.053
319.16	28.719
319.53	29.737
319.89	30.571
320.26	31.400
320.62	30.556
320.99	30.101
321.35	30.404
321.72	32.546
322.08	33.268
322.45	34.030
322.81	32.849
323.18	34.200
323.54	32.560
323.91	33.019
324.27	34.895
324.64	34.296
325.00	34.536
325.37	35.669
325.73	35.189
326.10	35.658
326.46	35.305
326.83	36.756
327.19	35.867
327.56	36.585
327.92	39.020
328.29	39.042
328.65	39.503
329.01	39.079
329.38	39.315
329.74	39.428
330.11	40.151
330.47	40.220
330.84	40.993
331.20	40.437
331.56	39.450
331.93	40.185
332.29	38.687
332.66	40.796
333.02	41.133
333.38	40.108
333.75	41.979
334.11	41.281
334.48	40.550
334.84	42.096
335.20	40.091
335.57	40.526
335.93	40.357
336.29	41.850
336.66	40.938
337.02	40.543
337.38	41.389
337.75	40.285
338.11	41.182
338.47	41.252
338.84	42.346
339.20	39.908
339.56	41.150
339.93	41.364
340.29	42.120
340.65	41.266
341.02	42.845
341.38	41.014
341.74	40.877
342.11	42.358
342.47	40.969
342.83	39.983
343.20	41.905
343.56	40.775
343.92	41.842
344.28	41.412
344.65	41.015
345.01	39.646
345.37	40.566
345.73	41.371
346.10	40.750
346.46	40.763
346.82	39.044
347.19	39.933
347.55	40.312
347.91	41.181
348.27	41.906
348.63	41.806
349.00	40.210
349.36	41.379
349.72	39.856
350.08	40.357
350.45	41.253
350.81	40.780
351.17	40.032
351.53	39.967
351.89	38.861
352.26	38.990
352.62	40.577
352.98	39.465
353.34	39.441
353.70	40.016
354.07	39.677
354.43	40.238
354.79	39.019
355.15	39.745
355.51	39.808
355.87	41.143
356.24	40.147
356.60	39.615
356.96	39.743
357.32	39.902
357.68	39.449
358.04	38.559
358.40	38.876
358.77	39.358
359.13	39.542
359.49	39.451
359.85	39.444
360.21	39.872
360.57	40.000
360.93	41.077
361.29	40.816
361.66	38.700
362.02	39.776
362.38	40.760
362.74	39.881
363.10	38.638
363.46	39.252
363.82	39.153
364.18	40.308
364.54	39.970
364.90	39.023
365.26	39.485
365.62	39.445
365.98	38.422
366.35	38.324
366.71	38.901
367.07	39.257
367.43	39.695
367.79	39.829
368.15	39.224
368.51	38.517
368.87	38.687
369.23	39.210
369.59	39.681
369.95	39.044
370.31	38.248
370.67	38.116
371.03	41.124
371.39	39.796
371.75	38.676
372.11	38.265
372.47	40.323
372.83	40.130
373.19	37.861
373.55	39.616
373.91	39.985
374.27	37.182
374.63	38.982
374.99	39.266
375.35	38.730
375.71	38.245
376.07	38.272
376.42	38.996
376.78	39.364
377.14	38.399
377.50	39.801
377.86	37.367
378.22	38.432
378.58	36.967
378.94	38.341
379.30	37.977
379.66	38.706
380.02	38.698
380.38	36.612
380.74	37.755
381.09	39.487
381.45	37.800
381.81	38.391
382.17	38.344
382.53	38.239
382.89	38.765
383.25	38.712
383.61	39.157
383.97	38.649
384.32	38.490
384.68	37.670
385.04	37.615
385.40	37.523
385.76	38.084
386.12	37.435
386.48	38.767
386.83	38.999
387.19	38.837
387.55	38.219
387.91	37.787
388.27	37.278
388.62	37.615
388.98	37.899
389.34	37.797
389.70	37.768
390.06	38.276
390.42	38.392
390.77	37.595
391.13	38.098
391.49	38.135
391.85	37.492
392.20	36.909
392.56	37.689
392.92	36.845
393.28	35.799
393.64	37.350
393.99	36.652
394.35	37.469
394.71	37.327
395.07	37.259
395.42	37.763
395.78	37.150
396.14	37.058
396.50	37.970
396.85	37.953
397.21	38.101
397.57	36.516
397.92	37.440
398.28	35.314
398.64	36.440
399.00	38.165
399.35	36.830
399.71	36.979
400.07	37.374
400.42	36.810
400.78	37.455
401.14	37.256
401.49	37.433
401.85	36.963
402.21	36.228
402.57	35.719
402.92	37.768
403.28	36.914
403.63	36.139
403.99	35.669
404.35	36.061
404.70	36.091
405.06	36.459
405.42	36.744
405.77	35.771
406.13	35.722
406.49	36.724
406.84	35.794
407.20	36.702
407.55	36.311
407.91	36.600
408.27	36.694
408.62	36.785
408.98	36.029
409.34	36.162
409.69	36.516
410.05	35.936
410.40	37.615
410.76	35.842
411.11	35.404
411.47	35.847
411.83	36.103
412.18	35.931
412.54	35.928
412.89	34.759
413.25	35.124
413.60	36.133
413.96	35.458
414.31	36.148
414.67	36.312
415.03	35.960
415.38	36.276
415.74	37.170
416.09	36.185
416.45	36.078
416.80	35.889
417.16	35.992
417.51	35.435
417.87	34.811
418.22	36.088
418.58	35.571
418.93	35.934
419.29	35.646
419.64	35.579
420.00	35.488
420.35	35.536
420.71	35.983
421.06	34.308
421.42	36.023
421.77	34.585
422.12	34.812
422.48	33.351
422.83	35.818
423.19	35.691
423.54	35.694
423.90	35.246
424.25	34.953
424.61	34.524
424.96	34.869
425.31	34.164
425.67	33.989
426.02	34.229
426.38	36.752
426.73	35.576
427.09	35.015
427.44	35.135
427.79	34.158
428.15	35.119
428.50	35.167
428.85	34.863
429.21	33.959
429.56	34.889
429.92	34.826
430.27	34.310
430.62	33.487
430.98	34.354
431.33	34.021
431.68	35.236
432.04	34.878
432.39	35.009
432.74	35.428
433.10	35.654
433.45	35.277
433.80	34.091
434.16	34.509
434.51	33.895
434.86	34.721
435.22	34.575
435.57	35.684
435.92	34.582
436.28	34.816
436.63	34.603
436.98	35.089
437.34	35.301
437.69	35.823
438.04	34.963
438.39	34.627
438.75	34.747
439.10	34.358
439.45	34.534
439.81	34.260
440.16	33.992
440.51	35.384
440.86	35.437
441.22	35.039
441.57	34.395
441.92	34.033
442.27	34.553
442.63	34.650
442.98	35.099
443.33	34.511
443.68	34.693
444.03	35.530
444.39	33.982
444.74	34.416
445.09	34.070
445.44	34.281
445.79	33.795
446.15	33.404
446.50	33.656
446.85	34.224
447.20	33.758
447.55	34.338
447.91	34.308
448.26	34.446
448.61	34.313
448.96	34.053
449.31	34.871
449.66	34.102
450.02	33.816
450.37	33.560
450.72	34.292
451.07	33.333
451.42	34.407
451.77	34.469
452.12	33.314
452.47	33.520
452.83	33.916
453.18	33.985
453.53	34.756
453.88	34.141
454.23	33.413
454.58	34.464
454.93	35.537
455.28	34.102
455.63	33.981
455.98	34.821
456.34	34.296
456.69	34.690
457.04	34.737
457.39	34.015
457.74	33.082
458.09	34.388
458.44	34.436
458.79	33.134
459.14	34.481
459.49	33.392
459.84	32.909
460.19	33.353
460.54	33.044
460.89	33.571
461.24	34.608
461.59	34.282
461.94	33.539
462.29	34.362
462.64	34.716
462.99	33.182
463.34	34.467
463.69	33.333
464.04	33.507
464.39	32.696
464.74	34.046
465.09	33.293
465.44	33.241
465.79	32.606
466.14	33.060
466.49	32.759
466.84	33.508
467.19	33.555
467.54	35.062
467.89	33.493
468.24	33.392
468.59	34.799
468.94	33.415
469.29	34.319
469.64	34.739
469.99	33.897
470.34	33.421
470.68	33.621
471.03	34.082
471.38	34.746
471.73	33.711
472.08	34.605
472.43	34.108
472.78	33.904
473.13	32.991
473.48	33.458
473.83	34.146
474.17	32.794
474.52	33.685
474.87	34.209
475.22	32.908
475.57	32.671
475.92	32.236
476.27	33.089
476.61	33.094
476.96	31.886
477.31	32.025
477.66	32.877
478.01	30.894
478.36	32.734
478.70	32.191
479.05	32.588
479.40	32.549
479.75	32.588
480.10	31.759
480.45	31.556
480.79	31.725
481.14	32.779
481.49	31.941
481.84	31.687
482.19	31.259
482.53	31.651
482.88	31.643
483.23	32.664
483.58	32.029
483.92	32.287
484.27	31.068
484.62	32.026
484.97	31.060
485.31	31.473
485.66	29.277
486.01	28.261
486.36	27.071
486.70	27.361
487.05	28.484
487.40	29.571
487.75	30.175
488.09	31.362
488.44	31.788
488.79	32.405
489.13	31.742
489.48	31.974
489.83	31.679
490.17	32.179
490.52	31.399
490.87	31.660
491.22	32.106
491.56	31.298
491.91	31.410
492.26	31.373
492.60	31.106
492.95	31.104
493.30	30.701
493.64	30.798
493.99	30.966
494.34	30.851
494.68	31.777
495.03	31.532
495.37	30.991
495.72	31.287
496.07	31.787
496.41	29.735
496.76	30.563
497.11	30.707
497.45	31.206
497.80	31.910
498.14	30.870
498.49	30.585
498.84	31.064
499.18	30.857
499.53	30.674
499.87	30.988
500.22	31.512
500.56	32.524
500.91	30.817
501.26	30.773
501.60	31.087
501.95	30.385
502.29	30.975
502.64	30.866
502.98	31.043
503.33	30.622
503.67	30.626
504.02	30.075
504.36	29.995
504.71	31.754
505.06	30.699
505.40	30.481
505.75	30.762
506.09	30.369
506.44	30.390
506.78	29.761
507.13	30.994
507.47	31.111
507.82	30.952
508.16	31.611
508.51	31.355
508.85	30.338
509.19	30.612
509.54	30.918
509.88	30.500
510.23	30.334
510.57	32.147
510.92	31.020
511.26	30.730
511.61	31.328
511.95	29.228
512.30	30.700
512.64	31.059
512.98	30.547
513.33	31.531
513.67	30.416
514.02	30.844
514.36	31.622
514.70	30.327
515.05	30.954
515.39	31.296
515.74	30.856
516.08	30.855
516.42	31.021
516.77	30.881
517.11	30.577
517.46	30.587
517.80	31.707
518.14	31.268
518.49	31.914
518.83	31.023
519.17	30.543
519.52	30.956
519.86	30.861
520.20	31.387
520.55	31.358
520.89	31.509
521.23	31.484
521.58	31.693
521.92	31.660
522.26	30.445
522.61	30.467
522.95	31.921
523.29	30.980
523.64	31.524
523.98	31.608
524.32	31.363
524.66	31.269
525.01	29.534
525.35	30.793
525.69	30.419
526.04	31.277
526.38	31.117
526.72	31.534
527.06	32.141
527.41	29.332
527.75	30.547
528.09	31.407
528.43	31.103
528.78	31.223
529.12	30.364
529.46	29.884
529.80	31.064
530.15	30.966
530.49	30.400
530.83	30.506
531.17	31.136
531.51	31.518
531.86	29.226
532.20	32.073
532.54	31.454
532.88	31.194
533.22	29.169
533.57	30.062
533.91	30.163
534.25	29.830
534.59	29.591
534.93	29.685
535.27	29.934
535.62	29.548
535.96	29.567
536.30	30.006
536.64	30.650
536.98	30.126
537.32	30.810
537.66	31.133
538.01	29.822
538.35	30.705
538.69	30.951
539.03	28.915
539.37	28.882
539.71	29.618
540.05	30.261
540.39	31.362
540.73	29.690
541.07	31.019
541.42	30.594
541.76	31.032
542.10	30.272
542.44	29.536
542.78	30.369
543.12	29.303
543.46	30.557
543.80	29.668
544.14	29.076
544.48	30.286
544.82	29.378
545.16	29.928
545.50	29.627
545.84	30.242
546.18	30.370
546.52	30.282
546.86	30.103
547.20	31.018
547.54	29.927
547.88	30.421
548.22	28.580
548.56	29.937
548.90	28.489
549.24	29.428
549.58	30.355
549.92	29.258
550.26	29.759
550.60	29.737
550.94	30.141
551.28	28.676
551.62	30.625
551.96	28.351
552.30	29.966
552.64	30.426
552.98	30.712
553.32	29.198
553.66	29.857
554.00	30.268
554.34	30.021
554.68	29.828
555.02	30.042
555.36	29.854
555.69	28.552
556.03	29.542
556.37	28.854
556.71	28.854
557.05	28.922
557.39	29.321
557.73	29.852
558.07	30.747
558.41	30.680
558.75	30.051
559.08	30.350
559.42	30.612
559.76	30.588
560.10	28.765
560.44	28.861
560.78	28.809
561.12	29.024
561.45	29.140
561.79	28.477
562.13	29.510
562.47	29.372
562.81	29.498
563.15	28.629
563.48	29.045
563.82	28.115
564.16	28.319
564.50	28.581
564.84	28.571
565.17	28.507
565.51	28.051
565.85	29.188
566.19	27.239
566.52	28.499
566.86	27.607
567.20	28.479
567.54	28.025
567.88	27.648
568.21	27.725
568.55	27.351
568.89	27.091
569.23	26.248
569.56	25.628
569.90	25.396
570.24	24.758
570.57	24.855
570.91	24.531
571.25	24.367
571.59	24.389
571.92	24.568
572.26	24.292
572.60	25.135
572.93	24.768
573.27	24.667
573.61	24.707
573.95	24.599
574.28	24.095
574.62	23.882
574.96	23.799
575.29	23.739
575.63	23.755
575.97	23.926
576.30	24.668
576.64	24.210
576.98	23.554
577.31	23.729
577.65	23.105
577.98	23.542
578.32	23.431
578.66	23.270
578.99	23.533
579.33	23.699
579.67	23.255
580.00	24.311
580.34	24.371
580.67	24.368
581.01	23.949
581.35	23.215
581.68	23.247
582.02	22.599
582.35	22.984
582.69	23.157
583.02	23.331
583.36	24.256
583.70	24.076
584.03	24.765
584.37	25.086
584.70	24.478
585.04	23.801
585.37	23.788
585.71	23.473
586.04	23.701
586.38	24.556
586.72	24.496
587.05	23.662
587.39	23.879
587.72	23.679
588.06	23.746
588.39	24.390
588.73	24.083
589.06	25.210
589.40	25.185
589.73	24.463
590.07	24.520
590.40	24.772
590.73	25.098
591.07	25.967
591.40	25.221
591.74	26.407
592.07	25.436
592.41	24.969
592.74	24.157
593.08	23.951
593.41	23.410
593.75	23.204
594.08	24.237
594.41	24.850
594.75	24.806
595.08	23.944
595.42	24.623
595.75	24.751
596.09	25.047
596.42	25.619
596.75	25.369
597.09	25.887
597.42	25.000
597.75	24.752
598.09	24.652
598.42	25.515
598.76	24.645
599.09	24.211
599.42	24.418
599.76	24.012
600.09	23.971
600.42	23.484
600.76	23.571
601.09	23.934
601.42	24.429
601.76	24.782
602.09	24.585
602.42	25.080
602.76	24.788
603.09	25.138
603.42	24.209
603.76	23.819
604.09	24.234
604.42	24.338
604.76	25.053
605.09	24.334
605.42	24.583
605.75	24.421
606.09	23.790
606.42	24.275
606.75	24.886
607.09	24.529
607.42	23.449
607.75	24.093
608.08	24.620
608.42	24.877
608.75	24.662
609.08	24.884
609.41	24.179
609.75	25.345
610.08	24.411
610.41	24.814
610.74	24.267
611.07	25.840
611.41	24.975
611.74	25.490
612.07	25.621
612.40	26.233
612.73	24.895
613.07	25.377
613.40	25.803
613.73	24.698
614.06	25.269
614.39	25.695
614.72	24.947
615.06	25.158
615.39	24.894
615.72	25.000
616.05	24.561
616.38	25.125
616.71	26.247
617.05	26.266
617.38	25.496
617.71	25.886
618.04	26.262
618.37	25.488
618.70	26.011
619.03	27.500
619.36	26.341
619.69	25.493
620.03	27.198
620.36	26.671
620.69	26.918
621.02	28.171
621.35	27.095
621.68	25.857
622.01	27.090
622.34	26.551
622.67	26.616
623.00	26.045
623.33	25.518
623.66	26.305
623.99	26.804
624.32	25.892
624.65	26.554
624.99	26.700
625.32	26.792
625.65	25.319
625.98	26.441
626.31	27.683
626.64	27.918
626.97	28.013
627.30	26.683
627.63	27.071
627.96	27.839
628.29	27.297
628.62	27.722
628.95	29.717
629.28	27.828
629.61	28.414
629.94	28.095
630.26	28.217
630.59	27.931
630.92	28.065
