SpectraSuite Data File
++++++++++++++++++++++++++++++++++++
Date: Wed May 13 19:39:13 PDT 2015
User: schluterlab
Dark Spectrum Present: Yes
Reference Spectrum Present: Yes
Number of Sampled Component Spectra: 1
Spectrometers: USB2E3373
Integration Time (usec): 3000 (USB2E3373)
Spectra Averaged: 3 (USB2E3373)
Boxcar Smoothing: 0 (USB2E3373)
Correct for Electrical Dark: No (USB2E3373)
Strobe/Lamp Enabled: No (USB2E3373)
Correct for Detector Non-linearity: No (USB2E3373)
Correct for Stray Light: No (USB2E3373)
Number of Pixels in Processed Spectrum: 2048
>>>>>Begin Processed Spectral Data<<<<<
178.53	0.000
178.91	-1300.000
179.29	-1250.000
179.67	-266.667
180.04	-1400.000
180.42	2700.000
180.80	1100.000
181.18	-1200.000
181.56	714.286
181.94	0.000
182.31	-800.000
182.69	2033.333
183.07	-575.000
183.45	-555.556
183.83	527.273
184.20	-330.000
184.58	2300.000
184.96	6100.000
185.34	-940.000
185.72	-675.000
186.09	-2500.000
186.47	3050.000
186.85	2850.000
187.23	6300.000
187.61	-2233.333
187.98	1400.000
188.36	545.455
188.74	609.091
189.12	-1000.000
189.49	640.000
189.87	-5200.000
190.25	-1075.000
190.63	450.000
191.00	430.769
191.38	916.667
191.76	-1300.000
192.14	1275.000
192.51	600.000
192.89	983.333
193.27	662.500
193.65	-1425.000
194.02	630.000
194.40	1040.000
194.78	610.000
195.15	591.667
195.53	640.000
195.91	-2400.000
196.29	356.250
196.66	331.579
197.04	-360.000
197.42	0.000
197.79	720.000
198.17	-5700.000
198.55	757.143
198.92	725.000
199.30	920.000
199.68	0.000
200.05	372.222
200.43	785.714
200.81	4500.000
201.18	1966.667
201.56	-1833.333
201.94	655.556
202.31	644.444
202.69	566.667
203.07	610.000
203.44	0.000
203.82	1375.000
204.19	828.571
204.57	457.143
204.95	675.000
205.32	1600.000
205.70	554.545
206.08	485.714
206.45	3350.000
206.83	368.750
207.20	1016.667
207.58	680.000
207.96	311.111
208.33	775.000
208.71	-900.000
209.08	942.857
209.46	644.444
209.84	545.455
210.21	-1900.000
210.59	1325.000
210.96	-487.500
211.34	2600.000
211.71	580.000
212.09	716.667
212.46	0.000
212.84	1800.000
213.22	1200.000
213.59	-5300.000
213.97	800.000
214.34	871.429
214.72	609.091
215.09	1120.000
215.47	-2600.000
215.84	-2400.000
216.22	1933.333
216.59	400.000
216.97	1300.000
217.34	445.455
217.72	-850.000
218.09	0.000
218.47	-5700.000
218.84	588.889
219.22	814.286
219.59	1600.000
219.97	-600.000
220.34	1080.000
220.72	-2033.333
221.09	485.714
221.47	1500.000
221.84	-916.667
222.22	0.000
222.59	1425.000
222.97	-2400.000
223.34	1260.000
223.72	461.538
224.09	1260.000
224.46	2350.000
224.84	-5900.000
225.21	-1060.000
225.59	-4800.000
225.96	650.000
226.34	295.000
226.71	2300.000
227.08	725.000
227.46	480.000
227.83	-1450.000
228.21	-2700.000
228.58	644.444
228.95	-2400.000
229.33	-2500.000
229.70	1766.667
230.08	800.000
230.45	-760.000
230.82	458.333
231.20	933.333
231.57	642.857
231.95	516.667
232.32	245.455
232.69	418.182
233.07	728.571
233.44	292.308
233.81	-1933.333
234.19	331.579
234.56	500.000
234.93	400.000
235.31	400.000
235.68	307.692
236.05	378.571
236.43	160.606
236.80	284.211
237.17	4200.000
237.55	223.810
237.92	203.571
238.29	200.000
238.67	164.516
239.04	155.172
239.41	147.222
239.79	136.957
240.16	111.905
240.53	127.273
240.91	92.157
241.28	112.000
241.65	72.000
242.02	73.913
242.40	77.419
242.77	85.000
243.14	47.312
243.51	62.921
243.89	61.176
244.26	47.778
244.63	45.161
245.00	46.809
245.38	51.485
245.75	42.991
246.12	41.284
246.49	48.175
246.87	48.000
247.24	49.231
247.61	31.429
247.98	37.255
248.36	27.027
248.73	34.395
249.10	34.395
249.47	30.508
249.84	27.807
250.22	25.134
250.59	24.852
250.96	29.293
251.33	28.436
251.70	30.198
252.08	22.381
252.45	24.215
252.82	26.522
253.19	22.128
253.56	24.314
253.94	26.141
254.31	22.266
254.68	23.077
255.05	20.664
255.42	19.512
255.79	20.588
256.16	21.661
256.54	17.668
256.91	18.861
257.28	12.590
257.65	19.802
258.02	15.839
258.39	17.981
258.76	19.064
259.14	17.560
259.51	18.541
259.88	15.528
260.25	15.710
260.62	16.474
260.99	11.180
261.36	15.916
261.73	16.619
262.10	15.698
262.47	14.648
262.85	13.649
263.22	11.966
263.59	17.664
263.96	15.385
264.33	13.577
264.70	15.789
265.07	13.043
265.44	13.131
265.81	12.895
266.18	12.814
266.55	13.902
266.92	14.005
267.29	16.204
267.66	13.303
268.03	12.955
268.40	11.215
268.77	10.740
269.14	12.838
269.51	16.027
269.88	13.520
270.25	13.093
270.62	11.461
270.99	15.054
271.36	13.305
271.73	10.514
272.10	10.217
272.47	13.763
272.84	13.420
273.21	14.046
273.58	11.354
273.95	12.369
274.32	10.744
274.69	12.634
275.06	10.433
275.43	12.766
275.80	10.220
276.17	10.794
276.54	10.395
276.91	13.043
277.28	9.375
277.65	10.445
278.02	9.524
278.39	12.891
278.76	10.364
279.13	10.566
279.50	11.173
279.87	11.952
280.23	11.178
280.60	10.832
280.97	9.612
281.34	11.858
281.71	12.545
282.08	11.516
282.45	9.636
282.82	9.059
283.19	8.378
283.56	9.825
283.92	9.475
284.29	8.642
284.66	10.526
285.03	10.488
285.40	9.507
285.77	9.259
286.14	10.017
286.51	9.667
286.87	9.744
287.24	10.261
287.61	11.075
287.98	9.253
288.35	9.192
288.72	8.879
289.08	8.920
289.45	7.743
289.82	8.780
290.19	8.006
290.56	8.882
290.93	9.668
291.29	8.742
291.66	7.375
292.03	9.593
292.40	10.720
292.77	7.692
293.13	7.612
293.50	8.163
293.87	8.296
294.24	7.556
294.60	8.006
294.97	7.849
295.34	9.591
295.71	8.523
296.08	7.692
296.44	7.290
296.81	8.587
297.18	8.537
297.55	6.860
297.91	6.596
298.28	8.568
298.65	7.702
299.02	7.905
299.38	7.570
299.75	4.852
300.12	6.769
300.48	7.125
300.85	7.028
301.22	7.134
301.59	6.818
301.95	6.801
302.32	7.189
302.69	7.049
303.05	6.788
303.42	5.309
303.79	6.342
304.15	5.828
304.52	5.794
304.89	5.343
305.25	6.613
305.62	6.908
305.99	7.084
306.35	6.152
306.72	6.166
307.09	6.881
307.45	6.644
307.82	5.580
308.19	6.733
308.55	6.688
308.92	7.089
309.29	6.019
309.65	5.408
310.02	5.497
310.38	6.452
310.75	6.019
311.12	7.062
311.48	7.524
311.85	6.184
312.22	5.619
312.58	6.237
312.95	6.758
313.31	5.825
313.68	6.445
314.05	7.101
314.41	6.834
314.78	6.747
315.14	7.349
315.51	6.076
315.87	6.832
316.24	6.058
316.61	5.361
316.97	5.871
317.34	5.088
317.70	6.214
318.07	6.737
318.43	7.045
318.80	6.467
319.16	6.874
319.53	6.473
319.89	6.952
320.26	7.800
320.62	6.647
320.99	7.576
321.35	7.374
321.72	6.982
322.08	7.206
322.45	8.259
322.81	7.171
323.18	7.611
323.54	8.349
323.91	8.019
324.27	6.692
324.64	6.058
325.00	6.132
325.37	8.098
325.73	8.348
326.10	7.414
326.46	7.168
326.83	7.938
327.19	8.027
327.56	7.317
327.92	6.649
328.29	8.075
328.65	7.643
329.01	6.859
329.38	5.735
329.74	7.572
330.11	6.786
330.47	8.264
330.84	7.996
331.20	7.923
331.56	8.257
331.93	6.019
332.29	7.276
332.66	8.142
333.02	7.770
333.38	8.672
333.75	8.913
334.11	7.740
334.48	7.453
334.84	8.456
335.20	8.364
335.57	7.072
335.93	6.696
336.29	7.418
336.66	7.484
337.02	7.511
337.38	7.593
337.75	7.487
338.11	8.147
338.47	6.354
338.84	7.883
339.20	6.789
339.56	8.485
339.93	6.091
340.29	7.971
340.65	7.398
341.02	7.330
341.38	8.274
341.74	6.842
342.11	7.336
342.47	6.872
342.83	8.048
343.20	7.619
343.56	6.992
343.92	7.456
344.28	7.908
344.65	7.997
345.01	6.987
345.37	6.432
345.73	7.360
346.10	7.587
346.46	8.136
346.82	7.249
347.19	6.934
347.55	6.814
347.91	7.524
348.27	7.560
348.63	7.609
349.00	7.201
349.36	6.486
349.72	6.656
350.08	6.726
350.45	7.567
350.81	7.311
351.17	6.564
351.53	6.143
351.89	6.353
352.26	7.735
352.62	7.217
352.98	6.645
353.34	6.984
353.70	6.383
354.07	7.339
354.43	7.222
354.79	5.712
355.15	6.065
355.51	6.954
355.87	7.020
356.24	6.515
356.60	5.774
356.96	7.401
357.32	6.051
357.68	6.850
358.04	7.680
358.40	7.443
358.77	6.338
359.13	5.919
359.49	6.431
359.85	4.603
360.21	6.140
360.57	6.926
360.93	6.692
361.29	6.803
361.66	6.966
362.02	7.015
362.38	6.388
362.74	6.622
363.10	5.848
363.46	6.163
363.82	5.896
364.18	7.048
364.54	7.355
364.90	6.516
365.26	6.324
365.62	6.574
365.98	6.136
366.35	5.731
366.71	6.797
367.07	6.555
367.43	5.660
367.79	6.709
368.15	6.681
368.51	5.596
368.87	6.424
369.23	6.584
369.59	6.807
369.95	6.029
370.31	6.481
370.67	6.014
371.03	6.667
371.39	6.268
371.75	6.176
372.11	5.974
372.47	6.452
372.83	6.628
373.19	5.636
373.55	6.135
373.91	7.069
374.27	6.186
374.63	5.745
374.99	6.427
375.35	5.862
375.71	6.991
376.07	7.064
376.42	6.259
376.78	7.488
377.14	5.902
377.50	6.291
377.86	5.386
378.22	6.448
378.58	5.576
378.94	5.657
379.30	5.852
379.66	5.711
380.02	6.450
380.38	5.768
380.74	6.242
381.09	6.235
381.45	6.269
381.81	6.327
382.17	6.178
382.53	6.101
382.89	6.790
383.25	5.253
383.61	6.010
383.97	5.629
384.32	5.739
384.68	5.266
385.04	5.347
385.40	5.635
385.76	5.590
386.12	5.959
386.48	5.853
386.83	6.094
387.19	6.246
387.55	6.184
387.91	5.139
388.27	5.641
388.62	5.900
388.98	5.467
389.34	6.195
389.70	6.499
390.06	7.034
390.42	5.577
390.77	5.980
391.13	6.254
391.49	6.345
391.85	6.238
392.20	5.110
392.56	5.871
392.92	5.709
393.28	4.260
393.64	6.835
393.99	6.231
394.35	5.459
394.71	5.897
395.07	6.106
395.42	6.180
395.78	6.425
396.14	5.959
396.50	6.830
396.85	5.849
397.21	6.165
397.57	6.138
397.92	6.010
398.28	5.045
398.64	6.392
399.00	5.988
399.35	4.963
399.71	5.845
400.07	6.209
400.42	5.583
400.78	6.031
401.14	4.878
401.49	5.493
401.85	5.203
402.21	5.509
402.57	5.429
402.92	5.485
403.28	5.934
403.63	5.260
403.99	5.350
404.35	5.030
404.70	5.036
405.06	5.300
405.42	5.552
405.77	4.914
406.13	5.418
406.49	5.381
406.84	5.848
407.20	5.142
407.55	5.743
407.91	5.933
408.27	4.978
408.62	5.780
408.98	5.392
409.34	5.658
409.69	6.194
410.05	5.638
410.40	6.177
410.76	5.496
411.11	6.031
411.47	6.326
411.83	5.987
412.18	5.318
412.54	5.978
412.89	6.205
413.25	5.313
413.60	5.744
413.96	5.161
414.31	5.286
414.67	6.147
415.03	5.497
415.38	5.799
415.74	4.759
416.09	5.944
416.45	5.154
416.80	5.023
417.16	5.965
417.51	5.309
417.87	5.652
418.22	6.309
418.58	6.327
418.93	5.651
419.29	6.174
419.64	6.234
420.00	6.037
420.35	5.739
420.71	6.097
421.06	5.728
421.42	5.439
421.77	5.998
422.12	4.716
422.48	5.235
422.83	5.125
423.19	5.249
423.54	5.223
423.90	5.565
424.25	5.807
424.61	5.298
424.96	5.131
425.31	5.150
425.67	5.112
426.02	5.543
426.38	5.433
426.73	5.149
427.09	4.863
427.44	5.233
427.79	4.428
428.15	5.595
428.50	5.500
428.85	5.542
429.21	5.301
429.56	4.251
429.92	4.882
430.27	4.518
430.62	4.967
430.98	4.982
431.33	5.309
431.68	5.236
432.04	5.378
432.39	5.540
432.74	5.625
433.10	5.376
433.45	5.656
433.80	5.211
434.16	5.502
434.51	4.895
434.86	5.701
435.22	5.114
435.57	5.897
435.92	5.149
436.28	5.991
436.63	6.015
436.98	4.865
437.34	5.963
437.69	6.009
438.04	4.890
438.39	5.254
438.75	5.404
439.10	4.916
439.45	6.198
439.81	4.955
440.16	5.364
440.51	5.858
440.86	5.617
441.22	4.783
441.57	5.732
441.92	5.169
442.27	5.651
442.63	5.161
442.98	5.972
443.33	5.054
443.68	4.853
444.03	5.222
444.39	4.771
444.74	5.303
445.09	5.822
445.44	5.249
445.79	5.344
446.15	6.035
446.50	5.493
446.85	5.139
447.20	5.660
447.55	5.081
447.91	5.240
448.26	5.454
448.61	4.975
448.96	5.592
449.31	5.906
449.66	5.853
450.02	4.847
450.37	5.102
450.72	4.456
451.07	5.119
451.42	5.593
451.77	5.755
452.12	5.831
452.47	5.473
452.83	5.653
453.18	6.601
453.53	5.751
453.88	5.198
454.23	5.678
454.58	5.996
454.93	5.976
455.28	4.988
455.63	5.825
455.98	6.607
456.34	5.339
456.69	5.823
457.04	5.697
457.39	5.728
457.74	5.165
458.09	6.325
458.44	5.302
458.79	4.772
459.14	5.756
459.49	6.188
459.84	6.316
460.19	5.068
460.54	4.919
460.89	5.485
461.24	6.011
461.59	6.624
461.94	6.042
462.29	5.638
462.64	4.978
462.99	5.270
463.34	6.800
463.69	5.128
464.04	6.087
464.39	6.087
464.74	5.942
465.09	5.127
465.44	5.374
465.79	5.817
466.14	5.857
466.49	5.117
466.84	5.896
467.19	6.095
467.54	6.063
467.89	5.822
468.24	5.759
468.59	6.349
468.94	5.070
469.29	5.591
469.64	6.560
469.99	5.886
470.34	5.152
470.68	6.394
471.03	4.490
471.38	5.629
471.73	6.396
472.08	6.711
472.43	5.716
472.78	5.991
473.13	5.712
473.48	6.492
473.83	4.817
474.17	5.538
474.52	5.831
474.87	5.838
475.22	5.746
475.57	5.320
475.92	5.470
476.27	5.637
476.61	4.964
476.96	4.893
477.31	5.128
477.66	5.361
478.01	4.652
478.36	5.394
478.70	4.673
479.05	5.325
479.40	5.476
479.75	4.728
480.10	4.970
480.45	5.045
480.79	4.730
481.14	5.039
481.49	5.126
481.84	4.344
482.19	4.952
482.53	4.908
482.88	4.514
483.23	5.421
483.58	5.323
483.92	4.592
484.27	4.227
484.62	4.784
484.97	4.769
485.31	4.041
485.66	3.638
486.01	2.856
486.36	3.078
486.70	2.873
487.05	3.586
487.40	3.269
487.75	3.697
488.09	3.761
488.44	3.669
488.79	4.231
489.13	4.202
489.48	3.997
489.83	4.273
490.17	4.779
490.52	3.942
490.87	4.975
491.22	5.002
491.56	4.055
491.91	4.374
492.26	4.915
492.60	4.931
492.95	3.789
493.30	4.579
493.64	4.526
493.99	4.643
494.34	5.134
494.68	5.082
495.03	4.323
495.37	5.258
495.72	4.581
496.07	4.733
496.41	4.027
496.76	4.925
497.11	4.457
497.45	4.471
497.80	4.846
498.14	4.203
498.49	4.390
498.84	4.602
499.18	4.238
499.53	4.558
499.87	4.567
500.22	4.805
500.56	5.291
500.91	4.135
501.26	4.742
501.60	4.651
501.95	4.400
502.29	5.201
502.64	4.236
502.98	4.909
503.33	4.890
503.67	4.548
504.02	4.677
504.36	4.586
504.71	4.836
505.06	4.627
505.40	4.667
505.75	4.484
506.09	4.859
506.44	4.637
506.78	4.774
507.13	4.695
507.47	5.556
507.82	4.863
508.16	4.559
508.51	4.769
508.85	4.171
509.19	4.337
509.54	4.694
509.88	4.482
510.23	4.730
510.57	5.728
510.92	5.179
511.26	4.625
511.61	4.720
511.95	4.645
512.30	5.037
512.64	5.642
512.98	5.091
513.33	5.942
513.67	4.749
514.02	4.654
514.36	5.079
514.70	5.423
515.05	4.350
515.39	5.496
515.74	4.786
516.08	5.590
516.42	5.161
516.77	5.853
517.11	5.383
517.46	5.869
517.80	5.401
518.14	4.864
518.49	5.193
518.83	6.023
519.17	5.716
519.52	5.263
519.86	5.876
520.20	5.780
520.55	5.506
520.89	5.657
521.23	6.152
521.58	6.182
521.92	6.001
522.26	4.698
522.61	5.857
522.95	5.157
523.29	5.539
523.64	5.671
523.98	5.422
524.32	5.187
524.66	5.652
525.01	6.495
525.35	5.638
525.69	5.296
526.04	5.857
526.38	5.857
526.72	6.012
527.06	5.775
527.41	4.455
527.75	6.174
528.09	6.037
528.43	5.417
528.78	5.224
529.12	5.697
529.46	6.062
529.80	5.755
530.15	6.168
530.49	5.477
530.83	5.949
531.17	6.462
531.51	7.134
531.86	6.452
532.20	6.519
532.54	6.534
532.88	6.354
533.22	5.434
533.57	6.049
533.91	5.358
534.25	6.258
534.59	5.308
534.93	5.651
535.27	6.156
535.62	5.495
535.96	6.591
536.30	4.577
536.64	6.053
536.98	6.702
537.32	5.201
537.66	5.733
538.01	6.057
538.35	6.335
538.69	6.318
539.03	6.108
539.37	5.112
539.71	4.666
540.05	5.621
540.39	5.515
540.73	5.757
541.07	5.711
541.42	5.740
541.76	5.935
542.10	5.886
542.44	4.967
542.78	6.522
543.12	5.502
543.46	6.361
543.80	6.246
544.14	4.942
544.48	5.968
544.82	4.875
545.16	5.465
545.50	6.170
545.84	5.847
546.18	5.724
546.52	6.056
546.86	6.323
547.20	6.406
547.54	5.478
547.88	6.952
548.22	5.666
548.56	6.352
548.90	5.314
549.24	5.320
549.58	5.662
549.92	6.113
550.26	6.818
550.60	6.017
550.94	6.268
551.28	4.755
551.62	5.967
551.96	6.246
552.30	6.348
552.64	5.747
552.98	6.373
553.32	6.743
553.66	6.748
554.00	6.040
554.34	6.349
554.68	6.724
555.02	6.065
555.36	6.541
555.69	6.292
556.03	5.518
556.37	6.344
556.71	5.048
557.05	5.812
557.39	6.928
557.73	6.069
558.07	6.091
558.41	6.223
558.75	6.392
559.08	7.010
559.42	5.896
559.76	6.397
560.10	6.567
560.44	5.940
560.78	5.921
561.12	6.201
561.45	6.258
561.79	5.471
562.13	5.835
562.47	6.079
562.81	5.927
563.15	5.886
563.48	6.499
563.82	5.349
564.16	5.494
564.50	5.404
564.84	5.436
565.17	5.084
565.51	5.304
565.85	5.838
566.19	4.884
566.52	5.636
566.86	4.882
567.20	5.483
567.54	4.909
567.88	4.834
568.21	5.714
568.55	5.207
568.89	4.523
569.23	5.036
569.56	4.696
569.90	4.377
570.24	4.090
570.57	4.012
570.91	4.072
571.25	3.891
571.59	3.888
571.92	3.370
572.26	3.871
572.60	4.024
572.93	3.898
573.27	3.934
573.61	3.908
573.95	3.798
574.28	3.467
574.62	3.280
574.96	3.274
575.29	3.443
575.63	3.862
575.97	3.775
576.30	3.930
576.64	3.412
576.98	3.160
577.31	3.327
577.65	3.366
577.98	3.036
578.32	3.157
578.66	3.438
578.99	3.378
579.33	3.365
579.67	3.308
580.00	3.524
580.34	3.322
580.67	3.474
581.01	3.755
581.35	3.314
581.68	3.273
582.02	2.956
582.35	3.092
582.69	3.354
583.02	3.202
583.36	3.528
583.70	3.347
584.03	3.553
584.37	3.874
584.70	3.292
585.04	3.596
585.37	3.425
585.71	3.806
586.04	3.793
586.38	3.710
586.72	4.060
587.05	3.776
587.39	3.536
587.72	3.607
588.06	3.442
588.39	3.813
588.73	3.637
589.06	3.958
589.40	4.209
589.73	3.837
590.07	4.164
590.40	4.092
590.73	4.254
591.07	4.518
591.40	4.471
591.74	4.416
592.07	4.538
592.41	4.630
592.74	4.307
593.08	4.164
593.41	4.113
593.75	3.873
594.08	3.989
594.41	4.383
594.75	4.177
595.08	4.259
595.42	4.343
595.75	4.202
596.09	4.732
596.42	5.069
596.75	4.474
597.09	5.758
597.42	4.300
597.75	4.571
598.09	4.696
598.42	4.338
598.76	4.459
599.09	4.257
599.42	4.112
599.76	4.319
600.09	3.825
600.42	3.981
600.76	3.929
601.09	4.189
601.42	4.300
601.76	4.288
602.09	4.229
602.42	4.618
602.76	4.917
603.09	4.170
603.42	4.451
603.76	3.849
604.09	3.994
604.42	4.280
604.76	4.850
605.09	4.238
605.42	4.361
605.75	4.470
606.09	3.782
606.42	4.209
606.75	4.438
607.09	5.107
607.42	3.979
607.75	4.177
608.08	4.299
608.42	5.155
608.75	4.463
609.08	4.810
609.41	5.140
609.75	4.907
610.08	4.618
610.41	4.330
610.74	4.494
611.07	4.990
611.41	5.005
611.74	5.178
612.07	4.762
612.40	5.194
612.73	5.263
613.07	5.119
613.40	5.108
613.73	4.457
614.06	5.376
614.39	5.558
614.72	5.368
615.06	4.937
615.39	4.724
615.72	4.601
616.05	4.944
616.38	4.780
616.71	5.938
617.05	5.595
617.38	5.592
617.71	4.925
618.04	5.288
618.37	5.677
618.70	5.849
619.03	6.447
619.36	5.906
619.69	6.690
620.03	6.250
620.36	6.551
620.69	6.438
621.02	6.047
621.35	7.048
621.68	5.763
622.01	6.347
622.34	6.732
622.67	4.943
623.00	5.136
623.33	5.933
623.66	6.004
623.99	5.596
624.32	5.991
624.65	6.215
624.99	4.816
625.32	5.358
625.65	6.536
625.98	6.457
626.31	7.543
626.64	6.041
626.97	5.320
627.30	6.318
627.63	6.891
627.96	7.065
628.29	6.562
628.62	7.685
628.95	8.585
629.28	7.299
629.61	8.158
629.94	7.143
630.26	7.150
630.59	6.959
630.92	6.609
631.25	6.318
631.58	7.508
631.91	7.099
632.24	8.333
632.57	7.660
632.90	7.237
633.23	7.159
633.56	8.362
633.89	9.287
634.22	8.059
634.55	8.521
634.88	7.665
635.20	7.885
635.53	9.157
635.86	9.777
636.19	9.059
636.52	8.074
636.85	8.820
637.18	7.949
637.51	9.574
637.83	6.905
638.16	7.545
638.49	8.438
638.82	9.482
639.15	8.500
639.48	9.726
639.81	8.579
640.13	9.245
640.46	9.128
640.79	10.172
641.12	9.491
641.45	8.799
641.77	9.573
642.10	9.211
642.43	9.159
642.76	8.824
643.09	10.276
643.41	9.863
643.74	10.648
644.07	11.128
644.40	12.423
644.73	11.811
645.05	12.520
645.38	9.637
645.71	10.950
646.04	10.133
646.36	13.189
646.69	11.037
647.02	9.864
647.35	12.027
647.67	10.973
648.00	11.382
648.33	8.746
648.66	11.061
648.98	10.945
649.31	8.969
649.64	10.613
649.96	11.028
650.29	10.427
650.62	10.680
650.94	12.156
651.27	11.993
651.60	12.313
651.92	12.300
652.25	7.655
652.58	11.838
652.90	11.690
653.23	9.399
653.56	9.291
