SpectraSuite Data File
++++++++++++++++++++++++++++++++++++
Date: Wed May 13 19:56:04 PDT 2015
User: schluterlab
Dark Spectrum Present: Yes
Reference Spectrum Present: Yes
Number of Sampled Component Spectra: 1
Spectrometers: USB2E3373
Integration Time (usec): 3000 (USB2E3373)
Spectra Averaged: 3 (USB2E3373)
Boxcar Smoothing: 0 (USB2E3373)
Correct for Electrical Dark: No (USB2E3373)
Strobe/Lamp Enabled: No (USB2E3373)
Correct for Detector Non-linearity: No (USB2E3373)
Correct for Stray Light: No (USB2E3373)
Number of Pixels in Processed Spectrum: 2048
>>>>>Begin Processed Spectral Data<<<<<
178.53	0.000
178.91	-1200.000
179.29	-1375.000
179.67	-255.556
180.04	-1250.000
180.42	2700.000
180.80	1080.000
181.18	-1200.000
181.56	785.714
181.94	0.000
182.31	-657.143
182.69	1333.333
183.07	-625.000
183.45	-577.778
183.83	472.727
184.20	-450.000
184.58	2350.000
184.96	5200.000
185.34	-820.000
185.72	-775.000
186.09	-2600.000
186.47	2600.000
186.85	2550.000
187.23	5400.000
187.61	-1733.333
187.98	1350.000
188.36	545.455
188.74	463.636
189.12	-720.000
189.49	610.000
189.87	-5100.000
190.25	-1200.000
190.63	364.286
191.00	384.615
191.38	933.333
191.76	-1325.000
192.14	1675.000
192.51	650.000
192.89	900.000
193.27	700.000
193.65	-1050.000
194.02	540.000
194.40	940.000
194.78	530.000
195.15	575.000
195.53	600.000
195.91	-2500.000
196.29	350.000
196.66	315.789
197.04	-330.000
197.42	0.000
197.79	620.000
198.17	-5100.000
198.55	700.000
198.92	662.500
199.30	880.000
199.68	0.000
200.05	355.556
200.43	728.571
200.81	5200.000
201.18	1700.000
201.56	-1600.000
201.94	622.222
202.31	766.667
202.69	466.667
203.07	610.000
203.44	0.000
203.82	1225.000
204.19	742.857
204.57	400.000
204.95	675.000
205.32	1666.667
205.70	481.818
206.08	414.286
206.45	2750.000
206.83	368.750
207.20	833.333
207.58	800.000
207.96	344.444
208.33	775.000
208.71	-800.000
209.08	800.000
209.46	500.000
209.84	509.091
210.21	-1466.667
210.59	1375.000
210.96	-450.000
211.34	2500.000
211.71	560.000
212.09	833.333
212.46	0.000
212.84	1766.667
213.22	1150.000
213.59	-4300.000
213.97	900.000
214.34	771.429
214.72	645.455
215.09	920.000
215.47	-2250.000
215.84	-2300.000
216.22	1466.667
216.59	350.000
216.97	1325.000
217.34	454.545
217.72	-766.667
218.09	0.000
218.47	-5000.000
218.84	633.333
219.22	771.429
219.59	1833.333
219.97	-700.000
220.34	880.000
220.72	-1633.333
221.09	385.714
221.47	1400.000
221.84	-1000.000
222.22	0.000
222.59	1275.000
222.97	-2650.000
223.34	1040.000
223.72	484.615
224.09	1280.000
224.46	1900.000
224.84	-4900.000
225.21	-1080.000
225.59	-3900.000
225.96	530.000
226.34	300.000
226.71	2850.000
227.08	675.000
227.46	510.000
227.83	-1050.000
228.21	-2250.000
228.58	644.444
228.95	-2650.000
229.33	-2550.000
229.70	2000.000
230.08	842.857
230.45	-760.000
230.82	416.667
231.20	800.000
231.57	571.429
231.95	483.333
232.32	272.727
232.69	445.455
233.07	728.571
233.44	353.846
233.81	-1766.667
234.19	305.263
234.56	458.333
234.93	400.000
235.31	472.727
235.68	276.923
236.05	392.857
236.43	154.545
236.80	263.158
237.17	4100.000
237.55	228.571
237.92	157.143
238.29	233.333
238.67	145.161
239.04	172.414
239.41	100.000
239.79	115.217
240.16	128.571
240.53	115.909
240.91	98.039
241.28	86.000
241.65	78.000
242.02	84.058
242.40	75.806
242.77	61.667
243.14	73.118
243.51	57.303
243.89	58.824
244.26	54.444
244.63	50.538
245.00	43.617
245.38	45.545
245.75	48.598
246.12	38.532
246.49	44.526
246.87	41.600
247.24	42.308
247.61	39.286
247.98	41.830
248.36	29.730
248.73	35.032
249.10	33.758
249.47	26.554
249.84	33.155
250.22	29.412
250.59	27.219
250.96	27.778
251.33	26.066
251.70	30.693
252.08	22.381
252.45	25.112
252.82	21.304
253.19	25.957
253.56	26.275
253.94	24.896
254.31	22.266
254.68	23.462
255.05	23.616
255.42	17.886
255.79	19.853
256.16	22.383
256.54	17.668
256.91	19.929
257.28	17.626
257.65	20.462
258.02	15.528
258.39	17.035
258.76	15.385
259.14	21.429
259.51	18.237
259.88	15.528
260.25	16.012
260.62	19.075
260.99	15.528
261.36	12.913
261.73	14.900
262.10	13.081
262.47	16.901
262.85	15.599
263.22	13.960
263.59	18.803
263.96	13.462
264.33	15.666
264.70	15.789
265.07	14.578
265.44	16.414
265.81	12.895
266.18	15.327
266.55	13.415
266.92	14.988
267.29	12.963
267.66	14.679
268.03	11.591
268.40	13.084
268.77	10.501
269.14	11.937
269.51	13.318
269.88	13.054
270.25	12.190
270.62	14.157
270.99	16.774
271.36	14.163
271.73	10.748
272.10	11.304
272.47	11.613
272.84	12.771
273.21	12.579
273.58	12.227
273.95	11.530
274.32	9.917
274.69	11.777
275.06	10.236
275.43	11.915
275.80	9.619
276.17	11.813
276.54	12.058
276.91	10.870
277.28	10.742
277.65	13.733
278.02	9.524
278.39	12.109
278.76	11.273
279.13	11.698
279.50	10.056
279.87	10.956
280.23	9.980
280.60	10.445
280.97	8.872
281.34	9.558
281.71	10.909
282.08	10.749
282.45	9.818
282.82	12.789
283.19	7.487
283.56	9.298
283.92	9.306
284.29	9.524
284.66	8.893
285.03	7.957
285.40	9.331
285.77	9.933
286.14	9.845
286.51	9.667
286.87	9.060
287.24	10.261
287.61	10.112
287.98	9.903
288.35	8.558
288.72	9.034
289.08	8.451
289.45	9.885
289.82	10.081
290.19	9.576
290.56	8.423
290.93	8.912
291.29	8.589
291.66	9.735
292.03	11.483
292.40	10.866
292.77	7.988
293.13	8.955
293.50	8.746
293.87	7.852
294.24	8.296
294.60	8.006
294.97	9.012
295.34	9.168
295.71	9.375
296.08	7.550
296.44	7.978
296.81	8.719
297.18	9.214
297.55	6.728
297.91	8.311
298.28	9.639
298.65	9.138
299.02	8.169
299.38	7.570
299.75	6.739
300.12	7.024
300.48	8.375
300.85	7.152
301.22	8.025
301.59	6.818
301.95	8.312
302.32	7.189
302.69	7.885
303.05	6.909
303.42	5.802
303.79	7.248
304.15	5.594
304.52	7.068
304.89	7.666
305.25	7.193
305.62	8.267
305.99	7.674
306.35	6.935
306.72	7.848
307.09	8.768
307.45	8.446
307.82	6.696
308.19	9.382
308.55	8.522
308.92	8.056
309.29	7.286
309.65	8.590
310.02	7.505
310.38	7.634
310.75	7.286
311.12	8.188
311.48	9.091
311.85	8.910
312.22	8.325
312.58	8.420
312.95	7.920
313.31	8.058
313.68	8.628
314.05	10.256
314.41	10.352
314.78	9.265
315.14	9.633
315.51	9.475
315.87	10.891
316.24	9.533
316.61	8.869
316.97	9.491
317.34	10.176
317.70	10.994
318.07	10.010
318.43	11.057
318.80	11.246
319.16	11.676
319.53	10.882
319.89	12.000
320.26	13.300
320.62	12.202
320.99	12.222
321.35	12.626
321.72	12.218
322.08	13.327
322.45	13.333
322.81	12.791
323.18	13.487
323.54	14.286
323.91	15.000
324.27	13.576
324.64	12.582
325.00	13.616
325.37	14.741
325.73	15.440
326.10	15.534
326.46	14.695
326.83	15.186
327.19	15.371
327.56	14.895
327.92	15.311
328.29	15.883
328.65	17.035
329.01	16.245
329.38	16.374
329.74	16.436
330.11	16.211
330.47	16.621
330.84	17.923
331.20	15.392
331.56	16.422
331.93	16.759
332.29	17.125
332.66	16.726
333.02	16.728
333.38	16.170
333.75	17.291
334.11	17.171
334.48	15.794
334.84	17.831
335.20	17.000
335.57	16.410
335.93	15.536
336.29	17.125
336.66	17.133
337.02	16.018
337.38	15.556
337.75	16.310
338.11	16.383
338.47	16.022
338.84	16.865
339.20	16.881
339.56	17.883
339.93	15.636
340.29	15.308
340.65	16.132
341.02	17.016
341.38	15.569
341.74	15.965
342.11	16.681
342.47	15.859
342.83	16.182
343.20	16.537
343.56	15.838
343.92	16.579
344.28	16.071
344.65	15.907
345.01	15.741
345.37	14.666
345.73	16.497
346.10	16.539
346.46	16.441
346.82	16.392
347.19	14.703
347.55	15.764
347.91	15.858
348.27	15.941
348.63	16.722
349.00	15.858
349.36	15.435
349.72	16.038
350.08	16.937
350.45	17.494
350.81	16.247
351.17	15.883
351.53	15.889
351.89	15.512
352.26	16.259
352.62	16.279
352.98	15.964
353.34	16.187
353.70	14.730
354.07	15.968
354.43	15.714
354.79	15.607
355.15	14.605
355.51	16.467
355.87	15.755
356.24	16.775
356.60	15.477
356.96	15.768
357.32	14.800
357.68	16.299
358.04	15.598
358.40	16.944
358.77	16.119
359.13	15.312
359.49	17.020
359.85	15.079
360.21	15.470
360.57	15.875
360.93	16.385
361.29	14.966
361.66	14.938
362.02	15.970
362.38	16.502
362.74	16.443
363.10	15.100
363.46	16.141
363.82	16.251
364.18	14.831
364.54	16.345
364.90	16.501
365.26	15.956
365.62	15.924
365.98	16.143
366.35	16.046
366.71	15.763
367.07	16.679
367.43	16.618
367.79	16.631
368.15	16.164
368.51	15.698
368.87	16.417
369.23	17.045
369.59	16.727
369.95	15.662
370.31	16.524
370.67	17.536
371.03	16.479
371.39	16.399
371.75	17.500
372.11	16.145
372.47	16.862
372.83	16.859
373.19	16.546
373.55	16.999
373.91	17.452
374.27	17.595
374.63	15.709
374.99	17.373
375.35	16.957
375.71	16.518
376.07	16.872
376.42	16.988
376.78	17.561
377.14	17.503
377.50	17.682
377.86	16.489
378.22	17.889
378.58	16.792
378.94	16.530
379.30	16.031
379.66	17.893
380.02	17.322
380.38	17.243
380.74	17.647
381.09	18.521
381.45	17.455
381.81	17.445
382.17	17.389
382.53	18.742
382.89	17.840
383.25	17.386
383.61	19.021
383.97	17.636
384.32	18.091
384.68	17.224
385.04	17.947
385.40	18.019
385.76	18.735
386.12	17.811
386.48	18.754
386.83	17.960
387.19	18.182
387.55	18.862
387.91	18.622
388.27	18.210
388.62	19.176
388.98	17.936
389.34	18.648
389.70	19.681
390.06	19.455
390.42	18.612
390.77	19.338
391.13	19.464
391.49	19.797
391.85	18.205
392.20	18.549
392.56	18.939
392.92	18.776
393.28	18.225
393.64	18.525
393.99	19.426
394.35	18.983
394.71	18.695
395.07	19.003
395.42	19.592
395.78	19.784
396.14	19.615
396.50	19.612
396.85	20.153
397.21	20.160
397.57	19.281
397.92	20.012
398.28	19.058
398.64	19.474
399.00	18.635
399.35	18.669
399.71	19.039
400.07	19.456
400.42	19.939
400.78	19.119
401.14	19.695
401.49	19.104
401.85	18.693
402.21	19.341
402.57	18.877
402.92	19.609
403.28	20.300
403.63	19.554
403.99	20.255
404.35	19.394
404.70	19.365
405.06	19.394
405.42	20.025
405.77	19.029
406.13	19.357
406.49	19.042
406.84	20.201
407.20	19.090
407.55	19.464
407.91	19.933
408.27	19.272
408.62	20.048
408.98	19.485
409.34	20.172
409.69	20.452
410.05	19.579
410.40	20.367
410.76	19.474
411.11	20.507
411.47	19.489
411.83	20.098
412.18	19.975
412.54	20.486
412.89	19.639
413.25	19.776
413.60	20.136
413.96	19.733
414.31	20.595
414.67	20.342
415.03	19.536
415.38	21.134
415.74	20.965
416.09	20.118
416.45	20.683
416.80	20.357
417.16	20.912
417.51	21.102
417.87	20.745
418.22	20.631
418.58	20.788
418.93	21.192
419.29	20.751
419.64	21.851
420.00	21.341
420.35	20.928
420.71	21.638
421.06	19.630
421.42	21.053
421.77	20.852
422.12	20.045
422.48	19.968
422.83	20.501
423.19	21.602
423.54	21.126
423.90	21.217
424.25	20.994
424.61	21.429
424.96	20.758
425.31	21.152
425.67	20.955
426.02	20.629
426.38	23.077
426.73	21.299
427.09	21.337
427.44	21.219
427.79	21.392
428.15	21.607
428.50	21.533
428.85	22.110
429.21	21.038
429.56	21.255
429.92	21.741
430.27	21.003
430.62	20.635
430.98	21.796
431.33	21.237
431.68	21.152
432.04	21.406
432.39	21.588
432.74	22.322
433.10	21.619
433.45	22.157
433.80	21.785
434.16	22.169
434.51	21.158
434.86	21.950
435.22	21.845
435.57	21.763
435.92	21.475
436.28	22.776
436.63	22.627
436.98	21.294
437.34	22.302
437.69	22.520
438.04	22.260
438.39	21.672
438.75	22.661
439.10	21.844
439.45	22.373
439.81	22.598
440.16	21.287
440.51	22.144
440.86	21.888
441.22	22.581
441.57	22.399
441.92	22.620
442.27	22.443
442.63	22.328
442.98	22.873
443.33	22.717
443.68	22.251
444.03	22.206
444.39	22.055
444.74	22.403
445.09	22.372
445.44	22.034
445.79	22.365
446.15	22.605
446.50	22.456
446.85	22.354
447.20	21.469
447.55	21.999
447.91	22.449
448.26	22.482
448.61	23.233
448.96	23.256
449.31	23.228
449.66	22.060
450.02	22.451
450.37	21.825
450.72	22.673
451.07	22.182
451.42	21.277
451.77	23.018
452.12	22.460
452.47	23.010
452.83	22.844
453.18	23.044
453.53	23.995
453.88	22.504
454.23	23.192
454.58	23.259
454.93	23.458
455.28	22.880
455.63	22.209
455.98	23.393
456.34	22.362
456.69	22.542
457.04	23.282
457.39	22.501
457.74	23.041
458.09	22.657
458.44	23.033
458.79	21.800
459.14	22.743
459.49	23.176
459.84	22.825
460.19	22.157
460.54	22.280
460.89	22.052
461.24	22.890
461.59	23.475
461.94	22.072
462.29	22.849
462.64	22.719
462.99	21.861
463.34	23.333
463.69	24.015
464.04	22.667
464.39	22.551
464.74	23.351
465.09	23.040
465.44	22.216
465.79	21.868
466.14	22.715
466.49	22.247
466.84	22.767
467.19	22.692
467.54	22.750
467.89	22.089
468.24	22.397
468.59	23.016
468.94	22.175
469.29	22.943
469.64	23.293
469.99	22.733
470.34	21.466
470.68	23.420
471.03	23.605
471.38	23.419
471.73	22.585
472.08	22.961
472.43	21.608
472.78	22.317
473.13	22.593
473.48	22.472
473.83	22.683
474.17	21.344
474.52	22.767
474.87	22.825
475.22	22.461
475.57	21.924
475.92	22.039
476.27	21.590
476.61	22.284
476.96	21.715
477.31	21.664
477.66	20.788
478.01	21.014
478.36	21.840
478.70	21.599
479.05	22.151
479.40	21.187
479.75	21.200
480.10	20.577
480.45	20.800
480.79	20.640
481.14	20.450
481.49	20.883
481.84	20.668
482.19	21.399
482.53	20.872
482.88	21.312
483.23	21.215
483.58	20.792
483.92	21.228
484.27	19.956
484.62	20.776
484.97	20.063
485.31	20.240
485.66	18.977
486.01	18.662
486.36	18.627
486.70	18.448
487.05	18.381
487.40	18.667
487.75	19.140
488.09	19.351
488.44	19.346
488.79	19.928
489.13	20.206
489.48	19.821
489.83	19.594
490.17	19.816
490.52	19.531
490.87	19.674
491.22	20.146
491.56	19.499
491.91	19.404
492.26	19.706
492.60	19.401
492.95	19.738
493.30	19.813
493.64	19.365
493.99	19.359
494.34	19.241
494.68	19.918
495.03	19.878
495.37	19.777
495.72	19.883
496.07	19.907
496.41	18.982
496.76	19.217
497.11	19.766
497.45	19.981
497.80	19.530
498.14	19.517
498.49	19.805
498.84	19.032
499.18	19.333
499.53	18.708
499.87	19.478
500.22	18.841
500.56	19.709
500.91	18.846
501.26	19.393
501.60	19.744
501.95	19.569
502.29	19.213
502.64	18.622
502.98	18.560
503.33	18.739
503.67	19.165
504.02	18.662
504.36	18.811
504.71	18.808
505.06	19.181
505.40	18.425
505.75	18.419
506.09	18.562
506.44	18.056
506.78	18.315
507.13	18.476
507.47	18.838
507.82	19.554
508.16	18.642
508.51	19.280
508.85	18.868
509.19	19.082
509.54	18.724
509.88	18.290
510.23	18.046
510.57	19.298
510.92	18.902
511.26	18.911
511.61	19.554
511.95	18.319
512.30	18.293
512.64	18.646
512.98	19.078
513.33	19.165
513.67	18.196
514.02	18.019
514.36	18.951
514.70	17.986
515.05	17.847
515.39	18.508
515.74	18.356
516.08	19.229
516.42	18.868
516.77	19.175
517.11	17.703
517.46	19.074
517.80	18.815
518.14	18.008
518.49	18.728
518.83	18.409
519.17	17.783
519.52	17.431
519.86	18.026
520.20	19.017
520.55	19.090
520.89	19.039
521.23	19.059
521.58	19.208
521.92	18.800
522.26	17.023
522.61	18.754
522.95	16.943
523.29	17.651
523.64	18.902
523.98	18.423
524.32	17.973
524.66	18.280
525.01	18.627
525.35	17.968
525.69	17.365
526.04	18.069
526.38	18.426
526.72	17.485
527.06	18.267
527.41	17.265
527.75	17.363
528.09	17.855
528.43	17.973
528.78	18.808
529.12	17.333
529.46	18.310
529.80	18.131
530.15	17.321
530.49	17.292
530.83	17.911
531.17	17.820
531.51	18.547
531.86	16.581
532.20	17.927
532.54	17.553
532.88	18.228
533.22	16.989
533.57	17.160
533.91	16.797
534.25	16.221
534.59	16.595
534.93	17.906
535.27	16.415
535.62	16.728
535.96	16.886
536.30	16.847
536.64	16.999
536.98	17.186
537.32	17.314
537.66	16.267
538.01	16.656
538.35	16.742
538.69	18.315
539.03	16.179
539.37	15.974
539.71	16.332
540.05	17.778
540.39	17.076
540.73	15.912
541.07	16.807
541.42	16.047
541.76	16.581
542.10	16.365
542.44	17.020
542.78	17.260
543.12	16.187
543.46	15.738
543.80	16.526
544.14	14.827
544.48	15.048
544.82	15.843
545.16	16.135
545.50	15.681
545.84	15.793
546.18	16.431
546.52	16.036
546.86	16.907
547.20	15.914
547.54	16.032
547.88	16.518
548.22	16.002
548.56	16.164
548.90	15.301
549.24	15.556
549.58	16.235
549.92	16.415
550.26	16.761
550.60	15.768
550.94	16.127
551.28	15.216
551.62	15.960
551.96	15.088
552.30	16.177
552.64	16.633
552.98	15.593
553.32	16.116
553.66	16.360
554.00	15.992
554.34	15.045
554.68	16.166
555.02	15.726
555.36	15.866
555.69	15.156
556.03	16.420
556.37	15.143
556.71	14.188
557.05	15.266
557.39	15.255
557.73	15.526
558.07	15.373
558.41	15.991
558.75	15.283
559.08	16.480
559.42	15.268
559.76	15.735
560.10	14.133
560.44	15.653
560.78	14.571
561.12	15.106
561.45	15.515
561.79	15.755
562.13	14.688
562.47	15.574
562.81	14.296
563.15	15.050
563.48	14.987
563.82	14.808
564.16	15.108
564.50	14.323
564.84	14.981
565.17	13.771
565.51	14.696
565.85	15.292
566.19	14.402
566.52	14.693
566.86	14.165
567.20	14.505
567.54	13.813
567.88	13.471
568.21	14.074
568.55	13.195
568.89	12.938
569.23	13.057
569.56	12.591
569.90	12.868
570.24	12.451
570.57	12.343
570.91	11.894
571.25	12.168
571.59	12.165
571.92	11.895
572.26	11.641
572.60	12.042
572.93	11.784
573.27	12.008
573.61	11.865
573.95	11.835
574.28	11.482
574.62	11.443
574.96	11.183
575.29	11.106
575.63	11.001
575.97	11.351
576.30	11.630
576.64	11.271
576.98	11.206
577.31	11.160
577.65	11.053
577.98	11.138
578.32	11.021
578.66	10.839
578.99	11.002
579.33	11.256
579.67	10.825
580.00	10.813
580.34	10.987
580.67	10.825
581.01	10.929
581.35	10.575
581.68	10.749
582.02	10.600
582.35	10.434
582.69	10.764
583.02	10.630
583.36	10.768
583.70	10.864
584.03	10.972
584.37	11.436
584.70	11.076
585.04	10.910
585.37	10.974
585.71	11.114
586.04	10.872
586.38	10.867
586.72	11.461
587.05	10.541
587.39	10.844
587.72	10.899
588.06	10.886
588.39	11.056
588.73	10.560
589.06	11.250
589.40	11.549
589.73	11.510
590.07	11.495
590.40	11.071
590.73	11.593
591.07	11.966
591.40	11.978
591.74	11.948
592.07	11.824
592.41	11.782
592.74	11.498
593.08	11.426
593.41	11.389
593.75	11.087
594.08	11.029
594.41	10.993
594.75	11.275
595.08	11.131
595.42	11.173
595.75	11.040
596.09	11.265
596.42	11.906
596.75	11.313
597.09	12.121
597.42	11.341
597.75	11.902
598.09	11.652
598.42	11.340
598.76	11.147
599.09	11.098
599.42	11.172
599.76	10.688
600.09	10.893
600.42	10.446
600.76	10.750
601.09	10.455
601.42	10.845
601.76	11.044
602.09	10.672
602.42	11.226
602.76	11.366
603.09	10.818
603.42	11.285
603.76	10.556
604.09	10.896
604.42	11.088
604.76	11.303
605.09	11.315
605.42	10.731
605.75	11.175
606.09	10.817
606.42	11.034
606.75	10.452
607.09	11.846
607.42	10.569
607.75	10.591
608.08	10.421
608.42	11.878
608.75	11.271
609.08	10.592
609.41	10.757
609.75	11.005
610.08	11.640
610.41	10.987
610.74	10.170
611.07	11.611
611.41	11.040
611.74	12.066
612.07	10.921
612.40	12.015
612.73	11.053
613.07	12.392
613.40	11.111
613.73	10.435
614.06	11.559
614.39	11.956
614.72	11.421
615.06	11.502
615.39	10.881
615.72	11.043
616.05	11.271
616.38	11.562
616.71	11.580
617.05	11.837
617.38	11.606
617.71	11.411
618.04	11.238
618.37	10.704
618.70	11.761
619.03	12.434
619.36	11.541
619.69	11.831
620.03	12.706
620.36	12.433
620.69	12.945
621.02	12.389
621.35	11.746
621.68	12.539
622.01	11.997
622.34	12.027
622.67	11.711
623.00	11.445
623.33	11.866
623.66	11.723
623.99	11.487
624.32	11.840
624.65	11.017
624.99	10.907
625.32	11.369
625.65	11.420
625.98	11.991
626.31	12.519
626.64	12.735
626.97	11.056
627.30	11.804
627.63	12.469
627.96	12.952
628.29	11.549
628.62	13.175
628.95	13.396
629.28	13.777
629.61	13.016
629.94	12.952
630.26	12.583
630.59	13.346
630.92	13.889
631.25	12.636
631.58	13.213
631.91	13.895
632.24	12.131
632.57	14.271
632.90	14.912
