SpectraSuite Data File
++++++++++++++++++++++++++++++++++++
Date: Tue May 12 19:58:41 PDT 2015
User: schluterlab
Dark Spectrum Present: Yes
Reference Spectrum Present: Yes
Number of Sampled Component Spectra: 1
Spectrometers: USB2E3373
Integration Time (usec): 3000 (USB2E3373)
Spectra Averaged: 3 (USB2E3373)
Boxcar Smoothing: 0 (USB2E3373)
Correct for Electrical Dark: No (USB2E3373)
Strobe/Lamp Enabled: No (USB2E3373)
Correct for Detector Non-linearity: No (USB2E3373)
Correct for Stray Light: No (USB2E3373)
Number of Pixels in Processed Spectrum: 2048
>>>>>Begin Processed Spectral Data<<<<<
178.53	0.000
178.91	-150.000
179.29	-166.667
179.67	600.000
180.04	0.000
180.42	-340.000
180.80	-500.000
181.18	1350.000
181.56	-900.000
181.94	483.333
182.31	2900.000
182.69	-142.857
183.07	0.000
183.45	250.000
183.83	360.000
184.20	400.000
184.58	1500.000
184.96	316.667
185.34	-566.667
185.72	-71.429
186.09	-350.000
186.47	-2300.000
186.85	-280.000
187.23	233.333
187.61	-342.857
187.98	-300.000
188.36	1050.000
188.74	-275.000
189.12	-355.556
189.49	-170.000
189.87	575.000
190.25	300.000
190.63	800.000
191.00	380.000
191.38	-300.000
191.76	720.000
192.14	-271.429
192.51	-210.000
192.89	-100.000
193.27	-260.000
193.65	-266.667
194.02	-300.000
194.40	1800.000
194.78	-262.500
195.15	-300.000
195.53	333.333
195.91	360.000
196.29	-400.000
196.66	-366.667
197.04	-242.857
197.42	240.000
197.79	-200.000
198.17	-150.000
198.55	-1200.000
198.92	-188.889
199.30	1300.000
199.68	-300.000
200.05	-1150.000
200.43	-111.111
200.81	-133.333
201.18	516.667
201.56	-600.000
201.94	-2100.000
202.31	-133.333
202.69	-166.667
203.07	-83.333
203.44	-625.000
203.82	0.000
204.19	262.500
204.57	-700.000
204.95	272.727
205.32	440.000
205.70	400.000
206.08	-300.000
206.45	-300.000
206.83	2400.000
207.20	-277.778
207.58	-115.385
207.96	300.000
208.33	800.000
208.71	700.000
209.08	950.000
209.46	-11.111
209.84	800.000
210.21	-666.667
210.59	900.000
210.96	266.667
211.34	-575.000
211.71	1250.000
212.09	-140.000
212.46	-287.500
212.84	-262.500
213.22	142.857
213.59	-100.000
213.97	0.000
214.34	-600.000
214.72	-1400.000
215.09	1000.000
215.47	-86.667
215.84	-237.500
216.22	-900.000
216.59	2100.000
216.97	-25.000
217.34	-216.667
217.72	38.889
218.09	625.000
218.47	-68.421
218.84	-262.500
219.22	-92.857
219.59	-240.000
219.97	-180.000
220.34	316.667
220.72	172.727
221.09	-500.000
221.47	0.000
221.84	950.000
222.22	-550.000
222.59	-375.000
222.97	-56.522
223.34	160.000
223.72	371.429
224.09	-150.000
224.46	200.000
224.84	-53.333
225.21	-1100.000
225.59	-400.000
225.96	-5.000
226.34	483.333
226.71	350.000
227.08	-169.231
227.46	-142.857
227.83	-125.000
228.21	-1650.000
228.58	400.000
228.95	-52.632
229.33	-43.750
229.70	-283.333
230.08	-77.778
230.45	-500.000
230.82	-1000.000
231.20	-9.524
231.57	-320.000
231.95	-333.333
232.32	200.000
232.69	-700.000
233.07	-31.250
233.44	-187.500
233.81	-6.452
234.19	-280.000
234.56	-44.444
234.93	-100.000
235.31	3.704
235.68	-55.556
236.05	-15.385
236.43	-15.789
236.80	-4.545
237.17	-57.143
237.55	-65.000
237.92	9.302
238.29	-19.355
238.67	3.571
239.04	48.571
239.41	13.725
239.79	24.000
240.16	5.000
240.53	18.966
240.91	20.548
241.28	29.577
241.65	23.437
242.02	26.316
242.40	29.333
242.77	22.105
243.14	36.471
243.51	45.161
243.89	29.524
244.26	42.593
244.63	37.755
245.00	33.929
245.38	33.613
245.75	38.983
246.12	38.281
246.49	40.800
246.87	45.902
247.24	40.845
247.61	43.046
247.98	42.135
248.36	45.283
248.73	44.318
249.10	42.778
249.47	48.438
249.84	42.132
250.22	39.583
250.59	48.315
250.96	47.727
251.33	49.057
251.70	53.211
252.08	51.948
252.45	43.265
252.82	48.101
253.19	50.584
253.56	50.980
253.94	51.626
254.31	48.201
254.68	48.611
255.05	50.662
255.42	49.818
255.79	53.642
256.16	50.694
256.54	46.667
256.91	49.679
257.28	49.351
257.65	48.852
258.02	52.252
258.39	50.453
258.76	49.235
259.14	49.412
259.51	51.549
259.88	55.331
260.25	51.989
260.62	50.281
260.99	48.747
261.36	50.862
261.73	53.067
262.10	56.131
262.47	56.198
262.85	50.386
263.22	48.925
263.59	53.083
263.96	54.047
264.33	52.561
264.70	48.894
265.07	53.202
265.44	50.351
265.81	52.048
266.18	51.991
266.55	55.476
266.92	51.563
267.29	50.889
267.66	49.773
268.03	52.043
268.40	52.174
268.77	50.334
269.14	49.580
269.51	52.036
269.88	51.496
270.25	49.156
270.62	52.731
270.99	49.053
271.36	51.656
271.73	51.458
272.10	51.660
272.47	48.200
272.84	49.469
273.21	48.643
273.58	47.755
273.95	49.203
274.32	47.776
274.69	50.098
275.06	51.220
275.43	50.800
275.80	51.434
276.17	50.000
276.54	49.620
276.91	50.672
277.28	50.677
277.65	49.527
278.02	51.136
278.39	50.635
278.76	52.328
279.13	50.805
279.50	51.986
279.87	50.000
280.23	49.545
280.60	46.996
280.97	52.197
281.34	48.983
281.71	46.892
282.08	49.195
282.45	48.325
282.82	48.316
283.19	47.980
283.56	50.171
283.92	46.919
284.29	49.408
284.66	49.204
285.03	45.455
285.40	50.333
285.77	48.112
286.14	45.800
286.51	46.302
286.87	45.867
287.24	47.436
287.61	47.531
287.98	49.139
288.35	47.752
288.72	46.636
289.08	43.868
289.45	44.774
289.82	43.634
290.19	44.697
290.56	43.849
290.93	44.904
291.29	41.560
291.66	41.994
292.03	44.189
292.40	44.317
292.77	42.420
293.13	40.235
293.50	41.736
293.87	41.193
294.24	40.169
294.60	41.803
294.97	38.643
295.34	39.315
295.71	39.667
296.08	38.525
296.44	40.580
296.81	38.422
297.18	39.457
297.55	36.055
297.91	37.056
298.28	37.724
298.65	38.422
299.02	36.128
299.38	37.117
299.75	37.580
300.12	36.571
300.48	36.385
300.85	37.042
301.22	35.216
301.59	36.131
301.95	37.439
302.32	36.574
302.69	35.434
303.05	36.482
303.42	38.527
303.79	35.056
304.15	35.787
304.52	37.207
304.89	34.386
305.25	37.729
305.62	35.795
305.99	35.162
306.35	32.998
306.72	36.166
307.09	34.385
307.45	33.441
307.82	34.792
308.19	35.864
308.55	35.338
308.92	34.746
309.29	35.983
309.65	34.469
310.02	34.486
310.38	34.861
310.75	35.041
311.12	34.690
311.48	36.074
311.85	34.448
312.22	35.434
312.58	34.642
312.95	33.881
313.31	35.693
313.68	34.558
314.05	35.452
314.41	36.444
314.78	34.673
315.14	35.749
315.51	34.955
315.87	35.938
316.24	36.301
316.61	36.019
316.97	37.353
317.34	37.512
317.70	37.068
318.07	37.608
318.43	37.146
318.80	36.248
319.16	37.185
319.53	40.472
319.89	37.973
320.26	39.135
320.62	38.372
320.99	39.286
321.35	40.217
321.72	40.505
322.08	41.188
322.45	40.533
322.81	42.463
323.18	41.227
323.54	42.464
323.91	42.125
324.27	44.166
324.64	43.861
325.00	43.858
325.37	44.874
325.73	44.434
326.10	44.221
326.46	46.963
326.83	46.702
327.19	47.511
327.56	47.480
327.92	47.049
328.29	45.878
328.65	49.718
329.01	47.798
329.38	48.026
329.74	49.582
330.11	48.649
330.47	49.348
330.84	48.966
331.20	48.152
331.56	49.717
331.93	50.229
332.29	50.324
332.66	49.548
333.02	51.068
333.38	50.368
333.75	50.320
334.11	49.458
334.48	50.805
334.84	51.080
335.20	50.224
335.57	50.772
335.93	51.349
336.29	50.274
336.66	51.093
337.02	51.315
337.38	53.019
337.75	50.909
338.11	52.142
338.47	52.368
338.84	51.289
339.20	51.512
339.56	51.817
339.93	51.171
340.29	52.856
340.65	52.146
341.02	50.841
341.38	51.545
341.74	53.025
342.11	51.724
342.47	53.497
342.83	51.084
343.20	53.050
343.56	54.196
343.92	53.193
344.28	52.144
344.65	51.627
345.01	53.484
345.37	52.308
345.73	53.661
346.10	53.760
346.46	52.632
346.82	53.526
347.19	52.397
347.55	53.316
347.91	53.153
348.27	53.665
348.63	55.056
349.00	55.175
349.36	53.751
349.72	53.530
350.08	53.846
350.45	53.214
350.81	54.831
351.17	54.283
351.53	52.738
351.89	55.440
352.26	52.846
352.62	54.374
352.98	53.808
353.34	54.470
353.70	54.897
354.07	53.542
354.43	54.841
354.79	55.082
355.15	54.318
355.51	56.153
355.87	56.203
356.24	56.127
356.60	54.341
356.96	53.791
357.32	57.202
357.68	54.733
358.04	55.105
358.40	57.038
358.77	54.940
359.13	55.261
359.49	55.760
359.85	56.195
360.21	56.384
360.57	56.938
360.93	57.720
361.29	55.763
361.66	55.363
362.02	57.614
362.38	56.022
362.74	57.417
363.10	55.354
363.46	56.960
363.82	56.968
364.18	57.456
364.54	56.870
364.90	57.926
365.26	58.942
365.62	57.835
365.98	58.546
366.35	59.228
366.71	57.655
367.07	59.410
367.43	58.051
367.79	57.413
368.15	59.229
368.51	59.476
368.87	59.251
369.23	59.727
369.59	57.574
369.95	58.867
370.31	60.076
370.67	58.496
371.03	60.759
371.39	61.027
371.75	58.990
372.11	58.519
372.47	58.500
372.83	60.190
373.19	61.521
373.55	60.105
373.91	59.924
374.27	61.442
374.63	59.057
374.99	59.663
375.35	61.611
375.71	59.828
376.07	60.565
376.42	59.544
376.78	61.951
377.14	60.684
377.50	60.328
377.86	61.560
378.22	61.229
378.58	62.829
378.94	61.231
379.30	61.583
379.66	61.908
380.02	62.683
380.38	61.896
380.74	62.337
381.09	62.706
381.45	63.492
381.81	63.776
382.17	62.345
382.53	62.919
382.89	61.642
383.25	62.016
383.61	60.776
383.97	63.288
384.32	63.484
384.68	63.985
385.04	63.081
385.40	61.661
385.76	62.745
386.12	62.640
386.48	62.753
386.83	62.870
387.19	63.282
387.55	62.889
387.91	63.115
388.27	64.171
388.62	64.896
388.98	63.422
389.34	64.151
389.70	63.590
390.06	65.611
390.42	64.368
390.77	65.526
391.13	63.240
391.49	64.353
391.85	63.806
392.20	64.620
392.56	61.952
392.92	64.564
393.28	62.597
393.64	63.901
393.99	64.610
394.35	64.828
394.71	62.517
395.07	63.859
395.42	63.746
395.78	63.844
396.14	63.757
396.50	63.066
396.85	63.120
397.21	62.419
397.57	63.002
397.92	64.059
398.28	64.329
398.64	63.111
399.00	62.449
399.35	63.599
399.71	64.431
400.07	64.484
400.42	64.615
400.78	64.427
401.14	63.005
401.49	62.586
401.85	64.254
402.21	63.325
402.57	60.979
402.92	64.675
403.28	63.654
403.63	63.077
403.99	63.210
404.35	61.911
404.70	63.395
405.06	64.352
405.42	61.809
405.77	61.950
406.13	61.768
406.49	62.965
406.84	63.699
407.20	62.577
407.55	62.458
407.91	62.657
408.27	63.497
408.62	63.215
408.98	64.286
409.34	61.972
409.69	60.803
410.05	61.464
410.40	60.501
410.76	61.021
411.11	61.926
411.47	63.401
411.83	61.365
412.18	61.780
412.54	60.220
412.89	60.622
413.25	62.194
413.60	61.480
413.96	60.712
414.31	59.401
414.67	62.863
415.03	59.682
415.38	61.630
415.74	60.510
416.09	61.544
416.45	60.934
416.80	61.405
417.16	62.059
417.51	59.750
417.87	62.312
418.22	59.960
418.58	61.921
418.93	59.703
419.29	59.905
419.64	63.393
420.00	59.659
420.35	60.452
420.71	60.371
421.06	61.129
421.42	59.849
421.77	61.510
422.12	59.953
422.48	60.537
422.83	59.392
423.19	59.882
423.54	58.949
423.90	59.765
424.25	60.121
424.61	60.516
424.96	59.152
425.31	60.205
425.67	58.667
426.02	60.497
426.38	59.846
426.73	58.816
427.09	60.013
427.44	59.691
427.79	59.530
428.15	58.782
428.50	59.108
428.85	57.986
429.21	59.713
429.56	58.840
429.92	58.302
430.27	57.440
430.62	57.707
430.98	57.818
431.33	58.509
431.68	57.823
432.04	59.091
432.39	57.219
432.74	58.824
433.10	57.671
433.45	57.631
433.80	57.560
434.16	57.192
434.51	58.305
434.86	57.946
435.22	57.858
435.57	59.169
435.92	57.028
436.28	56.974
436.63	57.722
436.98	59.321
437.34	58.797
437.69	58.086
438.04	58.173
438.39	57.245
438.75	56.738
439.10	58.393
439.45	60.077
439.81	57.397
440.16	57.761
440.51	58.240
440.86	57.955
441.22	55.986
441.57	56.923
441.92	59.139
442.27	58.229
442.63	57.280
442.98	59.535
443.33	58.108
443.68	56.295
444.03	56.959
444.39	57.626
444.74	56.898
445.09	58.501
445.44	57.143
445.79	57.174
446.15	56.968
446.50	57.027
446.85	56.711
447.20	56.565
447.55	55.963
447.91	57.848
448.26	57.389
448.61	56.798
448.96	56.298
449.31	56.600
449.66	56.538
450.02	56.213
450.37	56.744
450.72	56.373
451.07	57.218
451.42	57.049
451.77	55.422
452.12	56.516
452.47	56.978
452.83	56.787
453.18	56.718
453.53	57.871
453.88	55.839
454.23	55.783
454.58	56.332
454.93	54.837
455.28	55.804
455.63	55.231
455.98	55.964
456.34	55.459
456.69	56.060
457.04	54.462
457.39	54.557
457.74	55.247
458.09	54.200
458.44	54.690
458.79	54.181
459.14	53.667
459.49	54.650
459.84	56.243
460.19	55.159
460.54	53.283
460.89	53.765
461.24	54.740
461.59	54.069
461.94	53.583
462.29	53.383
462.64	52.855
462.99	53.299
463.34	53.553
463.69	53.978
464.04	53.881
464.39	52.733
464.74	52.433
465.09	53.183
465.44	53.569
465.79	53.550
466.14	51.611
466.49	52.766
466.84	52.580
467.19	52.891
467.54	51.127
467.89	51.666
468.24	51.831
468.59	50.524
468.94	51.311
469.29	52.318
469.64	53.538
469.99	50.757
470.34	50.778
470.68	51.538
471.03	50.511
471.38	50.486
471.73	49.782
472.08	51.317
472.43	51.314
472.78	50.834
473.13	49.965
473.48	52.351
473.83	51.651
474.17	49.833
474.52	50.904
474.87	50.947
475.22	51.207
475.57	49.824
475.92	49.801
476.27	50.753
476.61	50.414
476.96	49.852
477.31	50.457
477.66	49.913
478.01	49.617
478.36	49.914
478.70	50.817
479.05	49.971
479.40	49.475
479.75	50.421
480.10	50.649
480.45	50.524
480.79	49.974
481.14	49.974
481.49	49.563
481.84	48.889
482.19	49.610
482.53	49.363
482.88	49.670
483.23	49.045
483.58	49.010
483.92	48.442
484.27	48.451
484.62	48.798
484.97	48.814
485.31	46.984
485.66	46.627
486.01	46.768
486.36	46.649
486.70	47.610
487.05	47.820
487.40	48.463
487.75	46.837
488.09	47.243
488.44	47.030
488.79	47.286
489.13	47.506
489.48	46.731
489.83	47.388
490.17	47.304
490.52	46.654
490.87	48.121
491.22	46.499
491.56	47.332
491.91	47.289
492.26	49.057
492.60	48.571
492.95	48.409
493.30	47.308
493.64	47.414
493.99	48.049
494.34	47.897
494.68	45.491
495.03	46.146
495.37	46.984
495.72	46.414
496.07	46.501
496.41	46.097
496.76	46.944
497.11	45.396
497.45	46.710
497.80	46.885
498.14	45.618
498.49	46.503
498.84	46.646
499.18	47.483
499.53	46.262
499.87	46.749
500.22	46.390
500.56	46.782
500.91	46.775
501.26	46.299
501.60	46.075
501.95	46.008
502.29	45.767
502.64	45.197
502.98	44.876
503.33	44.783
503.67	45.636
504.02	46.782
504.36	44.890
504.71	45.851
505.06	45.206
505.40	45.737
505.75	43.760
506.09	45.937
506.44	45.708
506.78	45.396
507.13	45.657
507.47	46.316
507.82	45.871
508.16	45.323
508.51	46.280
508.85	46.593
509.19	45.694
509.54	45.439
509.88	45.512
510.23	46.292
510.57	46.792
510.92	46.599
511.26	45.778
511.61	45.548
511.95	45.344
512.30	46.609
512.64	45.220
512.98	45.481
513.33	44.783
513.67	45.030
514.02	45.312
514.36	45.492
514.70	47.177
515.05	45.122
515.39	45.671
515.74	46.241
516.08	45.700
516.42	46.116
516.77	46.087
517.11	45.688
517.46	45.909
517.80	46.586
518.14	45.667
518.49	47.348
518.83	46.628
519.17	47.622
519.52	45.409
519.86	46.105
520.20	46.369
520.55	45.431
520.89	48.178
521.23	45.357
521.58	46.561
521.92	45.394
522.26	46.804
522.61	45.529
522.95	47.740
523.29	45.816
523.64	45.658
523.98	46.035
524.32	46.330
524.66	45.615
525.01	46.048
525.35	45.349
525.69	46.043
526.04	46.582
526.38	46.676
526.72	46.458
527.06	45.992
527.41	44.933
527.75	46.734
528.09	45.474
528.43	46.492
528.78	46.122
529.12	46.096
529.46	45.382
529.80	43.567
530.15	45.865
530.49	46.792
530.83	45.915
531.17	45.339
531.51	46.467
531.86	44.048
532.20	44.012
532.54	44.748
532.88	44.873
533.22	45.761
533.57	44.621
533.91	45.010
534.25	44.535
534.59	45.117
534.93	45.064
535.27	44.512
535.62	44.429
535.96	45.220
536.30	43.772
536.64	45.494
536.98	44.838
537.32	44.345
537.66	43.988
538.01	44.551
538.35	45.091
538.69	44.232
539.03	44.124
539.37	43.575
539.71	44.710
540.05	43.271
540.39	44.953
540.73	43.956
541.07	44.779
541.42	43.621
541.76	43.237
542.10	43.615
542.44	44.003
542.78	43.109
543.12	43.394
543.46	44.486
543.80	42.459
544.14	44.444
544.48	41.965
544.82	44.074
545.16	43.333
545.50	43.013
545.84	43.745
546.18	43.521
546.52	43.582
546.86	44.376
547.20	43.409
547.54	42.002
547.88	42.450
548.22	44.023
548.56	43.904
548.90	43.789
549.24	44.225
549.58	43.368
549.92	42.481
550.26	43.629
550.60	43.775
550.94	43.968
551.28	42.439
551.62	43.489
551.96	42.652
552.30	42.558
552.64	42.449
552.98	43.016
553.32	42.727
553.66	41.806
554.00	43.552
554.34	42.969
554.68	43.062
555.02	42.778
555.36	43.288
555.69	43.428
556.03	42.794
556.37	43.661
556.71	44.193
557.05	42.344
557.39	42.008
557.73	42.374
558.07	41.862
558.41	41.740
558.75	42.822
559.08	45.106
559.42	44.565
559.76	42.123
560.10	42.624
560.44	41.172
560.78	41.923
561.12	43.050
561.45	41.964
561.79	40.749
562.13	41.512
562.47	43.043
562.81	42.153
563.15	42.281
563.48	40.749
563.82	40.975
564.16	41.582
564.50	42.479
564.84	42.665
565.17	42.489
565.51	41.731
565.85	41.549
566.19	43.215
566.52	41.505
566.86	43.033
567.20	40.985
567.54	40.970
567.88	41.383
568.21	41.735
568.55	41.653
568.89	41.648
569.23	39.809
569.56	40.138
569.90	40.428
570.24	40.268
570.57	39.955
570.91	40.648
571.25	39.910
571.59	40.328
571.92	38.915
572.26	39.247
572.60	39.064
572.93	39.391
573.27	38.968
573.61	39.059
573.95	38.586
574.28	38.814
574.62	38.159
574.96	38.149
575.29	37.868
575.63	38.191
575.97	37.662
576.30	38.664
576.64	38.892
576.98	39.237
577.31	38.456
577.65	38.509
577.98	38.206
578.32	38.533
578.66	38.324
578.99	38.052
579.33	38.558
579.67	38.237
580.00	38.006
580.34	38.460
580.67	39.369
581.01	38.331
581.35	38.241
581.68	38.045
582.02	38.144
582.35	37.736
582.69	38.399
583.02	38.131
583.36	38.124
583.70	38.154
584.03	38.509
584.37	38.253
584.70	38.043
585.04	38.250
585.37	37.797
585.71	38.092
586.04	38.089
586.38	38.818
586.72	39.388
587.05	39.101
587.39	38.128
587.72	38.261
588.06	37.931
588.39	38.358
588.73	38.663
589.06	38.386
589.40	38.191
589.73	38.369
590.07	39.334
590.40	38.988
590.73	39.442
591.07	38.918
591.40	39.059
591.74	38.386
592.07	38.777
592.41	39.784
592.74	38.645
593.08	38.693
593.41	38.533
593.75	38.322
594.08	38.613
594.41	38.922
594.75	39.115
595.08	39.346
595.42	38.115
595.75	38.409
596.09	38.631
596.42	38.436
596.75	39.455
597.09	38.106
597.42	38.386
597.75	38.884
598.09	38.858
598.42	38.997
598.76	39.162
599.09	38.319
599.42	37.766
599.76	38.564
600.09	38.750
600.42	37.539
600.76	37.529
601.09	38.627
601.42	37.480
601.76	37.500
602.09	38.500
602.42	38.645
602.76	38.525
603.09	38.990
603.42	38.288
603.76	38.019
604.09	37.970
604.42	37.999
604.76	39.023
605.09	38.356
605.42	38.673
605.75	37.780
606.09	38.800
606.42	38.058
606.75	38.499
607.09	38.806
607.42	38.917
607.75	38.062
608.08	37.886
608.42	38.409
608.75	39.270
609.08	37.708
609.41	39.295
609.75	38.599
610.08	38.760
610.41	38.575
610.74	38.675
611.07	38.921
611.41	38.169
611.74	39.554
612.07	39.118
612.40	38.663
612.73	38.310
613.07	38.696
613.40	39.045
613.73	38.660
614.06	38.642
614.39	40.363
614.72	38.430
615.06	37.486
615.39	38.684
615.72	38.242
616.05	38.145
616.38	38.019
616.71	37.749
617.05	37.940
617.38	38.258
617.71	38.994
618.04	39.159
618.37	38.522
618.70	38.587
619.03	39.231
619.36	38.954
619.69	40.435
620.03	40.198
620.36	39.078
620.69	38.285
621.02	39.034
621.35	39.915
621.68	40.234
622.01	39.394
622.34	39.028
622.67	39.123
623.00	39.885
623.33	38.898
623.66	39.761
623.99	39.394
624.32	38.999
624.65	38.984
624.99	38.984
625.32	39.179
625.65	38.351
625.98	38.583
626.31	40.346
626.64	40.721
626.97	39.890
627.30	40.093
627.63	39.721
627.96	39.758
628.29	38.719
628.62	39.175
628.95	40.655
629.28	39.773
629.61	39.916
629.94	39.627
630.26	39.854
630.59	39.476
630.92	38.988
631.25	41.117
