SpectraSuite Data File
++++++++++++++++++++++++++++++++++++
Date: Tue May 12 19:38:05 PDT 2015
User: schluterlab
Dark Spectrum Present: Yes
Reference Spectrum Present: Yes
Number of Sampled Component Spectra: 1
Spectrometers: USB2E3373
Integration Time (usec): 3000 (USB2E3373)
Spectra Averaged: 3 (USB2E3373)
Boxcar Smoothing: 0 (USB2E3373)
Correct for Electrical Dark: No (USB2E3373)
Strobe/Lamp Enabled: No (USB2E3373)
Correct for Detector Non-linearity: No (USB2E3373)
Correct for Stray Light: No (USB2E3373)
Number of Pixels in Processed Spectrum: 2048
>>>>>Begin Processed Spectral Data<<<<<
178.53	0.000
178.91	-100.000
179.29	-116.667
179.67	266.667
180.04	0.000
180.42	-140.000
180.80	-66.667
181.18	550.000
181.56	50.000
181.94	133.333
182.31	1100.000
182.69	0.000
183.07	0.000
183.45	150.000
183.83	-40.000
184.20	283.333
184.58	300.000
184.96	266.667
185.34	-66.667
185.72	-21.429
186.09	-33.333
186.47	-300.000
186.85	-20.000
187.23	141.667
187.61	-114.286
187.98	-120.000
188.36	250.000
188.74	75.000
189.12	-11.111
189.49	-30.000
189.87	50.000
190.25	100.000
190.63	266.667
191.00	220.000
191.38	-333.333
191.76	220.000
192.14	100.000
192.51	-20.000
192.89	180.000
193.27	-20.000
193.65	66.667
194.02	0.000
194.40	-300.000
194.78	-125.000
195.15	-128.571
195.53	233.333
195.91	300.000
196.29	-525.000
196.66	0.000
197.04	-171.429
197.42	100.000
197.79	-150.000
198.17	-8.333
198.55	100.000
198.92	0.000
199.30	-50.000
199.68	-125.000
200.05	-850.000
200.43	-61.111
200.81	-100.000
201.18	50.000
201.56	-200.000
201.94	-500.000
202.31	-83.333
202.69	-22.222
203.07	-41.667
203.44	-125.000
203.82	0.000
204.19	162.500
204.57	-266.667
204.95	100.000
205.32	120.000
205.70	275.000
206.08	-400.000
206.45	-60.000
206.83	900.000
207.20	-88.889
207.58	-15.385
207.96	233.333
208.33	566.667
208.71	233.333
209.08	450.000
209.46	33.333
209.84	500.000
210.21	-233.333
210.59	550.000
210.96	155.556
211.34	-125.000
211.71	1050.000
212.09	-60.000
212.46	-187.500
212.84	-137.500
213.22	100.000
213.59	-37.500
213.97	0.000
214.34	-100.000
214.72	400.000
215.09	150.000
215.47	33.333
215.84	-12.500
216.22	-900.000
216.59	500.000
216.97	58.333
217.34	-250.000
217.72	27.778
218.09	250.000
218.47	5.263
218.84	-162.500
219.22	-35.714
219.59	20.000
219.97	10.000
220.34	183.333
220.72	54.545
221.09	0.000
221.47	0.000
221.84	300.000
222.22	-125.000
222.59	-50.000
222.97	30.435
223.34	60.000
223.72	314.286
224.09	-233.333
224.46	100.000
224.84	-13.333
225.21	-50.000
225.59	-325.000
225.96	25.000
226.34	233.333
226.71	180.000
227.08	23.077
227.46	-14.286
227.83	-41.667
228.21	-650.000
228.58	250.000
228.95	5.263
229.33	37.500
229.70	-150.000
230.08	-133.333
230.45	-500.000
230.82	-500.000
231.20	14.286
231.57	-180.000
231.95	-533.333
232.32	55.556
232.69	-800.000
233.07	12.500
233.44	-87.500
233.81	19.355
234.19	-200.000
234.56	-55.556
234.93	-66.667
235.31	33.333
235.68	0.000
236.05	-19.231
236.43	-31.579
236.80	9.091
237.17	-14.286
237.55	-45.000
237.92	16.279
238.29	-12.903
238.67	3.571
239.04	37.143
239.41	7.843
239.79	18.000
240.16	-5.000
240.53	-5.172
240.91	8.219
241.28	15.493
241.65	25.000
242.02	3.509
242.40	16.000
242.77	18.947
243.14	22.353
243.51	18.280
243.89	6.667
244.26	20.370
244.63	18.367
245.00	10.714
245.38	6.723
245.75	10.169
246.12	16.406
246.49	8.800
246.87	8.197
247.24	11.972
247.61	12.583
247.98	14.045
248.36	13.208
248.73	15.341
249.10	8.333
249.47	16.667
249.84	14.721
250.22	11.979
250.59	12.921
250.96	9.545
251.33	23.585
251.70	21.560
252.08	17.749
252.45	11.429
252.82	11.814
253.19	17.121
253.56	18.824
253.94	17.480
254.31	21.223
254.68	19.444
255.05	18.212
255.42	16.000
255.79	21.192
256.16	14.236
256.54	17.879
256.91	21.795
257.28	17.208
257.65	17.377
258.02	20.420
258.39	19.637
258.76	15.902
259.14	17.353
259.51	19.437
259.88	20.461
260.25	16.477
260.62	17.416
260.99	14.763
261.36	14.943
261.73	18.400
262.10	17.711
262.47	20.110
262.85	18.252
263.22	14.785
263.59	17.426
263.96	15.144
264.33	15.364
264.70	17.445
265.07	17.488
265.44	18.033
265.81	22.892
266.18	17.330
266.55	17.857
266.92	18.750
267.29	16.444
267.66	15.000
268.03	18.710
268.40	17.391
268.77	16.481
269.14	17.227
269.51	17.421
269.88	16.239
270.25	14.979
270.62	19.328
270.99	18.105
271.36	18.102
271.73	15.625
272.10	17.220
272.47	16.000
272.84	15.711
273.21	15.866
273.58	15.510
273.95	16.733
274.32	17.795
274.69	17.808
275.06	16.135
275.43	17.200
275.80	17.973
276.17	18.379
276.54	18.441
276.91	19.002
277.28	19.923
277.65	16.824
278.02	17.803
278.39	19.056
278.76	16.387
279.13	16.816
279.50	17.870
279.87	18.113
280.23	18.033
280.60	17.845
280.97	15.641
281.34	16.441
281.71	16.519
282.08	15.027
282.45	18.342
282.82	14.478
283.19	14.815
283.56	19.625
283.92	16.588
284.29	16.582
284.66	17.168
285.03	13.208
285.40	17.000
285.77	17.077
286.14	17.591
286.51	14.309
286.87	15.721
287.24	15.545
287.61	14.969
287.98	16.588
288.35	15.194
288.72	16.361
289.08	15.252
289.45	14.977
289.82	13.975
290.19	17.121
290.56	17.221
290.93	14.771
291.29	16.454
291.66	16.713
292.03	17.791
292.40	15.971
292.77	14.869
293.13	14.391
293.50	14.876
293.87	13.592
294.24	15.449
294.60	15.027
294.97	13.712
295.34	14.384
295.71	13.315
296.08	13.388
296.44	15.020
296.81	13.842
297.18	13.713
297.55	14.950
297.91	14.340
298.28	13.811
298.65	14.101
299.02	13.564
299.38	14.158
299.75	16.216
300.12	14.628
300.48	14.085
300.85	11.491
301.22	13.942
301.59	15.207
301.95	14.024
302.32	13.487
302.69	13.674
303.05	12.869
303.42	15.580
303.79	14.157
304.15	13.703
304.52	13.966
304.89	13.416
305.25	14.450
305.62	13.750
305.99	12.990
306.35	14.877
306.72	15.033
307.09	15.343
307.45	14.024
307.82	14.835
308.19	14.411
308.55	15.295
308.92	16.631
309.29	15.377
309.65	15.789
310.02	15.094
310.38	14.392
310.75	15.164
311.12	15.361
311.48	15.930
311.85	16.109
312.22	17.252
312.58	16.012
312.95	17.351
313.31	16.814
313.68	18.967
314.05	17.974
314.41	17.485
314.78	17.889
315.14	19.001
315.51	19.762
315.87	19.727
316.24	20.079
316.61	20.485
316.97	19.412
317.34	21.531
317.70	19.888
318.07	20.926
318.43	21.739
318.80	21.858
319.16	21.342
319.53	23.019
319.89	22.822
320.26	25.762
320.62	24.903
320.99	25.000
321.35	25.791
321.72	28.283
322.08	27.525
322.45	27.811
322.81	29.163
323.18	29.051
323.54	30.237
323.91	30.550
324.27	29.701
324.64	30.366
325.00	31.301
325.37	32.644
325.73	33.212
326.10	33.625
326.46	35.086
326.83	35.796
327.19	37.817
327.56	38.992
327.92	37.760
328.29	40.323
328.65	40.866
329.01	39.174
329.38	41.322
329.74	41.040
330.11	42.591
330.47	43.575
330.84	42.763
331.20	42.791
331.56	43.019
331.93	44.556
332.29	45.236
332.66	45.027
333.02	45.311
333.38	47.426
333.75	46.386
334.11	46.203
334.48	44.723
334.84	46.009
335.20	45.658
335.57	47.048
335.93	47.814
336.29	46.892
336.66	48.998
337.02	48.232
337.38	48.585
337.75	47.455
338.11	49.590
338.47	47.818
338.84	49.448
339.20	47.754
339.56	47.810
339.93	47.117
340.29	49.411
340.65	50.594
341.02	48.361
341.38	50.927
341.74	50.356
342.11	48.187
342.47	50.175
342.83	48.569
343.20	48.895
343.56	49.913
343.92	49.956
344.28	48.628
344.65	50.685
345.01	50.436
345.37	49.829
345.73	51.766
346.10	52.031
346.46	49.180
346.82	51.317
347.19	51.892
347.55	52.466
347.91	50.696
348.27	52.233
348.63	53.155
349.00	52.421
349.36	51.525
349.72	51.970
350.08	51.555
350.45	51.505
350.81	52.023
351.17	52.059
351.53	51.610
351.89	53.972
352.26	52.033
352.62	52.739
352.98	54.142
353.34	54.637
353.70	53.827
354.07	54.119
354.43	54.424
354.79	54.262
355.15	53.107
355.51	55.094
355.87	56.453
356.24	54.739
356.60	55.342
356.96	54.028
357.32	55.144
357.68	55.927
358.04	55.267
358.40	56.219
358.77	56.466
359.13	56.305
359.49	56.240
359.85	56.914
360.21	55.115
360.57	57.895
360.93	57.403
361.29	57.866
361.66	56.703
362.02	58.870
362.38	58.042
362.74	58.878
363.10	57.768
363.46	58.465
363.82	57.427
364.18	57.986
364.54	59.771
364.90	59.111
365.26	59.240
365.62	59.198
365.98	61.019
366.35	59.304
366.71	60.866
367.07	61.328
367.43	58.700
367.79	59.230
368.15	59.377
368.51	60.300
368.87	61.968
369.23	63.437
369.59	61.250
369.95	61.252
370.31	61.742
370.67	61.429
371.03	62.461
371.39	63.897
371.75	61.887
372.11	60.963
372.47	61.841
372.83	64.134
373.19	64.232
373.55	63.249
373.91	63.485
374.27	65.195
374.63	64.065
374.99	62.811
375.35	65.022
375.71	64.491
376.07	64.452
376.42	62.794
376.78	64.878
377.14	65.992
377.50	67.373
377.86	66.504
378.22	66.909
378.58	67.039
378.94	65.226
379.30	64.414
379.66	66.261
380.02	65.607
380.38	66.349
380.74	66.936
381.09	65.883
381.45	66.476
381.81	66.518
382.17	67.883
382.53	68.639
382.89	66.966
383.25	67.216
383.61	68.404
383.97	68.941
384.32	68.258
384.68	68.774
385.04	68.300
385.40	68.243
385.76	66.793
386.12	68.713
386.48	70.059
386.83	70.309
387.19	69.221
387.55	68.459
387.91	68.785
388.27	69.418
388.62	70.596
388.98	69.466
389.34	69.746
389.70	70.000
390.06	70.693
390.42	70.791
390.77	70.691
391.13	70.657
391.49	71.361
391.85	70.925
392.20	70.759
392.56	70.727
392.92	70.563
393.28	71.095
393.64	70.551
393.99	70.844
394.35	73.134
394.71	70.927
395.07	71.088
395.42	70.286
395.78	72.043
396.14	72.885
396.50	72.574
396.85	73.232
397.21	71.863
397.57	71.955
397.92	72.583
398.28	72.002
398.64	71.492
399.00	72.084
399.35	72.450
399.71	72.156
400.07	73.132
400.42	73.462
400.78	74.792
401.14	72.727
401.49	72.517
401.85	73.587
402.21	73.287
402.57	72.569
402.92	75.432
403.28	72.497
403.63	73.333
403.99	73.118
404.35	73.758
404.70	72.008
405.06	75.511
405.42	72.999
405.77	72.949
406.13	72.939
406.49	74.511
406.84	75.342
407.20	72.862
407.55	73.213
407.91	76.364
408.27	73.138
408.62	72.797
408.98	74.710
409.34	74.456
409.69	73.712
410.05	74.417
410.40	74.823
410.76	74.222
411.11	75.630
411.47	74.354
411.83	73.213
412.18	74.607
412.54	75.938
412.89	75.000
413.25	75.737
413.60	75.957
413.96	76.375
414.31	74.187
414.67	76.840
415.03	74.827
415.38	77.089
415.74	75.621
416.09	76.292
416.45	76.292
416.80	76.773
417.16	77.645
417.51	77.446
417.87	78.044
418.22	77.607
418.58	78.231
418.93	76.467
419.29	78.087
419.64	79.876
420.00	78.389
420.35	79.033
420.71	77.977
421.06	81.376
421.42	79.548
421.77	80.390
422.12	78.677
422.48	80.240
422.83	79.514
423.19	78.706
423.54	80.757
423.90	79.913
424.25	81.873
424.61	81.548
424.96	81.204
425.31	82.428
425.67	80.485
426.02	81.925
426.38	81.338
426.73	81.682
427.09	83.257
427.44	81.852
427.79	82.983
428.15	83.450
428.50	83.040
428.85	83.323
429.21	82.965
429.56	83.370
429.92	82.802
430.27	82.667
430.62	83.883
430.98	82.536
431.33	85.317
431.68	82.877
432.04	85.270
432.39	82.591
432.74	84.503
433.10	86.052
433.45	87.207
433.80	84.881
434.16	85.731
434.51	85.229
434.86	85.861
435.22	86.787
435.57	88.654
435.92	84.644
436.28	86.239
436.63	87.776
436.98	88.333
437.34	90.851
437.69	86.728
438.04	87.620
438.39	87.141
438.75	88.123
439.10	89.226
439.45	89.730
439.81	86.857
440.16	89.672
440.51	85.998
440.86	88.194
441.22	88.207
441.57	89.459
441.92	90.006
442.27	89.543
442.63	89.729
442.98	91.198
443.33	88.190
443.68	89.517
444.03	88.505
444.39	89.537
444.74	89.868
445.09	92.090
445.44	88.571
445.79	90.777
446.15	90.262
446.50	88.895
446.85	90.649
447.20	91.193
447.55	89.587
447.91	90.241
448.26	91.454
448.61	91.360
448.96	90.952
449.31	91.802
449.66	91.404
450.02	88.402
450.37	90.583
450.72	91.921
451.07	92.353
451.42	92.029
451.77	89.786
452.12	91.667
452.47	92.412
452.83	91.656
453.18	92.573
453.53	92.750
453.88	93.108
454.23	91.374
454.58	92.624
454.93	90.531
455.28	90.767
455.63	92.528
455.98	91.815
456.34	92.029
456.69	93.297
457.04	91.142
457.39	91.386
457.74	92.794
458.09	91.661
458.44	90.926
458.79	90.459
459.14	90.400
459.49	92.930
459.84	92.152
460.19	91.557
460.54	91.982
460.89	91.471
461.24	91.753
461.59	92.492
461.94	91.059
462.29	91.040
462.64	92.549
462.99	94.634
463.34	92.674
463.69	93.896
464.04	95.061
464.39	92.862
464.74	91.953
465.09	92.347
465.44	92.022
465.79	93.983
466.14	91.468
466.49	90.779
466.84	91.278
467.19	90.708
467.54	89.125
467.89	90.268
468.24	91.856
468.59	90.052
468.94	92.939
469.29	92.318
469.64	94.019
469.99	92.286
470.34	90.877
470.68	92.000
471.03	92.701
471.38	91.922
471.73	91.134
472.08	93.594
472.43	94.053
472.78	91.661
473.13	92.351
473.48	92.600
473.83	92.867
474.17	90.394
474.52	93.905
474.87	90.783
475.22	91.804
475.57	91.069
475.92	90.563
476.27	91.501
476.61	91.785
476.96	92.175
477.31	92.637
477.66	91.226
478.01	92.937
478.36	93.066
478.70	93.915
479.05	91.468
479.40	92.095
479.75	93.045
480.10	93.074
480.45	92.251
480.79	91.126
481.14	93.200
481.49	93.162
481.84	92.929
482.19	90.537
482.53	91.863
482.88	93.035
483.23	91.307
483.58	92.228
483.92	90.503
484.27	92.159
484.62	91.938
484.97	90.905
485.31	90.101
485.66	88.757
486.01	85.694
486.36	86.980
486.70	88.227
487.05	89.010
487.40	87.228
487.75	87.718
488.09	87.375
488.44	89.604
488.79	89.258
489.13	90.856
489.48	90.636
489.83	90.569
490.17	91.936
490.52	90.870
490.87	94.115
491.22	91.371
491.56	90.958
491.91	90.964
492.26	93.728
492.60	92.500
492.95	92.710
493.30	92.577
493.64	91.024
493.99	92.094
494.34	93.107
494.68	90.535
495.03	89.959
495.37	90.167
495.72	93.038
496.07	90.822
496.41	89.723
496.76	90.974
497.11	93.058
497.45	92.868
497.80	90.239
498.14	91.183
498.49	92.205
498.84	90.723
499.18	91.178
499.53	92.731
499.87	91.039
500.22	92.987
500.56	92.151
500.91	92.921
501.26	91.706
501.60	90.367
501.95	91.965
502.29	91.124
502.64	89.547
502.98	89.500
503.33	91.163
503.67	92.241
504.02	91.011
504.36	91.423
504.71	90.691
505.06	92.769
505.40	92.279
505.75	91.311
506.09	92.470
506.44	92.436
506.78	91.809
507.13	92.997
507.47	93.075
507.82	92.076
508.16	92.205
508.51	92.779
508.85	91.813
509.19	91.936
509.54	94.221
509.88	92.923
510.23	93.258
510.57	93.867
510.92	94.274
511.26	93.624
511.61	93.550
511.95	93.638
512.30	93.855
512.64	92.551
512.98	94.152
513.33	91.794
513.67	94.072
514.02	93.990
514.36	95.018
514.70	96.478
515.05	95.305
515.39	96.675
515.74	95.551
516.08	95.417
516.42	97.079
516.77	95.093
517.11	95.780
517.46	96.315
517.80	99.745
518.14	95.446
518.49	98.189
518.83	97.601
519.17	96.851
519.52	95.815
519.86	97.150
520.20	95.478
520.55	97.781
520.89	99.123
521.23	98.130
521.58	97.553
521.92	97.664
522.26	98.007
522.61	98.635
522.95	98.493
523.29	97.166
523.64	97.490
523.98	96.774
524.32	97.778
524.66	99.864
525.01	99.863
525.35	96.717
525.69	97.178
526.04	99.225
526.38	99.109
526.72	99.097
527.06	100.914
527.41	99.362
527.75	99.282
528.09	98.798
528.43	99.079
528.78	100.070
529.12	99.041
529.46	98.073
529.80	98.979
530.15	99.166
530.49	99.093
530.83	99.638
531.17	98.305
531.51	97.787
531.86	98.179
532.20	98.052
532.54	100.072
532.88	99.055
533.22	98.851
533.57	97.586
533.91	101.032
534.25	98.982
534.59	99.862
534.93	98.321
535.27	98.114
535.62	98.852
535.96	99.372
536.30	98.469
536.64	100.429
536.98	99.041
537.32	101.488
537.66	98.534
538.01	99.558
538.35	100.073
538.69	97.452
539.03	98.702
539.37	99.282
539.71	99.855
540.05	100.000
540.39	99.419
540.73	99.341
541.07	100.000
541.42	98.717
541.76	100.576
542.10	98.996
542.44	98.988
542.78	98.754
543.12	97.906
543.46	100.298
543.80	98.356
544.14	100.645
544.48	98.877
544.82	99.219
545.16	99.638
545.50	101.528
545.84	100.000
546.18	100.899
546.52	101.614
546.86	102.678
547.20	100.985
547.54	101.137
547.88	99.430
548.22	99.508
548.56	101.621
548.90	98.877
549.24	98.319
549.58	99.180
549.92	99.699
550.26	100.154
550.60	103.807
550.94	102.778
551.28	101.707
551.62	104.832
551.96	103.594
552.30	103.643
552.64	102.104
552.98	101.857
553.32	100.152
553.66	102.580
554.00	103.243
554.34	103.672
554.68	105.263
555.02	103.254
555.36	102.701
555.69	100.000
556.03	100.074
556.37	100.675
556.71	101.508
557.05	102.656
557.39	105.141
557.73	100.079
558.07	101.174
558.41	102.554
558.75	104.232
559.08	105.021
559.42	105.769
559.76	106.655
560.10	104.808
560.44	101.188
560.78	102.554
561.12	102.104
561.45	102.158
561.79	100.441
562.13	102.446
562.47	104.281
562.81	101.365
563.15	99.163
563.48	101.873
563.82	99.709
564.16	99.492
564.50	101.361
564.84	100.992
565.17	101.574
565.51	100.493
565.85	100.423
566.19	100.000
566.52	100.789
566.86	100.751
567.20	98.869
567.54	100.000
567.88	98.544
568.21	97.538
568.55	96.435
568.89	96.429
569.23	93.926
569.56	94.575
569.90	94.647
570.24	93.696
570.57	92.250
570.91	91.739
571.25	91.667
571.59	89.836
571.92	88.248
572.26	88.059
572.60	88.518
572.93	88.736
573.27	88.449
573.61	87.837
573.95	86.450
574.28	87.834
574.62	87.428
574.96	86.597
575.29	86.138
575.63	84.574
575.97	85.576
576.30	86.264
576.64	84.675
576.98	85.836
577.31	85.878
577.65	85.598
577.98	85.272
578.32	84.231
578.66	84.454
578.99	86.564
579.33	85.247
579.67	85.603
580.00	84.969
580.34	85.994
580.67	85.554
581.01	85.006
581.35	84.493
581.68	83.930
582.02	84.261
582.35	84.240
582.69	85.534
583.02	85.326
583.36	85.085
583.70	86.088
584.03	87.229
584.37	87.125
584.70	86.809
585.04	85.330
585.37	86.711
585.71	85.675
586.04	87.183
586.38	87.497
586.72	87.548
587.05	88.406
587.39	87.827
587.72	88.580
588.06	88.085
588.39	88.986
588.73	88.382
589.06	88.567
589.40	89.476
589.73	89.379
590.07	90.708
590.40	90.194
590.73	91.920
591.07	91.126
591.40	92.143
591.74	91.791
592.07	92.455
592.41	92.690
592.74	92.714
593.08	90.984
593.41	89.887
593.75	90.361
594.08	91.491
594.41	91.108
594.75	90.760
595.08	90.573
595.42	89.561
595.75	90.758
596.09	93.435
596.42	92.220
596.75	93.000
597.09	92.724
597.42	91.694
597.75	93.246
598.09	91.713
598.42	93.800
598.76	93.078
599.09	90.924
599.42	89.496
599.76	89.996
600.09	90.431
600.42	88.320
600.76	90.108
601.09	90.078
601.42	90.338
601.76	90.503
602.09	91.747
602.42	92.271
602.76	92.103
603.09	92.733
603.42	92.717
603.76	91.523
604.09	91.688
604.42	91.026
604.76	93.656
605.09	92.631
605.42	92.227
605.75	91.594
606.09	92.800
606.42	91.426
606.75	89.787
607.09	92.304
607.42	91.739
607.75	90.771
608.08	90.318
608.42	92.144
608.75	92.646
609.08	90.560
609.41	92.535
609.75	93.628
610.08	91.421
610.41	91.858
610.74	91.355
611.07	93.971
611.41	91.274
611.74	91.513
612.07	92.746
612.40	92.033
612.73	93.287
613.07	93.893
613.40	92.927
613.73	92.554
614.06	92.564
614.39	93.029
614.72	94.569
615.06	93.054
615.39	91.224
615.72	93.113
616.05	91.246
616.38	91.756
616.71	93.781
617.05	91.771
617.38	93.806
617.71	95.101
618.04	95.598
618.37	95.095
618.70	95.584
619.03	97.099
619.36	96.539
619.69	95.257
620.03	98.093
620.36	100.680
620.69	95.344
621.02	97.387
621.35	98.979
621.68	101.980
622.01	100.624
622.34	97.906
622.67	97.386
623.00	98.526
623.33	96.614
623.66	98.247
623.99	97.927
624.32	96.902
624.65	96.328
624.99	94.531
625.32	96.288
625.65	94.716
625.98	98.000
626.31	97.229
626.64	100.270
626.97	101.471
627.30	100.093
627.63	99.349
627.96	100.931
628.29	101.338
628.62	101.546
628.95	101.478
629.28	99.380
629.61	101.045
629.94	101.763
630.26	101.046
630.59	100.733
630.92	99.262
631.25	102.458
631.58	104.302
