SpectraSuite Data File
++++++++++++++++++++++++++++++++++++
Date: Wed May 13 19:25:35 PDT 2015
User: schluterlab
Dark Spectrum Present: Yes
Reference Spectrum Present: Yes
Number of Sampled Component Spectra: 1
Spectrometers: USB2E3373
Integration Time (usec): 3000 (USB2E3373)
Spectra Averaged: 3 (USB2E3373)
Boxcar Smoothing: 0 (USB2E3373)
Correct for Electrical Dark: No (USB2E3373)
Strobe/Lamp Enabled: No (USB2E3373)
Correct for Detector Non-linearity: No (USB2E3373)
Correct for Stray Light: No (USB2E3373)
Number of Pixels in Processed Spectrum: 2048
>>>>>Begin Processed Spectral Data<<<<<
178.53	0.000
178.91	-1500.000
179.29	-1300.000
179.67	-294.444
180.04	-1225.000
180.42	2800.000
180.80	1080.000
181.18	-1275.000
181.56	742.857
181.94	0.000
182.31	-700.000
182.69	2100.000
183.07	-525.000
183.45	-488.889
183.83	590.909
184.20	-450.000
184.58	2500.000
184.96	6000.000
185.34	-1100.000
185.72	-675.000
186.09	-2350.000
186.47	2800.000
186.85	2450.000
187.23	5200.000
187.61	-2066.667
187.98	1325.000
188.36	527.273
188.74	518.182
189.12	-920.000
189.49	580.000
189.87	-4800.000
190.25	-1425.000
190.63	414.286
191.00	430.769
191.38	883.333
191.76	-1350.000
192.14	1325.000
192.51	737.500
192.89	933.333
193.27	537.500
193.65	-1225.000
194.02	630.000
194.40	920.000
194.78	620.000
195.15	625.000
195.53	640.000
195.91	-2850.000
196.29	450.000
196.66	300.000
197.04	-430.000
197.42	0.000
197.79	670.000
198.17	-4800.000
198.55	928.571
198.92	725.000
199.30	1040.000
199.68	0.000
200.05	322.222
200.43	828.571
200.81	4700.000
201.18	1866.667
201.56	-1666.667
201.94	600.000
202.31	633.333
202.69	416.667
203.07	630.000
203.44	0.000
203.82	1175.000
204.19	771.429
204.57	442.857
204.95	637.500
205.32	1833.333
205.70	463.636
206.08	407.143
206.45	2800.000
206.83	362.500
207.20	933.333
207.58	720.000
207.96	327.778
208.33	862.500
208.71	-800.000
209.08	942.857
209.46	544.444
209.84	454.545
210.21	-1533.333
210.59	1500.000
210.96	-500.000
211.34	3000.000
211.71	640.000
212.09	1116.667
212.46	0.000
212.84	1566.667
213.22	1600.000
213.59	-5000.000
213.97	983.333
214.34	928.571
214.72	636.364
215.09	1240.000
215.47	-2150.000
215.84	-2750.000
216.22	1933.333
216.59	457.143
216.97	1650.000
217.34	436.364
217.72	-800.000
218.09	0.000
218.47	-5100.000
218.84	677.778
219.22	814.286
219.59	1833.333
219.97	-542.857
220.34	1080.000
220.72	-1900.000
221.09	435.714
221.47	1350.000
221.84	-950.000
222.22	0.000
222.59	1675.000
222.97	-2250.000
223.34	1180.000
223.72	461.538
224.09	1140.000
224.46	2100.000
224.84	-6200.000
225.21	-1120.000
225.59	-5700.000
225.96	570.000
226.34	365.000
226.71	2450.000
227.08	762.500
227.46	650.000
227.83	-950.000
228.21	-2850.000
228.58	688.889
228.95	-2450.000
229.33	-2400.000
229.70	1633.333
230.08	957.143
230.45	-900.000
230.82	491.667
231.20	883.333
231.57	728.571
231.95	558.333
232.32	245.455
232.69	518.182
233.07	514.286
233.44	430.769
233.81	-1966.667
234.19	315.789
234.56	516.667
234.93	425.000
235.31	481.818
235.68	369.231
236.05	435.714
236.43	181.818
236.80	278.947
237.17	4600.000
237.55	290.476
237.92	267.857
238.29	328.571
238.67	209.677
239.04	217.241
239.41	188.889
239.79	145.652
240.16	171.429
240.53	175.000
240.91	121.569
241.28	156.000
241.65	120.000
242.02	117.391
242.40	106.452
242.77	106.667
243.14	96.774
243.51	102.247
243.89	94.118
244.26	96.667
244.63	80.645
245.00	76.596
245.38	76.238
245.75	77.570
246.12	73.394
246.49	81.752
246.87	85.600
247.24	82.308
247.61	70.000
247.98	73.203
248.36	64.189
248.73	68.153
249.10	71.338
249.47	67.232
249.84	58.824
250.22	63.636
250.59	67.456
250.96	62.626
251.33	61.611
251.70	61.386
252.08	55.714
252.45	52.915
252.82	53.913
253.19	57.021
253.56	59.608
253.94	53.112
254.31	48.047
254.68	55.769
255.05	55.351
255.42	54.472
255.79	57.721
256.16	52.708
256.54	52.297
256.91	50.178
257.28	45.324
257.65	45.875
258.02	48.447
258.39	50.473
258.76	49.164
259.14	54.464
259.51	48.632
259.88	44.410
260.25	47.130
260.62	48.266
260.99	50.932
261.36	47.447
261.73	46.418
262.10	48.837
262.47	52.394
262.85	48.189
263.22	47.578
263.59	46.439
263.96	44.505
264.33	44.648
264.70	48.684
265.07	46.292
265.44	45.455
265.81	41.849
266.18	46.231
266.55	47.561
266.92	45.946
267.29	46.759
267.66	45.413
268.03	44.773
268.40	42.056
268.77	43.198
269.14	45.721
269.51	43.567
269.88	44.522
270.25	41.986
270.62	42.022
270.99	44.946
271.36	43.991
271.73	43.458
272.10	43.478
272.47	43.656
272.84	41.991
273.21	44.654
273.58	41.266
273.95	39.203
274.32	39.050
274.69	43.469
275.06	40.157
275.43	43.191
275.80	42.084
276.17	43.585
276.54	40.748
276.91	42.688
277.28	39.453
277.65	41.006
278.02	38.716
278.39	40.430
278.76	37.636
279.13	43.774
279.50	38.920
279.87	41.434
280.23	39.122
280.60	38.104
280.97	41.220
281.34	39.646
281.71	38.364
282.08	38.964
282.45	39.273
282.82	39.254
283.19	37.968
283.56	37.368
283.92	39.425
284.29	40.388
284.66	37.205
285.03	38.156
285.40	38.908
285.77	37.542
286.14	37.478
286.51	39.000
286.87	38.120
287.24	37.134
287.61	37.239
287.98	37.338
288.35	37.559
288.72	35.047
289.08	33.803
289.45	36.903
289.82	35.772
290.19	35.322
290.56	32.772
290.93	34.592
291.29	36.350
291.66	33.481
292.03	34.593
292.40	33.480
292.77	34.172
293.13	34.328
293.50	33.819
293.87	32.741
294.24	31.704
294.60	31.004
294.97	30.669
295.34	31.453
295.71	31.108
296.08	29.772
296.44	31.774
296.81	29.194
297.18	31.843
297.55	27.836
297.91	27.704
298.28	30.120
298.65	30.287
299.02	31.357
299.38	29.482
299.75	28.302
300.12	27.969
300.48	29.875
300.85	28.853
301.22	29.682
301.59	27.273
301.95	28.715
302.32	27.728
302.69	28.196
303.05	28.970
303.42	29.259
303.79	27.180
304.15	27.506
304.52	27.115
304.89	26.829
305.25	27.262
305.62	26.161
305.99	27.273
306.35	27.181
306.72	26.457
307.09	27.303
307.45	28.716
307.82	26.228
308.19	26.711
308.55	28.155
308.92	26.208
309.29	26.082
309.65	26.511
310.02	26.216
310.38	26.989
310.75	26.505
311.12	25.793
311.48	25.601
311.85	26.834
312.22	26.847
312.58	25.780
312.95	27.666
313.31	26.990
313.68	27.443
314.05	27.811
314.41	27.739
314.78	26.183
315.14	28.103
315.51	28.939
315.87	27.822
316.24	28.798
316.61	28.070
316.97	28.082
317.34	28.376
317.70	28.872
318.07	29.355
318.43	31.409
318.80	30.834
319.16	31.544
319.53	30.769
319.89	32.000
320.26	33.400
320.62	32.738
320.99	33.535
321.35	34.545
321.72	34.908
322.08	36.821
322.45	36.816
322.81	36.822
323.18	36.994
323.54	36.085
323.91	38.113
324.27	38.050
324.64	39.049
325.00	39.495
325.37	41.037
325.73	43.357
326.10	42.189
326.46	44.086
326.83	44.090
327.19	45.944
327.56	46.341
327.92	46.369
328.29	47.116
328.65	48.527
329.01	47.834
329.38	49.676
329.74	48.384
330.11	50.236
330.47	51.148
330.84	51.654
331.20	51.457
331.56	52.018
331.93	52.870
332.29	51.730
332.66	53.363
333.02	53.199
333.38	54.652
333.75	54.813
334.11	55.516
334.48	54.570
334.84	55.790
335.20	55.273
335.57	56.392
335.93	55.000
336.29	57.875
336.66	57.710
337.02	57.376
337.38	58.611
337.75	56.774
338.11	58.729
338.47	60.681
338.84	59.028
339.20	58.991
339.56	61.040
339.93	59.091
340.29	61.141
340.65	60.160
341.02	60.122
341.38	61.121
341.74	61.404
342.11	61.223
342.47	61.410
342.83	61.216
343.20	61.385
343.56	61.584
343.92	62.544
344.28	63.605
344.65	63.371
345.01	61.448
345.37	61.492
345.73	63.367
346.10	63.683
346.46	62.966
346.82	63.509
347.19	64.829
347.55	63.383
347.91	65.453
348.27	65.818
348.63	63.963
349.00	65.453
349.36	65.928
349.72	64.314
350.08	65.478
350.45	67.453
350.81	64.663
351.17	66.937
351.53	65.111
351.89	65.677
352.26	65.667
352.62	66.560
352.98	65.883
353.34	66.968
353.70	67.103
354.07	66.694
354.43	66.667
354.79	66.291
355.15	66.401
355.51	68.825
355.87	69.633
356.24	68.730
356.60	66.239
356.96	70.394
357.32	68.847
357.68	68.268
358.04	68.092
358.40	69.834
358.77	67.997
359.13	69.061
359.49	68.078
359.85	69.841
360.21	70.893
360.57	70.584
360.93	68.846
361.29	69.917
361.66	68.653
362.02	69.403
362.38	70.798
362.74	70.982
363.10	69.948
363.46	69.993
363.82	70.748
364.18	70.925
364.54	72.957
364.90	69.405
365.26	72.721
365.62	72.608
365.98	71.512
366.35	71.275
366.71	71.077
367.07	71.886
367.43	71.771
367.79	73.519
368.15	72.557
368.51	70.930
368.87	73.590
369.23	72.933
369.59	74.511
369.95	72.647
370.31	71.866
370.67	71.812
371.03	72.809
371.39	73.324
371.75	73.456
372.11	71.835
372.47	75.073
372.83	74.856
373.19	73.555
373.55	74.575
373.91	75.405
374.27	71.615
374.63	72.945
374.99	73.376
375.35	73.692
375.71	71.282
376.07	72.771
376.42	75.378
376.78	73.757
377.14	71.981
377.50	73.113
377.86	74.668
378.22	72.946
378.58	73.058
378.94	72.596
379.30	74.618
379.66	75.381
380.02	73.587
380.38	74.135
380.74	74.070
381.09	74.817
381.45	74.739
381.81	73.219
382.17	74.204
382.53	74.403
382.89	74.383
383.25	74.547
383.61	75.341
383.97	74.547
384.32	72.427
384.68	73.668
385.04	74.554
385.40	73.560
385.76	73.710
386.12	73.381
386.48	75.393
386.83	76.074
387.19	75.819
387.55	73.902
387.91	73.216
388.27	73.268
388.62	73.079
388.98	72.604
389.34	74.155
389.70	73.697
390.06	73.511
390.42	74.060
390.77	73.092
391.13	74.984
391.49	72.779
391.85	74.602
392.20	72.429
392.56	75.000
392.92	74.691
393.28	72.604
393.64	72.902
393.99	71.594
394.35	71.712
394.71	71.393
395.07	72.336
395.42	74.784
395.78	71.819
396.14	71.446
396.50	72.995
396.85	72.409
397.21	72.750
397.57	72.350
397.92	72.175
398.28	71.132
398.64	71.027
399.00	71.461
399.35	72.081
399.71	72.049
400.07	71.496
400.42	73.067
400.78	72.195
401.14	70.183
401.49	70.448
401.85	69.510
402.21	70.120
402.57	70.019
402.92	71.122
403.28	71.705
403.63	70.050
403.99	70.892
404.35	69.636
404.70	70.504
405.06	69.132
405.42	69.807
405.77	70.286
406.13	69.244
406.49	69.012
406.84	68.754
407.20	68.558
407.55	68.985
407.91	70.467
408.27	70.134
408.62	67.790
408.98	69.424
409.34	68.389
409.69	68.581
410.05	68.401
410.40	68.746
410.76	68.339
411.11	66.828
411.47	66.454
411.83	67.440
412.18	66.419
412.54	66.812
412.89	66.566
413.25	66.942
413.60	68.252
413.96	66.424
414.31	66.221
414.67	66.096
415.03	67.020
415.38	67.204
415.74	66.367
416.09	66.688
416.45	65.529
416.80	65.896
417.16	66.957
417.51	66.291
417.87	66.089
418.22	64.732
418.58	65.332
418.93	65.848
419.29	65.436
419.64	65.869
420.00	64.085
420.35	64.406
420.71	64.136
421.06	64.260
421.42	64.327
421.77	64.462
422.12	64.458
422.48	63.896
422.83	63.716
423.19	62.155
423.54	64.364
423.90	63.536
424.25	62.088
424.61	62.679
424.96	63.848
425.31	61.739
425.67	62.079
426.02	61.771
426.38	62.698
426.73	61.381
427.09	62.310
427.44	62.047
427.79	61.875
428.15	61.310
428.50	60.269
428.85	61.323
429.21	61.568
429.56	59.772
429.92	61.047
430.27	60.477
430.62	59.857
430.98	59.471
431.33	60.155
431.68	59.738
432.04	58.999
432.39	60.366
432.74	59.545
433.10	60.158
433.45	60.058
433.80	59.313
434.16	59.936
434.51	58.789
434.86	58.723
435.22	59.255
435.57	58.967
435.92	58.923
436.28	58.956
436.63	58.389
436.98	59.416
437.34	59.988
437.69	58.810
438.04	59.078
438.39	58.627
438.75	58.861
439.10	58.547
439.45	57.792
439.81	58.006
440.16	57.538
440.51	57.586
440.86	57.325
441.22	57.508
441.57	57.696
441.92	57.830
442.27	57.320
442.63	55.924
442.98	57.296
443.33	57.065
443.68	56.066
444.03	55.735
444.39	55.648
444.74	56.385
445.09	56.173
445.44	55.331
445.79	54.923
446.15	54.791
446.50	55.520
446.85	55.293
447.20	54.666
447.55	55.388
447.91	54.661
448.26	54.480
448.61	54.551
448.96	53.821
449.31	54.893
449.66	55.093
450.02	53.928
450.37	54.819
450.72	54.653
451.07	52.651
451.42	52.644
451.77	53.905
452.12	52.714
452.47	53.794
452.83	52.739
453.18	52.934
453.53	54.236
453.88	52.569
454.23	52.600
454.58	51.847
454.93	54.100
455.28	52.868
455.63	53.641
455.98	53.690
456.34	51.759
456.69	52.974
457.04	52.074
457.39	51.549
457.74	50.784
458.09	52.041
458.44	51.539
458.79	50.163
459.14	50.790
459.49	50.321
459.84	50.139
460.19	49.381
460.54	49.306
460.89	50.741
461.24	50.759
461.59	51.540
461.94	50.493
462.29	50.742
462.64	50.287
462.99	49.577
463.34	51.000
463.69	50.031
464.04	49.681
464.39	49.681
464.74	48.841
465.09	49.216
465.44	47.091
465.79	47.819
466.14	48.002
466.49	47.553
466.84	48.336
467.19	49.065
467.54	49.250
467.89	47.899
468.24	47.993
468.59	48.657
468.94	46.671
469.29	48.201
469.64	48.929
469.99	48.714
470.34	47.226
470.68	48.420
471.03	47.415
471.38	47.533
471.73	47.102
472.08	49.145
472.43	46.922
472.78	46.675
473.13	46.598
473.48	47.566
473.83	46.463
474.17	46.857
474.52	46.588
474.87	47.636
475.22	45.966
475.57	45.567
475.92	45.353
476.27	47.125
476.61	45.560
476.96	45.465
477.31	44.950
477.66	46.280
478.01	44.694
478.36	45.955
478.70	44.860
479.05	44.569
479.40	44.933
479.75	44.789
480.10	44.533
480.45	43.218
480.79	43.096
481.14	44.178
481.49	44.613
481.84	43.621
482.19	43.889
482.53	43.807
482.88	43.602
483.23	44.112
483.58	43.176
483.92	44.236
484.27	41.874
484.62	42.371
484.97	42.058
485.31	43.151
485.66	42.207
486.01	41.286
486.36	40.058
486.70	38.763
487.05	39.423
487.40	40.271
487.75	39.622
488.09	40.673
488.44	39.827
488.79	40.651
489.13	41.024
489.48	40.538
489.83	41.088
490.17	41.648
490.52	40.567
490.87	40.525
491.22	41.064
491.56	40.729
491.91	41.089
492.26	40.423
492.60	40.599
492.95	38.587
493.30	39.159
493.64	41.204
493.99	40.204
494.34	40.148
494.68	40.888
495.03	40.695
495.37	39.414
495.72	40.643
496.07	39.350
496.41	39.027
496.76	39.798
497.11	39.667
497.45	39.078
497.80	39.251
498.14	39.565
498.49	39.220
498.84	39.885
499.18	38.714
499.53	38.651
499.87	38.444
500.22	39.001
500.56	40.583
500.91	38.846
501.26	39.450
501.60	39.108
501.95	38.497
502.29	39.316
502.64	37.942
502.98	38.429
503.33	38.208
503.67	37.865
504.02	38.073
504.36	38.652
504.71	38.837
505.06	38.602
505.40	37.919
505.75	37.946
506.09	38.095
506.44	39.221
506.78	38.334
507.13	38.213
507.47	38.485
507.82	38.146
508.16	38.703
508.51	39.422
508.85	38.183
509.19	39.031
509.54	38.112
509.88	37.867
510.23	38.098
510.57	38.287
510.92	37.545
511.26	38.027
511.61	38.226
511.95	37.474
512.30	37.646
512.64	38.044
512.98	37.621
513.33	38.276
513.67	37.407
514.02	38.149
514.36	38.449
514.70	37.631
515.05	38.316
515.39	37.633
515.74	38.288
516.08	38.290
516.42	38.013
516.77	38.629
517.11	38.346
517.46	37.810
517.80	37.456
518.14	37.174
518.49	38.156
518.83	37.557
519.17	37.529
519.52	38.710
519.86	38.220
520.20	38.092
520.55	38.181
520.89	38.929
521.23	38.902
521.58	37.455
521.92	37.477
522.26	36.730
522.61	38.069
522.95	37.201
523.29	37.492
523.64	37.622
523.98	38.016
524.32	37.455
524.66	38.184
525.01	37.439
525.35	37.485
525.69	36.453
526.04	38.131
526.38	36.730
526.72	37.301
527.06	37.288
527.41	36.324
527.75	35.949
528.09	37.508
528.43	37.795
528.78	37.246
529.12	36.909
529.46	36.987
529.80	38.119
530.15	36.947
530.49	36.000
530.83	37.785
531.17	37.598
531.51	38.132
531.86	37.226
532.20	38.005
532.54	36.067
532.88	36.778
533.22	36.727
533.57	36.235
533.91	35.461
534.25	36.999
534.59	36.364
534.93	36.764
535.27	36.150
535.62	36.447
535.96	37.790
536.30	36.682
536.64	36.896
536.98	37.094
537.32	35.550
537.66	37.200
538.01	36.603
538.35	36.458
538.69	37.715
539.03	35.413
539.37	35.208
539.71	35.515
540.05	35.948
540.39	35.017
540.73	35.705
541.07	35.951
541.42	36.530
541.76	36.516
542.10	36.287
542.44	35.762
542.78	37.352
543.12	35.956
543.46	36.000
543.80	35.524
544.14	34.339
544.48	35.937
544.82	35.087
545.16	35.329
545.50	34.833
545.84	34.745
546.18	35.354
546.52	35.926
546.86	35.326
547.20	36.076
547.54	36.072
547.88	35.714
548.22	34.620
548.56	34.591
548.90	35.211
549.24	33.872
549.58	35.402
549.92	34.615
550.26	36.222
550.60	34.855
550.94	34.648
551.28	34.894
551.62	34.579
551.96	34.807
552.30	35.700
552.64	35.294
552.98	34.508
553.32	33.648
553.66	34.083
554.00	35.141
554.34	35.266
554.68	35.622
555.02	34.767
555.36	34.864
555.69	33.829
556.03	34.118
556.37	34.243
556.71	33.902
557.05	33.964
557.39	34.640
557.73	34.933
558.07	35.315
558.41	33.864
558.75	34.460
559.08	33.781
559.42	34.467
559.76	34.779
560.10	33.904
560.44	34.312
560.78	33.466
561.12	33.377
561.45	33.963
561.79	33.223
562.13	33.535
562.47	34.290
562.81	33.264
563.15	32.910
563.48	34.085
563.82	33.986
564.16	33.224
564.50	33.919
564.84	32.870
565.17	33.462
565.51	33.610
565.85	32.868
566.19	31.810
566.52	34.326
566.86	32.489
567.20	33.432
567.54	33.619
567.88	32.482
568.21	33.810
568.55	33.418
568.89	33.123
569.23	33.200
569.56	32.510
569.90	32.226
570.24	31.826
570.57	31.520
570.91	31.351
571.25	30.729
571.59	31.075
571.92	30.674
572.26	30.676
572.60	31.171
572.93	30.705
573.27	31.233
573.61	30.514
573.95	30.930
574.28	30.452
574.62	30.807
574.96	30.466
575.29	30.504
575.63	30.310
575.97	30.461
576.30	30.908
576.64	29.922
576.98	30.287
577.31	30.545
577.65	30.597
577.98	30.539
578.32	29.984
578.66	30.210
578.99	29.628
579.33	29.872
579.67	29.093
580.00	29.849
580.34	30.043
580.67	29.355
581.01	30.560
581.35	29.556
581.68	30.314
582.02	30.278
582.35	29.512
582.69	29.847
583.02	29.902
583.36	29.836
583.70	29.920
584.03	29.885
584.37	30.040
584.70	30.094
585.04	29.501
585.37	30.336
585.71	30.522
586.04	29.427
586.38	29.754
586.72	29.964
587.05	29.666
587.39	29.499
587.72	29.863
588.06	29.669
588.39	30.069
588.73	29.393
589.06	30.383
589.40	30.101
589.73	30.201
590.07	30.142
590.40	29.448
590.73	30.679
591.07	30.729
591.40	30.578
591.74	30.390
592.07	30.236
592.41	30.343
592.74	30.412
593.08	30.013
593.41	30.686
593.75	28.951
594.08	29.601
594.41	29.905
594.75	30.499
595.08	30.064
595.42	30.368
595.75	28.668
596.09	30.116
596.42	29.666
596.75	30.139
597.09	30.779
597.42	30.101
597.75	30.487
598.09	29.913
598.42	29.510
598.76	29.469
599.09	30.521
599.42	29.294
599.76	29.905
600.09	29.617
600.42	29.657
600.76	28.571
601.09	29.617
601.42	29.871
601.76	28.994
602.09	29.289
602.42	29.697
602.76	30.310
603.09	29.701
603.42	30.223
603.76	29.954
604.09	29.701
604.42	30.004
604.76	29.861
605.09	29.533
605.42	29.414
605.75	29.719
606.09	29.524
606.42	29.996
606.75	29.158
607.09	29.510
607.42	29.611
607.75	28.776
608.08	29.049
608.42	29.897
608.75	29.170
609.08	29.047
609.41	30.366
609.75	28.776
610.08	29.548
610.41	28.864
610.74	29.754
611.07	30.040
611.41	29.441
611.74	30.920
612.07	30.538
612.40	30.745
612.73	29.474
613.07	30.496
613.40	28.963
613.73	29.051
614.06	30.484
614.39	29.628
614.72	29.421
615.06	30.410
615.39	29.193
615.72	29.192
616.05	29.665
616.38	29.628
616.71	30.463
617.05	30.860
617.38	29.405
617.71	30.571
618.04	30.288
618.37	30.278
618.70	29.745
619.03	30.789
619.36	29.464
619.69	30.000
620.03	30.701
620.36	30.481
620.69	30.274
621.02	30.236
621.35	29.992
621.68	29.984
622.01	30.573
622.34	31.089
622.67	30.342
623.00	30.301
623.33	30.164
623.66	30.093
623.99	29.971
624.32	30.314
624.65	28.814
624.99	29.887
625.32	29.182
625.65	30.729
625.98	30.669
626.31	30.638
626.64	29.551
626.97	31.754
627.30	30.258
627.63	30.435
627.96	31.287
628.29	30.096
628.62	29.918
628.95	31.792
629.28	31.296
629.61	31.347
629.94	31.619
630.26	31.745
630.59	31.077
