SpectraSuite Data File
++++++++++++++++++++++++++++++++++++
Date: Wed May 13 19:45:25 PDT 2015
User: schluterlab
Dark Spectrum Present: Yes
Reference Spectrum Present: Yes
Number of Sampled Component Spectra: 1
Spectrometers: USB2E3373
Integration Time (usec): 3000 (USB2E3373)
Spectra Averaged: 3 (USB2E3373)
Boxcar Smoothing: 0 (USB2E3373)
Correct for Electrical Dark: No (USB2E3373)
Strobe/Lamp Enabled: No (USB2E3373)
Correct for Detector Non-linearity: No (USB2E3373)
Correct for Stray Light: No (USB2E3373)
Number of Pixels in Processed Spectrum: 2048
>>>>>Begin Processed Spectral Data<<<<<
178.53	0.000
178.91	-1175.000
179.29	-1375.000
179.67	-238.889
180.04	-1325.000
180.42	2750.000
180.80	1040.000
181.18	-1300.000
181.56	742.857
181.94	0.000
182.31	-585.714
182.69	1966.667
183.07	-662.500
183.45	-611.111
183.83	581.818
184.20	-380.000
184.58	2450.000
184.96	5400.000
185.34	-940.000
185.72	-562.500
186.09	-1850.000
186.47	2650.000
186.85	2300.000
187.23	5100.000
187.61	-1866.667
187.98	1450.000
188.36	572.727
188.74	536.364
189.12	-860.000
189.49	540.000
189.87	-5500.000
190.25	-1250.000
190.63	421.429
191.00	453.846
191.38	900.000
191.76	-1100.000
192.14	1275.000
192.51	575.000
192.89	1183.333
193.27	600.000
193.65	-1275.000
194.02	570.000
194.40	960.000
194.78	610.000
195.15	508.333
195.53	680.000
195.91	-2100.000
196.29	343.750
196.66	310.526
197.04	-340.000
197.42	0.000
197.79	640.000
198.17	-5000.000
198.55	685.714
198.92	725.000
199.30	1040.000
199.68	0.000
200.05	344.444
200.43	657.143
200.81	4400.000
201.18	1400.000
201.56	-1833.333
201.94	666.667
202.31	533.333
202.69	366.667
203.07	640.000
203.44	0.000
203.82	1175.000
204.19	757.143
204.57	428.571
204.95	700.000
205.32	1766.667
205.70	545.455
206.08	492.857
206.45	2850.000
206.83	381.250
207.20	833.333
207.58	860.000
207.96	350.000
208.33	787.500
208.71	-816.667
209.08	714.286
209.46	566.667
209.84	481.818
210.21	-1366.667
210.59	1400.000
210.96	-650.000
211.34	2750.000
211.71	630.000
212.09	666.667
212.46	0.000
212.84	1833.333
213.22	1550.000
213.59	-5500.000
213.97	883.333
214.34	842.857
214.72	654.545
215.09	1100.000
215.47	-2100.000
215.84	-2350.000
216.22	1400.000
216.59	314.286
216.97	1275.000
217.34	463.636
217.72	-650.000
218.09	0.000
218.47	-5300.000
218.84	700.000
219.22	928.571
219.59	1533.333
219.97	-728.571
220.34	940.000
220.72	-2000.000
221.09	450.000
221.47	1475.000
221.84	-1033.333
222.22	0.000
222.59	1325.000
222.97	-2550.000
223.34	1180.000
223.72	546.154
224.09	1180.000
224.46	2600.000
224.84	-5400.000
225.21	-900.000
225.59	-4800.000
225.96	570.000
226.34	285.000
226.71	3200.000
227.08	525.000
227.46	590.000
227.83	-1250.000
228.21	-2900.000
228.58	677.778
228.95	-2700.000
229.33	-2700.000
229.70	1733.333
230.08	728.571
230.45	-740.000
230.82	450.000
231.20	850.000
231.57	828.571
231.95	491.667
232.32	222.727
232.69	527.273
233.07	728.571
233.44	430.769
233.81	-1633.333
234.19	336.842
234.56	416.667
234.93	366.667
235.31	527.273
235.68	315.385
236.05	385.714
236.43	209.091
236.80	305.263
237.17	5100.000
237.55	280.952
237.92	253.571
238.29	309.524
238.67	203.226
239.04	206.897
239.41	186.111
239.79	147.826
240.16	173.810
240.53	152.273
240.91	137.255
241.28	142.000
241.65	158.000
242.02	124.638
242.40	132.258
242.77	140.000
243.14	97.849
243.51	116.854
243.89	108.235
244.26	96.667
244.63	93.548
245.00	105.319
245.38	87.129
245.75	83.178
246.12	88.073
246.49	85.401
246.87	92.000
247.24	90.000
247.61	89.286
247.98	82.353
248.36	77.027
248.73	78.344
249.10	85.350
249.47	74.576
249.84	80.749
250.22	73.797
250.59	81.065
250.96	72.727
251.33	72.512
251.70	75.248
252.08	71.429
252.45	72.197
252.82	67.391
253.19	71.064
253.56	66.275
253.94	66.805
254.31	67.578
254.68	72.692
255.05	68.635
255.42	68.293
255.79	65.809
256.16	69.675
256.54	60.777
256.91	65.125
257.28	61.151
257.65	62.706
258.02	65.528
258.39	59.621
258.76	61.204
259.14	58.333
259.51	62.310
259.88	59.627
260.25	60.121
260.62	60.694
260.99	63.043
261.36	62.162
261.73	57.880
262.10	59.884
262.47	60.563
262.85	58.496
263.22	56.410
263.59	59.829
263.96	57.692
264.33	59.008
264.70	57.368
265.07	57.545
265.44	58.333
265.81	58.881
266.18	57.538
266.55	55.122
266.92	60.442
267.29	56.019
267.66	54.587
268.03	56.136
268.40	59.346
268.77	56.086
269.14	55.180
269.51	54.402
269.88	58.974
270.25	57.562
270.62	55.056
270.99	55.484
271.36	53.433
271.73	57.477
272.10	54.565
272.47	59.140
272.84	56.277
273.21	54.507
273.58	51.092
273.95	51.153
274.32	51.240
274.69	53.961
275.06	50.197
275.43	57.234
275.80	51.904
276.17	52.953
276.54	54.886
276.91	52.174
277.28	52.734
277.65	53.191
278.02	54.658
278.39	52.344
278.76	51.818
279.13	50.755
279.50	51.210
279.87	51.195
280.23	54.092
280.60	52.418
280.97	53.789
281.34	52.389
281.71	52.182
282.08	54.319
282.45	51.455
282.82	51.865
283.19	47.059
283.56	51.228
283.92	52.453
284.29	51.146
284.66	51.906
285.03	49.005
285.40	52.289
285.77	51.347
286.14	51.641
286.51	51.500
286.87	51.624
287.24	48.697
287.61	45.586
287.98	50.325
288.35	47.227
288.72	46.417
289.08	46.322
289.45	48.435
289.82	46.504
290.19	44.427
290.56	45.789
290.93	43.958
291.29	46.319
291.66	44.395
292.03	45.930
292.40	46.549
292.77	43.047
293.13	42.687
293.50	44.898
293.87	43.852
294.24	42.074
294.60	41.339
294.97	43.314
295.34	42.595
295.71	41.477
296.08	42.877
296.44	42.641
296.81	40.819
297.18	39.431
297.55	38.522
297.91	38.786
298.28	41.499
298.65	39.556
299.02	40.184
299.38	38.645
299.75	39.353
300.12	39.208
300.48	39.250
300.85	38.348
301.22	38.726
301.59	37.121
301.95	38.161
302.32	39.923
302.69	37.395
303.05	36.000
303.42	35.679
303.79	36.920
304.15	35.897
304.52	36.616
304.89	35.889
305.25	36.079
305.62	36.580
305.99	36.364
306.35	34.787
306.72	38.117
307.09	36.182
307.45	35.811
307.82	35.379
308.19	36.976
308.55	35.599
308.92	35.446
309.29	35.797
309.65	36.585
310.02	36.364
310.38	36.774
310.75	36.008
311.12	35.312
311.48	36.050
311.85	36.059
312.22	36.524
312.58	34.927
312.95	35.692
313.31	34.466
313.68	36.071
314.05	37.475
314.41	35.477
314.78	37.865
315.14	37.339
315.51	38.517
315.87	37.030
316.24	37.835
316.61	37.817
316.97	37.965
317.34	38.552
317.70	39.101
318.07	40.135
318.43	41.487
318.80	40.206
319.16	40.490
319.53	40.525
319.89	43.238
320.26	42.200
320.62	45.337
320.99	44.242
321.35	44.848
321.72	46.201
322.08	45.212
322.45	45.970
322.81	46.124
323.18	48.651
323.54	46.475
323.91	48.774
324.27	48.279
324.64	49.208
325.00	50.406
325.37	51.228
325.73	51.346
326.10	51.986
326.46	52.599
326.83	54.357
327.19	52.434
327.56	55.314
327.92	55.906
328.29	55.989
328.65	56.906
329.01	55.866
329.38	57.632
329.74	58.172
330.11	60.415
330.47	58.035
330.84	59.835
331.20	58.834
331.56	59.725
331.93	58.704
332.29	59.716
332.66	60.265
333.02	61.152
333.38	61.066
333.75	59.893
334.11	60.943
334.48	60.515
334.84	63.235
335.20	60.364
335.57	59.746
335.93	59.732
336.29	60.256
336.66	61.136
337.02	61.448
337.38	61.667
337.75	61.497
338.11	61.773
338.47	65.101
338.84	62.420
339.20	60.459
339.56	63.777
339.93	63.909
340.29	63.587
340.65	62.478
341.02	63.176
341.38	63.612
341.74	62.281
342.11	63.319
342.47	62.467
342.83	62.158
343.20	63.723
343.56	64.448
343.92	64.123
344.28	63.435
344.65	63.457
345.01	62.121
345.37	64.237
345.73	63.621
346.10	64.535
346.46	64.746
346.82	63.839
347.19	63.158
347.55	63.465
347.91	65.210
348.27	63.435
348.63	65.886
349.00	65.210
349.36	65.681
349.72	63.994
350.08	64.830
350.45	66.233
350.81	63.607
351.17	65.883
351.53	67.486
351.89	64.356
352.26	66.535
352.62	67.442
352.98	66.126
353.34	68.283
353.70	65.630
354.07	66.048
354.43	65.397
354.79	66.291
355.15	66.800
355.51	68.106
355.87	68.000
356.24	67.834
356.60	66.720
356.96	69.268
357.32	67.621
357.68	67.559
358.04	67.221
358.40	68.409
358.77	68.623
359.13	66.930
359.49	68.157
359.85	67.937
360.21	67.384
360.57	68.716
360.93	69.462
361.29	68.254
361.66	68.885
362.02	69.328
362.38	69.506
362.74	69.568
363.10	69.134
363.46	70.066
363.82	70.824
364.18	70.191
364.54	71.917
364.90	69.618
365.26	71.765
365.62	71.585
365.98	72.023
366.35	71.132
366.71	72.234
367.07	71.377
367.43	74.238
367.79	72.734
368.15	74.138
368.51	71.948
368.87	73.876
369.23	73.519
369.59	74.656
369.95	73.529
370.31	72.792
370.67	73.261
371.03	74.007
371.39	75.292
371.75	73.971
372.11	73.826
372.47	75.733
372.83	76.801
373.19	73.844
373.55	76.201
373.91	77.982
374.27	74.433
374.63	75.709
374.99	75.636
375.35	76.204
375.71	76.080
376.07	77.572
376.42	78.061
376.78	77.866
377.14	76.934
377.50	77.881
377.86	76.862
378.22	77.876
378.58	77.256
378.94	77.436
379.30	79.071
379.66	79.061
380.02	78.501
380.38	78.081
380.74	77.731
381.09	78.973
381.45	79.902
381.81	79.914
382.17	79.809
382.53	80.126
382.89	80.370
383.25	80.488
383.61	81.413
383.97	80.300
384.32	81.098
384.68	80.607
385.04	81.008
385.40	81.548
385.76	82.555
386.12	80.894
386.48	81.561
386.83	84.092
387.19	83.179
387.55	82.066
387.91	80.774
388.27	80.441
388.62	81.868
388.98	82.801
389.34	82.791
389.70	81.790
390.06	82.763
390.42	85.279
390.77	81.997
391.13	84.365
391.49	84.391
391.85	83.259
392.20	84.038
392.56	84.470
392.92	83.402
393.28	84.734
393.64	83.094
393.99	81.857
394.35	84.243
394.71	83.626
395.07	83.489
395.42	85.538
395.78	84.924
396.14	83.426
396.50	85.276
396.85	85.696
397.21	84.464
397.57	83.261
397.92	84.796
398.28	85.314
398.64	84.110
399.00	86.178
399.35	84.433
399.71	86.169
400.07	83.797
400.42	85.031
400.78	84.982
401.14	85.183
401.49	85.672
401.85	84.876
402.21	83.353
402.57	84.331
402.92	86.066
403.28	84.884
403.63	84.901
403.99	85.287
404.35	84.121
404.70	84.053
405.06	84.158
405.42	85.340
405.77	84.629
406.13	83.014
406.49	85.098
406.84	84.761
407.20	84.102
407.55	85.641
407.91	86.467
408.27	87.045
408.62	83.624
408.98	85.110
409.34	83.641
409.69	87.742
410.05	85.006
410.40	84.465
410.76	83.871
411.11	83.293
411.47	83.834
411.83	83.629
412.18	85.652
412.54	84.682
412.89	84.699
413.25	83.943
413.60	85.114
413.96	83.485
414.31	84.933
414.67	85.108
415.03	83.974
415.38	84.407
415.74	85.145
416.09	85.565
416.45	85.074
416.80	85.459
417.16	85.054
417.51	85.601
417.87	84.457
418.22	85.110
418.58	83.796
418.93	84.705
419.29	85.360
419.64	84.509
420.00	83.659
420.35	83.884
420.71	84.160
421.06	82.876
421.42	84.211
421.77	83.913
422.12	83.212
422.48	83.810
422.83	84.974
423.19	83.757
423.54	85.200
423.90	84.232
424.25	83.585
424.61	84.048
424.96	85.481
425.31	82.281
425.67	82.022
426.02	82.857
426.38	84.799
426.73	83.733
427.09	85.532
427.44	84.301
427.79	83.266
428.15	83.155
428.50	82.914
428.85	83.492
429.21	83.490
429.56	83.774
429.92	82.084
430.27	81.827
430.62	81.157
430.98	82.097
431.33	81.598
431.68	82.723
432.04	80.138
432.39	83.724
432.74	85.099
433.10	83.079
433.45	82.974
433.80	81.929
434.16	82.212
434.51	80.158
434.86	82.611
435.22	82.324
435.57	82.857
435.92	81.568
436.28	83.333
436.63	81.291
436.98	82.026
437.34	82.409
437.69	82.614
438.04	83.080
438.39	81.552
438.75	81.639
439.10	83.464
439.45	81.759
439.81	82.115
440.16	81.254
440.51	80.961
440.86	81.008
441.22	80.923
441.57	80.945
441.92	81.986
442.27	82.293
442.63	81.411
442.98	81.859
443.33	80.380
443.68	81.363
444.03	81.698
444.39	80.039
444.74	81.115
445.09	79.946
445.44	79.934
445.79	79.416
446.15	80.042
446.50	80.237
446.85	79.959
447.20	80.214
447.55	81.240
447.91	79.206
448.26	78.631
448.61	80.215
448.96	79.402
449.31	80.202
449.66	79.966
450.02	79.109
450.37	78.515
450.72	80.203
451.07	78.123
451.42	78.723
451.77	79.448
452.12	78.176
452.47	78.731
452.83	79.196
453.18	77.017
453.53	79.468
453.88	78.618
454.23	77.944
454.58	78.013
454.93	79.784
455.28	77.805
455.63	79.187
455.98	79.583
456.34	77.638
456.69	78.710
457.04	78.576
457.39	77.791
457.74	78.352
458.09	76.366
458.44	76.454
458.79	76.193
459.14	77.032
459.49	76.766
459.84	76.233
460.19	76.724
460.54	75.463
460.89	75.754
461.24	76.321
461.59	75.131
461.94	75.031
462.29	76.380
462.64	75.495
462.99	75.472
463.34	75.200
463.69	75.172
464.04	75.652
464.39	72.812
464.74	75.223
465.09	75.452
465.44	74.737
465.79	73.322
466.14	72.414
466.49	73.192
466.84	73.672
467.19	73.627
467.54	75.062
467.89	72.389
468.24	72.891
468.59	73.077
468.94	72.877
469.29	72.429
469.64	72.691
469.99	73.884
470.34	73.184
470.68	73.420
471.03	73.333
471.38	73.801
471.73	71.819
472.08	73.224
472.43	71.357
472.78	71.758
473.13	71.245
473.48	71.785
473.83	70.488
474.17	71.562
474.52	71.774
474.87	72.212
475.22	70.517
475.57	69.640
475.92	70.313
476.27	69.053
476.61	70.215
476.96	70.203
477.31	68.550
477.66	70.788
478.01	68.949
478.36	69.487
478.70	68.536
479.05	68.903
479.40	69.089
479.75	68.632
480.10	68.638
480.45	68.396
480.79	68.132
481.14	69.129
481.49	68.771
481.84	68.176
482.19	67.469
482.53	68.394
482.88	67.101
483.23	68.551
483.58	67.652
483.92	68.322
484.27	65.272
484.62	66.293
484.97	66.023
485.31	67.123
485.66	65.413
486.01	64.186
486.36	62.311
486.70	63.141
487.05	64.005
487.40	64.275
487.75	64.896
488.09	64.362
488.44	65.677
488.79	66.474
489.13	66.196
489.48	65.253
489.83	65.775
490.17	65.936
490.52	64.482
490.87	64.812
491.22	64.984
491.56	63.052
491.91	63.797
492.26	64.630
492.60	62.995
492.95	63.330
493.30	63.879
493.64	63.929
493.99	62.349
494.34	62.951
494.68	63.004
495.03	63.769
495.37	62.075
495.72	63.986
496.07	63.852
496.41	61.018
496.76	62.269
497.11	61.639
497.45	62.739
497.80	61.468
498.14	61.932
498.49	62.049
498.84	61.697
499.18	61.714
499.53	60.684
499.87	61.556
500.22	60.575
500.56	62.621
500.91	61.154
501.26	60.692
501.60	61.747
501.95	60.449
502.29	60.731
502.64	60.754
502.98	59.467
503.33	59.918
503.67	60.232
504.02	60.384
504.36	58.634
504.71	59.844
505.06	58.843
505.40	59.310
505.75	58.341
506.09	57.969
506.44	60.582
506.78	59.571
507.13	60.323
507.47	59.848
507.82	59.422
508.16	58.764
508.51	59.564
508.85	57.746
509.19	59.133
509.54	57.857
509.88	57.342
510.23	58.869
510.57	58.669
510.92	58.208
511.26	56.475
511.61	57.624
511.95	56.367
512.30	56.204
512.64	56.851
512.98	58.360
513.33	57.762
513.67	55.336
514.02	56.981
514.36	57.564
514.70	56.835
515.05	56.999
515.39	56.814
515.74	56.982
516.08	56.680
516.42	56.493
516.77	58.082
517.11	55.827
517.46	55.643
517.80	57.491
518.14	55.819
518.49	57.235
518.83	55.227
519.17	55.774
519.52	55.688
519.86	54.307
520.20	54.971
520.55	55.296
520.89	56.204
521.23	56.936
521.58	54.202
521.92	55.052
522.26	55.034
522.61	55.389
522.95	53.775
523.29	54.413
523.64	55.610
523.98	55.083
524.32	54.584
524.66	53.939
525.01	52.880
525.35	53.717
525.69	53.140
526.04	54.206
526.38	55.339
526.72	52.638
527.06	54.614
527.41	52.847
527.75	53.826
528.09	54.721
528.43	52.964
528.78	53.596
529.12	53.152
529.46	54.562
529.80	53.899
530.15	53.645
530.49	53.846
530.83	52.911
531.17	54.373
531.51	54.280
531.86	52.645
532.20	53.129
532.54	52.146
532.88	51.861
533.22	51.905
533.57	52.160
533.91	51.114
534.25	52.552
534.59	53.508
534.93	50.922
535.27	51.358
535.62	52.442
535.96	52.166
536.30	50.858
536.64	51.256
536.98	52.555
537.32	51.613
537.66	51.667
538.01	52.600
538.35	51.842
538.69	51.819
539.03	51.137
539.37	49.904
539.71	49.644
540.05	51.503
540.39	51.229
540.73	50.517
541.07	50.681
541.42	51.663
541.76	51.484
542.10	51.423
542.44	50.795
542.78	50.329
543.12	49.584
543.46	50.426
543.80	50.878
544.14	49.872
544.48	50.413
544.82	49.391
545.16	50.683
545.50	50.386
545.84	51.142
546.18	50.370
546.52	50.860
546.86	50.859
547.20	49.562
547.54	49.165
547.88	50.255
548.22	49.813
548.56	48.553
548.90	49.296
549.24	49.293
549.58	49.591
549.92	49.588
550.26	49.645
550.60	49.239
550.94	50.282
551.28	50.183
551.62	49.820
551.96	47.368
552.30	49.010
552.64	49.831
552.98	48.814
553.32	48.685
553.66	49.080
554.00	49.073
554.34	47.343
554.68	49.499
555.02	48.378
555.36	48.504
555.69	47.700
556.03	49.596
556.37	49.113
556.71	48.226
557.05	48.599
557.39	47.516
557.73	47.636
558.07	49.384
558.41	48.480
558.75	48.788
559.08	49.217
559.42	49.811
559.76	49.044
560.10	47.252
560.44	48.637
560.78	46.574
561.12	48.351
561.45	48.044
561.79	47.198
562.13	48.357
562.47	49.249
562.81	48.257
563.15	46.154
563.48	47.679
563.82	48.010
564.16	47.155
564.50	46.615
564.84	47.219
565.17	46.911
565.51	48.754
565.85	47.462
566.19	45.836
566.52	47.055
566.86	46.534
567.20	48.172
567.54	47.317
567.88	45.845
568.21	47.619
568.55	46.512
568.89	47.374
569.23	46.569
569.56	45.304
569.90	45.434
570.24	46.358
570.57	45.359
570.91	45.023
571.25	44.287
571.59	45.538
571.92	45.017
572.26	44.830
572.60	45.315
572.93	44.768
573.27	45.223
573.61	45.226
573.95	45.556
574.28	44.497
574.62	44.874
574.96	44.038
575.29	44.374
575.63	44.309
575.97	43.791
576.30	44.079
576.64	45.059
576.98	44.191
577.31	44.547
577.65	44.864
577.98	43.747
578.32	43.586
578.66	43.417
578.99	43.529
579.33	43.912
579.67	43.663
580.00	44.450
580.34	44.328
580.67	44.174
581.01	44.434
581.35	44.038
581.68	43.909
582.02	43.572
582.35	43.888
582.69	44.116
583.02	43.921
583.36	43.901
583.70	44.256
584.03	44.175
584.37	44.743
584.70	44.227
585.04	43.297
585.37	43.569
585.71	43.398
586.04	43.585
586.38	44.357
586.72	44.546
587.05	43.168
587.39	43.008
587.72	43.468
588.06	44.077
588.39	43.759
588.73	43.326
589.06	43.908
589.40	44.747
589.73	44.210
590.07	43.772
590.40	43.259
590.73	44.418
591.07	44.526
591.40	43.189
591.74	44.242
592.07	43.543
592.41	42.828
592.74	42.622
593.08	43.138
593.41	43.024
593.75	41.537
594.08	42.541
594.41	43.302
594.75	43.327
595.08	42.663
595.42	43.608
595.75	43.127
596.09	43.748
596.42	43.261
596.75	43.520
597.09	44.762
597.42	42.285
597.75	42.993
598.09	42.696
598.42	42.139
598.76	42.116
599.09	41.809
599.42	42.140
599.76	42.313
600.09	41.530
600.42	42.111
600.76	41.393
601.09	42.004
601.42	42.123
601.76	42.619
602.09	42.095
602.42	42.038
602.76	43.128
603.09	42.801
603.42	42.249
603.76	41.730
604.09	41.256
604.42	41.949
604.76	42.345
605.09	42.813
605.42	41.513
605.75	42.094
606.09	42.212
606.42	42.051
606.75	41.103
607.09	41.900
607.42	41.849
607.75	41.941
608.08	42.293
608.42	42.896
608.75	41.208
609.08	41.998
609.41	40.933
609.75	41.353
610.08	41.659
610.41	42.086
610.74	42.289
611.07	42.243
611.41	42.051
611.74	42.182
612.07	42.391
612.40	41.815
612.73	41.737
613.07	42.780
613.40	41.601
613.73	41.374
614.06	41.613
614.39	40.797
614.72	40.842
615.06	42.017
615.39	41.454
615.72	40.695
616.05	40.723
616.38	42.023
616.71	41.508
617.05	42.108
617.38	42.093
617.71	40.841
618.04	41.526
618.37	41.100
618.70	40.946
619.03	42.500
619.36	42.159
619.69	40.352
620.03	42.376
620.36	40.842
620.69	42.329
621.02	41.519
621.35	41.582
621.68	40.498
622.01	41.563
622.34	43.268
622.67	42.053
623.00	40.205
623.33	40.243
623.66	41.172
623.99	41.532
624.32	41.298
624.65	41.102
624.99	40.510
625.32	40.768
625.65	41.548
625.98	42.275
626.31	40.513
626.64	42.204
626.97	41.895
627.30	42.145
627.63	42.248
627.96	41.463
628.29	41.032
628.62	40.897
628.95	41.698
629.28	40.967
629.61	42.896
629.94	42.571
630.26	41.563
630.59	42.040
