SpectraSuite Data File
++++++++++++++++++++++++++++++++++++
Date: Wed May 13 19:25:20 PDT 2015
User: schluterlab
Dark Spectrum Present: Yes
Reference Spectrum Present: Yes
Number of Sampled Component Spectra: 1
Spectrometers: USB2E3373
Integration Time (usec): 3000 (USB2E3373)
Spectra Averaged: 3 (USB2E3373)
Boxcar Smoothing: 0 (USB2E3373)
Correct for Electrical Dark: No (USB2E3373)
Strobe/Lamp Enabled: No (USB2E3373)
Correct for Detector Non-linearity: No (USB2E3373)
Correct for Stray Light: No (USB2E3373)
Number of Pixels in Processed Spectrum: 2048
>>>>>Begin Processed Spectral Data<<<<<
178.53	0.000
178.91	-1400.000
179.29	-1400.000
179.67	-283.333
180.04	-1225.000
180.42	2800.000
180.80	1100.000
181.18	-850.000
181.56	642.857
181.94	0.000
182.31	-757.143
182.69	1833.333
183.07	-550.000
183.45	-500.000
183.83	554.545
184.20	-440.000
184.58	1850.000
184.96	5400.000
185.34	-880.000
185.72	-575.000
186.09	-2650.000
186.47	2800.000
186.85	2750.000
187.23	5900.000
187.61	-1500.000
187.98	1575.000
188.36	554.545
188.74	472.727
189.12	-1140.000
189.49	530.000
189.87	-5100.000
190.25	-1000.000
190.63	450.000
191.00	546.154
191.38	833.333
191.76	-1425.000
192.14	1425.000
192.51	712.500
192.89	883.333
193.27	650.000
193.65	-1250.000
194.02	460.000
194.40	1040.000
194.78	580.000
195.15	558.333
195.53	650.000
195.91	-2300.000
196.29	425.000
196.66	326.316
197.04	-420.000
197.42	0.000
197.79	660.000
198.17	-5500.000
198.55	714.286
198.92	762.500
199.30	1040.000
199.68	0.000
200.05	322.222
200.43	628.571
200.81	4600.000
201.18	1966.667
201.56	-1733.333
201.94	722.222
202.31	622.222
202.69	516.667
203.07	630.000
203.44	0.000
203.82	1100.000
204.19	685.714
204.57	450.000
204.95	750.000
205.32	1800.000
205.70	536.364
206.08	407.143
206.45	3150.000
206.83	362.500
207.20	966.667
207.58	960.000
207.96	305.556
208.33	812.500
208.71	-950.000
209.08	857.143
209.46	666.667
209.84	390.909
210.21	-1466.667
210.59	1700.000
210.96	-662.500
211.34	2450.000
211.71	590.000
212.09	866.667
212.46	0.000
212.84	1733.333
213.22	1100.000
213.59	-4600.000
213.97	866.667
214.34	885.714
214.72	645.455
215.09	880.000
215.47	-2700.000
215.84	-3000.000
216.22	2100.000
216.59	421.429
216.97	1450.000
217.34	545.455
217.72	-816.667
218.09	0.000
218.47	-5600.000
218.84	611.111
219.22	871.429
219.59	1733.333
219.97	-585.714
220.34	1000.000
220.72	-1966.667
221.09	450.000
221.47	1575.000
221.84	-1033.333
222.22	0.000
222.59	1500.000
222.97	-2650.000
223.34	1180.000
223.72	507.692
224.09	1060.000
224.46	2850.000
224.84	-4700.000
225.21	-1020.000
225.59	-4600.000
225.96	680.000
226.34	345.000
226.71	2550.000
227.08	650.000
227.46	520.000
227.83	-1075.000
228.21	-2300.000
228.58	722.222
228.95	-1950.000
229.33	-2300.000
229.70	1866.667
230.08	800.000
230.45	-880.000
230.82	433.333
231.20	850.000
231.57	685.714
231.95	541.667
232.32	277.273
232.69	481.818
233.07	785.714
233.44	384.615
233.81	-1700.000
234.19	289.474
234.56	500.000
234.93	408.333
235.31	518.182
235.68	376.923
236.05	350.000
236.43	130.303
236.80	284.211
237.17	4700.000
237.55	219.048
237.92	228.571
238.29	209.524
238.67	151.613
239.04	231.034
239.41	141.667
239.79	117.391
240.16	154.762
240.53	138.636
240.91	100.000
241.28	108.000
241.65	116.000
242.02	73.913
242.40	87.097
242.77	80.000
243.14	74.194
243.51	74.157
243.89	60.000
244.26	56.667
244.63	51.613
245.00	46.809
245.38	52.475
245.75	57.009
246.12	48.624
246.49	51.095
246.87	51.200
247.24	47.692
247.61	45.000
247.98	41.830
248.36	31.757
248.73	36.943
249.10	40.127
249.47	40.113
249.84	39.037
250.22	29.947
250.59	33.136
250.96	32.828
251.33	37.441
251.70	31.188
252.08	31.905
252.45	28.700
252.82	24.783
253.19	27.660
253.56	27.451
253.94	28.216
254.31	24.219
254.68	28.462
255.05	29.520
255.42	22.764
255.79	25.000
256.16	24.188
256.54	22.968
256.91	24.911
257.28	17.986
257.65	20.462
258.02	22.050
258.39	21.767
258.76	23.077
259.14	20.833
259.51	24.316
259.88	18.012
260.25	25.076
260.62	19.942
260.99	22.360
261.36	18.619
261.73	16.905
262.10	16.570
262.47	20.563
262.85	18.942
263.22	16.524
263.59	21.368
263.96	18.407
264.33	18.538
264.70	13.947
265.07	16.624
265.44	17.424
265.81	15.815
266.18	17.588
266.55	15.366
266.92	17.199
267.29	19.676
267.66	16.743
268.03	16.591
268.40	17.290
268.77	15.752
269.14	15.315
269.51	14.221
269.88	17.483
270.25	15.350
270.62	15.281
270.99	18.495
271.36	17.382
271.73	14.252
272.10	16.522
272.47	15.269
272.84	14.935
273.21	16.143
273.58	14.847
273.95	14.256
274.32	14.669
274.69	13.704
275.06	13.386
275.43	16.170
275.80	13.627
276.17	13.646
276.54	15.593
276.91	14.822
277.28	14.453
277.65	17.021
278.02	13.665
278.39	12.305
278.76	14.909
279.13	13.208
279.50	15.084
279.87	15.538
280.23	14.770
280.60	12.959
280.97	11.645
281.34	14.513
281.71	14.182
282.08	14.395
282.45	14.000
282.82	13.854
283.19	12.299
283.56	14.035
283.92	14.890
284.29	13.933
284.66	15.064
285.03	11.754
285.40	11.092
285.77	13.805
286.14	12.608
286.51	13.500
286.87	12.479
287.24	13.355
287.61	11.557
287.98	12.825
288.35	12.044
288.72	12.928
289.08	14.085
289.45	12.850
289.82	13.984
290.19	10.518
290.56	11.945
290.93	10.423
291.29	11.350
291.66	11.357
292.03	13.372
292.40	12.335
292.77	11.391
293.13	12.537
293.50	11.953
293.87	12.889
294.24	9.778
294.60	10.335
294.97	10.320
295.34	12.412
295.71	10.369
296.08	12.251
296.44	11.004
296.81	10.832
297.18	12.737
297.55	8.575
297.91	10.686
298.28	11.647
298.65	10.705
299.02	10.145
299.38	9.827
299.75	7.412
300.12	9.834
300.48	10.625
300.85	9.864
301.22	10.191
301.59	8.081
301.95	9.194
302.32	9.756
302.69	9.319
303.05	10.061
303.42	9.259
303.79	10.079
304.15	7.576
304.52	10.313
304.89	8.827
305.25	9.745
305.62	9.966
305.99	10.626
306.35	8.837
306.72	9.865
307.09	10.988
307.45	10.473
307.82	9.040
308.19	10.155
308.55	11.327
308.92	8.700
309.29	8.553
309.65	9.120
310.02	11.522
310.38	9.570
310.75	8.976
311.12	9.724
311.48	9.091
311.85	10.063
312.22	9.365
312.58	9.875
312.95	9.293
313.31	9.029
313.68	10.291
314.05	11.144
314.41	10.653
314.78	9.466
315.14	9.831
315.51	10.299
315.87	10.396
316.24	9.335
316.61	9.259
316.97	9.980
317.34	8.121
317.70	9.847
318.07	9.240
318.43	10.665
318.80	10.684
319.16	10.546
319.53	9.475
319.89	10.857
320.26	11.500
320.62	10.020
320.99	10.606
321.35	10.101
321.72	11.602
322.08	10.464
322.45	12.139
322.81	11.337
323.18	11.175
323.54	12.245
323.91	12.264
324.27	10.516
324.64	9.040
325.00	10.821
325.37	11.010
325.73	10.233
326.10	10.238
326.46	9.857
326.83	10.871
327.19	9.991
327.56	10.366
327.92	11.024
328.29	11.624
328.65	11.326
329.01	10.289
329.38	10.268
329.74	11.265
330.11	9.708
330.47	11.111
330.84	10.662
331.20	10.838
331.56	11.101
331.93	10.093
332.29	10.825
332.66	11.858
333.02	11.426
333.38	11.743
333.75	12.210
334.11	10.587
334.48	11.269
334.84	11.581
335.20	11.909
335.57	9.882
335.93	9.732
336.29	9.799
336.66	10.099
337.02	10.679
337.38	10.278
337.75	9.715
338.11	10.564
338.47	9.208
338.84	10.632
339.20	10.459
339.56	11.861
339.93	10.273
340.29	10.598
340.65	9.982
341.02	10.471
341.38	11.032
341.74	9.912
342.11	10.480
342.47	10.925
342.83	10.017
343.20	11.169
343.56	10.362
343.92	9.035
344.28	10.034
344.65	11.522
345.01	9.428
345.37	9.691
345.73	10.745
346.10	10.486
346.46	10.339
346.82	10.297
347.19	9.524
347.55	11.002
347.91	10.356
348.27	10.764
348.63	10.619
349.00	10.518
349.36	10.509
349.72	10.425
350.08	9.806
350.45	10.171
350.81	10.885
351.17	10.211
351.53	10.238
351.89	9.571
352.26	10.418
352.62	10.585
352.98	9.968
353.34	10.107
353.70	9.738
354.07	10.726
354.43	9.524
354.79	10.137
355.15	9.657
355.51	10.951
355.87	10.367
356.24	10.668
356.60	10.184
356.96	10.056
357.32	9.648
357.68	10.472
358.04	10.372
358.40	10.768
358.77	9.937
359.13	9.550
359.49	10.196
359.85	8.095
360.21	8.692
360.57	10.506
360.93	10.692
361.29	9.902
361.66	9.520
362.02	11.269
362.38	10.190
362.74	9.524
363.10	8.882
363.46	8.217
363.82	10.128
364.18	9.104
364.54	9.955
364.90	9.632
365.26	9.044
365.62	10.446
365.98	9.058
366.35	8.166
366.71	9.689
367.07	9.614
367.43	9.507
367.79	9.921
368.15	10.632
368.51	9.448
368.87	9.993
369.23	9.217
369.59	10.572
369.95	8.897
370.31	10.328
370.67	9.638
371.03	10.112
371.39	10.204
371.75	9.853
372.11	9.815
372.47	9.604
372.83	10.375
373.19	9.249
373.55	10.052
373.91	10.751
374.27	10.515
374.63	8.945
374.99	9.887
375.35	9.002
375.71	9.870
376.07	10.014
376.42	9.010
376.78	9.940
377.14	10.041
377.50	9.404
377.86	9.641
378.22	10.051
378.58	8.835
378.94	8.988
379.30	8.842
379.66	9.708
380.02	9.337
380.38	8.986
380.74	9.664
381.09	10.269
381.45	9.711
381.81	10.135
382.17	9.554
382.53	8.742
382.89	9.074
383.25	9.631
383.61	9.542
383.97	9.819
384.32	9.607
384.68	8.922
385.04	10.018
385.40	9.536
385.76	9.951
386.12	9.391
386.48	10.321
386.83	9.493
387.19	9.957
387.55	9.400
387.91	9.613
388.27	9.687
388.62	10.080
388.98	9.337
389.34	10.200
389.70	9.994
390.06	10.203
390.42	10.441
390.77	11.069
391.13	10.083
391.49	10.660
391.85	9.930
392.20	9.779
392.56	9.533
392.92	9.653
393.28	8.639
393.64	9.892
393.99	10.263
394.35	9.864
394.71	9.912
395.07	10.156
395.42	10.136
395.78	10.878
396.14	10.366
396.50	10.777
396.85	10.553
397.21	10.049
397.57	10.415
397.92	11.058
398.28	8.800
398.64	10.753
399.00	9.961
399.35	9.306
399.71	10.590
400.07	10.704
400.42	10.061
400.78	10.856
401.14	9.817
401.49	10.746
401.85	10.284
402.21	9.880
402.57	9.747
402.92	10.719
403.28	10.743
403.63	10.210
403.99	10.382
404.35	10.606
404.70	10.432
405.06	10.250
405.42	10.480
405.77	9.771
406.13	10.384
406.49	10.112
406.84	10.514
407.20	9.752
407.55	10.402
407.91	11.267
408.27	10.466
408.62	11.318
408.98	11.152
409.34	10.086
409.69	10.645
410.05	10.223
410.40	10.948
410.76	10.215
411.11	11.037
411.47	10.479
411.83	10.996
412.18	10.019
412.54	11.208
412.89	11.265
413.25	11.688
413.60	11.921
413.96	10.747
414.31	11.179
414.67	11.027
415.03	11.457
415.38	11.598
415.74	11.511
416.09	10.973
416.45	11.178
416.80	11.434
417.16	11.930
417.51	11.015
417.87	11.689
418.22	11.798
418.58	12.201
418.93	11.916
419.29	12.094
419.64	12.154
420.00	11.890
420.35	11.942
420.71	12.433
421.06	11.337
421.42	11.754
421.77	12.052
422.12	11.173
422.48	11.225
422.83	11.648
423.19	12.486
423.54	11.782
423.90	12.174
424.25	12.730
424.61	12.381
424.96	13.294
425.31	12.126
425.67	11.573
426.02	12.229
426.38	13.126
426.73	11.293
427.09	12.280
427.44	11.616
427.79	12.248
428.15	12.083
428.50	11.761
428.85	12.813
429.21	12.258
429.56	11.871
429.92	12.280
430.27	12.066
430.62	11.214
430.98	12.143
431.33	12.320
431.68	12.565
432.04	12.247
432.39	12.736
432.74	12.687
433.10	12.677
433.45	13.061
433.80	12.195
434.16	12.927
434.51	12.789
434.86	13.056
435.22	13.063
435.57	12.158
435.92	12.756
436.28	12.871
436.63	13.962
436.98	12.936
437.34	13.178
437.69	13.302
438.04	13.210
438.39	13.194
438.75	13.248
439.10	13.575
439.45	13.046
439.81	12.689
440.16	12.648
440.51	13.005
440.86	13.955
441.22	12.903
441.57	13.694
441.92	12.845
442.27	13.025
442.63	12.586
442.98	13.915
443.33	13.370
443.68	13.371
444.03	13.128
444.39	12.512
444.74	13.095
445.09	13.801
445.44	13.505
445.79	13.310
446.15	13.870
446.50	13.786
446.85	13.361
447.20	13.208
447.55	13.345
447.91	13.569
448.26	14.079
448.61	14.132
448.96	14.120
449.31	14.004
449.66	14.631
450.02	12.813
450.37	13.152
450.72	13.480
451.07	13.955
451.42	14.103
451.77	13.623
452.12	14.376
452.47	13.744
452.83	14.277
453.18	14.548
453.53	14.533
453.88	13.054
454.23	14.166
454.58	14.294
454.93	14.940
455.28	14.090
455.63	15.170
455.98	15.119
456.34	14.259
456.69	14.590
457.04	14.365
457.39	13.501
457.74	14.452
458.09	13.859
458.44	13.740
458.79	13.720
459.14	14.052
459.49	14.069
459.84	13.186
460.19	14.319
460.54	14.352
460.89	14.536
461.24	14.572
461.59	14.933
461.94	13.995
462.29	14.955
462.64	14.614
462.99	14.574
463.34	15.800
463.69	14.321
464.04	14.957
464.39	14.493
464.74	14.082
465.09	14.656
465.44	14.183
465.79	14.038
466.14	14.559
466.49	14.405
466.84	14.361
467.19	14.906
467.54	14.938
467.89	14.166
468.24	14.776
468.59	15.079
468.94	14.172
469.29	13.882
469.64	16.131
469.99	15.088
470.34	14.927
470.68	14.871
471.03	15.034
471.38	15.566
471.73	15.723
472.08	16.382
472.43	15.013
472.78	16.063
473.13	15.918
473.48	15.231
473.83	15.061
474.17	14.686
474.52	15.136
474.87	15.353
475.22	14.858
475.57	14.723
475.92	14.126
476.27	14.769
476.61	15.113
476.96	14.184
477.31	15.332
477.66	14.934
478.01	14.323
478.36	15.389
478.70	14.538
479.05	14.111
479.40	14.483
479.75	14.947
480.10	14.364
480.45	14.802
480.79	14.333
481.14	14.971
481.49	14.998
481.84	13.900
482.19	14.448
482.53	14.771
482.88	14.798
483.23	14.907
483.58	14.422
483.92	14.386
484.27	14.074
484.62	13.836
484.97	13.835
485.31	13.870
485.66	12.832
486.01	11.791
486.36	11.859
486.70	11.969
487.05	12.111
487.40	12.845
487.75	12.623
488.09	13.618
488.44	13.175
488.79	14.358
489.13	14.400
489.48	14.233
489.83	13.681
490.17	14.511
490.52	14.482
490.87	14.021
491.22	14.234
491.56	13.804
491.91	13.913
492.26	14.194
492.60	14.562
492.95	14.125
493.30	14.299
493.64	14.979
493.99	13.835
494.34	14.847
494.68	14.744
495.03	14.756
495.37	14.332
495.72	14.571
496.07	14.849
496.41	14.204
496.76	14.072
497.11	14.543
497.45	14.765
497.80	14.827
498.14	14.638
498.49	14.780
498.84	14.286
499.18	14.238
499.53	14.767
499.87	14.865
500.22	14.837
500.56	14.951
500.91	14.760
501.26	15.458
501.60	15.235
501.95	14.574
502.29	15.604
502.64	14.711
502.98	14.633
503.33	14.351
503.67	15.406
504.02	14.079
504.36	15.021
504.71	15.291
505.06	15.277
505.40	15.022
505.75	15.333
506.09	15.209
506.44	14.702
506.78	15.246
507.13	16.002
507.47	16.212
507.82	16.008
508.16	16.464
508.51	16.083
508.85	15.591
509.19	16.071
509.54	15.816
509.88	15.456
510.23	15.167
510.57	17.028
510.92	16.157
511.26	15.930
511.61	16.027
511.95	16.075
512.30	16.543
512.64	16.335
512.98	16.452
513.33	16.328
513.67	16.062
514.02	16.126
514.36	16.439
514.70	16.602
515.05	16.118
515.39	16.209
515.74	16.498
516.08	17.272
516.42	16.981
516.77	16.722
517.11	17.148
517.46	17.043
517.80	17.073
518.14	16.792
518.49	17.386
518.83	16.875
519.17	16.975
519.52	17.657
519.86	17.456
520.20	17.572
520.55	17.774
520.89	17.822
521.23	18.878
521.58	17.707
521.92	18.249
522.26	16.962
522.61	17.695
522.95	17.802
523.29	18.259
523.64	18.720
523.98	18.053
524.32	18.034
524.66	19.062
525.01	18.382
525.35	17.720
525.69	17.611
526.04	17.383
526.38	18.121
526.72	18.344
527.06	19.460
527.41	17.512
527.75	19.293
528.09	18.240
528.43	19.439
528.78	18.685
529.12	17.515
529.46	19.228
529.80	18.998
530.15	18.442
530.49	18.277
530.83	18.481
531.17	19.060
531.51	19.261
531.86	19.548
532.20	19.622
532.54	19.154
532.88	18.806
533.22	18.676
533.57	18.704
533.91	18.122
534.25	17.922
534.59	18.487
534.93	17.430
535.27	18.709
535.62	19.109
535.96	19.146
536.30	18.118
536.64	18.802
536.98	18.381
537.32	19.092
537.66	19.600
538.01	19.355
538.35	19.392
538.69	19.655
539.03	18.064
539.37	18.275
539.71	17.563
540.05	19.346
540.39	17.874
540.73	18.176
541.07	18.819
541.42	19.243
541.76	19.613
542.10	18.370
542.44	18.411
542.78	20.026
543.12	17.850
543.46	18.492
543.80	19.323
544.14	18.293
544.48	18.667
544.82	18.730
545.16	18.347
545.50	18.445
545.84	19.489
546.18	19.394
546.52	18.995
546.86	19.381
547.20	19.218
547.54	19.639
547.88	19.196
548.22	18.244
548.56	18.805
548.90	19.270
549.24	18.653
549.58	18.759
549.92	19.299
550.26	19.389
550.60	17.911
550.94	19.155
551.28	17.776
551.62	18.620
551.96	18.877
552.30	19.863
552.64	18.391
552.98	19.525
553.32	19.353
553.66	20.177
554.00	19.355
554.34	19.048
554.68	20.100
555.02	19.394
555.36	19.555
555.69	18.403
556.03	18.573
556.37	18.213
556.71	18.486
557.05	18.557
557.39	18.754
557.73	19.195
558.07	18.927
558.41	18.162
558.75	18.589
559.08	18.867
559.42	19.652
559.76	19.559
560.10	18.986
560.44	19.147
560.78	18.896
561.12	17.678
561.45	18.709
561.79	18.721
562.13	19.182
562.47	18.169
562.81	18.898
563.15	18.395
563.48	17.971
563.82	18.200
564.16	17.986
564.50	17.513
564.84	18.268
565.17	18.597
565.51	18.403
565.85	18.084
566.19	17.408
566.52	18.873
566.86	17.420
567.20	18.101
567.54	17.123
567.88	16.676
568.21	17.566
568.55	17.391
568.89	16.975
569.23	16.355
569.56	15.668
569.90	15.358
570.24	15.213
570.57	15.165
570.91	15.385
571.25	14.608
571.59	14.904
571.92	14.631
572.26	14.645
572.60	15.225
572.93	15.112
573.27	14.729
573.61	15.131
573.95	14.574
574.28	14.347
574.62	14.553
574.96	14.313
575.29	13.943
575.63	14.329
575.97	14.189
576.30	14.604
576.64	14.076
576.98	14.147
577.31	13.771
577.65	13.811
577.98	13.832
578.32	13.801
578.66	13.690
578.99	13.901
579.33	14.210
579.67	13.671
580.00	14.457
580.34	14.167
580.67	14.134
581.01	14.324
581.35	13.847
581.68	13.465
582.02	13.399
582.35	13.363
582.69	13.947
583.02	13.894
583.36	13.742
583.70	14.411
584.03	14.316
584.37	14.809
584.70	14.028
585.04	13.723
585.37	13.956
585.71	14.168
586.04	13.820
586.38	14.289
586.72	14.941
587.05	13.502
587.39	13.852
587.72	14.275
588.06	14.408
588.39	14.403
588.73	14.608
589.06	14.584
589.40	14.613
589.73	15.558
590.07	14.698
590.40	14.359
590.73	15.418
591.07	15.344
591.40	15.563
591.74	15.887
592.07	15.009
592.41	15.130
592.74	15.281
593.08	14.724
593.41	14.521
593.75	14.366
594.08	14.951
594.41	14.351
594.75	14.787
595.08	14.817
595.42	14.746
595.75	14.423
596.09	15.359
596.42	15.756
596.75	15.112
597.09	15.887
597.42	14.882
597.75	15.222
598.09	15.348
598.42	15.034
598.76	15.079
599.09	14.747
599.42	14.119
599.76	14.385
600.09	14.281
600.42	14.061
600.76	14.036
601.09	14.281
601.42	14.193
601.76	14.611
602.09	14.308
602.42	15.287
602.76	15.316
603.09	15.146
603.42	14.174
603.76	14.558
604.09	14.502
604.42	14.717
604.76	15.183
605.09	14.897
605.42	14.878
605.75	15.066
606.09	14.030
606.42	14.303
606.75	14.641
607.09	14.650
607.42	14.805
607.75	14.219
608.08	14.459
608.42	15.016
608.75	14.563
609.08	14.431
609.41	15.231
609.75	15.102
610.08	15.363
610.41	14.711
610.74	14.380
611.07	15.168
611.41	15.751
611.74	15.535
612.07	15.735
612.40	15.005
612.73	14.842
613.07	15.894
613.40	16.324
613.73	14.997
614.06	15.215
614.39	15.207
614.72	15.211
615.06	14.758
615.39	14.809
615.72	15.695
616.05	14.886
616.38	15.842
616.71	15.796
617.05	15.430
617.38	15.334
617.71	15.556
618.04	16.046
618.37	15.730
618.70	16.428
619.03	17.105
619.36	16.565
619.69	16.338
620.03	16.484
620.36	16.377
620.69	16.644
621.02	17.478
621.35	16.836
621.68	16.511
622.01	16.254
622.34	16.490
622.67	17.414
623.00	15.260
623.33	16.369
623.66	16.512
623.99	16.053
624.32	16.762
624.65	16.031
624.99	16.501
625.32	16.365
625.65	16.980
625.98	17.218
626.31	16.719
626.64	16.735
626.97	17.872
627.30	17.872
627.63	16.981
627.96	17.073
628.29	17.585
628.62	19.579
628.95	20.189
629.28	17.974
629.61	19.340
629.94	18.381
630.26	18.303
630.59	17.255
630.92	18.582
631.25	18.460
631.58	18.318
631.91	18.256
632.24	16.772
632.57	20.042
632.90	20.066
633.23	20.470
633.56	18.757
633.89	19.479
