SpectraSuite Data File
++++++++++++++++++++++++++++++++++++
Date: Tue May 12 19:37:52 PDT 2015
User: schluterlab
Dark Spectrum Present: Yes
Reference Spectrum Present: Yes
Number of Sampled Component Spectra: 1
Spectrometers: USB2E3373
Integration Time (usec): 3000 (USB2E3373)
Spectra Averaged: 3 (USB2E3373)
Boxcar Smoothing: 0 (USB2E3373)
Correct for Electrical Dark: No (USB2E3373)
Strobe/Lamp Enabled: No (USB2E3373)
Correct for Detector Non-linearity: No (USB2E3373)
Correct for Stray Light: No (USB2E3373)
Number of Pixels in Processed Spectrum: 2048
>>>>>Begin Processed Spectral Data<<<<<
178.53	0.000
178.91	-40.000
179.29	-33.333
179.67	66.667
180.04	0.000
180.42	-80.000
180.80	-533.333
181.18	650.000
181.56	-300.000
181.94	200.000
182.31	700.000
182.69	0.000
183.07	0.000
183.45	125.000
183.83	120.000
184.20	116.667
184.58	450.000
184.96	183.333
185.34	0.000
185.72	35.714
186.09	-33.333
186.47	100.000
186.85	140.000
187.23	100.000
187.61	-100.000
187.98	-160.000
188.36	50.000
188.74	125.000
189.12	11.111
189.49	10.000
189.87	200.000
190.25	-22.222
190.63	466.667
191.00	280.000
191.38	33.333
191.76	260.000
192.14	-114.286
192.51	-40.000
192.89	-40.000
193.27	-160.000
193.65	-33.333
194.02	-216.667
194.40	600.000
194.78	-50.000
195.15	-185.714
195.53	166.667
195.91	280.000
196.29	-300.000
196.66	0.000
197.04	-114.286
197.42	80.000
197.79	-62.500
198.17	16.667
198.55	500.000
198.92	-100.000
199.30	600.000
199.68	-200.000
200.05	-450.000
200.43	-27.778
200.81	-116.667
201.18	233.333
201.56	-550.000
201.94	-1000.000
202.31	-41.667
202.69	0.000
203.07	-91.667
203.44	-350.000
203.82	0.000
204.19	162.500
204.57	-500.000
204.95	54.545
205.32	100.000
205.70	400.000
206.08	-400.000
206.45	200.000
206.83	1100.000
207.20	-122.222
207.58	46.154
207.96	-0.000
208.33	500.000
208.71	300.000
209.08	650.000
209.46	-22.222
209.84	666.667
210.21	-400.000
210.59	-200.000
210.96	255.556
211.34	-100.000
211.71	800.000
212.09	-40.000
212.46	-162.500
212.84	-125.000
213.22	-28.571
213.59	0.000
213.97	0.000
214.34	-150.000
214.72	-500.000
215.09	450.000
215.47	-13.333
215.84	-50.000
216.22	-300.000
216.59	600.000
216.97	-41.667
217.34	-66.667
217.72	38.889
218.09	275.000
218.47	-21.053
218.84	-100.000
219.22	-50.000
219.59	-10.000
219.97	20.000
220.34	66.667
220.72	63.636
221.09	-750.000
221.47	0.000
221.84	250.000
222.22	25.000
222.59	-325.000
222.97	-17.391
223.34	166.667
223.72	185.714
224.09	-33.333
224.46	146.154
224.84	-20.000
225.21	-50.000
225.59	75.000
225.96	50.000
226.34	216.667
226.71	240.000
227.08	-38.462
227.46	-42.857
227.83	-8.333
228.21	-700.000
228.58	216.667
228.95	0.000
229.33	12.500
229.70	-150.000
230.08	-100.000
230.45	-233.333
230.82	-700.000
231.20	-23.810
231.57	-40.000
231.95	-566.667
232.32	177.778
232.69	-600.000
233.07	37.500
233.44	-37.500
233.81	25.806
234.19	-180.000
234.56	-11.111
234.93	-116.667
235.31	51.852
235.68	18.519
236.05	-7.692
236.43	-57.895
236.80	-40.909
237.17	-42.857
237.55	-30.000
237.92	-2.326
238.29	-6.452
238.67	32.143
239.04	11.429
239.41	-5.882
239.79	30.000
240.16	0.000
240.53	-10.345
240.91	24.658
241.28	14.085
241.65	21.875
242.02	7.018
242.40	8.000
242.77	17.895
243.14	17.647
243.51	13.978
243.89	15.238
244.26	14.815
244.63	12.245
245.00	5.357
245.38	5.042
245.75	15.254
246.12	22.656
246.49	14.400
246.87	11.475
247.24	14.085
247.61	23.841
247.98	19.663
248.36	23.270
248.73	18.182
249.10	20.556
249.47	19.271
249.84	15.736
250.22	16.667
250.59	21.348
250.96	21.364
251.33	18.868
251.70	20.642
252.08	23.810
252.45	20.408
252.82	11.392
253.19	19.844
253.56	23.529
253.94	22.764
254.31	20.863
254.68	20.833
255.05	22.185
255.42	17.091
255.79	26.490
256.16	19.097
256.54	21.515
256.91	23.718
257.28	19.805
257.65	18.033
258.02	22.523
258.39	24.169
258.76	23.853
259.14	17.941
259.51	21.972
259.88	23.343
260.25	18.466
260.62	21.067
260.99	23.120
261.36	17.241
261.73	19.467
262.10	19.619
262.47	23.691
262.85	24.422
263.22	19.624
263.59	20.643
263.96	22.454
264.33	18.868
264.70	19.902
265.07	22.167
265.44	20.609
265.81	24.096
266.18	20.843
266.55	21.190
266.92	21.429
267.29	20.444
267.66	17.955
268.03	20.000
268.40	18.307
268.77	21.826
269.14	20.378
269.51	20.362
269.88	19.872
270.25	19.620
270.62	21.429
270.99	17.474
271.36	20.309
271.73	19.583
272.10	22.199
272.47	20.000
272.84	17.197
273.21	17.119
273.58	18.571
273.95	21.116
274.32	22.244
274.69	18.591
275.06	17.824
275.43	19.000
275.80	21.033
276.17	19.170
276.54	22.243
276.91	20.921
277.28	21.857
277.65	18.526
278.02	21.402
278.39	20.690
278.76	19.926
279.13	22.540
279.50	19.314
279.87	18.302
280.23	20.947
280.60	18.728
280.97	18.981
281.34	19.831
281.71	17.229
282.08	20.572
282.45	18.695
282.82	18.687
283.19	19.024
283.56	20.307
283.92	19.905
284.29	19.628
284.66	19.469
285.03	17.324
285.40	19.833
285.77	20.690
286.14	19.017
286.51	19.132
286.87	20.746
287.24	18.269
287.61	19.444
287.98	22.692
288.35	19.535
288.72	18.196
289.08	16.195
289.45	19.969
289.82	15.839
290.19	18.030
290.56	17.945
290.93	17.578
291.29	17.872
291.66	17.978
292.03	19.369
292.40	17.698
292.77	17.201
293.13	16.153
293.50	15.840
293.87	17.892
294.24	17.416
294.60	18.033
294.97	16.066
295.34	14.658
295.71	15.811
296.08	16.667
296.44	17.523
296.81	16.041
297.18	17.464
297.55	16.960
297.91	15.609
298.28	14.834
298.65	16.300
299.02	17.263
299.38	16.709
299.75	15.573
300.12	16.307
300.48	16.784
300.85	14.059
301.22	16.827
301.59	15.328
301.95	16.341
302.32	15.553
302.69	12.961
303.05	15.348
303.42	14.976
303.79	14.607
304.15	15.742
304.52	15.307
304.89	14.543
305.25	15.482
305.62	14.886
305.99	14.670
306.35	15.660
306.72	14.488
307.09	14.363
307.45	14.024
307.82	15.155
308.19	17.052
308.55	15.084
308.92	16.314
309.29	15.377
309.65	15.996
310.02	16.352
310.38	15.672
310.75	16.189
311.12	16.989
311.48	17.369
311.85	15.704
312.22	16.426
312.58	15.811
312.95	16.119
313.31	16.912
313.68	16.584
314.05	18.471
314.41	17.583
314.78	16.784
315.14	17.434
315.51	17.776
315.87	16.992
316.24	18.200
316.61	18.155
316.97	18.529
317.34	18.565
317.70	17.927
318.07	18.129
318.43	18.526
318.80	18.761
319.16	18.360
319.53	20.755
319.89	18.939
320.26	21.436
320.62	20.930
320.99	21.633
321.35	20.257
321.72	21.616
322.08	21.287
322.45	22.091
322.81	23.547
323.18	22.052
323.54	23.223
323.91	23.340
324.27	23.047
324.64	23.618
325.00	23.658
325.37	25.629
325.73	24.270
326.10	25.482
326.46	25.476
326.83	25.506
327.19	26.114
327.56	27.409
327.92	26.649
328.29	26.882
328.65	28.343
329.01	28.716
329.38	28.191
329.74	28.877
330.11	26.654
330.47	28.585
330.84	28.571
331.20	28.466
331.56	29.245
331.93	28.820
332.29	29.972
332.66	29.656
333.02	28.784
333.38	30.882
333.75	29.460
334.11	30.199
334.48	28.712
334.84	29.671
335.20	29.275
335.57	32.334
335.93	30.233
336.29	29.250
336.66	29.235
337.02	29.374
337.38	30.283
337.75	29.909
338.11	31.085
338.47	31.291
338.84	29.834
339.20	29.789
339.56	29.543
339.93	29.640
340.29	31.097
340.65	30.685
341.02	29.672
341.38	31.509
341.74	29.982
342.11	31.565
342.47	30.507
342.83	30.529
343.20	31.388
343.56	30.245
343.92	30.971
344.28	29.674
344.65	31.421
345.01	31.185
345.37	29.487
345.73	30.319
346.10	30.683
346.46	29.336
346.82	30.926
347.19	30.614
347.55	32.483
347.91	30.631
348.27	31.171
348.63	31.979
349.00	32.304
349.36	31.575
349.72	30.870
350.08	30.933
350.45	31.489
350.81	31.049
351.17	28.995
351.53	30.757
351.89	29.879
352.26	30.813
352.62	31.643
352.98	30.460
353.34	31.245
353.70	30.535
354.07	31.796
354.43	31.302
354.79	30.328
355.15	30.186
355.51	31.703
355.87	31.640
356.24	33.497
356.60	31.219
356.96	30.569
357.32	31.934
357.68	31.026
358.04	30.713
358.40	31.588
358.77	31.004
359.13	31.647
359.49	31.440
359.85	32.374
360.21	32.117
360.57	31.419
360.93	32.542
361.29	31.153
361.66	32.571
362.02	32.339
362.38	33.256
362.74	32.283
363.10	32.127
363.46	32.054
363.82	32.466
364.18	30.886
364.54	32.519
364.90	32.222
365.26	32.340
365.62	32.854
365.98	34.408
366.35	33.585
366.71	33.234
367.07	34.096
367.43	32.924
367.79	32.122
368.15	32.987
368.51	33.558
368.87	33.994
369.23	33.384
369.59	33.603
369.95	32.265
370.31	33.182
370.67	32.932
371.03	33.978
371.39	34.743
371.75	33.210
372.11	32.889
372.47	34.076
372.83	34.478
373.19	34.262
373.55	33.458
373.91	34.167
374.27	35.320
374.63	34.610
374.99	33.455
375.35	33.454
375.71	33.859
376.07	34.276
376.42	34.716
376.78	33.798
377.14	35.405
377.50	34.063
377.86	36.003
378.22	34.676
378.58	35.132
378.94	34.971
379.30	35.521
379.66	33.611
380.02	35.029
380.38	35.369
380.74	36.234
381.09	35.896
381.45	35.556
381.81	35.587
382.17	36.417
382.53	35.963
382.89	35.920
383.25	35.891
383.61	34.711
383.97	37.297
384.32	35.419
384.68	36.462
385.04	35.519
385.40	35.335
385.76	36.369
386.12	36.700
386.48	37.312
386.83	37.393
387.19	36.718
387.55	36.788
387.91	36.822
388.27	36.660
388.62	36.723
388.98	37.405
389.34	36.174
389.70	38.526
390.06	38.218
390.42	37.593
390.77	37.492
391.13	38.386
391.49	38.410
391.85	38.723
392.20	39.076
392.56	37.525
392.92	38.528
393.28	38.719
393.64	38.695
393.99	38.312
394.35	38.936
394.71	38.874
395.07	39.058
395.42	37.270
395.78	38.978
396.14	38.374
396.50	38.745
396.85	38.533
397.21	40.039
397.57	38.381
397.92	39.504
398.28	38.969
398.64	39.175
399.00	38.537
399.35	39.390
399.71	39.042
400.07	40.272
400.42	40.449
400.78	41.011
401.14	39.141
401.49	38.913
401.85	39.619
402.21	40.228
402.57	40.180
402.92	41.169
403.28	41.027
403.63	40.449
403.99	41.083
404.35	39.490
404.70	40.089
405.06	41.042
405.42	40.599
405.77	40.131
406.13	41.278
406.49	40.505
406.84	42.217
407.20	40.397
407.55	42.084
407.91	40.629
408.27	42.819
408.62	40.579
408.98	41.634
409.34	41.933
409.69	41.271
410.05	41.451
410.40	41.811
410.76	41.719
411.11	41.241
411.47	42.313
411.83	40.502
412.18	42.277
412.54	42.109
412.89	42.487
413.25	43.009
413.60	42.283
413.96	42.654
414.31	41.428
414.67	43.147
415.03	42.393
415.38	42.061
415.74	42.713
416.09	42.178
416.45	42.817
416.80	42.420
417.16	41.961
417.51	43.789
417.87	43.707
418.22	43.516
418.58	42.985
418.93	43.778
419.29	44.640
419.64	45.261
420.00	44.597
420.35	44.068
420.71	44.046
421.06	44.971
421.42	44.981
421.77	45.737
422.12	44.241
422.48	44.832
422.83	44.498
423.19	45.941
423.54	44.288
423.90	44.252
424.25	45.619
424.61	45.032
424.96	45.700
425.31	45.894
425.67	44.424
426.02	45.528
426.38	44.788
426.73	46.231
427.09	45.831
427.44	44.938
427.79	47.463
428.15	46.417
428.50	46.231
428.85	45.157
429.21	46.802
429.56	46.519
429.92	46.295
430.27	45.120
430.62	45.754
430.98	46.480
431.33	48.443
431.68	47.319
432.04	47.986
432.39	45.870
432.74	47.502
433.10	47.362
433.45	49.335
433.80	48.333
434.16	47.123
434.51	47.603
434.86	46.767
435.22	47.788
435.57	49.142
435.92	47.616
436.28	48.381
436.63	49.076
436.98	48.210
437.34	49.584
437.69	48.519
438.04	48.558
438.39	49.739
438.75	47.446
439.10	49.762
439.45	50.000
439.81	47.937
440.16	49.845
440.51	48.079
440.86	49.937
441.22	49.315
441.57	48.832
441.92	50.193
442.27	49.771
442.63	48.363
442.98	50.550
443.33	50.411
443.68	48.475
444.03	49.588
444.39	50.547
444.74	49.628
445.09	51.358
445.44	49.621
445.79	51.133
446.15	51.837
446.50	50.954
446.85	50.165
447.20	50.821
447.55	50.553
447.91	50.147
448.26	50.682
448.61	50.997
448.96	51.626
449.31	51.417
449.66	51.271
450.02	50.592
450.37	51.701
450.72	50.628
451.07	51.681
451.42	52.701
451.77	51.828
452.12	52.506
452.47	53.049
452.83	52.927
453.18	52.465
453.53	54.344
453.88	52.265
454.23	52.077
454.58	52.546
454.93	51.499
455.28	51.256
455.63	52.112
455.98	53.109
456.34	52.713
456.69	52.336
457.04	52.887
457.39	51.498
457.74	53.161
458.09	51.773
458.44	55.181
458.79	52.120
459.14	52.296
459.49	53.439
459.84	52.556
460.19	53.158
460.54	51.578
460.89	52.706
461.24	52.792
461.59	52.808
461.94	52.860
462.29	53.509
462.64	53.343
462.99	53.735
463.34	54.579
463.69	54.595
464.04	52.213
464.39	53.505
464.74	52.304
465.09	53.183
465.44	52.010
465.79	52.768
466.14	51.492
466.49	53.302
466.84	52.334
467.19	51.527
467.54	51.260
467.89	52.253
468.24	51.831
468.59	52.225
468.94	53.598
469.29	53.979
469.64	54.486
469.99	53.280
470.34	52.617
470.68	52.615
471.03	53.650
471.38	54.151
471.73	53.343
472.08	54.235
472.43	55.325
472.78	54.532
473.13	52.702
473.48	53.389
473.83	54.161
474.17	52.568
474.52	53.583
474.87	53.725
475.22	54.130
475.57	52.879
475.92	53.496
476.27	53.586
476.61	53.546
476.96	54.298
477.31	54.053
477.66	54.096
478.01	53.855
478.36	54.441
478.70	54.873
479.05	54.266
479.40	53.510
479.75	55.805
480.10	54.491
480.45	54.136
480.79	54.489
481.14	53.980
481.49	53.830
481.84	54.444
482.19	53.902
482.53	53.971
482.88	53.279
483.23	53.819
483.58	54.109
483.92	53.920
484.27	55.082
484.62	53.654
484.97	52.592
485.31	52.900
485.66	52.249
486.01	51.070
486.36	51.540
486.70	52.316
487.05	52.838
487.40	52.093
487.75	51.789
488.09	51.222
488.44	51.591
488.79	52.485
489.13	52.535
489.48	53.489
489.83	53.259
490.17	53.446
490.52	53.537
490.87	53.808
491.22	53.994
491.56	54.743
491.91	53.715
492.26	54.207
492.60	54.745
492.95	54.877
493.30	54.888
493.64	54.513
493.99	55.698
494.34	54.688
494.68	53.617
495.03	52.890
495.37	55.347
495.72	54.905
496.07	54.260
496.41	54.101
496.76	53.916
497.11	54.604
497.45	54.194
497.80	53.738
498.14	54.013
498.49	54.245
498.84	53.669
499.18	54.281
499.53	54.621
499.87	54.788
500.22	54.390
500.56	54.945
500.91	54.693
501.26	54.698
501.60	53.517
501.95	54.555
502.29	54.746
502.64	53.808
502.98	54.064
503.33	53.120
503.67	54.058
504.02	54.699
504.36	52.542
504.71	53.777
505.06	55.008
505.40	54.906
505.75	54.186
506.09	54.659
506.44	55.258
506.78	54.443
507.13	55.049
507.47	55.956
507.82	54.911
508.16	54.621
508.51	55.416
508.85	54.615
509.19	54.909
509.54	55.807
509.88	54.948
510.23	55.169
510.57	54.628
510.92	54.478
511.26	55.658
511.61	55.251
511.95	55.639
512.30	56.174
512.64	54.487
512.98	56.291
513.33	54.103
513.67	54.431
514.02	55.649
514.36	56.287
514.70	57.377
515.05	57.622
515.39	56.713
515.74	57.707
516.08	55.869
516.42	58.048
516.77	56.646
517.11	55.107
517.46	56.839
517.80	56.988
518.14	57.369
518.49	59.508
518.83	59.209
519.17	57.391
519.52	57.152
519.86	59.025
520.20	57.962
520.55	57.702
520.89	58.637
521.23	59.051
521.58	58.201
521.92	57.543
522.26	58.213
522.61	58.567
522.95	58.562
523.29	58.030
523.64	57.327
523.98	58.132
524.32	58.182
524.66	59.211
525.01	59.450
525.35	56.703
525.69	58.156
526.04	59.267
526.38	59.424
526.72	58.056
527.06	59.142
527.41	59.957
527.75	59.584
528.09	58.911
528.43	58.894
528.78	59.679
529.12	59.384
529.46	58.405
529.80	57.658
530.15	58.026
530.49	60.112
530.83	58.785
531.17	57.345
531.51	58.387
531.86	57.493
532.20	58.947
532.54	57.770
532.88	58.473
533.22	57.902
533.57	57.172
533.91	59.326
534.25	57.977
534.59	57.978
534.93	57.354
535.27	55.825
535.62	57.461
535.96	58.618
536.30	57.759
536.64	57.082
536.98	58.997
537.32	59.301
537.66	57.698
538.01	58.395
538.35	58.618
538.69	57.962
539.03	58.399
539.37	57.574
539.71	59.058
540.05	58.249
540.39	58.388
540.73	58.755
541.07	57.941
541.42	55.880
541.76	58.273
542.10	57.532
542.44	58.815
542.78	57.478
543.12	57.978
543.46	59.091
543.80	57.970
544.14	57.921
544.48	57.754
544.82	56.494
545.16	57.319
545.50	58.297
545.84	57.718
546.18	57.004
546.52	58.570
546.86	58.072
547.20	57.879
547.54	57.619
547.88	55.840
548.22	56.470
548.56	57.576
548.90	56.070
549.24	56.944
549.58	56.483
549.92	56.617
550.26	57.915
550.60	58.763
550.94	59.524
551.28	57.480
551.62	59.705
551.96	58.946
552.30	57.519
552.64	57.400
552.98	56.686
553.32	57.197
553.66	57.056
554.00	58.996
554.34	59.063
554.68	58.612
555.02	57.381
555.36	58.062
555.69	56.341
556.03	56.615
556.37	57.389
556.71	55.581
557.05	56.172
557.39	56.627
557.73	57.940
558.07	57.746
558.41	58.500
558.75	56.598
559.08	59.404
559.42	59.197
559.76	57.287
560.10	57.702
560.44	55.424
560.78	55.898
561.12	56.649
561.45	57.143
561.79	56.388
562.13	56.338
562.47	56.116
562.81	56.482
563.15	56.502
563.48	55.281
563.82	56.186
564.16	54.644
564.50	54.871
564.84	55.776
565.17	56.509
565.51	57.424
565.85	55.915
566.19	55.115
566.52	56.774
566.86	55.601
567.20	54.624
567.54	54.499
567.88	54.430
568.21	54.455
568.55	53.537
568.89	54.560
569.23	52.359
569.56	52.138
569.90	52.934
570.24	50.985
570.57	51.091
570.91	50.437
571.25	51.481
571.59	50.295
571.92	49.643
572.26	49.337
572.60	48.717
572.93	50.557
573.27	48.799
573.61	48.716
573.95	49.279
574.28	48.276
574.62	47.600
574.96	47.614
575.29	47.677
575.63	47.398
575.97	47.527
576.30	48.612
576.64	47.381
576.98	47.826
577.31	48.133
577.65	47.903
577.98	46.629
578.32	47.629
578.66	47.122
578.99	47.673
579.33	47.149
579.67	47.444
580.00	47.222
580.34	46.797
580.67	47.126
581.01	47.123
581.35	46.611
581.68	45.823
582.02	46.136
582.35	46.202
582.69	46.877
583.02	46.094
583.36	46.395
583.70	46.836
584.03	46.967
584.37	47.045
584.70	47.177
585.04	45.868
585.37	47.253
585.71	46.777
586.04	47.385
586.38	47.153
586.72	47.748
587.05	47.442
587.39	46.397
587.72	47.013
588.06	46.061
588.39	48.145
588.73	46.846
589.06	47.282
589.40	47.589
589.73	47.981
590.07	48.200
590.40	47.766
590.73	49.063
591.07	48.745
591.40	48.652
591.74	48.368
592.07	48.567
592.41	48.360
592.74	48.871
593.08	47.370
593.41	46.760
593.75	47.253
594.08	47.479
594.41	47.664
594.75	48.356
595.08	47.293
595.42	47.278
595.75	46.705
596.09	48.038
596.42	48.076
596.75	48.864
597.09	47.341
597.42	47.396
597.75	48.405
598.09	47.285
598.42	47.941
598.76	46.858
599.09	47.227
599.42	45.869
599.76	46.332
600.09	46.105
600.42	45.781
600.76	46.651
601.09	45.647
601.42	45.974
601.76	45.576
602.09	46.209
602.42	47.069
602.76	46.728
603.09	47.302
603.42	46.337
603.76	46.748
604.09	46.282
604.42	46.844
604.76	46.782
605.09	47.189
605.42	46.398
605.75	46.094
606.09	46.711
606.42	45.757
606.75	46.758
607.09	47.155
607.42	46.122
607.75	47.245
608.08	45.650
608.42	46.266
608.75	46.473
609.08	44.220
609.41	45.879
609.75	46.761
610.08	46.512
610.41	45.802
610.74	46.764
611.07	47.171
611.41	46.146
611.74	46.409
612.07	46.261
612.40	46.518
612.73	47.280
613.07	47.211
613.40	47.499
613.73	46.735
614.06	47.482
614.39	47.276
614.72	46.930
615.06	45.637
615.39	45.727
615.72	45.689
616.05	46.493
616.38	46.145
616.71	46.580
617.05	45.917
617.38	46.581
617.71	46.832
618.04	47.963
618.37	46.697
618.70	47.622
619.03	48.368
619.36	47.128
619.69	47.434
620.03	48.818
620.36	49.055
620.69	46.711
621.02	47.585
621.35	47.660
621.68	50.855
622.01	49.911
622.34	46.064
622.67	48.314
623.00	47.666
623.33	47.165
623.66	47.809
623.99	46.890
624.32	47.260
624.65	47.734
624.99	47.266
625.32	47.551
625.65	47.318
625.98	49.667
626.31	46.494
626.64	48.829
626.97	50.000
627.30	49.907
627.63	48.744
627.96	48.324
628.29	48.088
628.62	48.041
628.95	50.475
629.28	49.483
629.61	49.843
629.94	48.963
630.26	50.105
630.59	50.681
630.92	48.999
631.25	50.168
631.58	50.814
631.91	50.228
632.24	49.586
632.57	50.416
632.90	50.800
633.23	52.903
