SpectraSuite Data File
++++++++++++++++++++++++++++++++++++
Date: Tue May 12 19:57:37 PDT 2015
User: schluterlab
Dark Spectrum Present: Yes
Reference Spectrum Present: Yes
Number of Sampled Component Spectra: 1
Spectrometers: USB2E3373
Integration Time (usec): 3000 (USB2E3373)
Spectra Averaged: 3 (USB2E3373)
Boxcar Smoothing: 0 (USB2E3373)
Correct for Electrical Dark: No (USB2E3373)
Strobe/Lamp Enabled: No (USB2E3373)
Correct for Detector Non-linearity: No (USB2E3373)
Correct for Stray Light: No (USB2E3373)
Number of Pixels in Processed Spectrum: 2048
>>>>>Begin Processed Spectral Data<<<<<
178.53	0.000
178.91	-210.000
179.29	-183.333
179.67	766.667
180.04	0.000
180.42	-380.000
180.80	-733.333
181.18	1050.000
181.56	-750.000
181.94	333.333
182.31	1600.000
182.69	-185.714
183.07	0.000
183.45	308.333
183.83	400.000
184.20	433.333
184.58	1250.000
184.96	316.667
185.34	-433.333
185.72	-100.000
186.09	-300.000
186.47	-2400.000
186.85	-200.000
187.23	275.000
187.61	-228.571
187.98	-200.000
188.36	850.000
188.74	-350.000
189.12	-188.889
189.49	-120.000
189.87	400.000
190.25	244.444
190.63	733.333
191.00	400.000
191.38	-533.333
191.76	380.000
192.14	-214.286
192.51	-120.000
192.89	-280.000
193.27	-340.000
193.65	-666.667
194.02	-400.000
194.40	900.000
194.78	-237.500
195.15	-257.143
195.53	666.667
195.91	420.000
196.29	-775.000
196.66	-500.000
197.04	-371.429
197.42	460.000
197.79	-225.000
198.17	-125.000
198.55	-1700.000
198.92	-200.000
199.30	1200.000
199.68	-500.000
200.05	-1100.000
200.43	-72.222
200.81	-100.000
201.18	416.667
201.56	-950.000
201.94	-2000.000
202.31	-166.667
202.69	-111.111
203.07	-116.667
203.44	-475.000
203.82	0.000
204.19	400.000
204.57	-600.000
204.95	218.182
205.32	240.000
205.70	500.000
206.08	-1600.000
206.45	-100.000
206.83	2400.000
207.20	-211.111
207.58	-30.769
207.96	566.667
208.33	866.667
208.71	666.667
209.08	700.000
209.46	-11.111
209.84	866.667
210.21	-466.667
210.59	1000.000
210.96	322.222
211.34	-500.000
211.71	1200.000
212.09	-220.000
212.46	-200.000
212.84	-325.000
213.22	285.714
213.59	-25.000
213.97	0.000
214.34	-250.000
214.72	-2200.000
215.09	1050.000
215.47	-120.000
215.84	-150.000
216.22	-1200.000
216.59	1400.000
216.97	-75.000
217.34	-400.000
217.72	-38.889
218.09	525.000
218.47	-63.158
218.84	-287.500
219.22	-85.714
219.59	-190.000
219.97	-130.000
220.34	400.000
220.72	181.818
221.09	-750.000
221.47	0.000
221.84	950.000
222.22	-550.000
222.59	-425.000
222.97	-52.174
223.34	206.667
223.72	300.000
224.09	-150.000
224.46	215.385
224.84	-100.000
225.21	-700.000
225.59	-375.000
225.96	-20.000
226.34	400.000
226.71	300.000
227.08	-61.538
227.46	-285.714
227.83	-8.333
228.21	-1800.000
228.58	400.000
228.95	5.263
229.33	-43.750
229.70	-400.000
230.08	-177.778
230.45	-800.000
230.82	-2200.000
231.20	-42.857
231.57	-500.000
231.95	-833.333
232.32	188.889
232.69	-700.000
233.07	-31.250
233.44	-162.500
233.81	-19.355
234.19	-420.000
234.56	-105.556
234.93	-266.667
235.31	-29.630
235.68	-33.333
236.05	-34.615
236.43	-68.421
236.80	-40.909
237.17	-107.143
237.55	-80.000
237.92	9.302
238.29	9.677
238.67	-25.000
239.04	8.571
239.41	11.765
239.79	2.000
240.16	-25.000
240.53	12.069
240.91	12.329
241.28	2.817
241.65	35.937
242.02	10.526
242.40	14.667
242.77	17.895
243.14	24.706
243.51	12.903
243.89	15.238
244.26	18.519
244.63	19.388
245.00	7.143
245.38	20.168
245.75	25.424
246.12	23.438
246.49	24.000
246.87	15.574
247.24	21.127
247.61	33.113
247.98	23.596
248.36	32.075
248.73	28.977
249.10	20.000
249.47	31.250
249.84	27.411
250.22	22.396
250.59	21.910
250.96	27.273
251.33	33.491
251.70	27.982
252.08	26.840
252.45	23.265
252.82	22.785
253.19	32.685
253.56	32.941
253.94	29.675
254.31	33.453
254.68	26.042
255.05	31.788
255.42	26.182
255.79	33.113
256.16	30.903
256.54	31.818
256.91	34.615
257.28	28.571
257.65	30.492
258.02	33.934
258.39	34.139
258.76	29.358
259.14	30.000
259.51	34.085
259.88	33.141
260.25	27.841
260.62	30.899
260.99	32.591
261.36	32.184
261.73	33.333
262.10	33.243
262.47	31.956
262.85	34.447
263.22	32.258
263.59	35.657
263.96	31.593
264.33	29.380
264.70	31.450
265.07	33.005
265.44	34.426
265.81	34.458
266.18	33.958
266.55	35.476
266.92	32.812
267.29	34.222
267.66	31.364
268.03	33.548
268.40	32.952
268.77	32.294
269.14	30.882
269.51	32.805
269.88	33.547
270.25	33.122
270.62	33.824
270.99	32.842
271.36	33.554
271.73	33.750
272.10	34.647
272.47	31.200
272.84	29.512
273.21	30.898
273.58	32.041
273.95	30.677
274.32	30.948
274.69	32.094
275.06	31.895
275.43	35.800
275.80	35.373
276.17	30.632
276.54	34.791
276.91	35.317
277.28	31.915
277.65	31.758
278.02	31.818
278.39	34.120
278.76	32.775
279.13	34.168
279.50	32.671
279.87	32.453
280.23	31.694
280.60	30.035
280.97	32.337
281.34	32.712
281.71	31.794
282.08	33.274
282.45	29.277
282.82	31.818
283.19	31.481
283.56	32.765
283.92	30.648
284.29	30.118
284.66	32.212
285.03	30.360
285.40	33.333
285.77	32.348
286.14	30.903
286.51	33.280
286.87	33.063
287.24	30.609
287.61	29.321
287.98	33.490
288.35	30.233
288.72	32.416
289.08	28.459
289.45	28.861
289.82	29.037
290.19	29.394
290.56	29.378
290.93	28.804
291.29	30.922
291.66	29.354
292.03	28.121
292.40	29.353
292.77	28.426
293.13	29.369
293.50	28.237
293.87	26.768
294.24	27.949
294.60	26.639
294.97	24.792
295.34	26.164
295.71	24.827
296.08	26.366
296.44	27.800
296.81	23.803
297.18	25.744
297.55	26.256
297.91	25.635
298.28	23.018
298.65	24.191
299.02	25.894
299.38	25.255
299.75	23.938
300.12	23.741
300.48	25.352
300.85	23.594
301.22	24.519
301.59	24.574
301.95	24.268
302.32	25.273
302.69	23.424
303.05	24.085
303.42	23.309
303.79	24.045
304.15	25.255
304.52	25.028
304.89	22.097
305.25	23.509
305.62	24.659
305.99	23.068
306.35	24.049
306.72	24.074
307.09	23.286
307.45	24.272
307.82	24.120
308.19	23.982
308.55	23.312
308.92	22.987
309.29	22.699
309.65	24.665
310.02	23.375
310.38	23.561
310.75	24.180
311.12	23.296
311.48	24.255
311.85	22.796
312.22	23.554
312.58	21.652
312.95	22.895
313.31	23.009
313.68	22.145
314.05	24.926
314.41	23.183
314.78	21.608
315.14	22.723
315.51	23.535
315.87	24.512
316.24	21.958
316.61	22.427
316.97	22.941
317.34	23.445
317.70	22.129
318.07	24.012
318.43	22.968
318.80	24.317
319.16	21.528
319.53	23.208
319.89	21.875
320.26	22.419
320.62	22.868
320.99	23.469
321.35	22.332
321.72	23.838
322.08	23.960
322.45	24.458
322.81	22.562
323.18	23.586
323.54	23.886
323.91	22.106
324.27	22.951
324.64	22.493
325.00	22.930
325.37	23.381
325.73	22.080
326.10	23.030
326.46	23.844
326.83	23.395
327.19	22.358
327.56	23.784
327.92	22.049
328.29	22.581
328.65	25.141
329.01	23.945
329.38	23.140
329.74	23.027
330.11	22.554
330.47	24.209
330.84	22.838
331.20	23.567
331.56	21.792
331.93	22.324
332.29	21.092
332.66	22.604
333.02	23.398
333.38	23.162
333.75	23.056
334.11	21.429
334.48	21.735
334.84	22.066
335.20	23.635
335.57	21.708
335.93	21.953
336.29	22.212
336.66	22.404
337.02	21.487
337.38	22.358
337.75	22.909
338.11	22.242
338.47	21.356
338.84	21.547
339.20	22.548
339.56	21.901
339.93	22.342
340.29	21.850
340.65	22.192
341.02	22.055
341.38	21.359
341.74	21.886
342.11	20.690
342.47	21.503
342.83	22.029
343.20	23.342
343.56	21.329
343.92	22.047
344.28	20.326
344.65	21.918
345.01	21.603
345.37	21.026
345.73	20.500
346.10	22.213
346.46	21.570
346.82	21.071
347.19	20.521
347.55	21.259
347.91	21.867
348.27	20.809
348.63	21.521
349.00	22.621
349.36	21.270
349.72	22.414
350.08	22.177
350.45	21.562
350.81	21.057
351.17	19.440
351.53	19.646
351.89	20.725
352.26	20.325
352.62	21.668
352.98	20.586
353.34	20.802
353.70	19.918
354.07	21.417
354.43	21.369
354.79	20.984
355.15	20.743
355.51	21.923
355.87	20.816
356.24	21.650
356.60	21.369
356.96	20.063
357.32	20.823
357.68	21.798
358.04	20.421
358.40	20.540
358.77	19.759
359.13	21.044
359.49	19.920
359.85	21.023
360.21	20.539
360.57	20.096
360.93	21.536
361.29	20.249
361.66	20.268
362.02	20.016
362.38	21.212
362.74	20.138
363.10	20.437
363.46	20.241
363.82	19.908
364.18	19.909
364.54	20.153
364.90	19.704
365.26	20.417
365.62	20.136
365.98	20.390
366.35	20.499
366.71	20.836
367.07	21.107
367.43	20.361
367.79	19.259
368.15	19.792
368.51	20.375
368.87	20.999
369.23	21.120
369.59	20.074
369.95	20.119
370.31	20.682
370.67	21.053
371.03	19.969
371.39	20.619
371.75	19.539
372.11	19.111
372.47	20.045
372.83	20.088
373.19	20.030
373.55	20.509
373.91	19.242
374.27	21.118
374.63	19.882
374.99	19.400
375.35	19.376
375.71	19.512
376.07	19.859
376.42	20.539
376.78	19.094
377.14	19.623
377.50	20.246
377.86	19.359
378.22	19.155
378.58	19.671
378.94	20.170
379.30	19.691
379.66	19.782
380.02	19.835
380.38	20.038
380.74	20.385
381.09	19.187
381.45	20.444
381.81	19.069
382.17	19.935
382.53	19.461
382.89	18.473
383.25	19.467
383.61	19.580
383.97	20.208
384.32	19.161
384.68	20.434
385.04	20.115
385.40	19.617
385.76	20.051
386.12	18.944
386.48	19.700
386.83	19.552
387.19	19.860
387.55	19.883
387.91	19.439
388.27	19.386
388.62	18.912
388.98	19.211
389.34	19.128
389.70	19.295
390.06	20.858
390.42	19.135
390.77	19.316
391.13	19.453
391.49	20.013
391.85	18.829
392.20	19.604
392.56	18.533
392.92	19.481
393.28	19.569
393.64	19.253
393.99	18.766
394.35	18.884
394.71	19.801
395.07	19.098
395.42	19.746
395.78	19.086
396.14	19.387
396.50	20.052
396.85	18.969
397.21	18.435
397.57	19.487
397.92	18.893
398.28	19.065
398.64	18.540
399.00	20.255
399.35	20.106
399.71	18.922
400.07	19.456
400.42	20.064
400.78	19.450
401.14	19.381
401.49	18.926
401.85	20.254
402.21	18.909
402.57	17.965
402.92	19.655
403.28	19.571
403.63	19.359
403.99	18.626
404.35	18.790
404.70	19.063
405.06	20.335
405.42	20.104
405.77	19.263
406.13	19.176
406.49	18.612
406.84	20.237
407.20	18.711
407.55	18.971
407.91	18.741
408.27	19.747
408.62	18.457
408.98	19.498
409.34	18.246
409.69	18.328
410.05	17.876
410.40	18.369
410.76	19.054
411.11	18.811
411.47	19.184
411.83	18.674
412.18	19.895
412.54	19.858
412.89	19.560
413.25	19.373
413.60	19.643
413.96	19.029
414.31	18.292
414.67	19.446
415.03	19.502
415.38	19.847
415.74	19.275
416.09	18.332
416.45	18.330
416.80	18.428
417.16	18.688
417.51	19.292
417.87	19.220
418.22	18.717
418.58	18.798
418.93	19.600
419.29	18.725
419.64	19.918
420.00	19.122
420.35	18.958
420.71	19.462
421.06	19.208
421.42	18.821
421.77	20.037
422.12	19.138
422.48	18.903
422.83	19.271
423.19	19.176
423.54	19.243
423.90	18.789
424.25	19.758
424.61	19.419
424.96	19.656
425.31	19.444
425.67	19.758
426.02	18.944
426.38	18.597
426.73	19.502
427.09	19.238
427.44	19.444
427.79	19.616
428.15	19.784
428.50	19.284
428.85	19.564
429.21	21.040
429.56	18.674
429.92	19.632
430.27	18.560
430.62	20.011
430.98	18.915
431.33	19.855
431.68	19.092
432.04	19.102
432.39	19.073
432.74	19.608
433.10	18.678
433.45	19.506
433.80	19.048
434.16	19.678
434.51	19.788
434.86	18.912
435.22	19.267
435.57	19.723
435.92	18.142
436.28	19.738
436.63	20.095
436.98	18.951
437.34	19.066
437.69	18.951
438.04	18.750
438.39	19.191
438.75	18.708
439.10	20.000
439.45	19.961
439.81	19.429
440.16	18.491
440.51	19.517
440.86	19.192
441.22	18.821
441.57	19.715
441.92	19.105
442.27	19.543
442.63	19.808
442.98	19.866
443.33	19.918
443.68	19.856
444.03	19.021
444.39	19.157
444.74	19.347
445.09	20.484
445.44	18.776
445.79	19.849
446.15	19.650
446.50	20.012
446.85	18.592
447.20	18.982
447.55	18.906
447.91	19.224
448.26	20.178
448.61	19.879
448.96	19.101
449.31	19.590
449.66	18.462
450.02	18.817
450.37	20.109
450.72	19.090
451.07	18.919
451.42	20.158
451.77	19.105
452.12	19.361
452.47	18.835
452.83	19.614
453.18	20.257
453.53	19.791
453.88	19.974
454.23	19.233
454.58	19.386
454.93	19.482
455.28	19.756
455.63	18.843
455.98	19.289
456.34	19.089
456.69	19.296
457.04	20.472
457.39	19.663
457.74	18.205
458.09	19.664
458.44	19.681
458.79	19.199
459.14	19.201
459.49	19.363
459.84	19.738
460.19	19.825
460.54	19.192
460.89	19.353
461.24	19.221
461.59	20.063
461.94	20.118
462.29	19.737
462.64	19.986
462.99	19.362
463.34	18.755
463.69	20.165
464.04	19.564
464.39	20.064
464.74	19.922
465.09	20.450
465.44	19.916
465.79	20.217
466.14	19.153
466.49	20.226
466.84	20.086
467.19	20.273
467.54	19.496
467.89	19.660
468.24	18.750
468.59	19.764
468.94	19.906
469.29	19.100
469.64	20.788
469.99	19.971
470.34	18.529
470.68	19.077
471.03	18.832
471.38	19.222
471.73	19.767
472.08	20.142
472.43	19.710
472.78	19.507
473.13	20.772
473.48	21.024
473.83	20.211
474.17	20.747
474.52	20.898
474.87	20.202
475.22	20.203
475.57	18.743
475.92	19.784
476.27	19.228
476.61	19.976
476.96	20.925
477.31	20.034
477.66	19.756
478.01	19.364
478.36	20.115
478.70	20.338
479.05	19.443
479.40	19.679
479.75	20.471
480.10	20.238
480.45	20.366
480.79	19.927
481.14	19.768
481.49	20.103
481.84	20.707
482.19	19.024
482.53	20.049
482.88	19.675
483.23	20.101
483.58	20.347
483.92	21.106
484.27	19.845
484.62	20.462
484.97	19.772
485.31	20.456
485.66	19.320
486.01	20.214
486.36	20.052
486.70	20.410
487.05	20.436
487.40	20.032
487.75	19.811
488.09	19.486
488.44	19.519
488.79	19.878
489.13	20.033
489.48	20.495
489.83	20.111
490.17	19.925
490.52	20.029
490.87	19.634
491.22	20.316
491.56	20.158
491.91	20.633
492.26	20.296
492.60	21.020
492.95	20.123
493.30	20.335
493.64	20.487
493.99	21.509
494.34	20.882
494.68	20.020
495.03	20.284
495.37	20.274
495.72	20.781
496.07	20.284
496.41	20.158
496.76	20.344
497.11	20.187
497.45	20.794
497.80	20.509
498.14	20.327
498.49	19.594
498.84	20.073
499.18	20.187
499.53	20.976
499.87	20.123
500.22	20.519
500.56	21.350
500.91	20.766
501.26	20.840
501.60	20.591
501.95	20.573
502.29	20.575
502.64	20.010
502.98	20.091
503.33	20.220
503.67	20.419
504.02	19.867
504.36	20.339
504.71	21.117
505.06	20.836
505.40	21.233
505.75	20.537
506.09	20.368
506.44	20.655
506.78	20.075
507.13	19.598
507.47	21.219
507.82	19.866
508.16	20.824
508.51	20.952
508.85	20.000
509.19	20.735
509.54	21.360
509.88	21.346
510.23	21.629
510.57	20.386
510.92	20.408
511.26	20.965
511.61	20.205
511.95	19.954
512.30	20.928
512.64	20.587
512.98	21.087
513.33	20.164
513.67	20.719
514.02	21.034
514.36	19.692
514.70	21.494
515.05	21.829
515.39	20.389
515.74	21.867
516.08	19.962
516.42	20.385
516.77	21.118
517.11	20.306
517.46	21.174
517.80	21.378
518.14	22.075
518.49	21.604
518.83	22.179
519.17	21.979
519.52	20.425
519.86	21.533
520.20	20.127
520.55	21.084
520.89	22.267
521.23	22.044
521.58	20.767
521.92	20.694
522.26	22.131
522.61	21.297
522.95	22.123
523.29	20.243
523.64	19.946
523.98	20.027
524.32	21.684
524.66	21.550
525.01	21.375
525.35	21.819
525.69	20.372
526.04	22.128
526.38	21.796
526.72	21.458
527.06	21.800
527.41	20.907
527.75	21.177
528.09	20.863
528.43	21.545
528.78	21.034
529.12	21.507
529.46	21.063
529.80	21.579
530.15	21.751
530.49	21.688
530.83	21.692
531.17	21.045
531.51	21.913
531.86	21.078
532.20	20.851
532.54	21.151
532.88	21.745
533.22	22.198
533.57	21.724
533.91	21.335
534.25	21.589
534.59	20.839
534.93	21.021
535.27	21.145
535.62	20.999
535.96	21.563
536.30	21.781
536.64	22.031
536.98	21.608
537.32	21.354
537.66	21.481
538.01	21.502
538.35	21.745
538.69	20.594
539.03	21.197
539.37	21.536
539.71	21.377
540.05	22.431
540.39	20.988
540.73	21.465
541.07	22.206
541.42	21.026
541.76	21.223
542.10	21.951
542.44	21.749
542.78	20.894
543.12	20.866
543.46	21.684
543.80	21.301
544.14	21.649
544.48	21.965
544.82	21.008
545.16	22.174
545.50	21.252
545.84	22.385
546.18	21.423
546.52	21.368
546.86	21.041
547.20	21.288
547.54	21.683
547.88	21.225
548.22	20.323
548.56	22.340
548.90	21.965
549.24	21.930
549.58	22.653
549.92	22.105
550.26	22.317
550.60	22.046
550.94	22.460
551.28	22.033
551.62	22.523
551.96	21.486
552.30	21.163
552.64	21.863
552.98	20.802
553.32	20.227
553.66	21.396
554.00	21.313
554.34	21.641
554.68	21.372
555.02	21.508
555.36	20.810
555.69	21.599
556.03	21.508
556.37	19.880
556.71	21.267
557.05	21.719
557.39	22.088
557.73	20.991
558.07	21.987
558.41	21.069
558.75	21.328
559.08	21.106
559.42	21.739
559.76	20.893
560.10	21.516
560.44	21.694
560.78	20.210
561.12	21.563
561.45	20.908
561.79	20.411
562.13	21.572
562.47	21.483
562.81	22.290
563.15	20.837
563.48	21.049
563.82	21.325
564.16	21.118
564.50	21.562
564.84	22.679
565.17	21.674
565.51	21.745
565.85	21.479
566.19	22.686
566.52	21.505
566.86	22.678
567.20	22.488
567.54	20.868
567.88	21.117
568.21	20.750
568.55	20.939
568.89	21.099
569.23	21.034
569.56	21.747
569.90	21.199
570.24	21.316
570.57	21.031
570.91	21.179
571.25	21.625
571.59	20.721
571.92	20.961
572.26	21.290
572.60	20.750
572.93	20.563
573.27	20.279
573.61	21.325
573.95	21.018
574.28	20.331
574.62	20.527
574.96	20.261
575.29	20.547
575.63	19.749
575.97	20.227
576.30	20.532
576.64	20.590
576.98	19.845
577.31	20.345
577.65	20.417
577.98	20.423
578.32	20.296
578.66	19.978
578.99	20.681
579.33	20.788
579.67	20.292
580.00	19.912
580.34	20.819
580.67	20.804
581.01	20.050
581.35	20.489
581.68	20.432
582.02	20.436
582.35	20.559
582.69	20.494
583.02	20.371
583.36	20.452
583.70	20.424
584.03	20.812
584.37	21.039
584.70	20.426
585.04	19.973
585.37	20.291
585.71	20.418
586.04	20.533
586.38	20.512
586.72	20.400
587.05	20.556
587.39	21.160
587.72	20.561
588.06	20.942
588.39	20.304
588.73	20.768
589.06	20.494
589.40	20.415
589.73	21.167
590.07	20.790
590.40	20.443
590.73	21.200
591.07	20.736
591.40	20.968
591.74	20.896
592.07	20.821
592.41	21.884
592.74	20.750
593.08	20.699
593.41	20.329
593.75	21.368
594.08	21.166
594.41	20.648
594.75	20.869
595.08	21.153
595.42	20.616
595.75	20.720
596.09	20.697
596.42	21.268
596.75	20.273
597.09	20.243
597.42	20.366
597.75	20.779
598.09	20.459
598.42	21.344
598.76	21.038
599.09	21.513
599.42	20.142
599.76	20.949
600.09	20.957
600.42	20.078
600.76	20.593
601.09	21.137
601.42	20.652
601.76	21.347
602.09	20.737
602.42	20.452
602.76	21.030
603.09	20.496
603.42	20.954
603.76	20.814
604.09	20.092
604.42	19.923
604.76	20.265
605.09	20.217
605.42	21.090
605.75	20.923
606.09	21.422
606.42	20.735
606.75	20.426
607.09	20.802
607.42	22.028
607.75	21.028
608.08	20.627
608.42	21.339
608.75	20.260
609.08	19.081
609.41	21.669
609.75	21.538
610.08	20.775
610.41	21.221
610.74	20.576
611.07	20.730
611.41	20.610
611.74	21.491
612.07	20.871
612.40	21.058
612.73	21.528
613.07	21.257
613.40	21.967
613.73	20.619
614.06	21.429
614.39	20.855
614.72	20.779
615.06	21.642
615.39	20.554
615.72	20.717
616.05	20.522
616.38	20.700
616.71	20.211
617.05	20.477
617.38	21.355
617.71	20.771
618.04	21.419
618.37	20.667
618.70	21.671
619.03	21.175
619.36	20.619
619.69	20.451
620.03	21.205
620.36	20.937
620.69	20.473
621.02	20.428
621.35	21.957
621.68	21.512
622.01	20.499
622.34	21.608
622.67	22.007
623.00	20.721
623.33	20.472
623.66	22.629
623.99	20.973
624.32	21.446
624.65	20.469
624.99	20.547
625.32	21.722
625.65	20.336
625.98	21.417
626.31	20.260
626.64	21.081
626.97	22.151
627.30	21.111
627.63	20.744
627.96	22.626
628.29	21.033
628.62	19.691
628.95	20.908
629.28	21.074
629.61	21.839
629.94	21.784
630.26	21.757
630.59	21.675
630.92	19.389
631.25	21.341
