SpectraSuite Data File
++++++++++++++++++++++++++++++++++++
Date: Tue May 12 19:47:33 PDT 2015
User: schluterlab
Dark Spectrum Present: Yes
Reference Spectrum Present: Yes
Number of Sampled Component Spectra: 1
Spectrometers: USB2E3373
Integration Time (usec): 3000 (USB2E3373)
Spectra Averaged: 3 (USB2E3373)
Boxcar Smoothing: 0 (USB2E3373)
Correct for Electrical Dark: No (USB2E3373)
Strobe/Lamp Enabled: No (USB2E3373)
Correct for Detector Non-linearity: No (USB2E3373)
Correct for Stray Light: No (USB2E3373)
Number of Pixels in Processed Spectrum: 2048
>>>>>Begin Processed Spectral Data<<<<<
178.53	0.000
178.91	-180.000
179.29	-83.333
179.67	300.000
180.04	0.000
180.42	-80.000
180.80	-233.333
181.18	950.000
181.56	-750.000
181.94	283.333
182.31	2500.000
182.69	-128.571
183.07	0.000
183.45	225.000
183.83	380.000
184.20	350.000
184.58	700.000
184.96	416.667
185.34	-200.000
185.72	-100.000
186.09	-183.333
186.47	-800.000
186.85	-240.000
187.23	158.333
187.61	-85.714
187.98	-200.000
188.36	350.000
188.74	-25.000
189.12	-100.000
189.49	-150.000
189.87	250.000
190.25	155.556
190.63	433.333
191.00	240.000
191.38	-233.333
191.76	340.000
192.14	-114.286
192.51	-60.000
192.89	-200.000
193.27	-220.000
193.65	-433.333
194.02	-233.333
194.40	1100.000
194.78	-150.000
195.15	-285.714
195.53	466.667
195.91	280.000
196.29	-475.000
196.66	-266.667
197.04	-57.143
197.42	140.000
197.79	-187.500
198.17	-75.000
198.55	-900.000
198.92	-177.778
199.30	1250.000
199.68	-325.000
200.05	-1200.000
200.43	-61.111
200.81	-41.667
201.18	366.667
201.56	-550.000
201.94	-2000.000
202.31	-66.667
202.69	88.889
203.07	-50.000
203.44	-325.000
203.82	0.000
204.19	62.500
204.57	-833.333
204.95	181.818
205.32	360.000
205.70	475.000
206.08	-500.000
206.45	-280.000
206.83	1900.000
207.20	-200.000
207.58	-7.692
207.96	566.667
208.33	500.000
208.71	700.000
209.08	800.000
209.46	-44.444
209.84	566.667
210.21	-333.333
210.59	350.000
210.96	144.444
211.34	-375.000
211.71	500.000
212.09	-140.000
212.46	-100.000
212.84	-12.500
213.22	128.571
213.59	-87.500
213.97	0.000
214.34	-300.000
214.72	-700.000
215.09	600.000
215.47	-20.000
215.84	-62.500
216.22	-1200.000
216.59	800.000
216.97	-41.667
217.34	-66.667
217.72	-5.556
218.09	425.000
218.47	-68.421
218.84	-150.000
219.22	14.286
219.59	-130.000
219.97	10.000
220.34	250.000
220.72	127.273
221.09	-750.000
221.47	0.000
221.84	550.000
222.22	-400.000
222.59	-175.000
222.97	-30.435
223.34	146.667
223.72	542.857
224.09	-33.333
224.46	169.231
224.84	-46.667
225.21	-450.000
225.59	-250.000
225.96	10.000
226.34	266.667
226.71	210.000
227.08	-46.154
227.46	-71.429
227.83	-25.000
228.21	-450.000
228.58	100.000
228.95	-21.053
229.33	-25.000
229.70	-150.000
230.08	-177.778
230.45	-500.000
230.82	-800.000
231.20	-14.286
231.57	-340.000
231.95	-300.000
232.32	155.556
232.69	-550.000
233.07	62.500
233.44	-62.500
233.81	38.710
234.19	-220.000
234.56	-11.111
234.93	-116.667
235.31	29.630
235.68	22.222
236.05	-26.923
236.43	21.053
236.80	-4.545
237.17	-85.714
237.55	-60.000
237.92	9.302
238.29	-45.161
238.67	-3.571
239.04	28.571
239.41	17.647
239.79	24.000
240.16	32.500
240.53	5.172
240.91	17.808
241.28	1.408
241.65	21.875
242.02	14.035
242.40	16.000
242.77	20.000
243.14	24.706
243.51	19.355
243.89	24.762
244.26	28.704
244.63	16.327
245.00	22.321
245.38	18.487
245.75	26.271
246.12	26.562
246.49	28.800
246.87	27.049
247.24	21.831
247.61	20.530
247.98	23.034
248.36	22.642
248.73	23.864
249.10	22.222
249.47	25.000
249.84	32.995
250.22	21.875
250.59	30.899
250.96	30.000
251.33	33.962
251.70	34.404
252.08	35.498
252.45	22.857
252.82	32.489
253.19	29.961
253.56	30.196
253.94	33.333
254.31	30.576
254.68	26.389
255.05	33.113
255.42	26.545
255.79	32.781
256.16	28.472
256.54	31.515
256.91	31.731
257.28	31.169
257.65	30.164
258.02	33.634
258.39	32.024
258.76	29.664
259.14	28.529
259.51	33.521
259.88	32.565
260.25	29.545
260.62	31.742
260.99	33.705
261.36	29.885
261.73	27.467
262.10	32.698
262.47	33.884
262.85	31.620
263.22	34.677
263.59	30.831
263.96	30.026
264.33	30.728
264.70	31.941
265.07	30.788
265.44	35.597
265.81	33.976
266.18	30.913
266.55	31.190
266.92	31.696
267.29	32.667
267.66	27.955
268.03	31.828
268.40	32.723
268.77	30.512
269.14	30.462
269.51	31.448
269.88	31.624
270.25	30.591
270.62	32.773
270.99	30.947
271.36	30.243
271.73	30.833
272.10	30.290
272.47	30.200
272.84	29.512
273.21	32.150
273.58	30.612
273.95	30.279
274.32	33.075
274.69	30.724
275.06	34.522
275.43	29.800
275.80	30.402
276.17	29.447
276.54	33.270
276.91	31.862
277.28	31.915
277.65	31.569
278.02	32.008
278.39	32.668
278.76	31.099
279.13	30.769
279.50	30.866
279.87	30.755
280.23	30.965
280.60	28.269
280.97	31.283
281.34	31.186
281.71	28.597
282.08	28.980
282.45	30.511
282.82	29.293
283.19	30.976
283.56	31.570
283.92	30.490
284.29	32.149
284.66	27.788
285.03	28.645
285.40	32.000
285.77	31.527
286.14	29.952
286.51	30.386
286.87	28.201
287.24	28.205
287.61	29.321
287.98	32.238
288.35	29.767
288.72	30.122
289.08	27.358
289.45	26.521
289.82	27.329
290.19	28.030
290.56	27.062
290.93	27.622
291.29	27.376
291.66	29.635
292.03	28.551
292.40	28.633
292.77	24.636
293.13	25.404
293.50	25.895
293.87	26.075
294.24	25.421
294.60	25.683
294.97	26.316
295.34	24.521
295.71	25.243
296.08	26.366
296.44	25.560
296.81	24.709
297.18	24.191
297.55	23.367
297.91	23.096
298.28	23.529
298.65	24.580
299.02	25.894
299.38	23.087
299.75	24.968
300.12	24.700
300.48	24.648
300.85	22.738
301.22	23.918
301.59	22.749
301.95	24.756
302.32	24.180
302.69	22.949
303.05	23.495
303.42	23.188
303.79	22.697
304.15	22.877
304.52	23.575
304.89	22.773
305.25	25.000
305.62	23.295
305.99	23.740
306.35	23.937
306.72	23.094
307.09	22.851
307.45	20.712
307.82	23.052
308.19	23.432
308.55	23.101
308.92	23.305
309.29	22.908
309.65	22.601
310.02	21.803
310.38	23.454
310.75	23.873
311.12	24.110
311.48	24.152
311.85	23.911
312.22	23.657
312.58	23.162
312.95	22.998
313.31	23.500
313.68	24.032
314.05	26.316
314.41	23.969
314.78	22.513
315.14	25.563
315.51	26.614
315.87	26.270
316.24	25.519
316.61	26.505
316.97	26.765
317.34	26.411
317.70	27.731
318.07	28.351
318.43	27.788
318.80	28.233
319.16	28.145
319.53	30.377
319.89	29.545
320.26	31.170
320.62	31.977
320.99	32.653
321.35	32.016
321.72	33.131
322.08	34.455
322.45	33.531
322.81	34.975
323.18	37.200
323.54	38.104
323.91	38.140
324.27	38.091
324.64	38.051
325.00	38.217
325.37	41.727
325.73	42.153
326.10	42.382
326.46	44.606
326.83	45.998
327.19	46.463
327.56	48.718
327.92	46.701
328.29	48.387
328.65	51.601
329.01	48.440
329.38	50.597
329.74	50.975
330.11	49.767
330.47	54.283
330.84	52.726
331.20	52.773
331.56	53.491
331.93	54.163
332.29	54.857
332.66	57.414
333.02	56.825
333.38	57.077
333.75	56.267
334.11	58.047
334.48	58.050
334.84	58.310
335.20	59.087
335.57	58.856
335.93	58.512
336.29	57.678
336.66	60.018
337.02	58.205
337.38	61.038
337.75	60.091
338.11	61.714
338.47	63.510
338.84	60.129
339.20	61.778
339.56	61.789
339.93	59.640
340.29	60.562
340.65	62.740
341.02	61.205
341.38	61.606
341.74	63.879
342.11	61.715
342.47	62.937
342.83	62.359
343.20	63.042
343.56	64.336
343.92	63.517
344.28	63.122
344.65	64.812
345.01	65.418
345.37	64.274
345.73	65.030
346.10	65.514
346.46	66.005
346.82	65.421
347.19	66.106
347.55	65.221
347.91	66.749
348.27	67.650
348.63	67.416
349.00	67.696
349.36	67.024
349.72	66.502
350.08	66.939
350.45	67.860
350.81	68.126
351.17	66.722
351.53	66.667
351.89	68.739
352.26	68.455
352.62	68.357
352.98	71.464
353.34	68.421
353.70	68.148
354.07	68.863
354.43	69.032
354.79	69.016
355.15	70.218
355.51	69.519
355.87	70.691
356.24	71.569
356.60	70.618
356.96	69.510
357.32	72.181
357.68	71.042
358.04	71.394
358.40	70.049
358.77	72.369
359.13	73.253
359.49	72.560
359.85	73.062
360.21	73.830
360.57	73.684
360.93	75.534
361.29	73.287
361.66	73.028
362.02	76.138
362.38	76.535
362.74	76.095
363.10	75.264
363.46	76.749
363.82	77.642
364.18	75.473
364.54	77.710
364.90	77.556
365.26	78.987
365.62	79.485
365.98	78.561
366.35	80.030
366.71	80.732
367.07	79.188
367.43	77.545
367.79	78.779
368.15	80.578
368.51	82.022
368.87	82.305
369.23	84.557
369.59	82.279
369.95	81.297
370.31	83.561
370.67	83.985
371.03	83.746
371.39	84.894
371.75	83.061
372.11	83.630
372.47	82.925
372.83	85.756
373.19	86.220
373.55	86.527
373.91	86.970
374.27	88.447
374.63	86.966
374.99	87.042
375.35	87.881
375.71	88.666
376.07	87.774
376.42	88.105
376.78	90.244
377.14	89.385
377.50	90.082
377.86	91.435
378.22	90.489
378.58	92.500
378.94	91.880
379.30	91.763
379.66	90.653
380.02	92.053
380.38	92.748
380.74	93.785
381.09	93.583
381.45	94.095
381.81	93.495
382.17	94.463
382.53	96.055
382.89	96.023
383.25	94.864
383.61	95.931
383.97	94.217
384.32	96.387
384.68	96.041
385.04	95.162
385.40	96.677
385.76	97.407
386.12	97.426
386.48	97.652
386.83	98.947
387.19	98.595
387.55	99.352
387.91	97.570
388.27	99.744
388.62	98.510
388.98	99.936
389.34	99.349
389.70	100.897
390.06	101.914
390.42	101.623
390.77	101.677
391.13	100.195
391.49	103.302
391.85	101.464
392.20	101.584
392.56	101.244
392.92	103.030
393.28	100.718
393.64	104.560
393.99	102.597
394.35	102.531
394.71	103.046
395.07	103.448
395.42	102.159
395.78	104.032
396.14	105.130
396.50	103.752
396.85	103.900
397.21	103.558
397.57	106.715
397.92	104.771
398.28	104.496
398.64	104.444
399.00	103.889
399.35	103.693
399.71	103.653
400.07	104.756
400.42	106.346
400.78	104.351
401.14	104.924
401.49	105.247
401.85	107.429
402.21	106.536
402.57	104.636
402.92	107.105
403.28	106.372
403.63	104.679
403.99	105.350
404.35	104.268
404.70	105.320
405.06	107.130
405.42	106.897
405.77	105.054
406.13	105.556
406.49	107.192
406.84	107.347
407.20	106.815
407.55	107.281
407.91	107.203
408.27	106.051
408.62	105.788
408.98	107.400
409.34	105.570
409.69	105.017
410.05	105.505
410.40	105.780
410.76	106.164
411.11	106.593
411.47	107.347
411.83	105.023
412.18	107.330
412.54	105.757
412.89	105.829
413.25	107.398
413.60	106.888
413.96	106.796
414.31	105.800
414.67	108.710
415.03	107.123
415.38	108.287
415.74	105.709
416.09	108.959
416.45	107.856
416.80	106.120
417.16	107.123
417.51	107.772
417.87	109.302
418.22	107.420
418.58	108.569
418.93	106.770
419.29	108.209
419.64	110.989
420.00	108.251
420.35	108.663
420.71	110.499
421.06	109.539
421.42	107.591
421.77	110.231
422.12	106.852
422.48	110.451
422.83	108.328
423.19	108.412
423.54	110.751
423.90	108.714
424.25	109.970
424.61	110.645
424.96	110.381
425.31	110.145
425.67	110.424
426.02	112.857
426.38	109.717
426.73	109.595
427.09	112.672
427.44	109.815
427.79	111.200
428.15	109.702
428.50	110.741
428.85	109.108
429.21	111.357
429.56	109.006
429.92	110.276
430.27	109.333
430.62	109.194
430.98	107.147
431.33	111.179
431.68	110.503
432.04	111.162
432.39	109.210
432.74	108.412
433.10	111.704
433.45	111.590
433.80	110.655
434.16	109.896
434.51	109.866
434.86	112.991
435.22	110.536
435.57	113.391
435.92	111.827
436.28	109.589
436.63	111.091
436.98	112.346
437.34	113.500
437.69	112.840
438.04	111.118
438.39	114.034
438.75	111.815
439.10	113.571
439.45	114.634
439.81	111.746
440.16	114.657
440.51	111.648
440.86	112.374
441.22	111.793
441.57	111.909
441.92	114.357
442.27	113.143
442.63	113.093
442.98	114.792
443.33	111.751
443.68	112.646
444.03	111.804
444.39	112.754
444.74	113.165
445.09	113.932
445.44	111.720
445.79	114.024
446.15	112.828
446.50	111.741
446.85	112.101
447.20	112.637
447.55	111.809
447.91	112.698
448.26	111.691
448.61	111.118
448.96	112.537
449.31	113.020
449.66	111.804
450.02	110.828
450.37	112.029
450.72	111.490
451.07	113.514
451.42	114.559
451.77	111.980
452.12	111.529
452.47	112.195
452.83	112.391
453.18	113.910
453.53	113.717
453.88	112.380
454.23	112.077
454.58	114.883
454.93	112.807
455.28	110.726
455.63	112.151
455.98	112.500
456.34	112.324
456.69	112.729
457.04	112.533
457.39	111.111
457.74	113.211
458.09	112.508
458.44	112.569
458.79	111.484
459.14	110.912
459.49	112.484
459.84	110.939
460.19	111.257
460.54	110.795
460.89	112.294
461.24	110.714
461.59	112.808
461.94	110.717
462.29	111.278
462.64	111.490
462.99	114.503
463.34	112.821
463.69	113.306
464.04	112.572
464.39	111.511
464.74	110.123
465.09	109.775
465.44	111.398
465.79	110.409
466.14	111.217
466.49	108.923
466.84	108.108
467.19	108.902
467.54	107.958
467.89	111.430
468.24	108.523
468.59	109.751
468.94	111.029
469.29	113.149
469.64	113.348
469.99	111.968
470.34	109.901
470.68	111.538
471.03	110.438
471.38	113.837
471.73	113.590
472.08	110.676
472.43	111.895
472.78	113.778
473.13	110.667
473.48	113.140
473.83	114.003
474.17	109.673
474.52	114.200
474.87	112.563
475.22	113.469
475.57	111.986
475.92	110.631
476.27	111.031
476.61	110.697
476.96	111.440
477.31	112.158
477.66	110.285
478.01	111.477
478.36	112.092
478.70	113.465
479.05	113.001
479.40	111.277
479.75	112.675
480.10	111.688
480.45	112.880
480.79	111.469
481.14	111.861
481.49	111.671
481.84	113.889
482.19	111.561
482.53	110.686
482.88	112.659
483.23	111.357
483.58	110.495
483.92	110.251
484.27	111.713
484.62	111.457
484.97	109.271
485.31	108.817
485.66	106.391
486.01	103.541
486.36	103.986
486.70	106.883
487.05	107.470
487.40	105.591
487.75	104.409
488.09	104.167
488.44	105.269
488.79	105.696
489.13	108.603
489.48	107.509
489.83	108.183
490.17	110.970
490.52	108.126
490.87	110.237
491.22	108.876
491.56	110.375
491.91	110.291
492.26	111.270
492.60	110.306
492.95	110.010
493.30	111.082
493.64	110.598
493.99	111.242
494.34	110.035
494.68	109.861
495.03	109.736
495.37	108.819
495.72	110.496
496.07	109.280
496.41	108.498
496.76	109.647
497.11	109.946
497.45	109.945
497.80	109.969
498.14	110.296
498.49	110.945
498.84	108.438
499.18	108.874
499.53	110.955
499.87	110.753
500.22	110.961
500.56	110.466
500.91	110.330
501.26	110.446
501.60	109.225
501.95	112.078
502.29	112.365
502.64	107.367
502.98	107.622
503.33	108.637
503.67	109.597
504.02	111.083
504.36	109.348
504.71	110.426
505.06	110.016
505.40	110.724
505.75	109.268
506.09	112.026
506.44	111.052
506.78	111.028
507.13	110.641
507.47	112.742
507.82	111.105
508.16	110.802
508.51	111.433
508.85	111.044
509.19	111.465
509.54	113.484
509.88	113.464
510.23	113.933
510.57	112.209
510.92	113.662
511.26	113.153
511.61	113.699
511.95	112.435
512.30	113.449
512.64	111.026
512.98	114.767
513.33	111.196
513.67	113.593
514.02	114.904
514.36	113.938
514.70	115.058
515.05	115.488
515.39	118.005
515.74	117.481
516.08	114.689
516.42	115.289
516.77	116.335
517.11	115.902
517.46	118.301
517.80	117.613
518.14	117.710
518.49	117.982
518.83	117.315
519.17	116.774
519.52	116.240
519.86	119.633
520.20	117.261
520.55	118.995
520.89	120.445
521.23	118.236
521.58	119.246
521.92	117.423
522.26	121.375
522.61	120.887
522.95	118.630
523.29	118.354
523.64	118.589
523.98	119.422
524.32	119.865
524.66	122.298
525.01	120.550
525.35	121.477
525.69	119.752
526.04	121.987
526.38	122.276
526.72	120.625
527.06	123.347
527.41	123.388
527.75	123.331
528.09	118.317
528.43	122.395
528.78	121.104
529.12	121.644
529.46	120.332
529.80	119.061
530.15	121.126
530.49	120.502
530.83	121.692
531.17	119.774
531.51	121.842
531.86	117.857
532.20	120.851
532.54	121.439
532.88	122.400
533.22	120.905
533.57	121.586
533.91	119.890
534.25	121.860
534.59	121.596
534.93	119.073
535.27	119.933
535.62	119.649
535.96	120.796
536.30	120.807
536.64	118.956
536.98	121.903
537.32	120.536
537.66	119.135
538.01	122.239
538.35	119.782
538.69	120.028
539.03	118.673
539.37	120.244
539.71	123.841
540.05	118.958
540.39	118.373
540.73	117.802
541.07	120.147
541.42	118.603
541.76	118.633
542.10	117.432
542.44	119.509
542.78	118.328
543.12	117.617
543.46	118.480
543.80	117.084
544.14	118.423
544.48	116.561
544.82	115.969
545.16	119.348
545.50	117.176
545.84	116.971
546.18	119.101
546.52	119.523
546.86	118.363
547.20	121.061
547.54	117.665
547.88	115.741
548.22	117.159
548.56	117.829
548.90	115.930
549.24	115.424
549.58	115.574
549.92	116.241
550.26	116.371
550.60	117.605
550.94	117.540
551.28	118.780
551.62	119.001
551.96	117.732
552.30	114.264
552.64	116.754
552.98	114.562
553.32	113.864
553.66	115.402
554.00	117.066
554.34	119.531
554.68	117.384
555.02	116.746
555.36	115.171
555.69	112.529
556.03	113.969
556.37	115.679
556.71	114.103
557.05	116.563
557.39	116.867
557.73	113.915
558.07	111.737
558.41	115.084
558.75	117.095
559.08	118.383
559.42	117.809
559.76	117.018
560.10	118.011
560.44	112.985
560.78	113.674
561.12	115.552
561.45	115.625
561.79	111.454
562.13	114.307
562.47	113.838
562.81	111.903
563.15	112.776
563.48	112.734
563.82	112.082
564.16	108.926
564.50	111.461
564.84	109.993
565.17	112.089
565.51	110.837
565.85	111.197
566.19	112.317
566.52	112.043
566.86	110.724
567.20	109.581
567.54	108.870
567.88	108.192
568.21	107.679
568.55	108.149
568.89	108.571
569.23	105.723
569.56	104.092
569.90	104.968
570.24	102.167
570.57	101.543
570.91	101.820
571.25	101.756
571.59	99.475
571.92	97.860
572.26	98.519
572.60	98.717
572.93	97.610
573.27	96.853
573.61	97.926
573.95	96.803
574.28	96.855
574.62	96.035
574.96	96.037
575.29	93.753
575.63	94.823
575.97	94.778
576.30	95.720
576.64	94.653
576.98	95.946
577.31	95.174
577.65	95.183
577.98	93.607
578.32	93.607
578.66	92.811
578.99	95.034
579.33	94.170
579.67	92.879
580.00	93.484
580.34	94.560
580.67	91.734
581.01	92.628
581.35	92.258
581.68	91.667
582.02	92.045
582.35	92.082
582.69	92.510
583.02	92.792
583.36	91.800
583.70	93.044
584.03	93.350
584.37	92.435
584.70	91.716
585.04	91.225
585.37	91.055
585.71	92.019
586.04	93.423
586.38	93.871
586.72	92.435
587.05	92.606
587.39	92.219
587.72	93.165
588.06	92.543
588.39	93.047
588.73	93.504
589.06	92.488
589.40	93.629
589.73	92.895
590.07	94.038
590.40	93.476
590.73	94.336
591.07	94.632
591.40	96.117
591.74	95.896
592.07	95.320
592.41	94.330
592.74	94.717
593.08	92.412
593.41	92.081
593.75	92.080
594.08	93.851
594.41	92.992
594.75	91.817
595.08	91.741
595.42	92.227
595.75	92.576
596.09	93.395
596.42	93.446
596.75	92.864
597.09	90.951
597.42	92.867
597.75	93.011
598.09	91.526
598.42	93.422
598.76	92.851
599.09	91.555
599.42	89.772
599.76	90.624
600.09	90.866
600.42	88.008
600.76	89.761
601.09	89.176
601.42	89.493
601.76	90.463
602.09	90.532
602.42	91.099
602.76	91.230
603.09	91.558
603.42	91.184
603.76	91.397
604.09	91.729
604.42	90.683
604.76	90.507
605.09	91.025
605.42	91.280
605.75	89.493
606.09	91.822
606.42	89.326
606.75	90.719
607.09	90.532
607.42	89.536
607.75	88.889
608.08	89.944
608.42	91.271
608.75	91.046
609.08	89.854
609.41	91.135
609.75	90.995
610.08	89.044
610.41	89.415
610.74	91.911
611.07	90.640
611.41	89.615
611.74	91.349
612.07	90.681
612.40	89.694
612.73	91.319
613.07	90.018
613.40	89.994
613.73	91.466
614.06	89.110
614.39	91.037
614.72	89.965
615.06	89.380
615.39	89.145
615.72	88.970
616.05	89.333
616.38	88.849
616.71	89.303
617.05	90.201
617.38	89.419
617.71	92.358
618.04	91.524
618.37	89.209
618.70	92.595
619.03	92.531
619.36	91.973
619.69	91.680
620.03	92.143
620.36	92.517
620.69	89.727
