SpectraSuite Data File
++++++++++++++++++++++++++++++++++++
Date: Wed May 13 19:38:25 PDT 2015
User: schluterlab
Dark Spectrum Present: Yes
Reference Spectrum Present: Yes
Number of Sampled Component Spectra: 1
Spectrometers: USB2E3373
Integration Time (usec): 3000 (USB2E3373)
Spectra Averaged: 3 (USB2E3373)
Boxcar Smoothing: 0 (USB2E3373)
Correct for Electrical Dark: No (USB2E3373)
Strobe/Lamp Enabled: No (USB2E3373)
Correct for Detector Non-linearity: No (USB2E3373)
Correct for Stray Light: No (USB2E3373)
Number of Pixels in Processed Spectrum: 2048
>>>>>Begin Processed Spectral Data<<<<<
178.53	0.000
178.91	-1375.000
179.29	-1450.000
179.67	-216.667
180.04	-1675.000
180.42	2650.000
180.80	1100.000
181.18	-1300.000
181.56	757.143
181.94	0.000
182.31	-714.286
182.69	1800.000
183.07	-612.500
183.45	-488.889
183.83	509.091
184.20	-380.000
184.58	2650.000
184.96	5900.000
185.34	-860.000
185.72	-625.000
186.09	-2150.000
186.47	2500.000
186.85	3100.000
187.23	5000.000
187.61	-1866.667
187.98	1275.000
188.36	636.364
188.74	500.000
189.12	-940.000
189.49	610.000
189.87	-4300.000
190.25	-1300.000
190.63	457.143
191.00	507.692
191.38	1100.000
191.76	-1300.000
192.14	1375.000
192.51	650.000
192.89	950.000
193.27	562.500
193.65	-1275.000
194.02	600.000
194.40	920.000
194.78	490.000
195.15	608.333
195.53	660.000
195.91	-2950.000
196.29	443.750
196.66	368.421
197.04	-390.000
197.42	0.000
197.79	630.000
198.17	-5400.000
198.55	642.857
198.92	675.000
199.30	1220.000
199.68	0.000
200.05	394.444
200.43	800.000
200.81	4500.000
201.18	1466.667
201.56	-1600.000
201.94	633.333
202.31	588.889
202.69	475.000
203.07	600.000
203.44	0.000
203.82	1150.000
204.19	871.429
204.57	435.714
204.95	687.500
205.32	1966.667
205.70	627.273
206.08	464.286
206.45	2400.000
206.83	418.750
207.20	900.000
207.58	760.000
207.96	377.778
208.33	762.500
208.71	-916.667
209.08	1057.143
209.46	711.111
209.84	536.364
210.21	-1766.667
210.59	1525.000
210.96	-550.000
211.34	3000.000
211.71	690.000
212.09	683.333
212.46	0.000
212.84	1500.000
213.22	1700.000
213.59	-4900.000
213.97	916.667
214.34	800.000
214.72	545.455
215.09	1040.000
215.47	-2600.000
215.84	-2600.000
216.22	1733.333
216.59	414.286
216.97	1375.000
217.34	500.000
217.72	-750.000
218.09	0.000
218.47	-4800.000
218.84	611.111
219.22	671.429
219.59	1466.667
219.97	-685.714
220.34	980.000
220.72	-2133.333
221.09	485.714
221.47	1550.000
221.84	-1050.000
222.22	0.000
222.59	1175.000
222.97	-3100.000
223.34	1200.000
223.72	484.615
224.09	1180.000
224.46	2400.000
224.84	-4900.000
225.21	-1120.000
225.59	-5100.000
225.96	610.000
226.34	310.000
226.71	3050.000
227.08	650.000
227.46	580.000
227.83	-1125.000
228.21	-2400.000
228.58	744.444
228.95	-2750.000
229.33	-2650.000
229.70	1833.333
230.08	842.857
230.45	-980.000
230.82	458.333
231.20	783.333
231.57	728.571
231.95	566.667
232.32	272.727
232.69	481.818
233.07	685.714
233.44	346.154
233.81	-1700.000
234.19	347.368
234.56	508.333
234.93	433.333
235.31	427.273
235.68	376.923
236.05	335.714
236.43	215.152
236.80	289.474
237.17	4100.000
237.55	242.857
237.92	232.143
238.29	223.810
238.67	158.065
239.04	203.448
239.41	130.556
239.79	134.783
240.16	135.714
240.53	115.909
240.91	107.843
241.28	112.000
241.65	94.000
242.02	95.652
242.40	88.710
242.77	83.333
243.14	65.591
243.51	83.146
243.89	72.941
244.26	55.556
244.63	56.989
245.00	60.638
245.38	56.436
245.75	46.729
246.12	40.367
246.49	56.204
246.87	52.000
247.24	49.231
247.61	47.857
247.98	45.752
248.36	31.081
248.73	38.217
249.10	38.217
249.47	38.418
249.84	41.711
250.22	31.551
250.59	33.136
250.96	39.394
251.33	34.123
251.70	28.218
252.08	31.905
252.45	29.148
252.82	29.565
253.19	27.660
253.56	26.275
253.94	26.971
254.31	24.609
254.68	23.462
255.05	25.461
255.42	22.764
255.79	23.162
256.16	23.466
256.54	20.495
256.91	24.911
257.28	19.784
257.65	23.102
258.02	23.602
258.39	22.397
258.76	22.742
259.14	20.536
259.51	19.149
259.88	17.702
260.25	23.263
260.62	18.208
260.99	19.565
261.36	20.420
261.73	20.057
262.10	13.953
262.47	22.535
262.85	19.499
263.22	17.949
263.59	22.792
263.96	17.857
264.33	20.627
264.70	17.895
265.07	19.437
265.44	17.677
265.81	17.032
266.18	17.337
266.55	16.341
266.92	16.708
267.29	16.898
267.66	17.661
268.03	17.727
268.40	17.523
268.77	15.036
269.14	14.414
269.51	18.962
269.88	16.550
270.25	17.833
270.62	14.831
270.99	18.280
271.36	16.738
271.73	15.888
272.10	16.304
272.47	16.989
272.84	19.481
273.21	16.771
273.58	14.410
273.95	15.094
274.32	14.876
274.69	15.418
275.06	15.354
275.43	14.255
275.80	14.228
276.17	15.071
276.54	17.464
276.91	14.032
277.28	15.430
277.65	15.474
278.02	12.215
278.39	15.820
278.76	14.364
279.13	15.094
279.50	13.035
279.87	12.948
280.23	13.373
280.60	15.280
280.97	12.939
281.34	14.690
281.71	14.364
282.08	13.436
282.45	11.636
282.82	12.789
283.19	11.052
283.56	12.982
283.92	13.198
284.29	11.993
284.66	12.523
285.03	12.477
285.40	12.852
285.77	14.141
286.14	11.917
286.51	13.667
286.87	12.650
287.24	12.378
287.61	11.396
287.98	13.149
288.35	11.886
288.72	11.371
289.08	11.424
289.45	12.356
289.82	13.496
290.19	11.460
290.56	11.639
290.93	9.819
291.29	11.043
291.66	10.177
292.03	13.372
292.40	12.335
292.77	10.651
293.13	11.791
293.50	11.224
293.87	11.852
294.24	11.111
294.60	8.443
294.97	11.337
295.34	11.989
295.71	10.937
296.08	10.541
296.44	10.867
296.81	9.247
297.18	11.111
297.55	8.707
297.91	10.818
298.28	10.040
298.65	12.924
299.02	11.199
299.38	9.827
299.75	8.895
300.12	8.812
300.48	9.500
300.85	9.741
301.22	8.917
301.59	8.838
301.95	10.327
302.32	10.655
302.69	10.872
303.05	8.364
303.42	9.136
303.79	9.287
304.15	8.275
304.52	8.459
304.89	8.595
305.25	9.513
305.62	9.287
305.99	9.917
306.35	8.501
306.72	9.753
307.09	10.322
307.45	10.248
307.82	9.263
308.19	8.830
308.55	9.385
308.92	9.774
309.29	8.870
309.65	8.802
310.02	8.774
310.38	9.247
310.75	9.820
311.12	9.621
311.48	8.777
311.85	10.273
312.22	7.804
312.58	9.252
312.95	8.237
313.31	7.670
313.68	9.044
314.05	11.736
314.41	8.643
314.78	9.366
315.14	7.547
315.51	8.754
315.87	9.604
316.24	8.739
316.61	8.577
316.97	8.806
317.34	7.339
317.70	8.413
318.07	7.700
318.43	9.295
318.80	9.934
319.16	8.945
319.53	8.537
319.89	8.190
320.26	9.500
320.62	7.837
320.99	8.586
321.35	8.384
321.72	8.727
322.08	9.279
322.45	9.055
322.81	9.302
323.18	9.923
323.54	8.998
323.91	9.057
324.27	9.465
324.64	7.829
325.00	6.853
325.37	9.008
325.73	8.618
326.10	8.120
326.46	8.423
326.83	8.628
327.19	7.515
327.56	7.927
327.92	7.787
328.29	8.607
328.65	7.551
329.01	7.762
329.38	8.326
329.74	8.033
330.11	8.200
330.47	8.815
330.84	9.467
331.20	7.741
331.56	8.165
331.93	6.944
332.29	9.317
332.66	9.469
333.02	7.038
333.38	8.582
333.75	8.467
334.11	8.541
334.48	9.139
334.84	8.456
335.20	8.818
335.57	7.888
335.93	8.571
336.29	7.601
336.66	8.927
337.02	7.783
337.38	8.056
337.75	8.021
338.11	7.878
338.47	7.827
338.84	8.341
339.20	7.615
339.56	8.668
339.93	6.909
340.29	7.156
340.65	7.932
341.02	8.988
341.38	8.541
341.74	7.281
342.11	8.035
342.47	8.546
342.83	8.219
343.20	9.264
343.56	7.582
343.92	7.105
344.28	8.418
344.65	8.169
345.01	7.492
345.37	6.947
345.73	8.122
346.10	7.928
346.46	7.712
346.82	7.331
347.19	7.602
347.55	6.897
347.91	8.495
348.27	8.299
348.63	8.027
349.00	7.362
349.36	6.568
349.72	7.779
350.08	6.645
350.45	7.567
350.81	7.392
351.17	8.104
351.53	8.108
351.89	6.931
352.26	8.524
352.62	8.180
352.98	8.347
353.34	7.560
353.70	6.465
354.07	7.419
354.43	7.302
354.79	7.160
355.15	7.103
355.51	7.834
355.87	6.776
356.24	7.410
356.60	7.298
356.96	8.206
357.32	6.868
357.68	8.110
358.04	7.838
358.40	7.443
358.77	7.355
359.13	5.998
359.49	6.902
359.85	5.079
360.21	6.699
360.57	8.405
360.93	6.923
361.29	6.954
361.66	6.192
362.02	7.612
362.38	7.529
362.74	7.143
363.10	6.884
363.46	6.823
363.82	6.727
364.18	7.122
364.54	7.652
364.90	7.224
365.26	5.882
365.62	7.378
365.98	5.625
366.35	6.017
366.71	7.158
367.07	5.754
367.43	6.604
367.79	7.495
368.15	7.256
368.51	5.814
368.87	6.495
369.23	6.291
369.59	7.531
369.95	6.691
370.31	6.695
370.67	6.812
371.03	6.816
371.39	6.778
371.75	7.647
372.11	6.543
372.47	7.625
372.83	7.277
373.19	6.214
373.55	5.765
373.91	7.143
374.27	6.873
374.63	5.964
374.99	7.415
375.35	5.722
375.71	6.443
376.07	7.750
376.42	6.465
376.78	6.759
377.14	6.242
377.50	6.623
377.86	5.053
378.22	6.700
378.58	4.637
378.94	6.034
379.30	5.598
379.66	6.472
380.02	6.450
380.38	5.222
380.74	6.062
381.09	5.929
381.45	6.822
381.81	6.572
382.17	5.924
382.53	5.975
382.89	6.235
383.25	5.441
383.61	6.134
383.97	6.504
384.32	6.425
384.68	6.134
385.04	5.716
385.40	5.635
385.76	6.450
386.12	6.023
386.48	6.293
386.83	6.350
387.19	6.184
387.55	6.370
387.91	5.804
388.27	5.825
388.62	6.638
388.98	5.713
389.34	6.946
389.70	6.744
390.06	6.401
390.42	5.966
390.77	6.361
391.13	6.701
391.49	6.599
391.85	5.602
392.20	5.174
392.56	5.808
392.92	5.533
393.28	4.675
393.64	6.475
393.99	6.536
394.35	5.955
394.71	5.960
395.07	5.857
395.42	6.242
395.78	5.852
396.14	5.649
396.50	6.579
396.85	6.357
397.21	5.857
397.57	6.200
397.92	6.190
398.28	5.774
398.64	6.631
399.00	5.876
399.35	5.697
399.71	6.366
400.07	6.268
400.42	6.564
400.78	6.574
401.14	5.854
401.49	5.731
401.85	5.868
402.21	6.048
402.57	5.984
402.92	6.747
403.28	6.433
403.63	5.631
403.99	6.051
404.35	6.485
404.70	5.875
405.06	5.708
405.42	5.989
405.77	6.229
406.13	5.813
406.49	6.032
406.84	6.143
407.20	4.965
407.55	6.063
407.91	6.533
408.27	5.361
408.62	6.201
408.98	6.250
409.34	5.966
409.69	6.839
410.05	6.691
410.40	6.116
410.76	6.033
411.11	6.273
411.47	5.559
411.83	6.231
412.18	6.308
412.54	6.351
412.89	6.867
413.25	5.844
413.60	6.053
413.96	6.315
414.31	6.075
414.67	6.464
415.03	5.762
415.38	6.894
415.74	5.916
416.09	6.532
416.45	6.426
416.80	6.543
417.16	6.769
417.51	6.437
417.87	6.101
418.22	6.372
418.58	7.037
418.93	6.757
419.29	6.556
419.64	6.549
420.00	6.341
420.35	6.899
420.71	6.336
421.06	6.683
421.42	6.608
421.77	6.614
422.12	5.952
422.48	5.343
422.83	5.941
423.19	6.409
423.54	6.210
423.90	6.551
424.25	6.756
424.61	5.833
424.96	5.306
425.31	6.645
425.67	6.011
426.02	5.886
426.38	7.387
426.73	6.495
427.09	6.505
427.44	6.038
427.79	6.095
428.15	6.905
428.50	7.256
428.85	6.377
429.21	6.184
429.56	5.340
429.92	5.788
430.27	6.107
430.62	5.530
430.98	6.175
431.33	6.392
431.68	6.283
432.04	5.964
432.39	5.540
432.74	6.583
433.10	6.225
433.45	6.239
433.80	6.375
434.16	6.250
434.51	6.526
434.86	6.499
435.22	5.725
435.57	6.626
435.92	5.676
436.28	6.702
436.63	7.174
436.98	6.010
437.34	7.335
437.69	6.768
438.04	5.958
438.39	6.030
438.75	6.624
439.10	6.704
439.45	6.789
439.81	6.526
440.16	6.381
440.51	5.507
440.86	6.891
441.22	6.174
441.57	6.051
441.92	6.346
442.27	6.351
442.63	5.582
442.98	7.099
443.33	6.413
443.68	5.834
444.03	6.637
444.39	5.355
444.74	6.169
445.09	6.253
445.44	6.178
445.79	6.037
446.15	6.564
446.50	5.708
446.85	5.910
447.20	6.119
447.55	5.583
447.91	6.729
448.26	7.012
448.61	6.388
448.96	6.811
449.31	6.693
449.66	6.753
450.02	5.905
450.37	5.442
450.72	6.373
451.07	5.911
451.42	5.897
451.77	6.518
452.12	6.236
452.47	6.654
452.83	6.177
453.18	6.601
453.53	7.174
453.88	6.734
454.23	6.396
454.58	7.571
454.93	7.502
455.28	6.297
455.63	6.614
455.98	7.024
456.34	6.093
456.69	7.076
457.04	6.749
457.39	6.312
457.74	6.790
458.09	6.325
458.44	5.986
458.79	6.020
459.14	7.280
459.49	6.655
459.84	6.094
460.19	6.187
460.54	6.944
460.89	6.363
461.24	6.193
461.59	7.728
461.94	7.090
462.29	7.181
462.64	6.765
462.99	6.701
463.34	6.867
463.69	6.567
464.04	7.304
464.39	6.029
464.74	7.011
465.09	6.393
465.44	6.150
465.79	5.817
466.14	6.842
466.49	6.897
466.84	6.830
467.19	7.423
467.54	7.688
467.89	6.543
468.24	6.748
468.59	7.448
468.94	6.720
469.29	7.005
469.64	7.430
469.99	7.307
470.34	6.803
470.68	7.184
471.03	6.599
471.38	7.227
471.73	7.995
472.08	7.697
472.43	6.658
472.78	7.439
473.13	7.253
473.48	7.990
473.83	7.317
474.17	6.596
474.52	6.948
474.87	6.888
475.22	7.429
475.57	6.824
475.92	6.957
476.27	6.764
476.61	6.895
476.96	5.937
477.31	6.332
477.66	6.346
478.01	5.959
478.36	6.928
478.70	6.023
479.05	6.443
479.40	6.499
479.75	5.796
480.10	6.213
480.45	6.188
480.79	5.638
481.14	5.822
481.49	6.645
481.84	6.036
482.19	6.134
482.53	6.193
482.88	6.142
483.23	6.355
483.58	6.187
483.92	6.092
484.27	5.490
484.62	6.078
484.97	5.755
485.31	5.685
485.66	4.671
486.01	4.219
486.36	4.206
486.70	3.917
487.05	4.533
487.40	4.954
487.75	4.874
488.09	5.217
488.44	5.304
488.79	5.823
489.13	5.921
489.48	5.750
489.83	6.042
490.17	6.050
490.52	6.023
490.87	5.834
491.22	6.048
491.56	5.831
491.91	5.444
492.26	5.742
492.60	6.406
492.95	5.566
493.30	5.888
493.64	5.973
493.99	6.221
494.34	6.152
494.68	6.593
495.03	6.720
495.37	6.329
495.72	6.043
496.07	6.775
496.41	5.265
496.76	5.805
497.11	6.574
497.45	6.102
497.80	5.854
498.14	5.700
498.49	5.902
498.84	6.951
499.18	6.619
499.53	6.410
499.87	6.897
500.22	6.689
500.56	6.845
500.91	6.058
501.26	6.449
501.60	6.977
501.95	6.324
502.29	6.607
502.64	6.657
502.98	6.639
503.33	6.216
503.67	6.589
504.02	6.268
504.36	7.019
504.71	6.497
505.06	6.265
505.40	6.223
505.75	6.509
506.09	6.220
506.44	6.611
506.78	6.576
507.13	6.966
507.47	7.172
507.82	7.447
508.16	6.890
508.51	6.646
508.85	6.902
509.19	6.531
509.54	6.888
509.88	6.440
510.23	7.198
510.57	6.863
510.92	7.198
511.26	6.680
511.61	7.728
511.95	6.889
512.30	6.416
512.64	6.985
512.98	7.342
513.33	7.655
513.67	7.097
514.02	7.359
514.36	6.936
514.70	7.748
515.05	6.860
515.39	7.515
515.74	7.320
516.08	8.217
516.42	8.158
516.77	8.138
517.11	7.159
517.46	8.409
517.80	7.724
518.14	7.470
518.49	8.343
518.83	7.955
519.17	7.333
519.52	7.640
519.86	7.416
520.20	7.630
520.55	8.378
520.89	8.942
521.23	8.625
521.58	8.884
521.92	8.573
522.26	7.810
522.61	7.352
522.95	7.489
523.29	7.669
523.64	8.476
523.98	7.948
524.32	8.926
524.66	8.118
525.01	9.007
525.35	8.488
525.69	8.067
526.04	8.100
526.38	9.335
526.72	7.975
527.06	8.537
527.41	8.106
527.75	8.939
528.09	9.955
528.43	8.923
528.78	8.236
529.12	8.606
529.46	9.002
529.80	8.540
530.15	8.972
530.49	8.369
530.83	9.873
531.17	9.204
531.51	9.987
531.86	8.774
532.20	9.061
532.54	9.545
532.88	9.371
533.22	8.557
533.57	8.642
533.91	8.188
534.25	8.688
534.59	8.847
534.93	8.923
535.27	8.570
535.62	8.852
535.96	8.977
536.30	8.773
536.64	9.208
536.98	8.825
537.32	8.295
537.66	9.467
538.01	9.085
538.35	8.597
538.69	9.509
539.03	8.772
539.37	8.690
539.71	8.296
540.05	9.346
540.39	9.169
540.73	9.314
541.07	9.669
541.42	8.741
541.76	9.032
542.10	9.444
542.44	8.477
542.78	9.025
543.12	9.725
543.46	9.508
543.80	9.369
544.14	8.537
544.48	8.889
544.82	9.237
545.16	9.044
545.50	9.254
545.84	9.140
546.18	9.832
546.52	9.360
546.86	9.828
547.20	10.317
547.54	9.820
547.88	9.758
548.22	9.340
548.56	9.182
548.90	8.835
549.24	9.091
549.58	9.686
549.92	9.203
550.26	9.659
550.60	9.129
550.94	9.366
551.28	8.120
551.62	9.633
551.96	9.684
552.30	9.556
552.64	9.533
552.98	9.288
553.32	9.980
553.66	10.770
554.00	9.883
554.34	8.903
554.68	10.086
555.02	10.085
555.36	9.325
555.69	8.863
556.03	9.421
556.37	9.550
556.71	8.663
557.05	9.804
557.39	9.517
557.73	8.751
558.07	9.645
558.41	9.334
558.75	9.772
559.08	9.098
559.42	10.053
559.76	10.441
560.10	9.779
560.44	10.273
560.78	8.317
561.12	9.367
561.45	9.583
561.79	9.295
562.13	9.926
562.47	9.768
562.81	9.554
563.15	9.565
563.48	10.013
563.82	9.198
564.16	8.764
564.50	9.049
564.84	9.229
565.17	8.880
565.51	9.265
565.85	9.708
566.19	8.704
566.52	8.993
566.86	8.861
567.20	9.139
567.54	8.447
567.88	8.039
568.21	9.101
568.55	8.038
568.89	7.977
569.23	8.333
569.56	7.854
569.90	7.358
570.24	6.889
570.57	7.038
570.91	6.723
571.25	6.887
571.59	7.128
571.92	6.884
572.26	6.904
572.60	7.267
572.93	6.897
573.27	7.187
573.61	6.979
573.95	6.615
574.28	6.583
574.62	6.050
574.96	6.499
575.29	6.474
575.63	6.555
575.97	6.300
576.30	6.771
576.64	6.394
576.98	6.198
577.31	6.146
577.65	5.928
577.98	6.132
578.32	5.977
578.66	6.226
578.99	6.231
579.33	6.245
579.67	6.106
580.00	6.281
580.34	6.550
580.67	6.571
581.01	6.746
581.35	5.870
581.68	6.193
582.02	5.912
582.35	5.895
582.69	6.273
583.02	6.047
583.36	6.502
583.70	6.643
584.03	6.635
584.37	6.904
584.70	6.505
585.04	6.580
585.37	6.943
585.71	6.931
586.04	6.813
586.38	6.740
586.72	7.097
587.05	6.493
587.39	6.306
587.72	6.854
588.06	6.590
588.39	6.996
588.73	7.040
589.06	7.635
589.40	7.441
589.73	7.638
590.07	7.438
590.40	6.796
590.73	7.377
591.07	7.937
591.40	7.550
591.74	8.528
592.07	8.159
592.41	8.103
592.74	7.640
593.08	7.462
593.41	7.213
593.75	7.089
594.08	7.140
594.41	7.918
594.75	7.911
595.08	7.910
595.42	7.426
595.75	7.692
596.09	8.186
596.42	8.448
596.75	7.556
597.09	8.831
597.42	7.589
597.75	8.107
598.09	8.478
598.42	8.119
598.76	8.350
599.09	7.450
599.42	7.933
599.76	7.796
600.09	7.577
600.42	7.597
600.76	7.393
601.09	7.869
601.42	7.344
601.76	8.387
602.09	7.747
602.42	7.882
602.76	7.819
603.09	7.828
603.42	8.083
603.76	7.584
604.09	7.639
604.42	7.990
604.76	8.730
605.09	7.995
605.42	7.952
605.75	8.278
606.09	7.808
606.42	8.132
606.75	8.046
607.09	8.539
607.42	7.659
607.75	8.059
608.08	8.033
608.42	8.606
608.75	7.845
609.08	8.233
609.41	8.282
609.75	8.194
610.08	8.812
610.41	7.961
610.74	7.805
611.07	8.992
611.41	8.881
611.74	9.150
612.07	8.592
612.40	9.234
612.73	8.737
613.07	9.159
613.40	8.583
613.73	8.338
614.06	8.817
614.39	9.124
614.72	8.895
615.06	9.296
615.39	8.333
615.72	8.436
616.05	9.250
616.38	8.894
616.71	9.145
617.05	9.600
617.38	9.321
617.71	9.610
618.04	9.195
618.37	9.225
618.70	9.210
619.03	10.461
619.36	10.048
619.69	10.423
620.03	10.577
620.36	10.428
620.69	10.411
621.02	10.324
621.35	10.807
621.68	10.514
622.01	11.533
622.34	10.136
622.67	10.418
623.00	9.905
623.33	10.436
623.66	10.579
623.99	10.162
624.32	9.700
624.65	10.169
624.99	9.348
625.32	9.993
625.65	10.819
625.98	10.992
626.31	10.886
626.64	9.959
626.97	10.640
627.30	10.806
627.63	12.059
627.96	11.606
628.29	11.111
628.62	11.802
628.95	13.208
629.28	11.040
629.61	12.191
629.94	11.905
630.26	11.439
630.59	11.439
630.92	11.494
631.25	11.550
631.58	12.012
631.91	11.968
632.24	11.392
632.57	13.641
632.90	12.939
633.23	13.311
633.56	13.446
633.89	13.477
634.22	12.372
634.55	14.556
634.88	13.174
635.20	13.381
635.53	13.614
635.86	13.614
636.19	12.824
636.52	12.687
636.85	12.600
637.18	11.521
637.51	13.593
637.83	11.714
638.16	14.194
638.49	15.491
638.82	14.159
639.15	13.625
639.48	14.339
639.81	13.807
640.13	14.193
640.46	13.691
640.79	14.663
641.12	12.655
641.45	13.547
641.77	13.255
642.10	15.058
642.43	13.964
642.76	14.396
643.09	16.104
643.41	14.568
643.74	17.438
644.07	15.854
644.40	15.491
644.73	16.850
645.05	17.433
645.38	14.376
645.71	15.298
646.04	16.944
646.36	17.028
646.69	16.555
647.02	15.986
647.35	17.869
647.67	17.699
648.00	17.398
648.33	14.851
648.66	15.000
648.98	15.292
649.31	15.396
649.64	15.845
649.96	15.797
650.29	14.534
650.62	14.239
