SpectraSuite Data File
++++++++++++++++++++++++++++++++++++
Date: Wed May 13 19:21:46 PDT 2015
User: schluterlab
Dark Spectrum Present: Yes
Reference Spectrum Present: Yes
Number of Sampled Component Spectra: 1
Spectrometers: USB2E3373
Integration Time (usec): 3000 (USB2E3373)
Spectra Averaged: 3 (USB2E3373)
Boxcar Smoothing: 0 (USB2E3373)
Correct for Electrical Dark: No (USB2E3373)
Strobe/Lamp Enabled: No (USB2E3373)
Correct for Detector Non-linearity: No (USB2E3373)
Correct for Stray Light: No (USB2E3373)
Number of Pixels in Processed Spectrum: 2048
>>>>>Begin Processed Spectral Data<<<<<
178.53	0.000
178.91	-1400.000
179.29	-1350.000
179.67	-261.111
180.04	-1700.000
180.42	2900.000
180.80	1140.000
181.18	-1300.000
181.56	742.857
181.94	0.000
182.31	-785.714
182.69	1933.333
183.07	-637.500
183.45	-633.333
183.83	663.636
184.20	-630.000
184.58	2650.000
184.96	6000.000
185.34	-780.000
185.72	-712.500
186.09	-3050.000
186.47	2850.000
186.85	2400.000
187.23	6100.000
187.61	-2133.333
187.98	1800.000
188.36	654.545
188.74	527.273
189.12	-1140.000
189.49	580.000
189.87	-6500.000
190.25	-1375.000
190.63	435.714
191.00	461.538
191.38	1066.667
191.76	-1325.000
192.14	1600.000
192.51	687.500
192.89	1083.333
193.27	725.000
193.65	-1275.000
194.02	600.000
194.40	1080.000
194.78	550.000
195.15	566.667
195.53	690.000
195.91	-2400.000
196.29	400.000
196.66	331.579
197.04	-460.000
197.42	0.000
197.79	650.000
198.17	-5600.000
198.55	842.857
198.92	800.000
199.30	1080.000
199.68	0.000
200.05	350.000
200.43	928.571
200.81	4600.000
201.18	1966.667
201.56	-1766.667
201.94	533.333
202.31	611.111
202.69	458.333
203.07	610.000
203.44	0.000
203.82	1325.000
204.19	985.714
204.57	478.571
204.95	712.500
205.32	1466.667
205.70	618.182
206.08	385.714
206.45	2900.000
206.83	412.500
207.20	1100.000
207.58	1280.000
207.96	377.778
208.33	850.000
208.71	-1100.000
209.08	1014.286
209.46	744.444
209.84	500.000
210.21	-1766.667
210.59	1425.000
210.96	-600.000
211.34	2950.000
211.71	680.000
212.09	950.000
212.46	0.000
212.84	1966.667
213.22	1525.000
213.59	-4800.000
213.97	950.000
214.34	914.286
214.72	590.909
215.09	1060.000
215.47	-2850.000
215.84	-3000.000
216.22	1966.667
216.59	421.429
216.97	1300.000
217.34	581.818
217.72	-866.667
218.09	0.000
218.47	-5300.000
218.84	788.889
219.22	814.286
219.59	1800.000
219.97	-585.714
220.34	1040.000
220.72	-2033.333
221.09	428.571
221.47	1575.000
221.84	-883.333
222.22	0.000
222.59	1550.000
222.97	-2950.000
223.34	1260.000
223.72	469.231
224.09	1400.000
224.46	3000.000
224.84	-5300.000
225.21	-1120.000
225.59	-4600.000
225.96	710.000
226.34	370.000
226.71	3100.000
227.08	712.500
227.46	620.000
227.83	-1275.000
228.21	-2800.000
228.58	677.778
228.95	-3000.000
229.33	-2400.000
229.70	2000.000
230.08	742.857
230.45	-1080.000
230.82	550.000
231.20	816.667
231.57	800.000
231.95	525.000
232.32	231.818
232.69	472.727
233.07	785.714
233.44	315.385
233.81	-2100.000
234.19	289.474
234.56	508.333
234.93	358.333
235.31	527.273
235.68	407.692
236.05	450.000
236.43	206.061
236.80	315.789
237.17	4200.000
237.55	257.143
237.92	228.571
238.29	261.905
238.67	190.323
239.04	210.345
239.41	161.111
239.79	117.391
240.16	135.714
240.53	143.182
240.91	115.686
241.28	130.000
241.65	110.000
242.02	100.000
242.40	103.226
242.77	101.667
243.14	89.247
243.51	84.270
243.89	74.118
244.26	73.333
244.63	70.968
245.00	62.766
245.38	67.327
245.75	51.402
246.12	64.220
246.49	59.124
246.87	55.200
247.24	54.615
247.61	47.143
247.98	46.405
248.36	43.243
248.73	42.038
249.10	49.045
249.47	37.853
249.84	38.503
250.22	37.433
250.59	42.604
250.96	42.424
251.33	41.232
251.70	41.089
252.08	40.000
252.45	34.978
252.82	31.739
253.19	39.149
253.56	34.902
253.94	34.855
254.31	32.812
254.68	32.308
255.05	26.199
255.42	37.805
255.79	30.147
256.16	30.686
256.54	26.502
256.91	30.961
257.28	28.417
257.65	26.403
258.02	29.814
258.39	29.338
258.76	29.097
259.14	30.357
259.51	23.100
259.88	26.708
260.25	29.909
260.62	27.168
260.99	24.224
261.36	26.727
261.73	25.788
262.10	24.419
262.47	23.099
262.85	24.234
263.22	24.501
263.59	27.066
263.96	26.099
264.33	21.932
264.70	26.579
265.07	24.808
265.44	22.475
265.81	24.574
266.18	24.372
266.55	22.683
266.92	20.885
267.29	23.611
267.66	21.330
268.03	18.864
268.40	25.234
268.77	20.764
269.14	23.423
269.51	21.219
269.88	22.611
270.25	21.896
270.62	22.697
270.99	21.935
271.36	22.318
271.73	21.495
272.10	21.739
272.47	21.505
272.84	20.779
273.21	24.109
273.58	21.397
273.95	17.820
274.32	20.455
274.69	20.557
275.06	18.898
275.43	20.851
275.80	20.842
276.17	20.570
276.54	20.374
276.91	19.565
277.28	20.508
277.65	20.116
278.02	20.290
278.39	20.508
278.76	19.455
279.13	21.321
279.50	21.229
279.87	19.124
280.23	20.559
280.60	19.149
280.97	17.930
281.34	19.823
281.71	20.727
282.08	19.770
282.45	18.182
282.82	20.782
283.19	16.043
283.56	18.947
283.92	19.628
284.29	17.989
284.66	20.327
285.03	17.179
285.40	19.014
285.77	18.687
286.14	18.135
286.51	18.667
286.87	17.949
287.24	19.218
287.61	18.459
287.98	18.506
288.35	17.116
288.72	17.134
289.08	20.188
289.45	17.133
289.82	17.236
290.19	16.484
290.56	15.620
290.93	14.804
291.29	16.104
291.66	16.224
292.03	18.459
292.40	17.474
292.77	15.533
293.13	16.567
293.50	16.764
293.87	15.556
294.24	15.111
294.60	14.993
294.97	15.552
295.34	16.361
295.71	14.489
296.08	14.815
296.44	15.543
296.81	14.795
297.18	16.125
297.55	14.512
297.91	13.456
298.28	16.734
298.65	15.013
299.02	15.020
299.38	15.671
299.75	11.860
300.12	13.921
300.48	14.875
300.85	13.070
301.22	14.904
301.59	14.646
301.95	14.484
302.32	14.249
302.69	14.337
303.05	13.697
303.42	12.593
303.79	13.590
304.15	12.587
304.52	12.399
304.89	13.357
305.25	12.297
305.62	13.930
305.99	14.876
306.35	13.758
306.72	13.341
307.09	13.762
307.45	14.640
307.82	13.616
308.19	13.576
308.55	14.347
308.92	14.286
309.29	12.460
309.65	14.104
310.02	14.376
310.38	14.086
310.75	13.622
311.12	15.353
311.48	13.584
311.85	14.046
312.22	15.505
312.58	14.137
312.95	14.995
313.31	13.301
313.68	14.345
314.05	17.751
314.41	16.382
314.78	16.415
315.14	14.995
315.51	16.478
315.87	17.228
316.24	17.180
316.61	16.667
316.97	15.753
317.34	15.753
317.70	16.922
318.07	17.613
318.43	19.080
318.80	19.494
319.16	19.303
319.53	18.011
319.89	20.190
320.26	21.700
320.62	21.131
320.99	20.909
321.35	21.818
321.72	20.945
322.08	21.422
322.45	22.886
322.81	22.384
323.18	23.507
323.54	23.655
323.91	23.491
324.27	24.665
324.64	23.486
325.00	23.535
325.37	24.659
325.73	25.224
326.10	23.742
326.46	26.523
326.83	26.143
327.19	25.107
327.56	26.481
327.92	26.334
328.29	26.974
328.65	27.624
329.01	27.437
329.38	26.364
329.74	26.777
330.11	28.841
330.47	27.732
330.84	28.768
331.20	27.960
331.56	27.615
331.93	28.426
332.29	28.838
332.66	27.965
333.02	28.154
333.38	29.268
333.75	28.877
334.11	28.292
334.48	28.483
334.84	29.320
335.20	28.727
335.57	27.017
335.93	28.661
336.29	28.480
336.66	29.035
337.02	27.783
337.38	29.907
337.75	27.540
338.11	28.469
338.47	28.545
338.84	28.048
339.20	27.523
339.56	30.292
339.93	28.273
340.29	27.899
340.65	29.234
341.02	27.312
341.38	28.915
341.74	28.333
342.11	29.345
342.47	28.018
342.83	28.253
343.20	29.524
343.56	28.644
343.92	29.561
344.28	28.656
344.65	28.805
345.01	27.357
345.37	28.731
345.73	28.596
346.10	28.218
346.46	28.644
346.82	26.442
347.19	28.154
347.55	28.571
347.91	28.722
348.27	28.513
348.63	28.261
349.00	27.751
349.36	28.243
349.72	28.388
350.08	27.310
350.45	27.583
350.81	27.864
351.17	28.363
351.53	27.846
351.89	27.063
352.26	28.571
352.62	29.511
352.98	28.687
353.34	28.020
353.70	27.660
354.07	28.468
354.43	26.587
354.79	27.434
355.15	28.172
355.51	28.537
355.87	29.714
356.24	28.257
356.60	27.586
356.96	28.721
357.32	28.455
357.68	28.740
358.04	27.870
358.40	28.662
358.77	27.621
359.13	28.493
359.49	28.627
359.85	27.698
360.21	28.469
360.57	29.805
360.93	28.769
361.29	27.740
361.66	27.786
362.02	27.537
362.38	29.506
362.74	27.976
363.10	27.979
363.46	29.054
363.82	28.496
364.18	29.222
364.54	30.386
364.90	28.966
365.26	29.191
365.62	29.876
365.98	28.780
366.35	29.943
366.71	29.863
367.07	29.643
367.43	29.608
367.79	31.335
368.15	32.471
368.51	29.797
368.87	30.121
369.23	29.846
369.59	31.282
369.95	30.000
370.31	29.986
370.67	30.507
371.03	30.487
371.39	30.466
371.75	31.618
372.11	30.370
372.47	31.525
372.83	32.853
373.19	31.214
373.55	31.707
373.91	32.253
374.27	30.997
374.63	30.255
374.99	32.415
375.35	31.821
375.71	32.419
376.07	33.539
376.42	32.875
376.78	32.472
377.14	32.972
377.50	33.245
377.86	33.378
378.22	33.944
378.58	31.328
378.94	33.312
379.30	33.588
379.66	33.756
380.02	33.845
380.38	33.880
380.74	33.854
381.09	33.191
381.45	34.726
381.81	34.889
382.17	34.904
382.53	34.465
382.89	35.556
383.25	34.396
383.61	35.502
383.97	35.772
384.32	35.683
384.68	34.944
385.04	35.956
385.40	35.418
385.76	35.504
386.12	37.047
386.48	37.130
386.83	37.460
387.19	38.095
387.55	36.735
387.91	38.089
388.27	36.235
388.62	37.369
388.98	37.838
389.34	37.922
389.70	37.707
390.06	39.037
390.42	37.873
390.77	38.041
391.13	38.162
391.49	38.832
391.85	38.511
392.20	37.224
392.56	38.131
392.92	40.200
393.28	38.521
393.64	39.748
393.99	38.302
394.35	39.454
394.71	39.147
395.07	38.816
395.42	41.100
395.78	40.458
396.14	39.789
396.50	41.541
396.85	41.004
397.21	40.259
397.57	40.918
397.92	41.106
398.28	39.910
398.64	40.263
399.00	41.130
399.35	40.553
399.71	41.088
400.07	40.804
400.42	41.166
400.78	41.858
401.14	41.402
401.49	42.448
401.85	42.226
402.21	42.515
402.57	42.011
402.92	42.812
403.28	42.848
403.63	42.265
403.99	42.611
404.35	42.061
404.70	43.046
405.06	41.176
405.42	44.167
405.77	42.000
406.13	42.325
406.49	43.643
406.84	42.764
407.20	42.080
407.55	43.076
407.91	43.533
408.27	43.969
408.62	42.986
408.98	43.566
409.34	43.235
409.69	42.516
410.05	43.061
410.40	43.058
410.76	43.728
411.11	43.788
411.47	43.131
411.83	43.800
412.18	42.610
412.54	43.960
412.89	43.373
413.25	43.566
413.60	44.472
413.96	43.352
414.31	43.682
414.67	43.473
415.03	44.834
415.38	43.041
415.74	43.794
416.09	44.742
416.45	44.578
416.80	45.142
417.16	45.375
417.51	46.848
417.87	44.252
418.22	46.246
418.58	45.771
418.93	45.455
419.29	44.367
419.64	45.340
420.00	44.451
420.35	44.406
420.71	45.248
421.06	44.033
421.42	44.269
421.77	44.675
422.12	44.469
422.48	43.173
422.83	44.671
423.19	43.812
423.54	45.038
423.90	45.217
424.25	44.389
424.61	45.476
424.96	45.306
425.31	45.349
425.67	43.596
426.02	43.886
426.38	45.055
426.73	44.412
427.09	44.073
427.44	44.221
427.79	44.393
428.15	45.298
428.50	44.529
428.85	44.636
429.21	43.733
429.56	44.323
429.92	44.540
430.27	43.198
430.62	43.420
430.98	43.747
431.33	43.660
431.68	44.241
432.04	44.409
432.39	44.489
432.74	44.464
433.10	44.935
433.45	44.898
433.80	44.235
434.16	44.925
434.51	43.053
434.86	43.843
435.22	43.913
435.57	44.742
435.92	44.470
436.28	45.314
436.63	44.702
436.98	44.305
437.34	45.736
437.69	45.099
438.04	45.194
438.39	45.970
438.75	45.439
439.10	44.022
439.45	45.218
439.81	44.109
440.16	43.986
440.51	45.518
440.86	45.339
441.22	45.161
441.57	44.055
441.92	44.524
442.27	44.672
442.63	43.339
442.98	44.394
443.33	44.239
443.68	44.037
444.03	43.875
444.39	44.401
444.74	45.184
445.09	44.097
445.44	44.779
445.79	45.275
446.15	43.409
446.50	43.403
446.85	44.245
447.20	44.008
447.55	44.389
447.91	44.843
448.26	45.019
448.61	44.319
448.96	44.850
449.31	44.207
449.66	44.176
450.02	44.958
450.37	44.615
450.72	43.768
451.07	43.937
451.42	44.316
451.77	45.097
452.12	43.245
452.47	44.279
452.83	45.047
453.18	44.866
453.53	45.826
453.88	45.422
454.23	44.650
454.58	44.579
454.93	46.090
455.28	44.514
455.63	45.206
455.98	46.250
456.34	44.912
456.69	45.085
457.04	44.830
457.39	43.892
457.74	43.877
458.09	43.876
458.44	44.812
458.79	42.787
459.14	44.977
459.49	44.542
459.84	43.380
460.19	43.489
460.54	42.477
460.89	44.048
461.24	44.809
461.59	44.335
461.94	43.588
462.29	44.985
462.64	44.735
462.99	43.852
463.34	44.533
463.69	43.902
464.04	43.652
464.39	43.130
464.74	43.137
465.09	43.245
465.44	42.216
465.79	44.072
466.14	41.489
466.49	42.547
466.84	43.257
467.19	42.667
467.54	44.187
467.89	42.737
468.24	42.176
468.59	42.491
468.94	42.578
469.29	44.537
469.64	42.905
469.99	44.249
470.34	42.602
470.68	43.966
471.03	42.313
471.38	43.363
471.73	44.171
472.08	44.079
472.43	41.206
472.78	42.265
473.13	42.619
473.48	41.948
473.83	43.293
474.17	42.564
474.52	43.486
474.87	43.316
475.22	42.136
475.57	40.946
475.92	41.583
476.27	41.037
476.61	42.085
476.96	42.166
477.31	41.183
477.66	41.083
478.01	41.715
478.36	41.988
478.70	40.966
479.05	40.256
479.40	40.686
479.75	41.027
480.10	41.650
480.45	40.838
480.79	39.417
481.14	40.166
481.49	39.630
481.84	39.781
482.19	40.164
482.53	40.229
482.88	39.832
483.23	39.579
483.58	40.719
483.92	39.222
484.27	38.780
484.62	39.784
484.97	38.825
485.31	39.247
485.66	37.316
486.01	35.704
486.36	34.853
486.70	34.572
487.05	35.025
487.40	35.725
487.75	36.418
488.09	37.003
488.44	37.492
488.79	37.649
489.13	38.503
489.48	37.724
489.83	38.023
490.17	38.711
490.52	38.308
490.87	38.218
491.22	37.972
491.56	37.449
491.91	37.366
492.26	37.437
492.60	37.512
492.95	38.026
493.30	37.150
493.64	37.844
493.99	37.512
494.34	37.373
494.68	37.821
495.03	38.205
495.37	37.040
495.72	38.060
496.07	37.355
496.41	36.195
496.76	36.456
497.11	36.245
497.45	36.050
497.80	36.948
498.14	35.942
498.49	37.512
498.84	36.481
499.18	36.762
499.53	36.610
499.87	35.881
500.22	36.175
500.56	37.476
500.91	36.635
501.26	36.036
501.60	36.687
501.95	35.885
502.29	36.645
502.64	35.568
502.98	35.390
503.33	35.329
503.67	35.731
504.02	35.407
504.36	35.564
504.71	36.004
505.06	35.711
505.40	34.954
505.75	35.680
506.09	34.597
506.44	35.816
506.78	34.973
507.13	34.982
507.47	35.960
507.82	35.613
508.16	34.701
508.51	35.870
508.85	34.062
509.19	35.102
509.54	35.153
509.88	35.291
510.23	34.910
510.57	35.501
510.92	35.163
511.26	34.635
511.61	34.803
511.95	34.499
512.30	34.783
512.64	34.766
512.98	35.263
513.33	34.797
513.67	34.152
514.02	33.658
514.36	34.735
514.70	33.758
515.05	34.300
515.39	34.492
515.74	35.079
516.08	34.936
516.42	35.183
516.77	35.452
517.11	33.685
517.46	34.707
517.80	34.785
518.14	33.874
518.49	34.714
518.83	34.375
519.17	34.873
519.52	34.409
519.86	34.341
520.20	35.376
520.55	34.710
520.89	34.367
521.23	34.982
521.58	33.433
521.92	35.028
522.26	34.472
522.61	33.956
522.95	33.272
523.29	33.536
523.64	35.000
523.98	34.504
524.32	33.595
524.66	33.915
525.01	34.069
525.35	34.077
525.69	32.081
526.04	33.707
526.38	33.862
526.72	32.393
527.06	33.145
527.41	32.054
527.75	33.119
528.09	33.526
528.43	33.333
528.78	33.313
529.12	32.727
529.46	32.578
529.80	33.292
530.15	33.084
530.49	32.738
530.83	32.532
531.17	34.008
531.51	32.750
531.86	33.226
532.20	33.051
532.54	33.184
532.88	32.092
533.22	31.855
533.57	31.605
533.91	31.668
534.25	31.652
534.59	32.520
534.93	31.112
535.27	30.477
535.62	31.563
535.96	31.450
536.30	30.833
536.64	31.037
536.98	30.989
537.32	32.324
537.66	32.267
538.01	31.534
538.35	32.256
538.69	31.334
539.03	31.124
539.37	29.776
539.71	29.423
540.05	31.176
540.39	29.701
540.73	31.113
541.07	31.213
541.42	30.137
541.76	30.774
542.10	30.595
542.44	30.795
542.78	31.159
543.12	30.262
543.46	31.344
543.80	30.969
544.14	29.332
544.48	30.095
544.82	29.699
545.16	30.124
545.50	29.563
545.84	29.772
546.18	29.495
546.52	30.351
546.86	29.416
547.20	30.614
547.54	29.593
547.88	30.612
548.22	28.954
548.56	28.302
548.90	29.001
549.24	29.495
549.58	29.468
549.92	30.701
550.26	30.327
550.60	28.700
550.94	29.366
551.28	29.042
551.62	28.972
551.96	29.053
552.30	29.420
552.64	30.020
552.98	29.424
553.32	28.793
553.66	28.766
554.00	29.170
554.34	27.881
554.68	29.256
555.02	29.690
555.36	28.184
555.69	27.740
556.03	27.793
556.37	28.104
556.71	27.353
557.05	28.501
557.39	28.831
557.73	28.864
558.07	28.934
558.41	28.726
558.75	28.288
559.08	29.456
559.42	28.647
559.76	29.559
560.10	28.266
560.44	27.883
560.78	27.079
561.12	26.781
561.45	28.031
561.79	26.302
562.13	27.163
562.47	28.005
562.81	28.103
563.15	27.425
563.48	27.188
563.82	26.875
564.16	27.404
564.50	26.237
564.84	26.675
565.17	26.512
565.51	26.581
565.85	26.586
566.19	26.237
566.52	27.486
566.86	25.558
567.20	26.769
567.54	25.913
567.88	25.421
568.21	24.286
568.55	24.166
568.89	24.319
569.23	23.574
569.56	23.603
569.90	22.755
570.24	22.856
570.57	22.169
570.91	21.590
571.25	21.587
571.59	21.473
571.92	21.486
572.26	20.999
572.60	21.171
572.93	21.529
573.27	21.621
573.61	21.636
573.95	21.318
574.28	20.176
574.62	20.505
574.96	20.765
575.29	20.660
575.63	20.528
575.97	20.099
576.30	20.632
576.64	20.040
576.98	20.442
577.31	19.871
577.65	20.087
577.98	19.743
578.32	19.579
578.66	19.853
578.99	20.110
579.33	19.656
579.67	19.849
580.00	19.971
580.34	20.290
580.67	20.208
581.01	20.283
581.35	19.288
581.68	19.156
582.02	19.101
582.35	18.807
582.69	19.291
583.02	19.690
583.36	19.783
583.70	20.180
584.03	19.436
584.37	20.000
584.70	20.141
585.04	19.398
585.37	19.548
585.71	19.737
586.04	20.126
586.38	19.540
586.72	20.271
587.05	20.022
587.39	19.631
587.72	19.866
588.06	19.691
588.39	19.808
588.73	20.329
589.06	20.318
589.40	19.933
589.73	20.345
590.07	20.676
590.40	20.205
590.73	20.531
591.07	21.490
591.40	20.793
591.74	21.818
592.07	21.117
592.41	20.752
592.74	19.700
593.08	20.120
593.41	20.531
593.75	18.957
594.08	19.712
594.41	20.078
594.75	20.628
595.08	20.079
595.42	20.105
595.75	19.979
596.09	20.353
596.42	20.393
596.75	20.853
597.09	21.126
597.42	19.730
597.75	20.138
598.09	20.565
598.42	20.017
598.76	19.335
599.09	19.840
599.42	19.105
599.76	19.510
600.09	19.563
600.42	19.722
600.76	19.643
601.09	19.417
601.42	19.406
601.76	19.089
602.09	19.565
602.42	20.024
602.76	19.952
603.09	19.355
603.42	19.641
603.76	19.779
604.09	19.620
604.42	19.772
604.76	20.202
605.09	20.009
605.42	19.880
605.75	19.619
606.09	19.398
606.42	19.493
606.75	19.328
607.09	20.260
607.42	20.026
607.75	18.987
608.08	19.757
608.42	19.901
608.75	19.387
609.08	19.750
609.41	20.276
609.75	20.010
610.08	20.358
610.41	19.879
610.74	20.293
611.07	20.949
611.41	20.510
611.74	20.965
612.07	20.393
612.40	21.459
612.73	20.316
613.07	20.690
613.40	21.064
613.73	20.241
614.06	20.806
614.39	19.927
614.72	20.474
615.06	21.061
615.39	20.170
615.72	21.012
616.05	20.893
616.38	21.178
616.71	20.546
617.05	21.084
617.38	20.806
617.71	20.781
618.04	21.575
618.37	20.520
618.70	21.157
619.03	22.303
619.36	22.132
619.69	22.535
620.03	22.253
620.36	21.791
620.69	22.671
621.02	22.935
621.35	22.475
621.68	22.508
622.01	22.214
622.34	23.601
622.67	22.662
623.00	21.864
623.33	22.087
623.66	22.516
623.99	21.723
624.32	22.254
624.65	21.610
624.99	20.822
625.32	22.303
625.65	22.615
625.98	23.059
626.31	23.950
626.64	23.184
626.97	22.776
627.30	23.441
627.63	24.282
627.96	24.138
628.29	23.272
628.62	25.892
628.95	24.717
629.28	23.723
629.61	24.840
629.94	24.857
630.26	22.784
630.59	24.309
