SpectraSuite Data File
++++++++++++++++++++++++++++++++++++
Date: Tue May 12 19:55:31 PDT 2015
User: schluterlab
Dark Spectrum Present: Yes
Reference Spectrum Present: Yes
Number of Sampled Component Spectra: 1
Spectrometers: USB2E3373
Integration Time (usec): 3000 (USB2E3373)
Spectra Averaged: 3 (USB2E3373)
Boxcar Smoothing: 0 (USB2E3373)
Correct for Electrical Dark: No (USB2E3373)
Strobe/Lamp Enabled: No (USB2E3373)
Correct for Detector Non-linearity: No (USB2E3373)
Correct for Stray Light: No (USB2E3373)
Number of Pixels in Processed Spectrum: 2048
>>>>>Begin Processed Spectral Data<<<<<
178.53	0.000
178.91	-140.000
179.29	-133.333
179.67	633.333
180.04	0.000
180.42	-260.000
180.80	-600.000
181.18	1000.000
181.56	-550.000
181.94	333.333
182.31	1800.000
182.69	-42.857
183.07	0.000
183.45	191.667
183.83	400.000
184.20	350.000
184.58	1150.000
184.96	333.333
185.34	-300.000
185.72	-107.143
186.09	-333.333
186.47	-2400.000
186.85	-120.000
187.23	158.333
187.61	-214.286
187.98	-420.000
188.36	500.000
188.74	-425.000
189.12	-166.667
189.49	-250.000
189.87	425.000
190.25	100.000
190.63	666.667
191.00	480.000
191.38	-600.000
191.76	540.000
192.14	-85.714
192.51	-150.000
192.89	-360.000
193.27	-360.000
193.65	-533.333
194.02	-183.333
194.40	1700.000
194.78	-137.500
195.15	-171.429
195.53	633.333
195.91	380.000
196.29	-575.000
196.66	-600.000
197.04	-214.286
197.42	320.000
197.79	-275.000
198.17	-141.667
198.55	-2100.000
198.92	-244.444
199.30	1100.000
199.68	-375.000
200.05	-1300.000
200.43	-105.556
200.81	-108.333
201.18	433.333
201.56	-800.000
201.94	-1500.000
202.31	-125.000
202.69	11.111
203.07	-91.667
203.44	-550.000
203.82	0.000
204.19	300.000
204.57	-666.667
204.95	218.182
205.32	340.000
205.70	400.000
206.08	-1100.000
206.45	-440.000
206.83	3100.000
207.20	-244.444
207.58	-84.615
207.96	600.000
208.33	933.333
208.71	933.333
209.08	950.000
209.46	-122.222
209.84	533.333
210.21	-600.000
210.59	550.000
210.96	377.778
211.34	-600.000
211.71	1400.000
212.09	-80.000
212.46	-300.000
212.84	-175.000
213.22	300.000
213.59	-287.500
213.97	0.000
214.34	-450.000
214.72	-1400.000
215.09	900.000
215.47	-13.333
215.84	-225.000
216.22	-2900.000
216.59	1600.000
216.97	-133.333
217.34	-200.000
217.72	-16.667
218.09	650.000
218.47	-89.474
218.84	-337.500
219.22	-71.429
219.59	-250.000
219.97	-180.000
220.34	366.667
220.72	200.000
221.09	-1100.000
221.47	0.000
221.84	800.000
222.22	-575.000
222.59	-550.000
222.97	-47.826
223.34	260.000
223.72	571.429
224.09	-400.000
224.46	276.923
224.84	-86.667
225.21	-750.000
225.59	-300.000
225.96	10.000
226.34	400.000
226.71	220.000
227.08	-107.692
227.46	-85.714
227.83	-125.000
228.21	-850.000
228.58	250.000
228.95	-63.158
229.33	-6.250
229.70	-466.667
230.08	-222.222
230.45	-800.000
230.82	-1700.000
231.20	-80.952
231.57	-380.000
231.95	-766.667
232.32	244.444
232.69	-1600.000
233.07	-50.000
233.44	-200.000
233.81	-38.710
234.19	-420.000
234.56	-66.667
234.93	-483.333
235.31	-40.741
235.68	-66.667
236.05	-88.462
236.43	-157.895
236.80	-72.727
237.17	-185.714
237.55	-145.000
237.92	-32.558
238.29	-90.323
238.67	-53.571
239.04	-48.571
239.41	-29.412
239.79	-18.000
240.16	-55.000
240.53	-36.207
240.91	-13.699
241.28	-25.352
241.65	-32.812
242.02	-49.123
242.40	-24.000
242.77	-12.632
243.14	-15.294
243.51	-13.978
243.89	-24.762
244.26	-17.593
244.63	-14.286
245.00	-27.679
245.38	-19.328
245.75	-16.949
246.12	-9.375
246.49	-14.400
246.87	-18.852
247.24	-17.606
247.61	-14.570
247.98	-5.056
248.36	-10.063
248.73	-9.091
249.10	-12.778
249.47	-8.854
249.84	-8.629
250.22	-7.812
250.59	-7.865
250.96	-7.273
251.33	-4.245
251.70	-4.587
252.08	-4.762
252.45	-8.571
252.82	-14.346
253.19	-3.502
253.56	-5.882
253.94	-9.350
254.31	0.000
254.68	-7.639
255.05	-2.649
255.42	-5.455
255.79	-3.642
256.16	-5.903
256.54	-2.727
256.91	0.000
257.28	-2.273
257.65	-11.148
258.02	-4.204
258.39	-5.438
258.76	-5.810
259.14	-7.647
259.51	-2.254
259.88	-2.882
260.25	-8.807
260.62	-6.742
260.99	-5.571
261.36	-6.034
261.73	-1.867
262.10	-5.722
262.47	-6.061
262.85	-2.057
263.22	-6.452
263.59	-4.021
263.96	-4.700
264.33	-7.817
264.70	-2.703
265.07	-5.911
265.44	-1.405
265.81	-1.446
266.18	-1.874
266.55	-3.571
266.92	-3.125
267.29	-4.889
267.66	-7.273
268.03	-3.011
268.40	-4.577
268.77	-4.232
269.14	-2.311
269.51	-4.751
269.88	-3.632
270.25	-4.219
270.62	-3.151
270.99	-2.947
271.36	-5.740
271.73	-2.917
272.10	-4.149
272.47	-6.200
272.84	-5.732
273.21	-6.054
273.58	-4.898
273.95	-3.386
274.32	-2.901
274.69	-1.174
275.06	-3.565
275.43	-7.800
275.80	-2.868
276.17	-3.557
276.54	-0.760
276.91	-3.263
277.28	-1.354
277.65	-4.915
278.02	-2.841
278.39	-0.181
278.76	-3.166
279.13	-0.716
279.50	-4.332
279.87	-4.528
280.23	-3.097
280.60	-4.947
280.97	-1.933
281.34	-2.542
281.71	-5.506
282.08	-3.757
282.45	-4.056
282.82	-4.545
283.19	-2.020
283.56	-1.877
283.92	-2.212
284.29	-1.692
284.66	-4.425
285.03	-5.489
285.40	-2.000
285.77	-1.642
286.14	-3.011
286.51	-4.019
286.87	-1.621
287.24	-5.769
287.61	-1.852
287.98	-0.782
288.35	-1.860
288.72	-2.141
289.08	-4.717
289.45	-1.248
289.82	-2.329
290.19	-3.030
290.56	-1.881
290.93	-2.954
291.29	-2.128
291.66	-0.983
292.03	-1.578
292.40	-1.151
292.77	-3.499
293.13	-1.909
293.50	-2.755
293.87	-1.248
294.24	-0.983
294.60	-0.820
294.97	-3.740
295.34	-3.151
295.71	-3.745
296.08	-3.279
296.44	-1.976
296.81	-2.587
297.18	-1.035
297.55	-2.261
297.91	-0.635
298.28	-3.581
298.65	-2.070
299.02	-2.343
299.38	-2.551
299.75	-2.703
300.12	-1.559
300.48	0.235
300.85	-2.934
301.22	-1.442
301.59	-1.338
301.95	-3.049
302.32	-3.159
302.69	-3.686
303.05	-3.070
303.42	-1.932
303.79	-2.022
304.15	-2.039
304.52	-1.899
304.89	-2.255
305.25	-1.376
305.62	-1.477
305.99	-2.464
306.35	-2.013
306.72	-1.634
307.09	-2.176
307.45	-1.726
307.82	-2.348
308.19	-0.550
308.55	-1.055
308.92	-2.436
309.29	-1.569
309.65	-2.064
310.02	-1.782
310.38	-2.026
310.75	-0.922
311.12	-1.933
311.48	-2.055
311.85	-2.938
312.22	-1.446
312.58	-2.719
312.95	-2.361
313.31	-3.048
313.68	-1.986
314.05	-0.794
314.41	-2.161
314.78	-2.211
315.14	-1.469
315.51	-1.291
315.87	-0.781
316.24	-1.088
316.61	-1.359
316.97	-1.961
317.34	-0.670
317.70	-2.241
318.07	-2.989
318.43	-1.890
318.80	-1.275
319.16	-1.584
319.53	-0.660
319.89	-1.136
320.26	-1.475
320.62	-1.647
320.99	-0.510
321.35	-1.186
321.72	0.202
322.08	-0.891
322.45	-1.479
322.81	-0.985
323.18	-0.288
323.54	0.474
323.91	-0.285
324.27	-1.832
324.64	-1.500
325.00	-0.637
325.37	0.540
325.73	-1.734
326.10	-0.088
326.46	-0.544
326.83	-0.264
327.19	-0.437
327.56	0.265
327.92	-0.694
328.29	-0.358
328.65	0.000
329.01	-0.275
329.38	0.000
329.74	-0.093
330.11	-0.652
330.47	-0.559
330.84	-0.470
331.20	-0.185
331.56	-0.849
331.93	-0.732
332.29	-0.185
332.66	0.542
333.02	0.557
333.38	-0.092
333.75	0.640
334.11	-0.452
334.48	0.268
334.84	-0.751
335.20	-0.090
335.57	0.272
335.93	-1.302
336.29	0.183
336.66	0.091
337.02	0.544
337.38	-0.566
337.75	0.273
338.11	-0.365
338.47	0.371
338.84	-0.645
339.20	0.092
339.56	-0.839
339.93	0.090
340.29	0.181
340.65	0.639
341.02	-1.151
341.38	0.177
341.74	0.890
342.11	1.061
342.47	-0.262
342.83	0.347
343.20	-0.442
343.56	-0.350
343.92	0.175
344.28	-0.858
344.65	-0.342
345.01	-0.174
345.37	0.769
345.73	-0.431
346.10	0.691
346.46	-0.518
346.82	0.000
347.19	0.336
347.55	0.425
347.91	-0.737
348.27	-0.421
348.63	0.432
349.00	0.668
349.36	0.165
349.72	0.575
350.08	0.982
350.45	0.488
350.81	-0.330
351.17	-0.247
351.53	0.081
351.89	0.086
352.26	0.650
352.62	0.572
352.98	0.000
353.34	1.253
353.70	-0.576
354.07	-0.165
354.43	-0.584
354.79	-0.738
355.15	-0.161
355.51	-0.244
355.87	0.333
356.24	0.817
356.60	-0.417
356.96	0.474
357.32	0.165
357.68	0.239
358.04	0.243
358.40	-0.327
358.77	0.161
359.13	1.446
359.49	-0.720
359.85	0.879
360.21	-0.238
360.57	-0.478
360.93	-0.079
361.29	-0.234
361.66	-0.710
362.02	-0.078
362.38	0.155
362.74	0.000
363.10	-0.302
363.46	0.075
363.82	0.306
364.18	0.454
364.54	-0.382
364.90	-0.741
365.26	-0.224
365.62	0.076
365.98	0.075
366.35	-0.605
366.71	0.299
367.07	0.664
367.43	-0.072
367.79	-0.799
368.15	-0.519
368.51	-0.150
368.87	0.587
369.23	0.000
369.59	0.147
369.95	-0.820
370.31	-0.758
370.67	0.451
371.03	0.619
371.39	-0.604
371.75	-0.223
372.11	-0.074
372.47	0.074
372.83	0.146
373.19	0.075
373.55	-0.674
373.91	-0.758
374.27	-0.074
374.63	0.295
374.99	-0.878
375.35	-0.581
375.71	0.287
376.07	1.343
376.42	-0.069
376.78	-0.488
377.14	-0.978
377.50	0.410
377.86	0.139
378.22	0.396
378.58	0.000
378.94	0.131
379.30	0.000
379.66	0.960
380.02	-0.191
380.38	-0.382
380.74	0.435
381.09	-0.191
381.45	-0.444
381.81	0.383
382.17	0.651
382.53	0.066
382.89	0.385
383.25	0.317
383.61	-0.509
383.97	0.260
384.32	0.000
384.68	1.341
385.04	-0.573
385.40	-1.022
385.76	0.063
386.12	-0.198
386.48	0.065
386.83	-0.856
387.19	0.128
387.55	-0.130
387.91	-0.187
388.27	-0.384
388.62	-0.065
388.98	0.636
389.34	-0.911
389.70	-0.769
390.06	0.330
390.42	-0.135
390.77	-0.537
391.13	-0.065
391.49	0.270
391.85	-0.200
392.20	-0.066
392.56	-0.720
392.92	-0.247
393.28	0.419
393.64	-0.697
393.99	-0.584
394.35	-0.195
394.71	-0.530
395.07	-0.332
395.42	-0.063
395.78	0.000
396.14	-0.333
396.50	0.323
396.85	-0.264
397.21	0.129
397.57	-0.395
397.92	0.127
398.28	0.420
398.64	-0.254
399.00	0.638
399.35	0.352
399.71	0.000
400.07	0.432
400.42	0.769
400.78	0.704
401.14	0.631
401.49	0.000
401.85	-0.063
402.21	0.381
402.57	-0.837
402.92	0.598
403.28	-0.325
403.63	0.449
403.99	-0.066
404.35	-0.573
404.70	-0.317
405.06	0.372
405.42	0.260
405.77	0.119
406.13	-0.060
406.49	-0.505
406.84	0.436
407.20	0.186
407.55	0.534
407.91	-1.329
408.27	-0.199
408.62	0.000
408.98	0.644
409.34	-0.256
409.69	-0.201
410.05	0.259
410.40	-0.450
410.76	0.311
411.11	0.388
411.47	0.272
411.83	0.193
412.18	0.393
412.54	0.647
412.89	-0.389
413.25	0.000
413.60	0.383
413.96	0.194
414.31	-0.829
414.67	0.270
415.03	0.069
415.38	-0.279
415.74	0.067
416.09	-0.345
416.45	-0.071
416.80	-0.139
417.16	-0.423
417.51	0.555
417.87	0.274
418.22	-0.401
418.58	-1.106
418.93	0.322
419.29	0.407
419.64	0.962
420.00	0.720
420.35	0.439
420.71	0.512
421.06	-0.260
421.42	0.502
421.77	0.365
422.12	-0.177
422.48	0.800
422.83	0.608
423.19	1.412
423.54	0.305
423.90	0.433
424.25	0.665
424.61	0.194
424.96	0.307
425.31	-0.725
425.67	0.061
426.02	0.311
426.38	-1.030
426.73	-0.187
427.09	0.525
427.44	0.000
427.79	0.743
428.15	-0.190
428.50	0.314
428.85	0.577
429.21	1.315
429.56	0.276
429.92	0.216
430.27	0.053
430.62	0.541
430.98	1.290
431.33	-0.334
431.68	0.711
432.04	0.863
432.39	0.059
432.74	0.380
433.10	0.182
433.45	0.000
433.80	0.952
434.16	0.288
434.51	1.059
434.86	0.060
435.22	-0.116
435.57	0.198
435.92	-0.867
436.28	-0.187
436.63	0.239
436.98	0.679
437.34	0.896
437.69	0.494
438.04	0.300
438.39	0.522
438.75	0.123
439.10	1.369
439.45	0.706
439.81	-0.190
440.16	0.371
440.51	0.867
440.86	0.442
441.22	0.715
441.57	0.741
441.92	-0.110
442.27	0.171
442.63	0.395
442.98	0.550
443.33	0.588
443.68	0.333
444.03	0.258
444.39	0.573
444.74	0.286
445.09	0.708
445.44	0.700
445.79	0.108
446.15	0.641
446.50	0.983
446.85	0.550
447.20	0.547
447.55	0.349
447.91	0.470
448.26	0.890
448.61	-0.121
448.96	0.355
449.31	0.482
449.66	0.424
450.02	0.178
450.37	0.608
450.72	0.419
451.07	0.000
451.42	1.120
451.77	-0.378
452.12	0.564
452.47	-0.271
452.83	0.436
453.18	0.405
453.53	1.306
453.88	0.255
454.23	0.895
454.58	0.326
454.93	-0.409
455.28	-0.204
455.63	0.780
455.98	0.317
456.34	-0.536
456.69	-0.271
457.04	0.525
457.39	0.187
457.74	0.316
458.09	-0.622
458.44	0.981
458.79	-0.294
459.14	0.954
459.49	0.828
459.84	0.238
460.19	0.688
460.54	-0.126
460.89	0.118
461.24	1.299
461.59	0.442
461.94	0.657
462.29	0.376
462.64	0.279
462.99	0.943
463.34	0.366
463.69	0.206
464.04	-0.321
464.39	0.772
464.74	0.130
465.09	0.643
465.44	0.780
465.79	0.241
466.14	0.119
466.49	0.714
466.84	0.184
467.19	0.325
467.54	-0.199
467.89	1.045
468.24	0.000
468.59	1.047
468.94	0.807
469.29	0.554
469.64	1.021
469.99	-0.072
470.34	-0.424
470.68	-0.231
471.03	-0.073
471.38	0.299
471.73	0.218
472.08	0.996
472.43	1.176
472.78	-1.305
473.13	0.702
473.48	0.346
473.83	0.462
474.17	-0.400
474.52	1.608
474.87	0.253
475.22	0.889
475.57	0.529
475.92	0.455
476.27	0.784
476.61	0.946
476.96	0.059
477.31	0.685
477.66	1.627
478.01	-0.294
478.36	0.401
478.70	1.127
479.05	-0.290
479.40	0.276
479.75	0.224
480.10	1.028
480.45	0.995
480.79	0.986
481.14	0.316
481.49	1.028
481.84	0.354
482.19	0.098
482.53	1.127
482.88	-0.051
483.23	0.452
483.58	0.347
483.92	0.452
484.27	0.774
484.62	1.084
484.97	1.054
485.31	0.928
485.66	1.065
486.01	1.256
486.36	0.975
486.70	1.070
487.05	1.067
487.40	0.795
487.75	0.887
488.09	0.783
488.44	0.849
488.79	1.032
489.13	0.998
489.48	0.353
489.83	0.509
490.17	1.031
490.52	-0.096
490.87	0.742
491.22	0.888
491.56	0.593
491.91	0.602
492.26	0.255
492.60	0.714
492.95	0.873
493.30	0.470
493.64	0.406
493.99	0.873
494.34	0.608
494.68	0.496
495.03	-0.152
495.37	1.014
495.72	0.422
496.07	0.355
496.41	-0.395
496.76	0.478
497.11	0.246
497.45	0.854
497.80	0.883
498.14	0.739
498.49	0.801
498.84	0.367
499.18	0.363
499.53	0.883
499.87	0.461
500.22	0.104
500.56	0.785
500.91	1.101
501.26	0.315
501.60	0.815
501.95	0.768
502.29	0.616
502.64	0.796
502.98	0.606
503.33	0.300
503.67	0.613
504.02	1.021
504.36	0.462
504.71	0.904
505.06	-0.107
505.40	1.287
505.75	0.948
506.09	0.596
506.44	0.751
506.78	0.428
507.13	0.543
507.47	1.219
507.82	0.000
508.16	0.223
508.51	1.422
508.85	0.659
509.19	0.823
509.54	0.623
509.88	-0.058
510.23	0.730
510.57	0.625
510.92	0.510
511.26	-0.172
511.61	0.913
511.95	0.405
512.30	0.928
512.64	0.821
512.98	1.181
513.33	-0.234
513.67	-0.359
514.02	-0.421
514.36	0.890
514.70	0.729
515.05	0.366
515.39	0.878
515.74	0.376
516.08	0.126
516.42	0.435
516.77	0.683
517.11	0.612
517.46	0.062
517.80	0.574
518.14	1.328
518.49	0.388
518.83	0.713
519.17	1.542
519.52	0.812
519.86	0.380
520.20	0.573
520.55	1.371
520.89	0.742
521.23	1.069
521.58	0.397
521.92	0.668
522.26	0.825
522.61	1.911
522.95	1.096
523.29	0.742
523.64	0.136
523.98	0.269
524.32	1.212
524.66	-0.136
525.01	0.893
525.35	0.274
525.69	0.895
526.04	0.493
526.38	0.822
526.72	0.278
527.06	-0.141
527.41	0.071
527.75	-0.215
528.09	0.566
528.43	0.850
528.78	-0.210
529.12	0.342
529.46	0.864
529.80	0.000
530.15	0.834
530.49	0.418
530.83	0.072
531.17	-0.141
531.51	0.286
531.86	1.821
532.20	0.289
532.54	0.360
532.88	0.436
533.22	0.790
533.57	0.276
533.91	1.032
534.25	0.747
534.59	0.825
534.93	0.873
535.27	0.808
535.62	1.080
535.96	0.628
536.30	0.348
536.64	1.574
536.98	0.811
537.32	1.339
537.66	0.587
538.01	0.442
538.35	0.436
538.69	0.637
539.03	0.360
539.37	0.144
539.71	0.725
540.05	1.375
540.39	1.017
540.73	1.465
541.07	0.074
541.42	1.140
541.76	1.079
542.10	1.148
542.44	1.228
542.78	0.293
543.12	-0.722
543.46	0.075
543.80	0.929
544.14	1.004
544.48	1.404
544.82	0.639
545.16	0.145
545.50	1.019
545.84	1.536
546.18	0.449
546.52	1.230
546.86	0.536
547.20	1.515
547.54	0.303
547.88	0.712
548.22	0.563
548.56	1.198
548.90	0.982
549.24	1.462
549.58	1.490
549.92	1.278
550.26	1.622
550.60	-0.317
550.94	1.111
551.28	0.569
551.62	0.983
551.96	0.479
552.30	-0.155
552.64	0.826
552.98	0.892
553.32	1.212
553.66	0.986
554.00	-0.463
554.34	1.484
554.68	0.797
555.02	0.794
555.36	0.715
555.69	0.615
556.03	1.478
556.37	0.975
556.71	0.754
557.05	-0.156
557.39	-0.161
557.73	1.572
558.07	1.487
558.41	-0.319
558.75	1.328
559.08	0.255
559.42	1.756
559.76	0.168
560.10	0.733
560.44	-0.238
560.78	1.202
561.12	0.451
561.45	0.372
561.79	0.587
562.13	0.964
562.47	-0.076
562.81	0.834
563.15	-0.228
563.48	-0.225
563.82	0.291
564.16	0.508
564.50	1.074
564.84	1.488
565.17	0.644
565.51	0.493
565.85	1.268
566.19	2.088
566.52	0.789
566.86	1.844
567.20	1.131
567.54	0.766
567.88	0.789
568.21	0.938
568.55	1.245
568.89	1.044
569.23	0.502
569.56	1.563
569.90	1.585
570.24	1.340
570.57	1.317
570.91	1.274
571.25	2.066
571.59	1.967
571.92	1.426
572.26	1.574
572.60	1.732
572.93	1.441
573.27	1.363
573.61	1.486
573.95	1.556
574.28	1.186
574.62	1.408
574.96	1.017
575.29	0.929
575.63	1.414
575.97	1.216
576.30	1.359
576.64	1.516
576.98	1.414
577.31	1.727
577.65	1.725
577.98	1.484
578.32	1.352
578.66	1.521
578.99	1.703
579.33	1.611
579.67	2.087
580.00	1.376
580.34	1.525
580.67	1.958
581.01	1.694
581.35	1.481
581.68	1.523
582.02	1.610
582.35	1.568
582.69	1.640
583.02	1.554
583.36	1.649
583.70	1.281
584.03	1.280
584.37	1.770
584.70	1.532
585.04	1.454
585.37	1.636
585.71	1.712
586.04	1.761
586.38	1.308
586.72	1.413
587.05	1.656
587.39	1.436
587.72	1.556
588.06	1.934
588.39	1.548
588.73	1.468
589.06	1.384
589.40	1.901
589.73	1.533
590.07	1.123
590.40	1.384
590.73	1.666
591.07	1.342
591.40	1.096
591.74	1.026
592.07	1.528
592.41	0.984
592.74	1.363
593.08	1.578
593.41	1.268
593.75	1.753
594.08	1.216
594.41	1.281
594.75	1.018
595.08	1.325
595.42	1.465
595.75	1.553
596.09	1.361
596.42	1.099
596.75	1.727
597.09	1.026
597.42	0.892
597.75	1.501
598.09	1.498
598.42	1.088
598.76	1.366
599.09	1.513
599.42	1.338
599.76	1.687
600.09	1.344
600.42	1.094
600.76	1.694
601.09	1.529
601.42	1.691
601.76	1.339
602.09	1.676
602.42	1.911
602.76	1.222
603.09	1.044
603.42	1.661
603.76	1.469
604.09	1.295
604.42	1.503
604.76	0.776
605.09	1.039
605.42	0.995
605.75	1.005
606.09	1.822
606.42	1.050
606.75	1.199
607.09	1.353
607.42	2.065
607.75	0.689
608.08	1.403
608.42	1.115
608.75	0.450
609.08	1.060
609.41	1.659
609.75	1.001
610.08	0.672
610.41	1.527
610.74	0.961
611.07	1.163
611.41	0.964
611.74	1.360
612.07	0.837
612.40	1.560
612.73	0.579
613.07	0.822
613.40	0.805
613.73	0.687
614.06	0.995
614.39	1.465
614.72	0.708
615.06	1.550
615.39	1.501
615.72	0.896
616.05	1.043
616.38	0.652
616.71	1.119
617.05	0.565
617.38	1.742
617.71	0.980
618.04	1.051
618.37	0.392
618.70	1.223
619.03	1.450
619.36	1.105
619.69	1.011
620.03	0.381
620.36	0.529
620.69	0.370
621.02	1.108
621.35	0.766
621.68	0.810
622.01	-0.624
622.34	-0.251
622.67	0.000
623.00	1.065
623.33	1.339
623.66	0.478
623.99	0.319
624.32	0.397
624.65	0.625
624.99	1.094
625.32	0.790
625.65	0.160
625.98	1.750
626.31	0.433
626.64	0.000
626.97	0.735
627.30	0.463
627.63	-0.279
627.96	-0.093
628.29	0.765
628.62	0.206
628.95	-0.211
629.28	-0.207
629.61	0.731
629.94	1.349
630.26	0.418
630.59	1.466
630.92	-0.211
631.25	0.000
631.58	0.116
631.91	0.342
632.24	-1.065
632.57	0.713
632.90	1.476
633.23	0.000
633.56	-0.377
633.89	-0.792
634.22	0.000
634.55	-0.788
634.88	-0.134
635.20	1.507
635.53	-0.140
635.86	0.951
636.19	-1.091
636.52	0.404
636.85	-1.173
637.18	2.591
637.51	-1.491
637.83	-0.698
638.16	0.711
638.49	0.144
638.82	-0.422
639.15	-0.429
639.48	0.146
639.81	-1.788
640.13	-1.685
640.46	-1.260
640.79	-1.705
641.12	0.000
641.45	0.933
641.77	-2.070
642.10	0.489
642.43	0.505
642.76	-1.613
643.09	-0.692
643.41	-1.075
643.74	1.562
644.07	-2.998
644.40	-1.264
644.73	-1.842
645.05	-1.336
645.38	-2.115
645.71	-1.145
646.04	-0.558
