SpectraSuite Data File
++++++++++++++++++++++++++++++++++++
Date: Tue May 12 19:53:45 PDT 2015
User: schluterlab
Dark Spectrum Present: Yes
Reference Spectrum Present: Yes
Number of Sampled Component Spectra: 1
Spectrometers: USB2E3373
Integration Time (usec): 3000 (USB2E3373)
Spectra Averaged: 3 (USB2E3373)
Boxcar Smoothing: 0 (USB2E3373)
Correct for Electrical Dark: No (USB2E3373)
Strobe/Lamp Enabled: No (USB2E3373)
Correct for Detector Non-linearity: No (USB2E3373)
Correct for Stray Light: No (USB2E3373)
Number of Pixels in Processed Spectrum: 2048
>>>>>Begin Processed Spectral Data<<<<<
178.53	0.000
178.91	-190.000
179.29	-250.000
179.67	700.000
180.04	0.000
180.42	-360.000
180.80	-666.667
181.18	1750.000
181.56	-500.000
181.94	366.667
182.31	3300.000
182.69	-271.429
183.07	0.000
183.45	191.667
183.83	520.000
184.20	266.667
184.58	1450.000
184.96	383.333
185.34	-300.000
185.72	-114.286
186.09	-400.000
186.47	-3000.000
186.85	-180.000
187.23	216.667
187.61	-257.143
187.98	-420.000
188.36	650.000
188.74	-375.000
189.12	-44.444
189.49	-150.000
189.87	600.000
190.25	211.111
190.63	733.333
191.00	520.000
191.38	-433.333
191.76	580.000
192.14	-157.143
192.51	-200.000
192.89	-260.000
193.27	-300.000
193.65	-833.333
194.02	-316.667
194.40	1400.000
194.78	-262.500
195.15	-214.286
195.53	800.000
195.91	440.000
196.29	-475.000
196.66	-433.333
197.04	-257.143
197.42	120.000
197.79	-287.500
198.17	-116.667
198.55	-700.000
198.92	-222.222
199.30	1200.000
199.68	-400.000
200.05	-950.000
200.43	-83.333
200.81	-208.333
201.18	550.000
201.56	-1200.000
201.94	-2100.000
202.31	-133.333
202.69	-122.222
203.07	-125.000
203.44	-375.000
203.82	0.000
204.19	312.500
204.57	-766.667
204.95	236.364
205.32	320.000
205.70	625.000
206.08	-1800.000
206.45	-360.000
206.83	3100.000
207.20	-155.556
207.58	-115.385
207.96	266.667
208.33	766.667
208.71	733.333
209.08	600.000
209.46	-77.778
209.84	700.000
210.21	-700.000
210.59	1150.000
210.96	322.222
211.34	-675.000
211.71	1350.000
212.09	-140.000
212.46	-325.000
212.84	-212.500
213.22	285.714
213.59	-100.000
213.97	0.000
214.34	-600.000
214.72	-2000.000
215.09	1000.000
215.47	-46.667
215.84	-150.000
216.22	-2300.000
216.59	3100.000
216.97	-166.667
217.34	-350.000
217.72	-44.444
218.09	400.000
218.47	-73.684
218.84	-287.500
219.22	-57.143
219.59	-220.000
219.97	-240.000
220.34	333.333
220.72	236.364
221.09	-1350.000
221.47	0.000
221.84	1300.000
222.22	-475.000
222.59	-525.000
222.97	-69.565
223.34	180.000
223.72	485.714
224.09	-133.333
224.46	161.538
224.84	-126.667
225.21	-1000.000
225.59	-550.000
225.96	0.000
226.34	366.667
226.71	250.000
227.08	-84.615
227.46	-271.429
227.83	-83.333
228.21	-800.000
228.58	283.333
228.95	-15.789
229.33	-31.250
229.70	-333.333
230.08	-200.000
230.45	-966.667
230.82	-2500.000
231.20	-23.810
231.57	-400.000
231.95	-633.333
232.32	277.778
232.69	-850.000
233.07	-12.500
233.44	-212.500
233.81	6.452
234.19	-420.000
234.56	-94.444
234.93	-400.000
235.31	-29.630
235.68	-33.333
236.05	-92.308
236.43	-131.579
236.80	-50.000
237.17	-121.429
237.55	-100.000
237.92	-18.605
238.29	-61.290
238.67	-32.143
239.04	-42.857
239.41	-23.529
239.79	2.000
240.16	-37.500
240.53	-10.345
240.91	1.370
241.28	2.817
241.65	-10.938
242.02	-24.561
242.40	-12.000
242.77	4.211
243.14	9.412
243.51	-5.376
243.89	-3.810
244.26	6.481
244.63	-1.020
245.00	-4.464
245.38	-2.521
245.75	-5.932
246.12	3.906
246.49	2.400
246.87	-4.098
247.24	-3.521
247.61	15.232
247.98	1.685
248.36	6.918
248.73	1.705
249.10	11.667
249.47	6.250
249.84	8.122
250.22	6.771
250.59	3.933
250.96	10.000
251.33	9.434
251.70	13.303
252.08	12.987
252.45	9.388
252.82	2.110
253.19	12.451
253.56	12.157
253.94	10.976
254.31	15.827
254.68	12.153
255.05	17.550
255.42	10.909
255.79	15.232
256.16	15.625
256.54	14.848
256.91	16.667
257.28	13.636
257.65	9.180
258.02	13.814
258.39	15.408
258.76	14.067
259.14	14.118
259.51	15.211
259.88	18.156
260.25	12.500
260.62	11.517
260.99	13.649
261.36	14.943
261.73	12.800
262.10	13.624
262.47	14.876
262.85	18.509
263.22	13.978
263.59	17.158
263.96	11.488
264.33	11.860
264.70	14.988
265.07	12.069
265.44	13.349
265.81	15.181
266.18	15.691
266.55	15.952
266.92	14.062
267.29	14.889
267.66	11.136
268.03	14.839
268.40	14.416
268.77	13.808
269.14	14.286
269.51	12.896
269.88	16.026
270.25	15.401
270.62	16.807
270.99	13.684
271.36	15.011
271.73	14.583
272.10	14.108
272.47	12.000
272.84	11.677
273.21	14.196
273.58	13.469
273.95	13.745
274.32	14.894
274.69	12.916
275.06	14.634
275.43	13.600
275.80	14.914
276.17	11.265
276.54	15.209
276.91	15.739
277.28	13.733
277.65	11.909
278.02	14.962
278.39	14.701
278.76	15.829
279.13	15.206
279.50	13.538
279.87	15.094
280.23	11.293
280.60	12.721
280.97	16.344
281.34	14.237
281.71	13.854
282.08	13.953
282.45	11.817
282.82	13.973
283.19	14.983
283.56	16.894
283.92	14.692
284.29	16.751
284.66	14.159
285.03	12.521
285.40	12.000
285.77	15.928
286.14	12.678
286.51	11.576
286.87	14.749
287.24	12.179
287.61	12.809
287.98	15.493
288.35	14.419
288.72	13.150
289.08	11.006
289.45	14.197
289.82	12.267
290.19	13.333
290.56	15.051
290.93	12.703
291.29	12.482
291.66	11.657
292.03	15.208
292.40	13.813
292.77	11.953
293.13	10.426
293.50	12.121
293.87	11.928
294.24	11.376
294.60	13.251
294.97	10.526
295.34	11.370
295.71	10.957
296.08	11.202
296.44	12.780
296.81	10.867
297.18	13.972
297.55	11.558
297.91	11.802
298.28	11.893
298.65	10.737
299.02	13.070
299.38	12.500
299.75	11.969
300.12	12.350
300.48	10.329
300.85	10.880
301.22	11.538
301.59	10.219
301.95	12.683
302.32	10.450
302.69	10.464
303.05	10.980
303.42	11.715
303.79	9.663
304.15	11.665
304.52	11.844
304.89	11.387
305.25	10.665
305.62	10.341
305.99	10.862
306.35	10.403
306.72	11.002
307.09	10.120
307.45	10.680
307.82	10.566
308.19	11.551
308.55	10.549
308.92	11.441
309.29	8.577
309.65	11.765
310.02	11.111
310.38	11.834
310.75	12.090
311.12	12.818
311.48	11.614
311.85	11.145
312.22	13.223
312.58	11.178
312.95	11.191
313.31	11.603
313.68	11.917
314.05	12.115
314.41	11.886
314.78	10.955
315.14	13.320
315.51	13.605
315.87	13.574
316.24	12.957
316.61	13.592
316.97	13.529
317.34	13.684
317.70	13.352
318.07	13.983
318.43	14.556
318.80	13.206
319.16	14.539
319.53	15.094
319.89	14.867
320.26	15.241
320.62	16.085
320.99	16.531
321.35	17.194
321.72	17.273
322.08	17.624
322.45	16.371
322.81	16.847
323.18	17.833
323.54	17.725
323.91	17.647
324.27	17.743
324.64	16.682
325.00	18.835
325.37	19.604
325.73	17.792
326.10	19.615
326.46	20.036
326.83	18.646
327.19	19.301
327.56	21.132
327.92	20.226
328.29	20.341
328.65	21.846
329.01	19.725
329.38	21.028
329.74	21.820
330.11	21.808
330.47	20.764
330.84	20.677
331.20	20.425
331.56	20.660
331.93	21.500
332.29	20.907
332.66	21.790
333.02	22.470
333.38	22.243
333.75	22.873
334.11	22.061
334.48	22.630
334.84	21.972
335.20	20.949
335.57	23.524
335.93	23.256
336.29	22.852
336.66	22.131
337.02	23.119
337.38	21.887
337.75	23.455
338.11	23.519
338.47	22.098
338.84	22.468
339.20	22.456
339.56	21.342
339.93	23.063
340.29	24.025
340.65	23.196
341.02	22.675
341.38	23.213
341.74	22.687
342.11	23.696
342.47	23.776
342.83	23.417
343.20	23.607
343.56	23.689
343.92	25.197
344.28	21.784
344.65	23.801
345.01	24.913
345.37	23.932
345.73	23.686
346.10	23.768
346.46	23.555
346.82	24.299
347.19	24.054
347.55	24.405
347.91	23.505
348.27	23.505
348.63	24.201
349.00	25.710
349.36	24.485
349.72	24.959
350.08	24.632
350.45	23.434
350.81	23.947
351.17	23.970
351.53	24.396
351.89	24.180
352.26	23.740
352.62	24.039
352.98	24.603
353.34	24.060
353.70	23.292
354.07	25.700
354.43	24.374
354.79	24.672
355.15	25.908
355.51	25.265
355.87	25.812
356.24	24.918
356.60	25.209
356.96	24.566
357.32	24.938
357.68	25.139
358.04	25.041
358.40	24.795
358.77	24.739
359.13	25.301
359.49	24.240
359.85	25.659
360.21	24.584
360.57	25.518
360.93	25.099
361.29	25.000
361.66	25.000
362.02	25.196
362.38	26.030
362.74	25.749
363.10	24.962
363.46	24.831
363.82	25.191
364.18	25.662
364.54	25.038
364.90	25.333
365.26	25.261
365.62	26.041
365.98	25.637
366.35	25.794
366.71	26.214
367.07	25.756
367.43	25.704
367.79	26.090
368.15	25.574
368.51	26.067
368.87	26.358
369.23	25.435
369.59	26.765
369.95	24.963
370.31	26.818
370.67	26.165
371.03	25.697
371.39	27.115
371.75	26.449
372.11	25.926
372.47	26.206
372.83	26.954
373.19	26.205
373.55	26.497
373.91	27.727
374.27	28.624
374.63	26.141
374.99	25.842
375.35	25.762
375.71	27.116
376.07	26.502
376.42	25.588
376.78	26.063
377.14	27.165
377.50	26.334
377.86	26.462
378.22	26.618
378.58	26.908
378.94	24.885
379.30	26.641
379.66	26.825
380.02	27.336
380.38	26.272
380.74	27.222
381.09	26.811
381.45	27.810
381.81	27.360
382.17	27.557
382.53	27.876
382.89	26.620
383.25	27.013
383.61	27.972
383.97	28.460
384.32	27.548
384.68	27.842
385.04	26.798
385.40	26.901
385.76	27.767
386.12	27.921
386.48	26.484
386.83	27.584
387.19	27.586
387.55	27.008
387.91	26.978
388.27	27.511
388.62	26.554
388.98	27.354
389.34	25.634
389.70	27.564
390.06	27.327
390.42	27.383
390.77	27.163
391.13	28.627
391.49	27.695
391.85	27.412
392.20	28.317
392.56	26.523
392.92	27.458
393.28	27.588
393.64	27.359
393.99	27.403
394.35	27.839
394.71	27.152
395.07	26.658
395.42	26.540
395.78	27.688
396.14	27.915
396.50	27.038
396.85	27.561
397.21	26.649
397.57	27.781
397.92	26.908
398.28	27.458
398.64	26.667
399.00	27.568
399.35	27.491
399.71	27.425
400.07	27.980
400.42	27.308
400.78	26.615
401.14	26.705
401.49	27.858
401.85	26.921
402.21	28.046
402.57	27.044
402.92	27.224
403.28	27.048
403.63	27.308
403.99	26.156
404.35	26.815
404.70	25.966
405.06	27.030
405.42	26.936
405.77	26.100
406.13	26.464
406.49	26.246
406.84	27.210
407.20	26.084
407.55	27.054
407.91	25.944
408.27	26.596
408.62	25.981
408.98	27.091
409.34	25.544
409.69	25.886
410.05	26.360
410.40	25.498
410.76	27.709
411.11	26.050
411.47	25.714
411.83	25.499
412.18	25.851
412.54	26.003
412.89	24.935
413.25	26.959
413.60	25.893
413.96	25.113
414.31	24.729
414.67	25.726
415.03	25.657
415.38	25.696
415.74	26.125
416.09	25.293
416.45	24.770
416.80	24.757
417.16	26.516
417.51	26.162
417.87	26.129
418.22	24.265
418.58	25.432
418.93	24.565
419.29	25.034
419.64	27.335
420.00	24.820
420.35	24.922
420.71	24.904
421.06	24.140
421.42	25.345
421.77	24.848
422.12	24.749
422.48	25.757
422.83	25.350
423.19	25.118
423.54	25.718
423.90	24.784
424.25	24.834
424.61	24.452
424.96	24.386
425.31	24.758
425.67	24.000
426.02	24.037
426.38	23.938
426.73	24.237
427.09	24.228
427.44	24.877
427.79	24.319
428.15	23.526
428.50	23.932
428.85	23.477
429.21	24.567
429.56	23.094
429.92	23.256
430.27	23.413
430.62	23.905
430.98	24.395
431.33	24.360
431.68	23.796
432.04	24.166
432.39	23.827
432.74	23.276
433.10	23.469
433.45	22.736
433.80	23.393
434.16	23.648
434.51	24.192
434.86	23.323
435.22	23.283
435.57	24.604
435.92	22.291
436.28	22.976
436.63	23.017
436.98	22.469
437.34	23.033
437.69	23.827
438.04	21.394
438.39	23.499
438.75	22.462
439.10	23.690
439.45	23.620
439.81	22.730
440.16	22.758
440.51	22.615
440.86	22.601
441.22	21.858
441.57	21.937
441.92	21.977
442.27	22.800
442.63	22.460
442.98	23.472
443.33	22.973
443.68	22.074
444.03	21.753
444.39	21.447
444.74	21.866
445.09	22.314
445.44	22.216
445.79	22.438
446.15	21.516
446.50	22.961
446.85	22.002
447.20	21.554
447.55	21.990
447.91	22.457
448.26	21.840
448.61	21.571
448.96	22.117
449.31	21.579
449.66	21.308
450.02	20.592
450.37	21.750
450.72	20.527
451.07	20.897
451.42	22.134
451.77	19.987
452.12	20.865
452.47	20.935
452.83	21.295
453.18	21.337
453.53	21.424
453.88	21.634
454.23	20.575
454.58	20.366
454.93	19.823
455.28	20.434
455.63	20.728
455.98	21.129
456.34	20.295
456.69	19.838
457.04	20.997
457.39	20.787
457.74	20.101
458.09	20.971
458.44	21.030
458.79	20.082
459.14	20.215
459.49	19.490
459.84	20.571
460.19	20.388
460.54	19.823
460.89	19.765
461.24	21.104
461.59	21.451
461.94	20.907
462.29	19.674
462.64	20.125
462.99	20.885
463.34	19.853
463.69	20.096
464.04	19.051
464.39	20.257
464.74	19.208
465.09	20.129
465.44	20.036
465.79	19.434
466.14	19.272
466.49	20.107
466.84	20.762
467.19	18.843
467.54	18.103
467.89	19.399
468.24	19.192
468.59	18.914
468.94	19.099
469.29	18.547
469.64	19.402
469.99	19.611
470.34	18.105
470.68	18.538
471.03	19.197
471.38	18.474
471.73	19.041
472.08	18.505
472.43	18.672
472.78	17.984
473.13	19.930
473.48	19.364
473.83	19.617
474.17	18.212
474.52	19.156
474.87	19.255
475.22	19.250
475.57	18.566
475.92	18.192
476.27	18.324
476.61	18.144
476.96	18.554
477.31	18.779
477.66	18.478
478.01	18.893
478.36	18.510
478.70	18.930
479.05	17.586
479.40	17.358
479.75	18.284
480.10	18.128
480.45	18.429
480.79	17.955
481.14	18.345
481.49	17.789
481.84	18.283
482.19	17.854
482.53	18.186
482.88	18.251
483.23	17.538
483.58	17.426
483.92	17.940
484.27	17.522
484.62	18.058
484.97	17.750
485.31	17.904
485.66	17.337
486.01	17.415
486.36	17.772
486.70	17.863
487.05	17.938
487.40	17.409
487.75	17.607
488.09	17.011
488.44	16.867
488.79	17.431
489.13	17.041
489.48	17.005
489.83	17.614
490.17	17.300
490.52	16.491
490.87	17.656
491.22	17.357
491.56	17.243
491.91	16.867
492.26	17.542
492.60	17.857
492.95	17.710
493.30	16.989
493.64	17.596
493.99	17.197
494.34	17.892
494.68	15.956
495.03	16.988
495.37	17.385
495.72	17.194
496.07	17.343
496.41	16.403
496.76	17.096
497.11	17.873
497.45	17.278
497.80	16.822
498.14	15.945
498.49	16.284
498.84	15.985
499.18	16.762
499.53	17.186
499.87	16.385
500.22	16.727
500.56	16.693
500.91	16.938
501.26	16.430
501.60	16.718
501.95	16.633
502.29	17.034
502.64	16.327
502.98	15.346
503.33	16.076
503.67	16.947
504.02	16.037
504.36	16.795
504.71	16.489
505.06	17.140
505.40	16.783
505.75	16.746
506.09	16.414
506.44	17.221
506.78	16.649
507.13	16.938
507.47	16.787
507.82	15.792
508.16	16.036
508.51	17.560
508.85	16.648
509.19	16.840
509.54	16.941
509.88	16.226
510.23	16.404
510.57	16.184
510.92	16.893
511.26	16.370
511.61	16.438
511.95	15.500
512.30	16.232
512.64	16.364
512.98	16.893
513.33	16.061
513.67	15.689
514.02	16.346
514.36	15.836
514.70	16.333
515.05	16.646
515.39	16.060
515.74	16.353
516.08	15.945
516.42	16.656
516.77	17.205
517.11	16.514
517.46	16.490
517.80	16.656
518.14	17.710
518.49	16.688
518.83	16.991
519.17	16.452
519.52	17.489
519.86	16.973
520.20	16.561
520.55	17.167
520.89	17.409
521.23	16.299
521.58	17.394
521.92	16.489
522.26	16.495
522.61	16.724
522.95	16.370
523.29	15.317
523.64	15.672
523.98	17.406
524.32	17.172
524.66	16.451
525.01	16.907
525.35	16.689
525.69	16.449
526.04	16.984
526.38	17.066
526.72	16.389
527.06	16.174
527.41	16.159
527.75	17.085
528.09	15.912
528.43	16.442
528.78	16.073
529.12	16.644
529.46	16.744
529.80	16.338
530.15	16.817
530.49	17.155
530.83	15.835
531.17	16.384
531.51	16.631
531.86	17.437
532.20	15.729
532.54	16.906
532.88	16.509
533.22	17.816
533.57	16.483
533.91	17.412
534.25	16.158
534.59	16.437
534.93	16.118
535.27	16.094
535.62	16.205
535.96	15.980
536.30	16.214
536.64	15.808
536.98	16.888
537.32	16.220
537.66	16.129
538.01	16.421
538.35	15.855
538.69	16.348
539.03	16.583
539.37	16.583
539.71	16.304
540.05	15.630
540.39	16.558
540.73	16.484
541.07	17.721
541.42	16.180
541.76	15.468
542.10	16.858
542.44	17.630
542.78	15.469
543.12	15.596
543.46	16.021
543.80	16.583
544.14	15.771
544.48	16.561
544.82	15.401
545.16	15.000
545.50	16.012
545.84	16.971
546.18	16.404
546.52	15.757
546.86	15.149
547.20	16.061
547.54	16.603
547.88	16.880
548.22	15.963
548.56	15.856
548.90	15.579
549.24	16.740
549.58	15.648
549.92	16.692
550.26	15.907
550.60	16.098
550.94	15.476
551.28	15.772
551.62	16.871
551.96	15.575
552.30	16.202
552.64	17.130
552.98	16.568
553.32	16.136
553.66	16.085
554.00	15.521
554.34	16.016
554.68	16.906
555.02	15.952
555.36	15.091
555.69	14.835
556.03	15.965
556.37	15.079
556.71	16.214
557.05	14.922
557.39	15.904
557.73	15.723
558.07	17.058
558.41	15.403
558.75	16.349
559.08	17.021
559.42	14.214
559.76	14.743
560.10	15.811
560.44	15.756
560.78	15.552
561.12	15.252
561.45	15.848
561.79	15.125
562.13	16.457
562.47	14.526
562.81	15.087
563.15	14.829
563.48	15.206
563.82	15.211
564.16	14.659
564.50	16.261
564.84	16.442
565.17	16.524
565.51	16.186
565.85	16.056
566.19	15.449
566.52	16.129
566.86	16.598
567.20	15.968
567.54	14.040
567.88	15.352
568.21	15.533
568.55	14.941
568.89	15.275
569.23	15.361
569.56	15.678
569.90	14.690
570.24	15.169
570.57	14.898
570.91	15.320
571.25	15.393
571.59	15.311
571.92	14.884
572.26	14.471
572.60	14.785
572.93	14.833
573.27	14.471
573.61	14.608
573.95	15.134
574.28	14.566
574.62	14.763
574.96	14.211
575.29	14.430
575.63	14.278
575.97	14.590
576.30	15.095
576.64	14.829
576.98	13.950
577.31	14.478
577.65	14.762
577.98	14.379
578.32	14.611
578.66	14.399
578.99	14.995
579.33	14.293
579.67	14.632
580.00	14.097
580.34	14.337
580.67	14.496
581.01	14.496
581.35	14.340
581.68	14.383
582.02	14.697
582.35	14.531
582.69	14.585
583.02	14.350
583.36	14.467
583.70	14.461
584.03	14.051
584.37	14.273
584.70	14.270
585.04	13.540
585.37	14.337
585.71	14.300
586.04	14.241
586.38	14.601
586.72	14.424
587.05	14.345
587.39	14.269
587.72	14.365
588.06	14.774
588.39	14.344
588.73	14.272
589.06	14.333
589.40	14.748
589.73	14.734
590.07	14.402
590.40	14.670
590.73	14.161
591.07	14.632
591.40	14.664
591.74	13.806
592.07	14.088
592.41	14.480
592.74	14.913
593.08	14.313
593.41	14.673
593.75	14.931
594.08	14.802
594.41	14.695
594.75	14.565
595.08	14.336
595.42	14.345
595.75	14.545
596.09	14.692
596.42	13.996
596.75	14.818
597.09	14.226
597.42	14.125
597.75	14.447
598.09	14.560
598.42	14.955
598.76	14.117
599.09	14.916
599.42	14.398
599.76	14.555
600.09	14.433
600.42	13.633
600.76	13.895
601.09	14.353
601.42	14.412
601.76	13.961
602.09	13.867
602.42	14.025
602.76	14.136
603.09	14.491
603.42	14.353
603.76	14.520
604.09	14.411
604.42	14.556
604.76	13.327
605.09	14.029
605.42	14.976
605.75	13.979
606.09	14.444
606.42	14.567
606.75	14.254
607.09	14.272
607.42	14.823
607.75	13.912
608.08	14.359
608.42	14.452
608.75	14.407
609.08	13.680
609.41	14.101
609.75	14.692
610.08	13.850
610.41	14.097
610.74	14.661
611.07	13.802
611.41	13.919
611.74	14.799
612.07	13.951
612.40	14.763
612.73	14.236
613.07	14.034
613.40	14.491
613.73	13.803
614.06	13.466
614.39	14.938
614.72	14.404
615.06	15.098
615.39	14.088
615.72	13.774
616.05	14.029
616.38	13.760
616.71	13.744
617.05	14.070
617.38	14.645
617.71	14.304
618.04	14.455
618.37	14.716
618.70	15.014
619.03	15.011
619.36	14.875
619.69	13.530
620.03	14.416
620.36	14.739
620.69	14.339
621.02	13.777
621.35	14.638
621.68	14.491
622.01	14.171
622.34	14.657
622.67	14.671
623.00	14.660
623.33	15.276
623.66	14.422
623.99	14.195
624.32	15.488
624.65	14.141
624.99	13.906
625.32	14.376
625.65	13.050
625.98	15.667
626.31	13.333
626.64	14.775
626.97	15.717
627.30	13.796
627.63	14.326
627.96	14.804
628.29	14.340
628.62	14.845
628.95	14.044
629.28	14.360
629.61	13.689
629.94	15.353
630.26	14.958
630.59	15.288
630.92	12.856
631.25	16.089
