SpectraSuite Data File
++++++++++++++++++++++++++++++++++++
Date: Tue May 12 19:56:11 PDT 2015
User: schluterlab
Dark Spectrum Present: Yes
Reference Spectrum Present: Yes
Number of Sampled Component Spectra: 1
Spectrometers: USB2E3373
Integration Time (usec): 3000 (USB2E3373)
Spectra Averaged: 3 (USB2E3373)
Boxcar Smoothing: 0 (USB2E3373)
Correct for Electrical Dark: No (USB2E3373)
Strobe/Lamp Enabled: No (USB2E3373)
Correct for Detector Non-linearity: No (USB2E3373)
Correct for Stray Light: No (USB2E3373)
Number of Pixels in Processed Spectrum: 2048
>>>>>Begin Processed Spectral Data<<<<<
178.53	0.000
178.91	-180.000
179.29	-316.667
179.67	566.667
180.04	0.000
180.42	-260.000
180.80	-633.333
181.18	900.000
181.56	-450.000
181.94	316.667
182.31	2600.000
182.69	-271.429
183.07	0.000
183.45	250.000
183.83	420.000
184.20	366.667
184.58	1350.000
184.96	416.667
185.34	-566.667
185.72	-107.143
186.09	-350.000
186.47	-1700.000
186.85	-280.000
187.23	241.667
187.61	-328.571
187.98	-520.000
188.36	1000.000
188.74	-275.000
189.12	-166.667
189.49	-110.000
189.87	625.000
190.25	288.889
190.63	733.333
191.00	260.000
191.38	-400.000
191.76	420.000
192.14	-128.571
192.51	-230.000
192.89	-420.000
193.27	-460.000
193.65	-600.000
194.02	-183.333
194.40	1600.000
194.78	-87.500
195.15	-200.000
195.53	866.667
195.91	440.000
196.29	-575.000
196.66	-366.667
197.04	-242.857
197.42	280.000
197.79	-125.000
198.17	-58.333
198.55	-100.000
198.92	-100.000
199.30	950.000
199.68	-175.000
200.05	-1200.000
200.43	-77.778
200.81	-191.667
201.18	583.333
201.56	-1500.000
201.94	-1800.000
202.31	-175.000
202.69	-88.889
203.07	-183.333
203.44	-525.000
203.82	0.000
204.19	437.500
204.57	-633.333
204.95	209.091
205.32	520.000
205.70	300.000
206.08	-1100.000
206.45	-280.000
206.83	1800.000
207.20	-166.667
207.58	-146.154
207.96	500.000
208.33	933.333
208.71	433.333
209.08	950.000
209.46	-133.333
209.84	833.333
210.21	-733.333
210.59	1150.000
210.96	311.111
211.34	-425.000
211.71	1100.000
212.09	-80.000
212.46	-225.000
212.84	-387.500
213.22	128.571
213.59	-162.500
213.97	0.000
214.34	-850.000
214.72	-1400.000
215.09	750.000
215.47	-106.667
215.84	-187.500
216.22	-1700.000
216.59	1900.000
216.97	-83.333
217.34	-233.333
217.72	5.556
218.09	600.000
218.47	-89.474
218.84	-275.000
219.22	-71.429
219.59	-250.000
219.97	-170.000
220.34	283.333
220.72	209.091
221.09	-850.000
221.47	0.000
221.84	650.000
222.22	-475.000
222.59	-575.000
222.97	-39.130
223.34	153.333
223.72	357.143
224.09	-466.667
224.46	207.692
224.84	-100.000
225.21	-150.000
225.59	-650.000
225.96	-15.000
226.34	316.667
226.71	310.000
227.08	-115.385
227.46	-200.000
227.83	-150.000
228.21	-1550.000
228.58	500.000
228.95	-73.684
229.33	-62.500
229.70	-350.000
230.08	-133.333
230.45	-700.000
230.82	-1300.000
231.20	-61.905
231.57	-380.000
231.95	-733.333
232.32	288.889
232.69	-950.000
233.07	12.500
233.44	-87.500
233.81	-6.452
234.19	-420.000
234.56	-83.333
234.93	-200.000
235.31	-33.333
235.68	-22.222
236.05	-53.846
236.43	-105.263
236.80	-90.909
237.17	-200.000
237.55	-55.000
237.92	-16.279
238.29	-16.129
238.67	-17.857
239.04	-22.857
239.41	-7.843
239.79	-16.000
240.16	-20.000
240.53	-13.793
240.91	2.740
241.28	-7.042
241.65	-12.500
242.02	-19.298
242.40	-21.333
242.77	2.105
243.14	16.471
243.51	10.753
243.89	0.952
244.26	8.333
244.63	13.265
245.00	-1.786
245.38	-8.403
245.75	3.390
246.12	10.156
246.49	7.200
246.87	4.098
247.24	-6.338
247.61	7.947
247.98	15.730
248.36	12.579
248.73	12.500
249.10	12.778
249.47	10.417
249.84	6.091
250.22	7.812
250.59	9.551
250.96	14.545
251.33	17.453
251.70	8.257
252.08	17.316
252.45	8.980
252.82	11.814
253.19	12.840
253.56	18.824
253.94	13.821
254.31	19.424
254.68	13.542
255.05	19.205
255.42	18.182
255.79	16.887
256.16	14.236
256.54	17.879
256.91	19.872
257.28	15.584
257.65	13.770
258.02	17.117
258.39	18.429
258.76	12.232
259.14	15.000
259.51	15.493
259.88	20.173
260.25	16.477
260.62	17.978
260.99	15.599
261.36	15.805
261.73	18.400
262.10	15.259
262.47	16.253
262.85	17.481
263.22	17.473
263.59	17.962
263.96	17.493
264.33	12.938
264.70	16.462
265.07	15.025
265.44	19.906
265.81	20.723
266.18	17.564
266.55	16.667
266.92	20.089
267.29	16.889
267.66	13.409
268.03	19.570
268.40	17.162
268.77	14.699
269.14	17.857
269.51	16.290
269.88	19.872
270.25	16.456
270.62	18.487
270.99	19.579
271.36	15.894
271.73	20.417
272.10	18.672
272.47	16.200
272.84	15.074
273.21	16.075
273.58	15.918
273.95	18.725
274.32	17.795
274.69	17.417
275.06	17.073
275.43	17.000
275.80	18.164
276.17	16.206
276.54	18.441
276.91	18.426
277.28	17.408
277.65	14.745
278.02	16.667
278.39	19.238
278.76	18.063
279.13	20.036
279.50	19.314
279.87	17.358
280.23	17.304
280.60	16.254
280.97	19.332
281.34	17.966
281.71	15.098
282.08	18.068
282.45	17.813
282.82	17.845
283.19	17.340
283.56	20.137
283.92	18.799
284.29	17.597
284.66	16.991
285.03	15.437
285.40	16.667
285.77	18.062
286.14	17.274
286.51	16.399
286.87	18.314
287.24	16.987
287.61	14.352
287.98	18.466
288.35	17.054
288.72	17.890
289.08	15.881
289.45	16.225
289.82	15.217
290.19	15.303
290.56	16.787
290.93	16.544
291.29	16.170
291.66	16.011
292.03	16.356
292.40	15.683
292.77	14.869
293.13	15.712
293.50	14.601
293.87	15.118
294.24	15.449
294.60	14.208
294.97	12.188
295.34	13.973
295.71	14.840
296.08	15.164
296.44	14.229
296.81	13.972
297.18	14.101
297.55	13.819
297.91	17.005
298.28	14.450
298.65	12.807
299.02	13.564
299.38	13.138
299.75	14.672
300.12	15.108
300.48	12.441
300.85	13.570
301.22	14.663
301.59	13.869
301.95	14.878
302.32	14.702
302.69	12.842
303.05	13.459
303.42	12.560
303.79	12.921
304.15	13.364
304.52	12.961
304.89	12.627
305.25	13.188
305.62	13.523
305.99	12.654
306.35	13.199
306.72	13.399
307.09	12.622
307.45	12.406
307.82	13.554
308.19	13.311
308.55	14.346
308.92	12.606
309.29	13.180
309.65	12.590
310.02	13.836
310.38	13.326
310.75	12.910
311.12	12.614
311.48	13.875
311.85	12.361
312.22	13.326
312.58	13.595
312.95	13.142
313.31	12.586
313.68	14.002
314.05	14.399
314.41	13.360
314.78	13.065
315.14	13.516
315.51	14.399
315.87	14.648
316.24	14.342
316.61	14.369
316.97	14.706
317.34	15.789
317.70	14.659
318.07	15.043
318.43	15.312
318.80	16.120
319.16	13.979
319.53	16.226
319.89	16.383
320.26	15.929
320.62	16.667
320.99	18.061
321.35	17.984
321.72	17.677
322.08	18.416
322.45	17.258
322.81	18.325
323.18	19.463
323.54	19.810
323.91	18.975
324.27	19.865
324.64	20.431
325.00	21.383
325.37	22.662
325.73	21.989
326.10	21.891
326.46	22.393
326.83	22.955
327.19	23.930
327.56	25.111
327.92	24.219
328.29	24.552
328.65	26.083
329.01	26.239
329.38	25.436
329.74	25.720
330.11	26.375
330.47	27.188
330.84	26.692
331.20	27.449
331.56	26.226
331.93	27.264
332.29	26.642
332.66	27.848
333.02	27.669
333.38	28.860
333.75	29.003
334.11	26.311
334.48	26.834
334.84	27.606
335.20	26.768
335.57	28.792
335.93	29.209
336.29	27.057
336.66	29.144
337.02	28.649
337.38	29.245
337.75	28.727
338.11	28.806
338.47	29.062
338.84	29.926
339.20	29.239
339.56	28.052
339.93	28.649
340.29	30.372
340.65	28.584
341.02	27.369
341.38	28.685
341.74	28.292
342.11	29.355
342.47	27.185
342.83	28.361
343.20	29.531
343.56	29.895
343.92	28.609
344.28	26.587
344.65	28.938
345.01	27.875
345.37	28.889
345.73	27.993
346.10	27.917
346.46	26.920
346.82	29.142
347.19	27.923
347.55	29.337
347.91	27.109
348.27	29.318
348.63	28.436
349.00	28.881
349.36	28.524
349.72	28.407
350.08	27.414
350.45	28.723
350.81	28.489
351.17	27.595
351.53	28.100
351.89	27.720
352.26	27.073
352.62	27.800
352.98	28.619
353.34	27.903
353.70	27.160
354.07	29.242
354.43	28.881
354.79	27.213
355.15	27.361
355.51	28.036
355.87	27.893
356.24	28.431
356.60	28.297
356.96	26.382
357.32	28.230
357.68	27.765
358.04	27.958
358.40	27.660
358.77	27.470
359.13	28.112
359.49	27.360
359.85	27.898
360.21	28.152
360.57	28.150
360.93	29.058
361.29	28.660
361.66	27.918
362.02	27.473
362.38	28.671
362.74	26.979
363.10	26.998
363.46	27.690
363.82	27.642
364.18	27.101
364.54	27.328
364.90	27.630
365.26	28.689
365.62	27.328
365.98	28.186
366.35	27.534
366.71	28.678
367.07	27.306
367.43	27.076
367.79	26.526
368.15	27.131
368.51	27.640
368.87	27.753
369.23	29.372
369.59	27.647
369.95	26.826
370.31	25.758
370.67	28.120
371.03	27.012
371.39	29.079
371.75	27.415
372.11	27.481
372.47	26.355
372.83	27.831
373.19	28.991
373.55	27.395
373.91	27.727
374.27	28.330
374.63	27.172
374.99	27.379
375.35	26.923
375.71	27.044
376.07	27.208
376.42	28.147
376.78	27.178
377.14	27.514
377.50	27.428
377.86	27.228
378.22	27.015
378.58	27.763
378.94	28.094
379.30	28.121
379.66	27.465
380.02	27.146
380.38	27.799
380.74	27.781
381.09	27.573
381.45	28.063
381.81	27.615
382.17	28.208
382.53	27.548
382.89	27.453
383.25	27.711
383.61	26.764
383.97	27.810
384.32	26.710
384.68	26.756
385.04	26.862
385.40	26.709
385.76	28.147
386.12	27.591
386.48	27.136
386.83	27.518
387.19	26.692
387.55	26.878
387.91	27.040
388.27	26.807
388.62	26.813
388.98	27.799
389.34	26.350
389.70	27.628
390.06	27.459
390.42	26.910
390.77	27.700
391.13	27.066
391.49	27.628
391.85	27.079
392.20	27.987
392.56	24.951
392.92	27.211
393.28	26.511
393.64	27.106
393.99	26.364
394.35	26.671
394.71	26.755
395.07	27.387
395.42	26.603
395.78	25.874
396.14	26.116
396.50	26.908
396.85	27.495
397.21	26.908
397.57	26.860
397.92	26.781
398.28	26.439
398.64	26.921
399.00	26.756
399.35	27.784
399.71	26.766
400.07	26.992
400.42	26.731
400.78	26.807
401.14	27.146
401.49	25.984
401.85	26.413
402.21	26.904
402.57	25.950
402.92	26.627
403.28	26.788
403.63	27.436
403.99	26.024
404.35	24.968
404.70	25.966
405.06	26.844
405.42	26.480
405.77	26.159
406.13	26.225
406.49	25.994
406.84	26.712
407.20	25.527
407.55	26.921
407.91	25.734
408.27	25.931
408.62	25.466
408.98	26.062
409.34	25.608
409.69	25.552
410.05	26.425
410.40	25.434
410.76	25.405
411.11	25.856
411.47	27.891
411.83	25.563
412.18	25.982
412.54	25.938
412.89	25.324
413.25	26.082
413.60	25.829
413.96	25.696
414.31	25.303
414.67	27.211
415.03	25.726
415.38	26.462
415.74	26.125
416.09	25.569
416.45	25.478
416.80	25.730
417.16	25.247
417.51	26.509
417.87	27.291
418.22	27.273
418.58	27.021
418.93	25.532
419.29	26.255
419.64	27.060
420.00	26.850
420.35	26.428
420.71	25.352
421.06	25.827
421.42	25.596
421.77	26.918
422.12	26.226
422.48	25.814
422.83	26.383
423.19	26.176
423.54	26.023
423.90	25.958
424.25	27.734
424.61	26.258
424.96	26.904
425.31	26.932
425.67	26.182
426.02	25.776
426.38	25.483
426.73	26.604
427.09	25.804
427.44	25.556
427.79	26.547
428.15	25.999
428.50	26.131
428.85	26.620
429.21	27.436
429.56	26.298
429.92	25.527
430.27	25.760
430.62	25.149
430.98	25.148
431.33	25.973
431.68	26.751
432.04	26.410
432.39	25.787
432.74	25.933
433.10	26.076
433.45	26.599
433.80	26.726
434.16	26.352
434.51	26.421
434.86	26.284
435.22	26.950
435.57	27.639
435.92	25.077
436.28	26.588
436.63	27.013
436.98	26.296
437.34	28.087
437.69	26.605
438.04	26.683
438.39	26.567
438.75	26.523
439.10	27.440
439.45	27.728
439.81	26.032
440.16	26.592
440.51	26.704
440.86	26.768
441.22	26.504
441.57	26.838
441.92	27.775
442.27	27.829
442.63	27.765
442.98	27.995
443.33	27.086
443.68	25.901
444.03	26.031
444.39	26.705
444.74	27.018
445.09	27.332
445.44	26.939
445.79	27.508
446.15	26.822
446.50	27.241
446.85	27.833
447.20	27.462
447.55	26.876
447.91	27.748
448.26	27.478
448.61	27.492
448.96	27.558
449.31	26.582
449.66	27.179
450.02	27.041
450.37	27.521
450.72	27.469
451.07	27.093
451.42	27.404
451.77	27.049
452.12	27.820
452.47	27.642
452.83	27.709
453.18	28.022
453.53	28.609
453.88	27.186
454.23	27.732
454.58	27.937
454.93	27.180
455.28	27.970
455.63	27.550
455.98	28.490
456.34	28.265
456.69	27.894
457.04	27.297
457.39	27.903
457.74	28.003
458.09	27.691
458.44	29.001
458.79	27.739
459.14	28.444
459.49	28.025
459.84	28.240
460.19	27.830
460.54	26.831
460.89	27.706
461.24	29.416
461.59	29.653
461.94	28.402
462.29	27.256
462.64	28.691
462.99	28.281
463.34	28.132
463.69	28.052
464.04	28.095
464.39	29.389
464.74	28.423
465.09	29.132
465.44	28.254
465.79	28.339
466.14	27.088
466.49	28.495
466.84	28.194
467.19	28.265
467.54	27.918
467.89	28.478
468.24	27.083
468.59	28.272
468.94	28.850
469.29	29.204
469.64	29.103
469.99	27.614
470.34	27.793
470.68	28.077
471.03	27.810
471.38	28.571
471.73	29.070
472.08	29.680
472.43	29.391
472.78	28.644
473.13	28.421
473.48	29.599
473.83	29.458
474.17	28.486
474.52	29.739
474.87	27.778
475.22	28.907
475.57	27.967
475.92	27.118
476.27	28.391
476.61	29.255
476.96	29.698
477.31	29.110
477.66	28.762
478.01	29.370
478.36	28.539
478.70	28.901
479.05	29.019
479.40	28.800
479.75	29.164
480.10	29.113
480.45	29.529
480.79	29.372
481.14	28.782
481.49	29.306
481.84	28.788
482.19	28.390
482.53	28.578
482.88	28.724
483.23	28.643
483.58	29.059
483.92	28.492
484.27	28.800
484.62	29.043
484.97	28.515
485.31	27.456
485.66	27.071
486.01	25.813
486.36	25.953
486.70	26.629
487.05	26.249
487.40	27.027
487.75	26.510
488.09	27.318
488.44	26.945
488.79	28.364
489.13	28.720
489.48	28.622
489.83	29.034
490.17	29.723
490.52	29.063
490.87	30.020
491.22	30.769
491.56	29.101
491.91	28.865
492.26	30.648
492.60	30.510
492.95	29.723
493.30	30.005
493.64	30.274
493.99	30.031
494.34	30.056
494.68	28.741
495.03	28.600
495.37	30.208
495.72	29.905
496.07	29.868
496.41	29.397
496.76	29.799
497.11	29.247
497.45	30.437
497.80	30.530
498.14	29.567
498.49	30.059
498.84	30.136
499.18	29.787
499.53	30.530
499.87	30.261
500.22	29.922
500.56	30.403
500.91	30.676
501.26	29.869
501.60	31.040
501.95	29.836
502.29	29.656
502.64	28.920
502.98	29.531
503.33	29.755
503.67	29.352
504.02	29.877
504.36	30.252
504.71	30.745
505.06	29.138
505.40	30.777
505.75	30.016
506.09	29.686
506.44	29.828
506.78	29.604
507.13	30.130
507.47	30.637
507.82	30.134
508.16	30.568
508.51	30.470
508.85	29.890
509.19	30.773
509.54	30.538
509.88	30.610
510.23	31.292
510.57	30.494
510.92	30.329
511.26	30.557
511.61	30.993
511.95	30.885
512.30	30.145
512.64	30.733
512.98	31.837
513.33	30.891
513.67	30.299
514.02	30.108
514.36	30.486
514.70	31.755
515.05	30.671
515.39	32.622
515.74	31.830
516.08	30.885
516.42	31.759
516.77	31.429
517.11	30.948
517.46	31.980
517.80	32.610
518.14	33.207
518.49	33.700
518.83	31.453
519.17	31.491
519.52	31.793
519.86	31.729
520.20	31.783
520.55	32.898
520.89	33.873
521.23	31.864
521.58	32.474
521.92	32.377
522.26	32.302
522.61	32.833
522.95	32.877
523.29	32.861
523.64	32.564
523.98	32.796
524.32	32.660
524.66	33.175
525.01	33.471
525.35	32.421
525.69	31.452
526.04	33.615
526.38	33.790
526.72	33.542
527.06	33.966
527.41	32.672
527.75	34.171
528.09	32.249
528.43	32.034
528.78	31.726
529.12	32.055
529.46	31.694
529.80	30.973
530.15	32.662
530.49	32.566
530.83	32.393
531.17	32.415
531.51	33.976
531.86	32.003
532.20	30.880
532.54	32.374
532.88	33.018
533.22	32.615
533.57	31.103
533.91	32.691
534.25	32.383
534.59	31.568
534.93	31.162
535.27	31.313
535.62	31.398
535.96	31.752
536.30	31.315
536.64	31.545
536.98	32.448
537.32	31.994
537.66	32.111
538.01	31.591
538.35	30.836
538.69	32.201
539.03	32.084
539.37	31.802
539.71	31.014
540.05	32.634
540.39	31.300
540.73	31.941
541.07	32.647
541.42	32.145
541.76	32.302
542.10	31.707
542.44	31.792
542.78	31.818
543.12	31.408
543.46	31.893
543.80	31.451
544.14	31.254
544.48	30.877
544.82	31.086
545.16	31.884
545.50	33.479
545.84	32.846
546.18	30.936
546.52	34.204
546.86	32.288
547.20	31.439
547.54	31.539
547.88	30.912
548.22	30.239
548.56	31.712
548.90	31.649
549.24	31.067
549.58	32.191
549.92	32.180
550.26	32.973
550.60	31.721
550.94	32.460
551.28	32.927
551.62	33.497
551.96	31.470
552.30	31.705
552.64	31.630
552.98	31.278
553.32	31.439
553.66	31.791
554.00	31.815
554.34	32.422
554.68	31.579
555.02	31.905
555.36	31.374
555.69	31.130
556.03	31.559
556.37	30.308
556.71	31.071
557.05	31.641
557.39	30.843
557.73	31.211
558.07	31.768
558.41	32.243
558.75	33.029
559.08	33.617
559.42	32.860
559.76	31.845
560.10	33.170
560.44	31.275
560.78	31.405
561.12	31.330
561.45	31.696
561.79	29.956
562.13	29.652
562.47	31.881
562.81	30.933
563.15	29.202
563.48	30.262
563.82	30.640
564.16	31.277
564.50	30.516
564.84	31.538
565.17	31.116
565.51	30.683
565.85	31.549
566.19	31.524
566.52	30.323
566.86	30.669
567.20	30.007
567.54	28.781
567.88	28.823
568.21	28.898
568.55	28.523
568.89	28.187
569.23	27.962
569.56	28.046
569.90	26.595
570.24	26.675
570.57	26.524
570.91	25.837
571.25	26.205
571.59	25.148
571.92	25.147
572.26	24.992
572.60	25.433
572.93	25.442
573.27	24.562
573.61	24.358
573.95	24.752
574.28	23.807
574.62	23.970
574.96	23.990
575.29	24.445
575.63	23.859
575.97	24.012
576.30	24.205
576.64	23.870
576.98	24.140
577.31	24.028
577.65	24.059
577.98	23.107
578.32	23.428
578.66	23.043
578.99	23.848
579.33	23.293
579.67	23.970
580.00	23.546
580.34	23.691
580.67	23.754
581.01	23.686
581.35	22.935
581.68	22.346
582.02	22.803
582.35	22.770
582.69	22.648
583.02	22.767
583.36	22.950
583.70	23.483
584.03	24.068
584.37	24.436
584.70	24.170
585.04	23.096
585.37	22.975
585.71	23.112
586.04	23.563
586.38	23.672
586.72	23.344
587.05	23.573
587.39	24.203
587.72	24.118
588.06	23.661
588.39	24.043
588.73	24.391
589.06	23.262
589.40	24.569
589.73	25.019
590.07	24.545
590.40	24.239
590.73	25.281
591.07	25.325
591.40	25.811
591.74	25.373
592.07	26.457
592.41	26.101
592.74	25.565
593.08	24.455
593.41	24.203
593.75	24.671
594.08	23.990
594.41	25.132
594.75	24.550
595.08	24.503
595.42	23.770
595.75	24.470
596.09	24.860
596.42	24.440
596.75	24.818
597.09	25.280
597.42	25.528
597.75	26.173
598.09	24.625
598.42	24.752
598.76	25.683
599.09	24.496
599.42	23.682
599.76	24.362
600.09	24.397
600.42	23.984
600.76	23.749
601.09	24.157
601.42	24.436
601.76	23.742
602.09	25.052
602.42	25.054
602.76	24.825
603.09	25.196
603.42	25.085
603.76	23.794
604.09	24.687
604.42	25.075
604.76	25.331
605.09	24.846
605.42	24.929
605.75	24.806
606.09	24.889
606.42	24.891
606.75	25.000
607.09	25.466
607.42	25.241
607.75	24.518
608.08	24.743
608.42	25.849
608.75	24.912
609.08	24.937
609.41	25.661
609.75	25.487
610.08	24.393
610.41	25.547
610.74	25.632
611.07	26.388
611.41	25.321
611.74	25.952
612.07	25.335
612.40	25.571
612.73	26.157
613.07	26.424
613.40	26.452
613.73	25.945
614.06	25.351
614.39	26.421
614.72	25.915
615.06	26.062
615.39	26.097
615.72	26.260
616.05	25.159
616.38	26.394
616.71	25.746
617.05	26.005
617.38	26.903
617.71	27.302
618.04	27.201
618.37	26.292
618.70	26.019
619.03	28.354
619.36	27.982
619.69	27.683
620.03	28.528
620.36	28.193
620.69	27.494
621.02	28.345
621.35	29.277
621.68	28.173
622.01	29.857
622.34	29.229
622.67	29.342
623.00	29.566
623.33	27.874
623.66	28.048
623.99	27.751
624.32	27.800
624.65	28.203
624.99	28.281
625.32	27.962
625.65	27.542
625.98	28.833
626.31	28.745
626.64	29.640
626.97	29.871
627.30	30.000
627.63	30.233
627.96	29.981
628.29	30.593
628.62	30.722
628.95	30.517
629.28	30.888
629.61	29.781
629.94	31.535
630.26	31.799
630.59	31.518
630.92	31.401
631.25	31.285
