SpectraSuite Data File
++++++++++++++++++++++++++++++++++++
Date: Wed May 13 19:17:10 PDT 2015
User: schluterlab
Dark Spectrum Present: Yes
Reference Spectrum Present: Yes
Number of Sampled Component Spectra: 1
Spectrometers: USB2E3373
Integration Time (usec): 3000 (USB2E3373)
Spectra Averaged: 3 (USB2E3373)
Boxcar Smoothing: 0 (USB2E3373)
Correct for Electrical Dark: No (USB2E3373)
Strobe/Lamp Enabled: No (USB2E3373)
Correct for Detector Non-linearity: No (USB2E3373)
Correct for Stray Light: No (USB2E3373)
Number of Pixels in Processed Spectrum: 2048
>>>>>Begin Processed Spectral Data<<<<<
178.53	0.000
178.91	-1325.000
179.29	-1375.000
179.67	-272.222
180.04	-1450.000
180.42	3000.000
180.80	1320.000
181.18	-1400.000
181.56	785.714
181.94	0.000
182.31	-714.286
182.69	1900.000
183.07	-625.000
183.45	-544.444
183.83	590.909
184.20	-490.000
184.58	2600.000
184.96	5900.000
185.34	-1040.000
185.72	-737.500
186.09	-2300.000
186.47	2900.000
186.85	2900.000
187.23	5900.000
187.61	-1900.000
187.98	1400.000
188.36	645.455
188.74	554.545
189.12	-1060.000
189.49	650.000
189.87	-4200.000
190.25	-1225.000
190.63	435.714
191.00	538.462
191.38	883.333
191.76	-1350.000
192.14	1500.000
192.51	725.000
192.89	983.333
193.27	687.500
193.65	-1475.000
194.02	640.000
194.40	1120.000
194.78	630.000
195.15	525.000
195.53	740.000
195.91	-2700.000
196.29	393.750
196.66	315.789
197.04	-420.000
197.42	0.000
197.79	680.000
198.17	-5000.000
198.55	742.857
198.92	750.000
199.30	980.000
199.68	0.000
200.05	405.556
200.43	728.571
200.81	4500.000
201.18	1966.667
201.56	-1866.667
201.94	588.889
202.31	566.667
202.69	525.000
203.07	630.000
203.44	0.000
203.82	1450.000
204.19	942.857
204.57	464.286
204.95	725.000
205.32	1800.000
205.70	572.727
206.08	442.857
206.45	2800.000
206.83	387.500
207.20	1150.000
207.58	960.000
207.96	316.667
208.33	900.000
208.71	-950.000
209.08	785.714
209.46	744.444
209.84	572.727
210.21	-1400.000
210.59	1350.000
210.96	-575.000
211.34	2650.000
211.71	760.000
212.09	1050.000
212.46	0.000
212.84	1733.333
213.22	1400.000
213.59	-5700.000
213.97	1016.667
214.34	842.857
214.72	700.000
215.09	1280.000
215.47	-2250.000
215.84	-2800.000
216.22	2100.000
216.59	485.714
216.97	1500.000
217.34	500.000
217.72	-816.667
218.09	0.000
218.47	-4800.000
218.84	700.000
219.22	785.714
219.59	1933.333
219.97	-742.857
220.34	1240.000
220.72	-2166.667
221.09	421.429
221.47	1500.000
221.84	-1133.333
222.22	0.000
222.59	1300.000
222.97	-3050.000
223.34	1540.000
223.72	515.385
224.09	1260.000
224.46	2350.000
224.84	-5500.000
225.21	-1180.000
225.59	-5600.000
225.96	740.000
226.34	365.000
226.71	3100.000
227.08	662.500
227.46	630.000
227.83	-1350.000
228.21	-2800.000
228.58	600.000
228.95	-2600.000
229.33	-2300.000
229.70	1933.333
230.08	828.571
230.45	-1080.000
230.82	541.667
231.20	1016.667
231.57	814.286
231.95	541.667
232.32	277.273
232.69	536.364
233.07	814.286
233.44	461.538
233.81	-2000.000
234.19	363.158
234.56	525.000
234.93	458.333
235.31	563.636
235.68	453.846
236.05	407.143
236.43	227.273
236.80	352.632
237.17	6700.000
237.55	357.143
237.92	271.429
238.29	385.714
238.67	238.710
239.04	272.414
239.41	222.222
239.79	171.739
240.16	188.095
240.53	181.818
240.91	147.059
241.28	152.000
241.65	162.000
242.02	146.377
242.40	151.613
242.77	153.333
243.14	126.882
243.51	134.831
243.89	125.882
244.26	125.556
244.63	103.226
245.00	112.766
245.38	122.772
245.75	111.215
246.12	112.844
246.49	107.299
246.87	110.400
247.24	103.077
247.61	105.000
247.98	94.771
248.36	100.676
248.73	102.548
249.10	94.904
249.47	100.000
249.84	93.583
250.22	87.166
250.59	97.041
250.96	89.394
251.33	88.626
251.70	86.634
252.08	85.714
252.45	79.821
252.82	83.043
253.19	88.085
253.56	76.471
253.94	85.062
254.31	74.609
254.68	85.000
255.05	78.967
255.42	87.805
255.79	84.559
256.16	84.116
256.54	76.678
256.91	82.918
257.28	76.978
257.65	76.568
258.02	79.503
258.39	77.603
258.76	78.595
259.14	74.107
259.51	72.948
259.88	73.602
260.25	74.018
260.62	73.699
260.99	78.261
261.36	77.477
261.73	75.072
262.10	77.326
262.47	78.310
262.85	74.652
263.22	70.085
263.59	74.359
263.96	70.879
264.33	68.930
264.70	72.632
265.07	72.890
265.44	71.465
265.81	70.073
266.18	71.357
266.55	71.951
266.92	72.236
267.29	71.528
267.66	70.413
268.03	70.227
268.40	70.561
268.77	69.928
269.14	69.369
269.51	68.623
269.88	71.096
270.25	67.269
270.62	69.888
270.99	68.817
271.36	66.953
271.73	71.963
272.10	68.043
272.47	69.892
272.84	66.667
273.21	64.990
273.58	67.467
273.95	64.361
274.32	61.983
274.69	66.809
275.06	65.157
275.43	64.468
275.80	66.733
276.17	66.599
276.54	69.231
276.91	66.996
277.28	66.406
277.65	66.151
278.02	66.046
278.39	64.844
278.76	63.273
279.13	62.453
279.50	62.942
279.87	64.542
280.23	66.267
280.60	64.603
280.97	62.477
281.34	64.071
281.71	60.909
282.08	65.259
282.45	61.273
282.82	62.167
283.19	60.606
283.56	64.035
283.92	62.775
284.29	61.376
284.66	60.073
285.03	60.217
285.40	61.620
285.77	61.785
286.14	58.895
286.51	61.833
286.87	58.974
287.24	62.541
287.61	59.230
287.98	58.442
288.35	59.113
288.72	57.009
289.08	57.746
289.45	57.990
289.82	56.748
290.19	54.003
290.56	55.436
290.93	54.079
291.29	54.294
291.66	55.310
292.03	53.634
292.40	55.066
292.77	51.923
293.13	52.239
293.50	53.207
293.87	53.333
294.24	52.889
294.60	50.655
294.97	51.890
295.34	51.340
295.71	52.273
296.08	48.860
296.44	51.169
296.81	49.670
297.18	49.051
297.55	47.625
297.91	48.681
298.28	48.327
298.65	49.478
299.02	48.090
299.38	47.278
299.75	45.957
300.12	46.743
300.48	46.125
300.85	43.527
301.22	46.369
301.59	44.444
301.95	46.977
302.32	45.186
302.69	42.891
303.05	45.697
303.42	44.691
303.79	43.715
304.15	42.890
304.52	42.758
304.89	43.786
305.25	41.879
305.62	43.262
305.99	44.628
306.35	43.177
306.72	42.713
307.09	42.730
307.45	42.230
307.82	41.853
308.19	43.267
308.55	42.287
308.92	41.998
309.29	40.549
309.65	41.676
310.02	41.755
310.38	41.613
310.75	42.027
311.12	41.249
311.48	41.693
311.85	42.243
312.22	41.727
312.58	40.229
312.95	39.704
313.31	38.058
313.68	42.620
314.05	41.124
314.41	40.201
314.78	40.383
315.14	39.424
315.51	40.577
315.87	39.703
316.24	40.020
316.61	39.181
316.97	38.650
317.34	39.628
317.70	38.623
318.07	39.076
318.43	38.552
318.80	39.269
319.16	39.642
319.53	38.555
319.89	38.476
320.26	40.000
320.62	39.484
320.99	38.788
321.35	39.192
321.72	38.912
322.08	38.993
322.45	38.408
322.81	38.081
323.18	38.343
323.54	38.776
323.91	38.962
324.27	38.050
324.64	36.533
325.00	36.880
325.37	36.761
325.73	38.151
326.10	36.805
326.46	37.276
326.83	37.101
327.19	37.404
327.56	36.760
327.92	37.358
328.29	37.178
328.65	37.477
329.01	36.733
329.38	37.003
329.74	36.103
330.11	38.077
330.47	36.272
330.84	37.408
331.20	35.337
331.56	35.505
331.93	36.759
332.29	35.404
332.66	34.336
333.02	37.477
333.38	35.953
333.75	36.364
334.11	35.765
334.48	34.250
334.84	35.662
335.20	36.091
335.57	34.633
335.93	35.357
336.29	34.341
336.66	36.429
337.02	34.299
337.38	34.259
337.75	35.205
338.11	34.915
338.47	33.702
338.84	35.014
339.20	33.853
339.56	36.314
339.93	35.091
340.29	35.326
340.65	33.868
341.02	34.817
341.38	34.964
341.74	33.421
342.11	35.022
342.47	34.449
342.83	34.161
343.20	33.420
343.56	32.013
343.92	33.246
344.28	34.014
344.65	33.620
345.01	32.071
345.37	32.762
345.73	34.602
346.10	33.674
346.46	34.153
346.82	33.443
347.19	32.832
347.55	31.856
347.91	31.958
348.27	33.032
348.63	33.194
349.00	32.362
349.36	32.512
349.72	32.157
350.08	31.767
350.45	32.384
350.81	32.250
351.17	32.658
351.53	32.678
351.89	32.178
352.26	33.149
352.62	31.997
352.98	32.253
353.34	32.457
353.70	30.196
354.07	32.177
354.43	31.587
354.79	32.019
355.15	30.646
355.51	33.014
355.87	30.857
356.24	31.189
356.60	30.634
356.96	31.698
357.32	32.134
357.68	31.339
358.04	30.641
358.40	30.800
358.77	31.299
359.13	29.834
359.49	30.353
359.85	29.206
360.21	30.383
360.57	29.961
360.93	31.308
361.29	30.763
361.66	29.180
362.02	30.746
362.38	29.734
362.74	29.911
363.10	31.162
363.46	29.934
363.82	30.537
364.18	30.690
364.54	30.906
364.90	29.958
365.26	30.294
365.62	29.803
365.98	29.657
366.35	28.438
366.71	29.212
367.07	30.736
367.43	29.753
367.79	29.265
368.15	30.891
368.51	29.360
368.87	30.692
369.23	29.554
369.59	30.196
369.95	29.559
370.31	29.345
370.67	27.971
371.03	28.989
371.39	29.446
371.75	29.191
372.11	29.090
372.47	29.252
372.83	28.890
373.19	28.251
373.55	29.860
373.91	30.118
374.27	28.729
374.63	28.873
374.99	29.732
375.35	28.123
375.71	28.855
376.07	29.081
376.42	28.680
376.78	28.827
377.14	28.426
377.50	29.007
377.86	26.928
378.22	28.887
378.58	27.068
378.94	27.593
379.30	27.417
379.66	29.188
380.02	28.563
380.38	26.958
380.74	27.431
381.09	27.873
381.45	27.535
381.81	28.378
382.17	28.089
382.53	27.673
382.89	27.716
383.25	27.642
383.61	28.191
383.97	27.205
384.32	27.137
384.68	26.394
385.04	27.167
385.40	26.811
385.76	27.518
386.12	27.655
386.48	27.502
386.83	28.159
387.19	27.829
387.55	27.829
387.91	26.421
388.27	26.855
388.62	28.027
388.98	27.027
389.34	27.347
389.70	26.364
390.06	26.869
390.42	27.173
390.77	27.672
391.13	27.569
391.49	27.284
391.85	26.735
392.20	25.868
392.56	27.020
392.92	26.192
393.28	26.036
393.64	26.679
393.99	26.940
394.35	26.489
394.71	26.662
395.07	25.670
395.42	26.700
395.78	25.891
396.14	26.754
396.50	26.754
396.85	26.446
397.21	26.757
397.57	27.092
397.92	27.043
398.28	25.785
398.64	26.225
399.00	26.301
399.35	26.734
399.71	26.273
400.07	26.552
400.42	26.135
400.78	26.478
401.14	26.037
401.49	26.448
401.85	26.134
402.21	25.629
402.57	25.231
402.92	26.482
403.28	26.546
403.63	26.176
403.99	25.605
404.35	25.758
404.70	26.259
405.06	26.150
405.42	25.827
405.77	25.086
406.13	25.056
406.49	25.665
406.84	24.808
407.20	25.000
407.55	26.548
407.91	26.733
408.27	26.101
408.62	25.527
408.98	25.735
409.34	25.584
409.69	25.871
410.05	25.713
410.40	25.260
410.76	25.986
411.11	25.332
411.47	25.112
411.83	25.107
412.18	25.541
412.54	25.965
412.89	25.542
413.25	25.384
413.60	25.633
413.96	25.744
414.31	25.638
414.67	25.285
415.03	25.762
415.38	26.289
415.74	25.466
416.09	25.604
416.45	24.565
416.80	24.785
417.16	26.609
417.51	26.410
417.87	24.599
418.22	25.426
418.58	26.275
418.93	25.430
419.29	25.843
419.64	26.385
420.00	25.671
420.35	25.913
420.71	25.463
421.06	25.835
421.42	24.678
421.77	25.336
422.12	24.481
422.48	24.555
422.83	25.917
423.19	25.083
423.54	24.898
423.90	25.449
424.25	24.623
424.61	25.119
424.96	25.948
425.31	24.862
425.67	23.989
426.02	25.029
426.38	25.519
426.73	24.576
427.09	25.350
427.44	24.497
427.79	24.899
428.15	25.536
428.50	24.342
428.85	24.851
429.21	24.130
429.56	24.365
429.92	25.013
430.27	23.932
430.62	24.526
430.98	24.390
431.33	24.588
431.68	24.817
432.04	24.601
432.39	24.158
432.74	24.417
433.10	24.222
433.45	24.898
433.80	24.778
434.16	24.679
434.51	24.842
434.86	24.629
435.22	24.402
435.57	24.924
435.92	24.049
436.28	24.852
436.63	24.945
436.98	24.785
437.34	24.985
437.69	24.912
438.04	24.227
438.39	24.478
438.75	24.579
439.10	23.184
439.45	24.911
439.81	24.169
440.16	24.224
440.51	24.429
440.86	23.972
441.22	23.749
441.57	25.318
441.92	23.695
442.27	25.027
442.63	23.855
442.98	25.352
443.33	23.913
443.68	24.471
444.03	24.207
444.39	23.369
444.74	24.459
445.09	24.097
445.44	24.221
445.79	24.443
446.15	24.775
446.50	23.963
446.85	24.101
447.20	23.967
447.55	24.846
447.91	23.883
448.26	23.873
448.61	24.138
448.96	25.138
449.31	24.578
449.66	23.354
450.02	23.844
450.37	23.129
450.72	23.801
451.07	23.644
451.42	23.647
451.77	23.782
452.12	23.730
452.47	24.502
452.83	23.485
453.18	24.022
453.53	24.923
453.88	23.568
454.23	24.507
454.58	23.804
454.93	24.921
455.28	23.878
455.63	24.393
455.98	24.762
456.34	25.063
456.69	23.857
457.04	24.458
457.39	23.086
457.74	24.028
458.09	23.749
458.44	24.059
458.79	23.644
459.14	24.097
459.49	23.643
459.84	24.044
460.19	23.453
460.54	24.074
460.89	24.465
461.24	24.287
461.59	24.753
461.94	24.229
462.29	23.798
462.64	23.548
462.99	23.032
463.34	24.000
463.69	23.640
464.04	23.188
464.39	24.406
464.74	24.540
465.09	23.522
465.44	23.158
465.79	23.937
466.14	23.372
466.49	23.915
466.84	24.051
467.19	24.261
467.54	24.687
467.89	23.469
468.24	23.037
468.59	23.932
468.94	22.786
469.29	23.393
469.64	24.900
469.99	23.545
470.34	23.316
470.68	23.922
471.03	22.857
471.38	23.141
471.73	23.718
472.08	23.553
472.43	22.864
472.78	22.581
473.13	24.134
473.48	23.346
473.83	23.841
474.17	23.211
474.52	23.387
474.87	23.993
475.22	23.041
475.57	22.891
475.92	22.464
476.27	22.604
476.61	23.442
476.96	22.595
477.31	22.083
477.66	22.648
478.01	21.850
478.36	22.739
478.70	21.963
479.05	22.897
479.40	22.979
479.75	22.217
480.10	22.117
480.45	21.942
480.79	21.691
481.14	23.141
481.49	22.781
481.84	22.862
482.19	22.853
482.53	21.835
482.88	22.057
483.23	22.056
483.58	22.975
483.92	22.915
484.27	21.656
484.62	22.888
484.97	21.955
485.31	23.699
485.66	24.115
486.01	23.397
486.36	22.494
486.70	21.559
487.05	21.380
487.40	21.834
487.75	21.440
488.09	21.535
488.44	20.580
488.79	21.989
489.13	21.658
489.48	21.533
489.83	21.580
490.17	21.745
490.52	21.302
490.87	21.755
491.22	22.010
491.56	21.002
491.91	21.545
492.26	22.324
492.60	21.567
492.95	21.188
493.30	21.402
493.64	21.279
493.99	20.752
494.34	21.924
494.68	22.344
495.03	21.664
495.37	21.731
495.72	22.320
496.07	22.042
496.41	21.460
496.76	21.592
497.11	21.747
497.45	20.959
497.80	21.161
498.14	21.159
498.49	21.024
498.84	21.524
499.18	21.667
499.53	22.080
499.87	21.249
500.22	21.149
500.56	22.621
500.91	21.058
501.26	21.954
501.60	21.642
501.95	21.357
502.29	21.368
502.64	21.927
502.98	21.926
503.33	21.389
503.67	21.763
504.02	20.907
504.36	20.730
504.71	21.544
505.06	21.494
505.40	20.613
505.75	20.636
506.09	21.186
506.44	21.658
506.78	21.189
507.13	21.050
507.47	21.414
507.82	21.327
508.16	22.239
508.51	21.208
508.85	21.202
509.19	21.327
509.54	20.867
509.88	20.969
510.23	21.902
510.57	21.672
510.92	21.336
511.26	20.452
511.61	21.266
511.95	21.033
512.30	20.573
512.64	21.333
512.98	21.275
513.33	21.627
513.67	20.438
514.02	20.022
514.36	20.808
514.70	20.642
515.05	20.078
515.39	20.583
515.74	20.270
516.08	21.241
516.42	20.755
516.77	21.126
517.11	21.199
517.46	20.824
517.80	20.790
518.14	20.035
518.49	21.062
518.83	20.909
519.17	20.785
519.52	20.543
519.86	21.506
520.20	20.520
520.55	20.527
520.89	20.316
521.23	21.411
521.58	21.068
521.92	20.453
522.26	19.768
522.61	21.246
522.95	20.442
523.29	20.146
523.64	21.524
523.98	20.518
524.32	20.688
524.66	20.024
525.01	21.324
525.35	19.827
525.69	20.074
526.04	20.561
526.38	20.561
526.72	20.798
527.06	20.151
527.41	19.245
527.75	21.672
528.09	20.809
528.43	20.841
528.78	21.143
529.12	21.030
529.46	21.188
529.80	20.978
530.15	20.935
530.49	20.185
530.83	21.456
531.17	21.214
531.51	21.401
531.86	20.452
532.20	21.708
532.54	21.140
532.88	21.309
533.22	21.299
533.57	20.185
533.91	20.590
534.25	20.474
534.59	21.171
534.93	20.048
535.27	21.304
535.62	20.757
535.96	21.092
536.30	19.835
536.64	21.442
536.98	20.836
537.32	20.342
537.66	21.733
538.01	20.869
538.35	21.332
538.69	21.251
539.03	20.598
539.37	20.703
539.71	20.156
540.05	21.569
540.39	20.731
540.73	21.863
541.07	21.220
541.42	21.657
541.76	22.323
542.10	21.604
542.44	21.656
542.78	21.805
543.12	20.729
543.46	22.098
543.80	21.861
544.14	20.924
544.48	21.587
544.82	20.975
545.16	21.340
545.50	21.208
545.84	20.968
546.18	21.414
546.52	20.991
546.86	20.344
547.20	21.578
547.54	22.445
547.88	21.492
548.22	20.922
548.56	21.698
548.90	22.023
549.24	20.202
549.58	20.873
549.92	21.360
550.26	21.520
550.60	21.300
550.94	21.338
551.28	20.775
551.62	21.567
551.96	20.772
552.30	22.730
552.64	21.231
552.98	21.627
553.32	21.578
553.66	21.609
554.00	21.757
554.34	21.049
554.68	21.745
555.02	20.663
555.36	20.877
555.69	21.042
556.03	20.794
556.37	21.010
556.71	21.351
557.05	21.148
557.39	21.414
557.73	21.383
558.07	21.827
558.41	20.984
558.75	20.500
559.08	21.849
559.42	21.391
559.76	21.397
560.10	21.913
560.44	21.384
560.78	20.625
561.12	22.361
561.45	21.512
561.79	20.699
562.13	21.328
562.47	22.609
562.81	21.827
563.15	20.936
563.48	21.021
563.82	21.200
564.16	20.471
564.50	21.419
564.84	21.049
565.17	21.236
565.51	21.406
565.85	21.574
566.19	21.666
566.52	21.723
566.86	21.278
567.20	21.462
567.54	21.689
567.88	21.456
568.21	22.540
568.55	22.093
568.89	22.909
569.23	21.970
569.56	22.308
569.90	22.528
570.24	22.713
570.57	23.189
570.91	22.043
571.25	22.298
571.59	22.946
571.92	22.091
572.26	22.530
572.60	21.982
572.93	22.129
573.27	22.538
573.61	23.032
573.95	23.101
574.28	22.588
574.62	22.376
574.96	22.820
575.29	22.454
575.63	22.459
575.97	22.312
576.30	22.809
576.64	22.593
576.98	22.825
577.31	22.343
577.65	22.888
577.98	23.020
578.32	22.518
578.66	22.348
578.99	22.483
579.33	21.883
579.67	21.698
580.00	21.937
580.34	22.663
580.67	22.477
581.01	22.959
581.35	23.481
581.68	23.470
582.02	22.704
582.35	23.074
582.69	22.740
583.02	22.306
583.36	22.942
583.70	22.253
584.03	22.205
584.37	22.925
584.70	22.362
585.04	22.554
585.37	23.020
585.71	23.496
586.04	22.397
586.38	22.806
586.72	22.590
587.05	23.010
587.39	22.216
587.72	22.855
588.06	22.705
588.39	22.332
588.73	22.441
589.06	22.281
589.40	22.492
589.73	22.562
590.07	22.242
590.40	22.397
590.73	21.975
591.07	23.118
591.40	22.691
591.74	22.814
592.07	22.688
592.41	23.109
592.74	22.996
593.08	23.185
593.41	22.778
593.75	22.611
594.08	22.796
594.41	22.234
594.75	22.957
595.08	22.942
595.42	22.872
595.75	22.899
596.09	22.531
596.42	23.183
596.75	22.752
597.09	23.160
597.42	22.218
597.75	23.415
598.09	22.478
598.42	21.864
598.76	22.456
599.09	22.615
599.42	22.598
599.76	22.438
600.09	23.352
600.42	22.279
600.76	22.679
601.09	22.878
601.42	22.945
601.76	22.998
602.09	22.213
602.42	23.567
602.76	23.257
603.09	22.935
603.42	23.077
603.76	22.409
604.09	21.869
604.42	23.115
604.76	23.534
605.09	22.455
605.42	21.847
605.75	22.682
606.09	22.651
606.42	23.130
606.75	22.812
607.09	22.562
607.42	22.550
607.75	22.321
608.08	22.058
608.42	22.680
608.75	22.723
609.08	22.525
609.41	21.799
609.75	22.916
610.08	23.139
610.41	22.765
610.74	22.422
611.07	22.678
611.41	22.866
611.74	22.926
612.07	23.292
612.40	23.347
612.73	22.684
613.07	23.437
613.40	22.959
613.73	21.867
614.06	23.065
614.39	22.653
614.72	22.158
615.06	23.372
615.39	22.399
615.72	22.495
616.05	22.435
616.38	22.957
616.71	23.100
617.05	23.439
617.38	22.850
617.71	22.883
618.04	24.339
618.37	22.649
618.70	22.962
619.03	23.092
619.36	21.724
619.69	23.099
620.03	23.077
620.36	22.594
620.69	23.973
621.02	22.271
621.35	21.770
621.68	21.885
622.01	22.059
622.34	23.979
622.67	22.814
623.00	23.624
623.33	22.445
623.66	22.945
623.99	22.165
624.32	21.897
624.65	22.669
624.99	22.309
625.32	22.013
625.65	22.314
625.98	23.597
626.31	22.395
626.64	23.020
626.97	21.945
627.30	22.776
627.63	22.970
627.96	22.960
628.29	23.010
628.62	22.690
628.95	23.208
629.28	22.354
629.61	23.098
629.94	22.571
630.26	21.926
