SpectraSuite Data File
++++++++++++++++++++++++++++++++++++
Date: Wed May 13 19:30:50 PDT 2015
User: schluterlab
Dark Spectrum Present: Yes
Reference Spectrum Present: Yes
Number of Sampled Component Spectra: 1
Spectrometers: USB2E3373
Integration Time (usec): 3000 (USB2E3373)
Spectra Averaged: 3 (USB2E3373)
Boxcar Smoothing: 0 (USB2E3373)
Correct for Electrical Dark: No (USB2E3373)
Strobe/Lamp Enabled: No (USB2E3373)
Correct for Detector Non-linearity: No (USB2E3373)
Correct for Stray Light: No (USB2E3373)
Number of Pixels in Processed Spectrum: 2048
>>>>>Begin Processed Spectral Data<<<<<
178.53	0.000
178.91	-1300.000
179.29	-1525.000
179.67	-244.444
180.04	-1100.000
180.42	2450.000
180.80	1100.000
181.18	-1150.000
181.56	771.429
181.94	0.000
182.31	-628.571
182.69	1700.000
183.07	-575.000
183.45	-511.111
183.83	509.091
184.20	-420.000
184.58	2550.000
184.96	5400.000
185.34	-980.000
185.72	-612.500
186.09	-2750.000
186.47	2950.000
186.85	2350.000
187.23	5900.000
187.61	-1666.667
187.98	1450.000
188.36	545.455
188.74	581.818
189.12	-960.000
189.49	630.000
189.87	-5500.000
190.25	-1325.000
190.63	471.429
191.00	469.231
191.38	916.667
191.76	-1175.000
192.14	1600.000
192.51	587.500
192.89	800.000
193.27	700.000
193.65	-1350.000
194.02	580.000
194.40	960.000
194.78	600.000
195.15	500.000
195.53	620.000
195.91	-2400.000
196.29	375.000
196.66	326.316
197.04	-400.000
197.42	0.000
197.79	610.000
198.17	-5700.000
198.55	771.429
198.92	812.500
199.30	940.000
199.68	0.000
200.05	316.667
200.43	800.000
200.81	5700.000
201.18	1666.667
201.56	-1700.000
201.94	677.778
202.31	600.000
202.69	441.667
203.07	540.000
203.44	0.000
203.82	1200.000
204.19	714.286
204.57	400.000
204.95	725.000
205.32	1766.667
205.70	563.636
206.08	407.143
206.45	3050.000
206.83	393.750
207.20	850.000
207.58	880.000
207.96	322.222
208.33	825.000
208.71	-933.333
209.08	800.000
209.46	588.889
209.84	490.909
210.21	-1666.667
210.59	1700.000
210.96	-537.500
211.34	2600.000
211.71	630.000
212.09	716.667
212.46	0.000
212.84	1833.333
213.22	1525.000
213.59	-5800.000
213.97	916.667
214.34	900.000
214.72	681.818
215.09	1200.000
215.47	-2300.000
215.84	-2900.000
216.22	1600.000
216.59	414.286
216.97	1250.000
217.34	463.636
217.72	-833.333
218.09	0.000
218.47	-4800.000
218.84	777.778
219.22	871.429
219.59	1900.000
219.97	-771.429
220.34	980.000
220.72	-1833.333
221.09	450.000
221.47	1525.000
221.84	-950.000
222.22	0.000
222.59	1725.000
222.97	-2700.000
223.34	1280.000
223.72	430.769
224.09	1020.000
224.46	2450.000
224.84	-5500.000
225.21	-860.000
225.59	-4700.000
225.96	630.000
226.34	310.000
226.71	2850.000
227.08	687.500
227.46	570.000
227.83	-1075.000
228.21	-2800.000
228.58	511.111
228.95	-2350.000
229.33	-2850.000
229.70	2033.333
230.08	685.714
230.45	-760.000
230.82	516.667
231.20	783.333
231.57	800.000
231.95	508.333
232.32	281.818
232.69	436.364
233.07	742.857
233.44	384.615
233.81	-1966.667
234.19	284.211
234.56	458.333
234.93	483.333
235.31	536.364
235.68	384.615
236.05	357.143
236.43	193.939
236.80	294.737
237.17	5100.000
237.55	233.333
237.92	225.000
238.29	280.952
238.67	248.387
239.04	224.138
239.41	200.000
239.79	152.174
240.16	159.524
240.53	179.545
240.91	137.255
241.28	132.000
241.65	134.000
242.02	121.739
242.40	116.129
242.77	121.667
243.14	89.247
243.51	105.618
243.89	95.294
244.26	95.556
244.63	100.000
245.00	89.362
245.38	100.000
245.75	82.243
246.12	85.321
246.49	86.861
246.87	84.000
247.24	89.231
247.61	75.714
247.98	77.124
248.36	70.946
248.73	72.611
249.10	76.433
249.47	71.186
249.84	80.214
250.22	68.449
250.59	68.639
250.96	66.667
251.33	67.299
251.70	65.842
252.08	70.000
252.45	63.229
252.82	62.174
253.19	62.128
253.56	64.314
253.94	63.071
254.31	61.719
254.68	65.385
255.05	63.469
255.42	62.195
255.79	60.662
256.16	63.177
256.54	57.597
256.91	59.431
257.28	54.317
257.65	57.426
258.02	54.969
258.39	57.413
258.76	56.522
259.14	55.952
259.51	53.495
259.88	55.590
260.25	58.610
260.62	55.202
260.99	55.280
261.36	55.255
261.73	55.587
262.10	52.907
262.47	56.056
262.85	50.975
263.22	49.573
263.59	59.259
263.96	51.923
264.33	50.131
264.70	51.053
265.07	51.918
265.44	48.485
265.81	45.499
266.18	51.256
266.55	47.561
266.92	50.369
267.29	48.148
267.66	51.147
268.03	50.227
268.40	47.196
268.77	47.733
269.14	47.523
269.51	47.404
269.88	46.620
270.25	46.953
270.62	48.539
270.99	46.237
271.36	45.708
271.73	45.561
272.10	47.391
272.47	43.441
272.84	48.485
273.21	46.331
273.58	44.323
273.95	43.187
274.32	44.835
274.69	44.325
275.06	42.520
275.43	44.255
275.80	43.687
276.17	44.196
276.54	43.659
276.91	43.874
277.28	41.211
277.65	41.973
278.02	42.857
278.39	44.141
278.76	41.636
279.13	42.642
279.50	39.851
279.87	41.633
280.23	44.112
280.60	41.393
280.97	42.144
281.34	42.478
281.71	39.818
282.08	42.226
282.45	40.545
282.82	39.787
283.19	39.216
283.56	38.596
283.92	41.624
284.29	38.448
284.66	39.746
285.03	38.517
285.40	39.613
285.77	40.404
286.14	39.724
286.51	40.667
286.87	38.632
287.24	39.902
287.61	37.239
287.98	37.013
288.35	40.095
288.72	35.202
289.08	38.811
289.45	38.221
289.82	37.073
290.19	36.578
290.56	36.600
290.93	34.441
291.29	35.890
291.66	35.693
292.03	37.645
292.40	35.830
292.77	34.763
293.13	36.269
293.50	35.423
293.87	34.519
294.24	33.037
294.60	34.352
294.97	32.849
295.34	35.966
295.71	33.949
296.08	32.194
296.44	33.012
296.81	31.440
297.18	33.333
297.55	30.079
297.91	32.058
298.28	32.396
298.65	30.940
299.02	34.124
299.38	31.208
299.75	28.841
300.12	30.524
300.48	31.625
300.85	29.716
301.22	30.446
301.59	29.798
301.95	32.494
302.32	29.397
302.69	29.510
303.05	28.000
303.42	27.901
303.79	29.445
304.15	29.138
304.52	27.346
304.89	28.688
305.25	29.814
305.62	28.426
305.99	29.516
306.35	28.076
306.72	27.803
307.09	28.857
307.45	29.279
307.82	27.790
308.19	28.587
308.55	28.695
308.92	27.820
309.29	27.455
309.65	28.208
310.02	27.907
310.38	28.065
310.75	28.933
311.12	27.943
311.48	28.109
311.85	28.407
312.22	26.743
312.58	26.715
312.95	27.878
313.31	26.117
313.68	27.963
314.05	29.389
314.41	28.442
314.78	27.593
315.14	27.507
315.51	28.527
315.87	27.822
316.24	27.805
316.61	27.875
316.97	27.984
317.34	27.593
317.70	27.725
318.07	28.778
318.43	27.789
318.80	29.147
319.16	28.719
319.53	28.236
319.89	30.095
320.26	30.600
320.62	29.861
320.99	30.202
321.35	29.394
321.72	29.979
322.08	30.405
322.45	32.637
322.81	31.589
323.18	31.310
323.54	31.447
323.91	31.321
324.27	32.409
324.64	31.221
325.00	31.921
325.37	33.212
325.73	34.201
326.10	32.921
326.46	32.975
326.83	34.513
327.19	34.671
327.56	34.843
327.92	34.558
328.29	34.783
328.65	36.372
329.01	35.018
329.38	36.263
329.74	34.811
330.11	37.135
330.47	37.282
330.84	37.224
331.20	35.974
331.56	36.881
331.93	36.852
332.29	36.469
332.66	36.460
333.02	36.746
333.38	36.766
333.75	37.166
334.11	36.477
334.48	36.646
334.84	38.051
335.20	37.545
335.57	36.355
335.93	36.964
336.29	36.538
336.66	37.060
337.02	37.376
337.38	37.407
337.75	36.185
338.11	36.616
338.47	38.582
338.84	37.672
339.20	38.073
339.56	39.507
339.93	36.909
340.29	36.504
340.65	37.166
341.02	39.180
341.38	39.947
341.74	38.509
342.11	38.690
342.47	38.678
342.83	38.185
343.20	38.268
343.56	37.574
343.92	38.070
344.28	40.136
344.65	40.155
345.01	38.215
345.37	38.079
345.73	40.355
346.10	39.301
346.46	40.085
346.82	38.880
347.19	37.093
347.55	38.342
347.91	39.725
348.27	39.934
348.63	39.298
349.00	39.239
349.36	40.148
349.72	39.294
350.08	39.303
350.45	39.951
350.81	38.993
351.17	41.086
351.53	40.295
351.89	39.851
352.26	40.174
352.62	40.257
352.98	39.870
353.34	41.002
353.70	39.689
354.07	39.597
354.43	39.603
354.79	40.225
355.15	40.144
355.51	42.206
355.87	41.633
356.24	39.739
356.60	40.016
356.96	41.432
357.32	41.210
357.68	41.260
358.04	41.330
358.40	40.776
358.77	40.923
359.13	40.095
359.49	40.784
359.85	40.873
360.21	41.547
360.57	42.802
360.93	42.769
361.29	41.345
361.66	39.938
362.02	42.687
362.38	41.825
362.74	41.146
363.10	41.673
363.46	42.113
363.82	42.101
364.18	42.731
364.54	43.016
364.90	43.414
365.26	42.794
365.62	42.148
365.98	42.221
366.35	42.837
366.71	42.805
367.07	42.972
367.43	45.210
367.79	44.183
368.15	43.966
368.51	42.805
368.87	44.754
369.23	43.453
369.59	44.678
369.95	44.853
370.31	44.658
370.67	43.986
371.03	45.393
371.39	43.586
371.75	44.779
372.11	44.452
372.47	45.601
372.83	46.254
373.19	44.436
373.55	47.154
373.91	47.644
374.27	43.436
374.63	46.327
374.99	46.610
375.35	45.080
375.71	46.402
376.07	46.914
376.42	46.080
376.78	46.057
377.14	47.015
377.50	46.424
377.86	45.346
378.22	48.104
378.58	46.679
378.94	47.014
379.30	47.646
379.66	48.223
380.02	47.297
380.38	46.934
380.74	48.079
381.09	48.716
381.45	49.662
381.81	49.017
382.17	49.363
382.53	50.063
382.89	50.679
383.25	48.218
383.61	49.442
383.97	49.156
384.32	49.719
384.68	49.009
385.04	49.170
385.40	49.721
385.76	49.939
386.12	51.036
386.48	51.101
386.83	52.149
387.19	52.010
387.55	52.010
387.91	51.572
388.27	51.625
388.62	51.936
388.98	51.413
389.34	51.815
389.70	51.747
390.06	53.359
390.42	52.724
390.77	51.718
391.13	53.095
391.49	53.490
391.85	53.024
392.20	54.132
392.56	54.040
392.92	54.091
393.28	53.905
393.64	53.417
393.99	53.513
394.35	53.102
394.71	53.262
395.07	54.330
395.42	55.192
395.78	54.707
396.14	54.128
396.50	55.263
396.85	56.453
397.21	54.932
397.57	54.371
397.92	55.168
398.28	53.756
398.64	54.182
399.00	53.665
399.35	54.540
399.71	56.308
400.07	54.820
400.42	55.092
400.78	56.092
401.14	54.085
401.49	55.403
401.85	56.806
402.21	55.150
402.57	56.262
402.92	54.729
403.28	55.028
403.63	56.869
403.99	56.497
404.35	55.455
404.70	55.875
405.06	55.620
405.42	56.207
405.77	56.857
406.13	55.418
406.49	56.712
406.84	54.991
407.20	55.319
407.55	55.392
407.91	57.533
408.27	56.988
408.62	55.449
408.98	56.311
409.34	56.704
409.69	57.613
410.05	57.497
410.40	56.330
410.76	56.452
411.11	56.454
411.47	55.591
411.83	57.544
412.18	56.401
412.54	58.219
412.89	57.169
413.25	56.966
413.60	57.134
413.96	56.466
414.31	55.589
414.67	57.098
415.03	56.358
415.38	58.054
415.74	57.492
416.09	58.328
416.45	57.898
416.80	57.436
417.16	58.311
417.51	57.930
417.87	56.326
418.22	57.539
418.58	57.327
418.93	56.757
419.29	56.588
419.64	58.753
420.00	56.890
420.35	57.681
420.71	56.246
421.06	56.742
421.42	55.965
421.77	56.670
422.12	56.597
422.48	56.233
422.83	57.426
423.19	56.022
423.54	57.284
423.90	55.942
424.25	56.449
424.61	57.083
424.96	57.609
425.31	56.091
425.67	56.629
426.02	56.171
426.38	57.692
426.73	56.466
427.09	56.474
427.44	57.159
427.79	55.894
428.15	56.905
428.50	57.519
428.85	56.079
429.21	57.040
429.56	55.573
429.92	56.517
430.27	55.710
430.62	55.965
430.98	55.994
431.33	54.845
431.68	56.335
432.04	54.633
432.39	56.710
432.74	56.373
433.10	57.272
433.45	57.085
433.80	57.095
434.16	56.090
434.51	54.526
434.86	55.473
435.22	56.309
435.57	57.143
435.92	56.583
436.28	57.948
436.63	56.512
436.98	56.153
437.34	57.007
437.69	57.760
438.04	56.830
438.39	57.313
438.75	56.188
439.10	56.034
439.45	56.198
439.81	57.221
440.16	55.449
440.51	55.302
440.86	57.035
441.22	55.117
441.57	55.732
441.92	56.244
442.27	56.405
442.63	54.818
442.98	55.606
443.33	55.815
443.68	54.362
444.03	54.954
444.39	54.138
444.74	56.494
445.09	55.580
445.44	55.221
445.79	54.330
446.15	54.685
446.50	54.766
446.85	55.550
447.20	54.819
447.55	55.388
447.91	54.771
448.26	54.647
448.61	55.851
448.96	55.537
449.31	55.287
449.66	55.037
450.02	55.097
450.37	54.592
450.72	53.807
451.07	54.662
451.42	53.374
451.77	55.021
452.12	54.677
452.47	54.664
452.83	55.186
453.18	54.340
453.53	55.349
453.88	54.105
454.23	56.007
454.58	55.118
454.93	56.771
455.28	54.863
455.63	54.733
455.98	55.536
456.34	53.329
456.69	55.542
457.04	54.923
457.39	53.945
457.74	53.511
458.09	53.997
458.44	54.561
458.79	52.332
459.14	54.120
459.49	54.232
459.84	53.075
460.19	54.037
460.54	52.604
460.89	52.935
461.24	53.248
461.59	53.980
461.94	53.391
462.29	54.184
462.64	53.095
462.99	52.440
463.34	54.133
463.69	52.971
464.04	51.826
464.39	52.174
464.74	51.872
465.09	52.654
465.44	50.914
465.79	51.063
466.14	51.888
466.49	52.058
466.84	53.240
467.19	50.634
467.54	53.500
467.89	51.140
468.24	52.007
468.59	52.137
468.94	50.519
469.29	51.992
469.64	52.744
469.99	52.503
470.34	52.114
470.68	53.664
471.03	51.020
471.38	52.397
471.73	51.632
472.08	51.316
472.43	51.696
472.78	50.691
473.13	50.642
473.48	51.436
473.83	50.793
474.17	50.716
474.52	51.179
474.87	52.189
475.22	51.132
475.57	49.758
475.92	49.283
476.27	50.113
476.61	50.359
476.96	49.588
477.31	49.084
477.66	49.891
478.01	49.033
478.36	48.863
478.70	48.702
479.05	49.414
479.40	49.079
479.75	48.551
480.10	49.006
480.45	47.358
480.79	46.966
481.14	49.315
481.49	48.458
481.84	48.285
482.19	48.069
482.53	47.890
482.88	47.371
483.23	47.991
483.58	47.953
483.92	47.844
484.27	46.013
484.62	46.724
484.97	46.472
485.31	46.644
485.66	44.149
486.01	42.981
486.36	41.508
486.70	41.508
487.05	42.490
487.40	43.948
487.75	43.702
488.09	45.162
488.44	45.130
488.79	46.727
489.13	46.409
489.48	46.533
489.83	46.439
490.17	46.822
490.52	45.793
490.87	45.771
491.22	45.202
491.56	44.829
491.91	45.463
492.26	45.108
492.60	44.793
492.95	45.510
493.30	44.439
493.64	45.544
493.99	44.986
494.34	44.773
494.68	45.375
495.03	45.019
495.37	44.672
495.72	45.419
496.07	45.197
496.41	44.071
496.76	43.096
497.11	43.449
497.45	44.248
497.80	44.722
498.14	44.106
498.49	44.683
498.84	43.289
499.18	44.143
499.53	44.349
499.87	43.197
500.22	43.241
500.56	44.078
500.91	43.413
501.26	43.528
501.60	43.759
501.95	42.071
502.29	43.299
502.64	42.784
502.98	42.730
503.33	42.367
503.67	42.274
504.02	42.470
504.36	41.881
504.71	42.697
505.06	42.988
505.40	42.781
505.75	41.610
506.09	41.983
506.44	43.167
506.78	42.426
507.13	43.261
507.47	43.081
507.82	41.793
508.16	42.401
508.51	42.567
508.85	42.304
509.19	42.347
509.54	42.041
509.88	41.886
510.23	42.365
510.57	42.879
510.92	42.206
511.26	41.829
511.61	40.923
511.95	40.449
512.30	40.774
512.64	40.892
512.98	41.854
513.33	41.702
513.67	41.035
514.02	41.342
514.36	42.108
514.70	41.339
515.05	41.160
515.39	41.559
515.74	41.385
516.08	41.699
516.42	42.009
516.77	42.140
517.11	40.677
517.46	41.140
517.80	41.870
518.14	40.649
518.49	41.949
518.83	40.000
519.17	41.975
519.52	41.539
519.86	41.472
520.20	42.023
520.55	40.993
520.89	40.389
521.23	40.712
521.58	41.116
521.92	41.335
522.26	39.170
522.61	40.312
522.95	40.945
523.29	40.475
523.64	41.037
523.98	40.604
524.32	39.505
524.66	40.289
525.01	39.583
525.35	40.087
525.69	40.148
526.04	39.688
526.38	39.353
526.72	39.755
527.06	39.360
527.41	37.871
527.75	39.807
528.09	39.692
528.43	39.771
528.78	38.906
529.12	38.303
529.46	39.988
529.80	40.099
530.15	39.065
530.49	39.077
530.83	39.114
531.17	41.384
531.51	39.948
531.86	38.323
532.20	39.831
532.54	39.270
532.88	38.318
533.22	37.601
533.57	38.086
533.91	38.832
534.25	38.335
534.59	38.255
534.93	37.240
535.27	38.383
535.62	37.912
535.96	37.979
536.30	37.444
536.64	38.377
536.98	39.018
537.32	37.854
537.66	38.267
538.01	38.051
538.35	37.815
538.69	38.226
539.03	36.647
539.37	37.444
539.71	36.228
540.05	37.451
540.39	37.807
540.73	36.223
541.07	37.313
541.42	37.639
541.76	39.097
542.10	37.387
542.44	37.086
542.78	37.286
543.12	36.468
543.46	36.721
543.80	37.476
544.14	37.035
544.48	37.079
544.82	36.883
545.16	37.150
545.50	36.504
545.84	36.559
546.18	36.296
546.52	36.820
546.86	36.976
547.20	37.222
547.54	36.072
547.88	37.117
548.22	35.243
548.56	35.220
548.90	34.763
549.24	36.027
549.58	36.903
549.92	36.332
550.26	36.648
550.60	36.169
550.94	36.056
551.28	36.430
551.62	35.370
551.96	35.368
552.30	36.041
552.64	35.903
552.98	36.203
553.32	35.806
553.66	35.583
554.00	36.239
554.34	35.818
554.68	35.837
555.02	36.389
555.36	35.351
555.69	34.168
556.03	34.926
556.37	35.130
556.71	34.106
557.05	35.084
557.39	35.619
557.73	34.933
558.07	34.953
558.41	34.949
558.75	34.754
559.08	35.645
559.42	35.299
559.76	35.074
560.10	34.904
560.44	34.661
560.78	34.797
561.12	33.971
561.45	34.420
561.79	33.487
562.13	34.474
562.47	35.246
562.81	34.519
563.15	35.385
563.48	33.355
563.82	33.529
564.16	33.224
564.50	32.552
564.84	33.502
565.17	34.427
565.51	33.546
565.85	34.074
566.19	32.624
566.52	34.136
566.86	33.273
567.20	33.373
567.54	32.934
567.88	32.537
568.21	32.751
568.55	32.659
568.89	31.274
569.23	30.348
569.56	30.243
569.90	30.302
570.24	30.283
570.57	29.684
570.91	29.961
571.25	29.370
571.59	29.013
571.92	28.802
572.26	29.809
572.60	29.550
572.93	28.216
573.27	29.577
573.61	29.202
573.95	28.837
574.28	28.593
574.62	28.304
574.96	28.005
575.29	28.201
575.63	28.354
575.97	28.300
576.30	28.757
576.64	27.672
576.98	28.294
577.31	28.027
577.65	27.926
577.98	27.805
578.32	27.701
578.66	28.029
578.99	28.007
579.33	27.282
579.67	27.682
580.00	27.667
580.34	27.954
580.67	27.937
581.01	27.951
581.35	27.777
581.68	27.264
582.02	27.200
582.35	27.161
582.69	27.743
583.02	27.851
583.36	27.899
583.70	28.721
584.03	28.396
584.37	28.327
584.70	28.422
585.04	27.935
585.37	27.610
585.71	27.773
586.04	27.736
586.38	27.769
586.72	28.197
587.05	27.737
587.39	27.546
587.72	27.854
588.06	27.828
588.39	28.587
588.73	27.721
589.06	28.638
589.40	29.428
589.73	28.969
590.07	28.327
590.40	28.681
590.73	29.391
591.07	29.752
591.40	29.186
591.74	29.567
592.07	29.058
592.41	29.020
592.74	28.614
593.08	27.582
593.41	27.934
593.75	26.983
594.08	28.059
594.41	28.243
594.75	28.540
595.08	28.346
595.42	27.916
595.75	27.528
596.09	28.427
596.42	28.998
596.75	28.493
597.09	29.307
597.42	27.487
597.75	28.676
598.09	29.000
598.42	28.393
598.76	27.240
599.09	27.214
599.42	27.293
599.76	28.111
600.09	27.140
600.42	26.844
600.76	27.214
601.09	27.614
601.42	26.636
601.76	27.666
602.09	28.024
602.42	27.707
602.76	27.328
603.09	28.049
603.42	27.880
603.76	27.820
604.09	26.561
604.42	26.620
604.76	28.089
605.09	27.479
605.42	27.576
605.75	27.483
606.09	27.166
606.42	27.953
606.75	27.789
607.09	27.375
607.42	27.942
607.75	26.962
608.08	27.660
608.42	27.880
608.75	27.412
609.08	28.261
609.41	27.558
609.75	27.775
610.08	27.568
610.41	27.467
610.74	27.625
611.07	27.668
611.41	28.067
611.74	28.859
612.07	27.743
612.40	28.856
612.73	28.263
613.07	29.095
613.40	27.699
613.73	27.583
614.06	28.065
614.39	28.369
614.72	28.421
615.06	27.731
615.39	27.601
615.72	27.198
616.05	27.379
616.38	28.516
616.71	27.791
617.05	28.740
617.38	28.082
617.71	27.508
618.04	28.365
618.37	28.090
618.70	28.749
619.03	29.474
619.36	28.513
619.69	28.310
620.03	28.709
620.36	29.011
620.69	28.973
621.02	30.310
621.35	29.679
621.68	30.218
622.01	29.025
622.34	30.257
622.67	30.038
623.00	29.567
623.33	28.520
623.66	29.878
623.99	29.087
624.32	28.174
624.65	28.249
624.99	28.187
625.32	28.168
625.65	28.625
625.98	29.439
626.31	29.627
626.64	30.204
626.97	29.510
627.30	28.429
627.63	30.435
627.96	30.278
628.29	30.009
628.62	32.022
628.95	31.132
629.28	30.931
629.61	30.889
629.94	31.048
630.26	29.838
630.59	29.933
630.92	30.651
