SpectraSuite Data File
++++++++++++++++++++++++++++++++++++
Date: Tue May 12 19:57:31 PDT 2015
User: schluterlab
Dark Spectrum Present: Yes
Reference Spectrum Present: Yes
Number of Sampled Component Spectra: 1
Spectrometers: USB2E3373
Integration Time (usec): 3000 (USB2E3373)
Spectra Averaged: 3 (USB2E3373)
Boxcar Smoothing: 0 (USB2E3373)
Correct for Electrical Dark: No (USB2E3373)
Strobe/Lamp Enabled: No (USB2E3373)
Correct for Detector Non-linearity: No (USB2E3373)
Correct for Stray Light: No (USB2E3373)
Number of Pixels in Processed Spectrum: 2048
>>>>>Begin Processed Spectral Data<<<<<
178.53	0.000
178.91	-170.000
179.29	-183.333
179.67	700.000
180.04	0.000
180.42	-220.000
180.80	-633.333
181.18	1350.000
181.56	-450.000
181.94	333.333
182.31	2300.000
182.69	-228.571
183.07	0.000
183.45	241.667
183.83	540.000
184.20	166.667
184.58	550.000
184.96	416.667
185.34	-566.667
185.72	-157.143
186.09	-166.667
186.47	-2300.000
186.85	-240.000
187.23	208.333
187.61	-300.000
187.98	-480.000
188.36	1000.000
188.74	-450.000
189.12	-200.000
189.49	-130.000
189.87	400.000
190.25	288.889
190.63	700.000
191.00	520.000
191.38	-533.333
191.76	420.000
192.14	-242.857
192.51	-160.000
192.89	-260.000
193.27	-300.000
193.65	-566.667
194.02	-183.333
194.40	2200.000
194.78	-112.500
195.15	-314.286
195.53	200.000
195.91	440.000
196.29	-625.000
196.66	-600.000
197.04	-257.143
197.42	140.000
197.79	-287.500
198.17	-133.333
198.55	-1300.000
198.92	-166.667
199.30	1400.000
199.68	-275.000
200.05	-1050.000
200.43	-105.556
200.81	-141.667
201.18	533.333
201.56	-1050.000
201.94	-1700.000
202.31	-150.000
202.69	-55.556
203.07	-150.000
203.44	-575.000
203.82	0.000
204.19	287.500
204.57	-466.667
204.95	290.909
205.32	300.000
205.70	575.000
206.08	-1400.000
206.45	-400.000
206.83	2700.000
207.20	-277.778
207.58	-84.615
207.96	633.333
208.33	766.667
208.71	600.000
209.08	1050.000
209.46	-100.000
209.84	900.000
210.21	-866.667
210.59	750.000
210.96	322.222
211.34	-425.000
211.71	1450.000
212.09	-320.000
212.46	-312.500
212.84	-287.500
213.22	257.143
213.59	-225.000
213.97	0.000
214.34	-800.000
214.72	-2500.000
215.09	950.000
215.47	-86.667
215.84	-175.000
216.22	-1200.000
216.59	2600.000
216.97	-150.000
217.34	-316.667
217.72	-66.667
218.09	475.000
218.47	-63.158
218.84	-250.000
219.22	-71.429
219.59	-260.000
219.97	-150.000
220.34	350.000
220.72	118.182
221.09	-900.000
221.47	0.000
221.84	850.000
222.22	-600.000
222.59	-475.000
222.97	-52.174
223.34	220.000
223.72	485.714
224.09	-250.000
224.46	207.692
224.84	-100.000
225.21	-650.000
225.59	-500.000
225.96	-5.000
226.34	466.667
226.71	370.000
227.08	-161.538
227.46	-157.143
227.83	-158.333
228.21	-1100.000
228.58	283.333
228.95	-47.368
229.33	-62.500
229.70	-400.000
230.08	-155.556
230.45	-1066.667
230.82	-2500.000
231.20	-85.714
231.57	-520.000
231.95	-466.667
232.32	255.556
232.69	-1300.000
233.07	-50.000
233.44	-300.000
233.81	-16.129
234.19	-500.000
234.56	-122.222
234.93	-366.667
235.31	-48.148
235.68	-51.852
236.05	-69.231
236.43	-73.684
236.80	-50.000
237.17	-192.857
237.55	-155.000
237.92	-34.884
238.29	-41.935
238.67	-46.429
239.04	-42.857
239.41	-11.765
239.79	-30.000
240.16	-45.000
240.53	-25.862
240.91	-15.068
241.28	-12.676
241.65	-25.000
242.02	-45.614
242.40	-24.000
242.77	-7.368
243.14	-10.588
243.51	-16.129
243.89	-16.190
244.26	-12.037
244.63	-12.245
245.00	-16.071
245.38	-9.244
245.75	-6.780
246.12	-6.250
246.49	-16.000
246.87	-13.934
247.24	-16.901
247.61	-7.947
247.98	-3.371
248.36	-5.660
248.73	-6.818
249.10	-7.222
249.47	-6.771
249.84	-5.584
250.22	-11.458
250.59	-12.921
250.96	-3.182
251.33	-2.830
251.70	-3.670
252.08	-3.030
252.45	-4.898
252.82	-8.439
253.19	-1.167
253.56	0.392
253.94	-4.065
254.31	1.079
254.68	-4.514
255.05	3.311
255.42	-0.364
255.79	-1.325
256.16	0.000
256.54	-2.121
256.91	3.526
257.28	-2.597
257.65	-2.951
258.02	0.601
258.39	2.115
258.76	-0.612
259.14	-2.647
259.51	1.127
259.88	2.305
260.25	-1.136
260.62	-2.247
260.99	-2.507
261.36	-2.011
261.73	1.600
262.10	1.090
262.47	-2.204
262.85	2.828
263.22	-0.269
263.59	1.340
263.96	0.783
264.33	-3.774
264.70	-1.966
265.07	-2.709
265.44	4.450
265.81	2.892
266.18	-0.468
266.55	-0.714
266.92	3.348
267.29	-0.889
267.66	-2.045
268.03	1.505
268.40	0.458
268.77	-2.450
269.14	-0.210
269.51	-1.131
269.88	-0.427
270.25	-0.633
270.62	1.891
270.99	1.684
271.36	-0.221
271.73	-1.042
272.10	-0.207
272.47	-0.600
272.84	0.637
273.21	1.461
273.58	-1.224
273.95	0.797
274.32	3.095
274.69	1.566
275.06	1.126
275.43	-2.000
275.80	1.338
276.17	-2.767
276.54	2.091
276.91	3.071
277.28	1.161
277.65	0.756
278.02	3.409
278.39	1.996
278.76	0.186
279.13	2.504
279.50	1.986
279.87	-0.189
280.23	0.911
280.60	0.000
280.97	0.703
281.34	1.186
281.71	-0.888
282.08	1.789
282.45	0.705
282.82	-0.842
283.19	1.347
283.56	2.901
283.92	0.158
284.29	2.538
284.66	0.531
285.03	-2.230
285.40	0.667
285.77	0.493
286.14	2.219
286.51	0.322
286.87	0.972
287.24	-0.641
287.61	-1.080
287.98	2.034
288.35	0.465
288.72	2.294
289.08	-0.157
289.45	0.468
289.82	-1.242
290.19	-0.606
290.56	2.026
290.93	1.034
291.29	0.426
291.66	0.983
292.03	2.439
292.40	2.158
292.77	1.312
293.13	1.762
293.50	1.377
293.87	1.387
294.24	1.124
294.60	1.776
294.97	-1.108
295.34	0.000
295.71	-0.693
296.08	0.956
296.44	2.767
296.81	0.129
297.18	2.199
297.55	0.754
297.91	1.015
298.28	-0.128
298.65	0.906
299.02	1.233
299.38	-0.510
299.75	0.772
300.12	0.719
300.48	1.643
300.85	0.489
301.22	1.202
301.59	0.852
301.95	1.585
302.32	0.729
302.69	0.238
303.05	0.236
303.42	0.483
303.79	0.787
304.15	0.680
304.52	0.670
304.89	0.113
305.25	1.606
305.62	2.045
305.99	1.008
306.35	1.678
306.72	0.545
307.09	1.523
307.45	0.971
307.82	0.961
308.19	1.980
308.55	1.055
308.92	1.059
309.29	0.941
309.65	1.651
310.02	1.677
310.38	1.599
310.75	1.434
311.12	0.814
311.48	1.336
311.85	0.405
312.22	1.550
312.58	1.712
312.95	2.259
313.31	0.885
313.68	1.688
314.05	2.582
314.41	1.572
314.78	0.804
315.14	1.763
315.51	2.085
315.87	2.930
316.24	2.671
316.61	1.748
316.97	2.353
317.34	1.914
317.70	1.774
318.07	1.350
318.43	2.268
318.80	1.639
319.16	1.025
319.53	1.792
319.89	2.083
320.26	2.262
320.62	2.810
320.99	1.837
321.35	3.261
321.72	4.040
322.08	3.564
322.45	1.874
322.81	1.970
323.18	3.260
323.54	1.422
323.91	3.131
324.27	2.604
324.64	2.624
325.00	2.821
325.37	3.327
325.73	2.464
326.10	2.102
326.46	2.811
326.83	3.870
327.19	3.406
327.56	3.714
327.92	2.170
328.29	2.061
328.65	3.296
329.01	2.294
329.38	3.581
329.74	3.528
330.11	3.262
330.47	3.073
330.84	2.444
331.20	2.495
331.56	2.830
331.93	3.111
332.29	1.850
332.66	3.436
333.02	3.435
333.38	4.136
333.75	2.745
334.11	3.074
334.48	1.878
334.84	1.502
335.20	2.328
335.57	4.087
335.93	2.047
336.29	3.016
336.66	2.914
337.02	2.992
337.38	1.792
337.75	3.000
338.11	3.829
338.47	2.786
338.84	3.039
339.20	3.941
339.56	2.703
339.93	2.162
340.29	2.901
340.65	2.192
341.02	2.303
341.38	3.266
341.74	3.648
342.11	3.979
342.47	2.710
342.83	2.862
343.20	3.095
343.56	1.836
343.92	3.237
344.28	2.487
344.65	3.425
345.01	2.091
345.37	3.419
345.73	2.670
346.10	2.679
346.46	1.984
346.82	2.294
347.19	3.028
347.55	2.126
347.91	1.310
348.27	1.179
348.63	2.679
349.00	3.088
349.36	3.298
349.72	3.202
350.08	2.782
350.45	3.336
350.81	2.808
351.17	2.059
351.53	3.060
351.89	1.813
352.26	2.683
352.62	2.780
352.98	2.092
353.34	2.339
353.70	1.728
354.07	3.213
354.43	1.753
354.79	2.705
355.15	2.583
355.51	3.341
355.87	2.831
356.24	4.248
356.60	2.504
356.96	1.896
357.32	3.621
357.68	2.546
358.04	2.836
358.40	1.800
358.77	2.570
359.13	2.329
359.49	1.920
359.85	3.197
360.21	2.538
360.57	2.233
360.93	3.246
361.29	2.103
361.66	2.208
362.02	3.297
362.38	3.497
362.74	2.383
363.10	2.489
363.46	2.634
363.82	2.067
364.18	2.877
364.54	2.901
364.90	1.926
365.26	2.534
365.62	2.347
365.98	2.849
366.35	2.118
366.71	2.689
367.07	3.026
367.43	2.671
367.79	2.108
368.15	2.595
368.51	1.948
368.87	3.818
369.23	2.574
369.59	2.647
369.95	2.161
370.31	1.515
370.67	2.707
371.03	2.322
371.39	2.039
371.75	1.560
372.11	1.630
372.47	1.930
372.83	2.337
373.19	2.786
373.55	2.096
373.91	1.515
374.27	2.502
374.63	2.725
374.99	1.903
375.35	1.669
375.71	2.798
376.07	2.968
376.42	2.490
376.78	2.509
377.14	2.304
377.50	3.146
377.86	2.577
378.22	3.170
378.58	3.026
378.94	2.685
379.30	2.188
379.66	2.241
380.02	2.797
380.38	2.735
380.74	2.983
381.09	1.461
381.45	3.619
381.81	2.423
382.17	2.606
382.53	2.564
382.89	2.566
383.25	2.283
383.61	2.161
383.97	2.339
384.32	2.258
384.68	2.810
385.04	1.973
385.40	2.556
385.76	2.910
386.12	1.980
386.48	2.479
386.83	2.502
387.19	2.682
387.55	1.878
387.91	2.118
388.27	2.111
388.62	2.332
388.98	3.053
389.34	2.602
389.70	2.115
390.06	2.442
390.42	2.299
390.77	2.549
391.13	2.537
391.49	2.561
391.85	2.395
392.20	2.640
392.56	1.637
392.92	2.103
393.28	2.214
393.64	1.583
393.99	2.468
394.35	2.531
394.71	2.517
395.07	3.050
395.42	2.603
395.78	1.815
396.14	2.265
396.50	3.105
396.85	2.710
397.21	2.135
397.57	2.041
397.92	1.972
398.28	2.518
398.64	2.286
399.00	3.134
399.35	1.583
399.71	2.275
400.07	3.088
400.42	2.885
400.78	2.495
401.14	2.967
401.49	1.999
401.85	3.175
402.21	3.299
402.57	1.739
402.92	2.191
403.28	2.341
403.63	2.372
403.99	1.387
404.35	2.739
404.70	2.090
405.06	2.294
405.42	2.602
405.77	2.319
406.13	2.867
406.49	1.893
406.84	3.113
407.20	2.664
407.55	2.271
407.91	1.958
408.27	3.258
408.62	2.251
408.98	2.960
409.34	2.689
409.69	2.207
410.05	2.526
410.40	2.248
410.76	2.802
411.11	2.262
411.47	1.905
411.83	2.833
412.18	2.880
412.54	2.846
412.89	2.655
413.25	2.759
413.60	2.806
413.96	2.330
414.31	1.976
414.67	3.511
415.03	2.213
415.38	1.880
415.74	3.627
416.09	1.654
416.45	1.840
416.80	1.530
417.16	2.609
417.51	3.123
417.87	2.804
418.22	2.273
418.58	2.073
418.93	3.095
419.29	2.714
419.64	2.541
420.00	2.750
420.35	3.327
420.71	2.689
421.06	2.401
421.42	2.949
421.77	2.984
422.12	2.363
422.48	3.255
422.83	3.100
423.19	3.353
423.54	2.932
423.90	1.978
424.25	3.384
424.61	2.839
424.96	2.641
425.31	2.959
425.67	2.485
426.02	2.484
426.38	2.124
426.73	2.617
427.09	2.232
427.44	2.531
427.79	3.094
428.15	2.283
428.50	3.015
428.85	2.630
429.21	4.244
429.56	3.204
429.92	2.163
430.27	2.027
430.62	3.624
430.98	3.278
431.33	3.115
431.68	2.954
432.04	3.913
432.39	2.852
432.74	2.720
433.10	3.335
433.45	2.533
433.80	3.274
434.16	2.647
434.51	2.787
434.86	2.961
435.22	2.969
435.57	3.364
435.92	2.105
436.28	3.487
436.63	3.339
436.98	2.160
437.34	3.263
437.69	2.284
438.04	2.584
438.39	2.546
438.75	2.154
439.10	3.571
439.45	2.760
439.81	3.048
440.16	2.659
440.51	2.540
440.86	2.778
441.22	2.978
441.57	3.248
441.92	2.982
442.27	2.857
442.63	3.555
442.98	3.484
443.33	3.349
443.68	3.383
444.03	3.454
444.39	3.227
444.74	3.263
445.09	3.070
445.44	3.090
445.79	3.020
446.15	3.265
446.50	3.586
446.85	3.080
447.20	3.392
447.55	2.676
447.91	2.939
448.26	2.908
448.61	3.746
448.96	3.134
449.31	2.954
449.66	2.785
450.02	2.899
450.37	3.584
450.72	2.992
451.07	2.439
451.42	3.623
451.77	1.892
452.12	2.569
452.47	2.642
452.83	3.176
453.18	2.836
453.53	3.854
453.88	2.361
454.23	3.195
454.58	3.394
454.93	2.657
455.28	2.987
455.63	3.249
455.98	3.363
456.34	3.014
456.69	2.640
457.04	2.165
457.39	3.745
457.74	2.339
458.09	2.489
458.44	3.617
458.79	2.473
459.14	4.055
459.49	3.121
459.84	3.686
460.19	3.377
460.54	3.220
460.89	2.471
461.24	3.052
461.59	3.407
461.94	3.287
462.29	3.070
462.64	3.203
462.99	2.321
463.34	2.784
463.69	2.881
464.04	3.784
464.39	3.344
464.74	3.180
465.09	3.794
465.44	2.999
465.79	3.129
466.14	2.267
466.49	3.748
466.84	3.501
467.19	3.964
467.54	2.851
467.89	3.070
468.24	2.904
468.59	3.861
468.94	3.161
469.29	2.768
469.64	3.209
469.99	2.884
470.34	2.263
470.68	2.154
471.03	2.190
471.38	3.366
471.73	3.634
472.08	3.488
472.43	2.835
472.78	2.030
473.13	3.649
473.48	2.628
473.83	3.699
474.17	2.335
474.52	3.282
474.87	3.157
475.22	4.066
475.57	3.819
475.92	3.354
476.27	3.014
476.61	4.610
476.96	4.149
477.31	2.511
477.66	3.835
478.01	2.295
478.36	3.496
478.70	4.282
479.05	2.902
479.40	3.538
479.75	3.365
480.10	2.976
480.45	3.665
480.79	3.217
481.14	2.688
481.49	3.959
481.84	3.535
482.19	3.463
482.53	3.627
482.88	3.406
483.23	4.171
483.58	3.564
483.92	3.719
484.27	3.582
484.62	3.772
484.97	3.647
485.31	3.751
485.66	3.876
486.01	3.808
486.36	3.673
486.70	3.672
487.05	3.769
487.40	3.445
487.75	3.607
488.09	3.728
488.44	3.182
488.79	4.128
489.13	3.491
489.48	3.666
489.83	3.606
490.17	3.657
490.52	3.633
490.87	3.561
491.22	4.191
491.56	3.409
491.91	3.665
492.26	3.468
492.60	3.520
492.95	3.799
493.30	3.973
493.64	3.296
493.99	4.158
494.34	4.562
494.68	3.271
495.03	3.093
495.37	4.207
495.72	3.586
496.07	3.803
496.41	2.964
496.76	3.820
497.11	4.234
497.45	3.968
497.80	3.634
498.14	4.329
498.49	3.951
498.84	3.145
499.18	3.529
499.53	4.154
499.87	3.840
500.22	3.429
500.56	3.715
500.91	4.143
501.26	3.570
501.60	4.281
501.95	3.122
502.29	3.335
502.64	4.380
502.98	3.635
503.33	3.495
503.67	3.114
504.02	4.545
504.36	3.698
504.71	3.351
505.06	3.428
505.40	4.075
505.75	3.949
506.09	3.684
506.44	3.916
506.78	3.747
507.13	3.692
507.47	3.823
507.82	3.292
508.16	3.786
508.51	4.431
508.85	4.341
509.19	3.675
509.54	3.853
509.88	3.567
510.23	3.708
510.57	3.805
510.92	3.968
511.26	3.791
511.61	3.710
511.95	3.644
512.30	4.348
512.64	3.930
512.98	3.780
513.33	3.927
513.67	2.934
514.02	3.125
514.36	4.448
514.70	4.736
515.05	3.902
515.39	4.078
515.74	3.885
516.08	3.264
516.42	4.351
516.77	4.099
517.11	3.486
517.46	4.497
517.80	4.786
518.14	4.807
518.49	3.752
518.83	4.410
519.17	4.692
519.52	3.873
519.86	3.990
520.20	3.949
520.55	5.157
520.89	4.858
521.23	4.075
521.58	4.233
521.92	3.805
522.26	4.192
522.61	4.915
522.95	4.110
523.29	4.251
523.64	4.410
523.98	3.898
524.32	5.185
524.66	4.283
525.01	4.124
525.35	4.104
525.69	4.955
526.04	4.722
526.38	4.455
526.72	5.278
527.06	4.501
527.41	3.544
527.75	4.307
528.09	4.102
528.43	4.607
528.78	3.424
529.12	4.795
529.46	4.784
529.80	3.948
530.15	4.864
530.49	5.091
530.83	3.688
531.17	4.732
531.51	5.211
531.86	4.692
532.20	4.401
532.54	4.676
532.88	3.855
533.22	4.598
533.57	4.483
533.91	4.886
534.25	4.616
534.59	4.814
534.93	4.567
535.27	4.377
535.62	4.389
535.96	4.955
536.30	4.106
536.64	4.578
536.98	2.876
537.32	4.018
537.66	5.059
538.01	4.124
538.35	4.218
538.69	4.105
539.03	4.686
539.37	3.661
539.71	4.783
540.05	4.776
540.39	4.430
540.73	4.615
541.07	4.044
541.42	5.417
541.76	4.173
542.10	4.735
542.44	5.347
542.78	4.179
543.12	4.477
543.46	4.844
543.80	5.432
544.14	5.305
544.48	4.912
544.82	4.542
545.16	5.145
545.50	4.585
545.84	6.218
546.18	4.345
546.52	4.074
546.86	4.361
547.20	5.152
547.54	5.080
547.88	5.271
548.22	4.923
548.56	5.638
548.90	5.193
549.24	5.044
549.58	5.961
549.92	5.564
550.26	5.869
550.60	5.868
550.94	4.524
551.28	5.203
551.62	5.242
551.96	4.952
552.30	4.729
552.64	4.132
552.98	4.903
553.32	4.773
553.66	5.463
554.00	3.938
554.34	4.609
554.68	3.987
555.02	4.683
555.36	3.971
555.69	4.151
556.03	5.691
556.37	5.026
556.71	5.053
557.05	5.000
557.39	4.177
557.73	4.638
558.07	5.008
558.41	4.070
558.75	5.311
559.08	4.681
559.42	4.013
559.76	3.960
560.10	5.216
560.44	4.909
560.78	4.583
561.12	3.606
561.45	4.018
561.79	4.112
562.13	5.263
562.47	4.358
562.81	5.080
563.15	4.183
563.48	4.944
563.82	4.512
564.16	4.209
564.50	4.943
564.84	5.386
565.17	5.794
565.51	5.208
565.85	5.493
566.19	5.080
566.52	4.373
566.86	5.464
567.20	3.925
567.54	4.403
567.88	4.672
568.21	5.275
568.55	5.093
568.89	4.396
569.23	5.070
569.56	5.425
569.90	4.625
570.24	4.965
570.57	4.891
570.91	5.204
571.25	5.510
571.59	4.984
571.92	4.744
572.26	5.122
572.60	4.747
572.93	4.944
573.27	4.867
573.61	4.766
573.95	4.583
574.28	4.745
574.62	5.269
574.96	4.511
575.29	4.724
575.63	4.991
575.97	4.393
576.30	4.772
576.64	4.300
576.98	4.935
577.31	4.851
577.65	4.673
577.98	4.495
578.32	4.741
578.66	4.939
578.99	5.254
579.33	4.705
579.67	4.825
580.00	4.699
580.34	5.160
580.67	5.036
581.01	4.832
581.35	4.892
581.68	4.753
582.02	4.583
582.35	4.856
582.69	5.158
583.02	4.791
583.36	4.571
583.70	4.995
584.03	4.897
584.37	5.138
584.70	4.936
585.04	4.576
585.37	5.213
585.71	4.884
586.04	4.816
586.38	5.285
586.72	4.739
587.05	5.117
587.39	5.283
587.72	4.696
588.06	4.962
588.39	5.200
588.73	4.622
589.06	4.712
589.40	4.998
589.73	5.161
590.07	5.188
590.40	4.745
590.73	4.915
591.07	5.065
591.40	4.660
591.74	4.944
592.07	5.110
592.41	4.827
592.74	4.729
593.08	4.433
593.41	5.279
593.75	5.629
594.08	5.113
594.41	4.748
594.75	5.129
595.08	5.259
595.42	5.407
595.75	5.038
596.09	4.684
596.42	4.863
596.75	5.318
597.09	4.711
597.42	4.364
597.75	5.113
598.09	5.290
598.42	5.017
598.76	5.055
599.09	4.916
599.42	4.839
599.76	4.943
600.09	5.140
600.42	4.961
600.76	5.119
601.09	4.863
601.42	5.193
601.76	4.870
602.09	5.195
602.42	5.211
602.76	4.843
603.09	5.048
603.42	4.898
603.76	4.364
604.09	5.013
604.42	5.453
604.76	5.112
605.09	4.676
605.42	5.403
605.75	4.431
606.09	5.156
606.42	4.724
606.75	4.885
607.09	5.084
607.42	5.828
607.75	5.280
608.08	5.005
608.42	5.141
608.75	4.602
609.08	3.786
609.41	5.806
609.75	4.581
610.08	4.806
610.41	4.580
610.74	5.207
611.07	5.130
611.41	4.872
611.74	4.897
612.07	5.078
612.40	5.682
612.73	4.861
613.07	5.109
613.40	5.290
613.73	4.410
614.06	4.274
614.39	5.741
614.72	5.254
615.06	6.085
615.39	4.792
615.72	4.367
616.05	4.580
616.38	4.567
616.71	4.789
617.05	5.276
617.38	4.452
617.71	5.879
618.04	4.731
618.37	4.513
618.70	5.027
619.03	5.439
619.36	5.817
619.69	4.277
620.03	5.492
620.36	5.140
620.69	4.878
621.02	4.434
621.35	5.702
621.68	4.680
622.01	4.011
622.34	4.690
622.67	5.228
623.00	4.996
623.33	5.748
623.66	5.179
623.99	5.263
624.32	5.401
624.65	4.844
624.99	4.141
625.32	5.845
625.65	5.044
625.98	5.667
626.31	4.589
626.64	5.225
626.97	5.882
627.30	4.722
627.63	5.395
627.96	5.214
628.29	4.302
628.62	4.330
628.95	4.435
629.28	4.855
629.61	4.911
629.94	5.705
630.26	4.812
630.59	6.702
630.92	4.320
631.25	5.028
631.58	4.767
631.91	4.670
632.24	3.905
632.57	6.659
632.90	5.781
633.23	6.065
633.56	6.289
633.89	4.617
634.22	5.128
634.55	4.599
634.88	6.158
635.20	4.521
635.53	5.447
635.86	7.337
636.19	4.638
636.52	5.391
636.85	3.781
637.18	5.052
637.51	6.098
637.83	5.587
638.16	4.552
638.49	5.043
638.82	4.501
639.15	6.714
639.48	4.803
639.81	4.620
640.13	5.513
640.46	4.724
640.79	5.891
641.12	6.512
641.45	5.288
641.77	4.299
642.10	5.212
642.43	5.556
642.76	6.093
643.09	4.844
643.41	3.405
643.74	5.208
644.07	1.940
644.40	3.249
644.73	3.499
645.05	3.244
645.38	4.808
645.71	6.298
646.04	6.134
646.36	2.083
646.69	5.996
647.02	6.250
647.35	3.600
647.67	7.014
648.00	7.184
648.33	4.046
648.66	3.525
648.98	4.915
649.31	5.508
649.64	6.540
649.96	5.743
650.29	3.009
650.62	2.041
650.94	5.915
651.27	3.661
651.60	3.824
651.92	4.580
652.25	1.912
652.58	3.950
652.90	4.093
653.23	2.742
653.56	5.729
653.88	5.474
654.21	4.348
654.54	4.128
