SpectraSuite Data File
++++++++++++++++++++++++++++++++++++
Date: Wed May 13 19:42:07 PDT 2015
User: schluterlab
Dark Spectrum Present: Yes
Reference Spectrum Present: Yes
Number of Sampled Component Spectra: 1
Spectrometers: USB2E3373
Integration Time (usec): 3000 (USB2E3373)
Spectra Averaged: 3 (USB2E3373)
Boxcar Smoothing: 0 (USB2E3373)
Correct for Electrical Dark: No (USB2E3373)
Strobe/Lamp Enabled: No (USB2E3373)
Correct for Detector Non-linearity: No (USB2E3373)
Correct for Stray Light: No (USB2E3373)
Number of Pixels in Processed Spectrum: 2048
>>>>>Begin Processed Spectral Data<<<<<
178.53	0.000
178.91	-1450.000
179.29	-1275.000
179.67	-255.556
180.04	-1225.000
180.42	2350.000
180.80	1080.000
181.18	-1000.000
181.56	657.143
181.94	0.000
182.31	-714.286
182.69	1833.333
183.07	-662.500
183.45	-611.111
183.83	536.364
184.20	-470.000
184.58	2500.000
184.96	4600.000
185.34	-880.000
185.72	-675.000
186.09	-2150.000
186.47	2750.000
186.85	2450.000
187.23	5800.000
187.61	-1933.333
187.98	1375.000
188.36	609.091
188.74	536.364
189.12	-920.000
189.49	650.000
189.87	-4600.000
190.25	-1175.000
190.63	364.286
191.00	500.000
191.38	816.667
191.76	-1350.000
192.14	1250.000
192.51	650.000
192.89	950.000
193.27	600.000
193.65	-1100.000
194.02	490.000
194.40	1180.000
194.78	620.000
195.15	508.333
195.53	630.000
195.91	-2300.000
196.29	343.750
196.66	357.895
197.04	-330.000
197.42	0.000
197.79	600.000
198.17	-6200.000
198.55	714.286
198.92	700.000
199.30	1040.000
199.68	0.000
200.05	350.000
200.43	800.000
200.81	5100.000
201.18	1666.667
201.56	-1733.333
201.94	555.556
202.31	566.667
202.69	408.333
203.07	500.000
203.44	0.000
203.82	1325.000
204.19	828.571
204.57	457.143
204.95	725.000
205.32	1533.333
205.70	509.091
206.08	457.143
206.45	2650.000
206.83	368.750
207.20	966.667
207.58	840.000
207.96	305.556
208.33	812.500
208.71	-966.667
209.08	914.286
209.46	544.444
209.84	472.727
210.21	-1466.667
210.59	1400.000
210.96	-487.500
211.34	2750.000
211.71	650.000
212.09	850.000
212.46	0.000
212.84	1966.667
213.22	1500.000
213.59	-4100.000
213.97	883.333
214.34	785.714
214.72	736.364
215.09	1260.000
215.47	-2350.000
215.84	-2450.000
216.22	1533.333
216.59	457.143
216.97	1400.000
217.34	518.182
217.72	-800.000
218.09	0.000
218.47	-4900.000
218.84	666.667
219.22	785.714
219.59	1933.333
219.97	-728.571
220.34	1120.000
220.72	-1866.667
221.09	428.571
221.47	1525.000
221.84	-983.333
222.22	0.000
222.59	1250.000
222.97	-2500.000
223.34	1120.000
223.72	384.615
224.09	1120.000
224.46	2100.000
224.84	-5300.000
225.21	-820.000
225.59	-5400.000
225.96	580.000
226.34	320.000
226.71	2850.000
227.08	700.000
227.46	530.000
227.83	-1225.000
228.21	-2550.000
228.58	622.222
228.95	-2750.000
229.33	-2400.000
229.70	1800.000
230.08	885.714
230.45	-960.000
230.82	475.000
231.20	816.667
231.57	714.286
231.95	450.000
232.32	254.545
232.69	427.273
233.07	657.143
233.44	353.846
233.81	-1433.333
234.19	342.105
234.56	500.000
234.93	416.667
235.31	463.636
235.68	276.923
236.05	364.286
236.43	190.909
236.80	236.842
237.17	4200.000
237.55	300.000
237.92	203.571
238.29	223.810
238.67	183.871
239.04	206.897
239.41	122.222
239.79	115.217
240.16	126.190
240.53	156.818
240.91	109.804
241.28	118.000
241.65	98.000
242.02	88.406
242.40	87.097
242.77	78.333
243.14	78.495
243.51	77.528
243.89	72.941
244.26	60.000
244.63	60.215
245.00	55.319
245.38	56.436
245.75	57.944
246.12	55.963
246.49	54.745
246.87	53.600
247.24	49.231
247.61	46.429
247.98	49.020
248.36	42.568
248.73	47.771
249.10	50.955
249.47	39.548
249.84	41.176
250.22	45.989
250.59	40.237
250.96	45.455
251.33	39.336
251.70	42.079
252.08	40.000
252.45	34.081
252.82	32.609
253.19	40.000
253.56	34.118
253.94	34.025
254.31	34.766
254.68	34.231
255.05	34.686
255.42	32.114
255.79	33.456
256.16	35.018
256.54	32.509
256.91	32.384
257.28	28.777
257.65	28.713
258.02	31.988
258.39	28.076
258.76	29.431
259.14	27.976
259.51	29.483
259.88	28.261
260.25	26.888
260.62	26.012
260.99	27.329
261.36	28.829
261.73	25.215
262.10	25.872
262.47	32.113
262.85	25.627
263.22	21.368
263.59	29.345
263.96	25.275
264.33	26.632
264.70	24.737
265.07	27.110
265.44	23.990
265.81	24.574
266.18	26.884
266.55	24.878
266.92	25.307
267.29	23.843
267.66	24.083
268.03	26.136
268.40	25.935
268.77	22.912
269.14	23.874
269.51	26.411
269.88	23.543
270.25	26.411
270.62	22.697
270.99	24.946
271.36	25.107
271.73	22.196
272.10	24.130
272.47	25.376
272.84	22.078
273.21	22.851
273.58	21.397
273.95	21.803
274.32	21.488
274.69	23.983
275.06	22.835
275.43	22.340
275.80	21.844
276.17	22.811
276.54	22.869
276.91	20.949
277.28	21.094
277.65	23.017
278.02	20.704
278.39	23.438
278.76	20.909
279.13	22.075
279.50	22.533
279.87	22.510
280.23	23.553
280.60	20.503
280.97	21.996
281.34	20.531
281.71	22.364
282.08	22.265
282.45	20.909
282.82	21.137
283.19	19.964
283.56	21.053
283.92	23.689
284.29	20.811
284.66	21.779
285.03	22.242
285.40	19.190
285.77	20.370
286.14	20.035
286.51	20.833
286.87	20.513
287.24	20.847
287.61	20.706
287.98	21.266
288.35	17.591
288.72	19.938
289.08	21.440
289.45	17.957
289.82	18.699
290.19	17.425
290.56	17.611
290.93	15.861
291.29	18.865
291.66	20.501
292.03	19.041
292.40	19.236
292.77	18.195
293.13	19.403
293.50	18.076
293.87	17.333
294.24	16.000
294.60	17.322
294.97	15.843
295.34	18.054
295.71	17.756
296.08	16.952
296.44	16.644
296.81	16.116
297.18	16.802
297.55	14.908
297.91	15.435
298.28	16.332
298.65	17.755
299.02	16.206
299.38	14.343
299.75	13.612
300.12	14.687
300.48	15.750
300.85	16.153
301.22	15.541
301.59	15.152
301.95	15.113
302.32	15.276
302.69	16.249
303.05	15.030
303.42	13.333
303.79	15.289
304.15	13.054
304.52	13.905
304.89	14.866
305.25	13.805
305.62	14.949
305.99	14.876
306.35	14.541
306.72	14.238
307.09	14.650
307.45	15.991
307.82	13.058
308.19	15.011
308.55	14.887
308.92	13.749
309.29	13.622
309.65	14.528
310.02	14.482
310.38	13.656
310.75	14.678
311.12	14.125
311.48	15.465
311.85	15.933
312.22	15.193
312.58	14.657
312.95	17.001
313.31	14.951
313.68	15.177
314.05	17.061
314.41	15.678
314.78	15.206
315.14	15.889
315.51	15.757
315.87	17.228
316.24	15.492
316.61	16.569
316.97	16.830
317.34	16.438
317.70	18.164
318.07	17.998
318.43	18.493
318.80	18.463
319.16	19.492
319.53	18.762
319.89	21.143
320.26	21.100
320.62	20.734
320.99	20.404
321.35	21.818
321.72	20.431
322.08	22.310
322.45	22.488
322.81	22.868
323.18	24.181
323.54	23.933
323.91	25.283
324.27	24.665
324.64	24.884
325.00	24.887
325.37	26.570
325.73	26.840
326.10	26.655
326.46	25.538
326.83	27.092
327.19	27.498
327.56	27.787
327.92	29.309
328.29	28.749
328.65	29.742
329.01	29.422
329.38	29.602
329.74	29.086
330.11	28.558
330.47	31.221
330.84	30.607
331.20	29.690
331.56	30.642
331.93	31.852
332.29	30.612
332.66	30.796
333.02	31.079
333.38	31.617
333.75	31.194
334.11	31.139
334.48	31.056
334.84	34.191
335.20	31.909
335.57	31.460
335.93	31.607
336.29	32.601
336.66	31.470
337.02	32.036
337.38	33.889
337.75	33.333
338.11	31.871
338.47	32.965
338.84	34.464
339.20	32.202
339.56	33.850
339.93	33.636
340.29	33.424
340.65	33.779
341.02	34.293
341.38	34.609
341.74	33.772
342.11	33.362
342.47	33.833
342.83	34.503
343.20	34.026
343.56	33.698
343.92	33.772
344.28	33.929
344.65	34.308
345.01	33.333
345.37	33.705
345.73	33.841
346.10	35.209
346.46	35.593
346.82	34.432
347.19	34.419
347.55	33.662
347.91	34.061
348.27	35.333
348.63	35.117
349.00	34.142
349.36	34.483
349.72	34.884
350.08	34.522
350.45	35.557
350.81	35.256
351.17	34.846
351.53	34.398
351.89	34.158
352.26	35.201
352.62	34.483
352.98	35.089
353.34	36.647
353.70	35.925
354.07	35.161
354.43	33.968
354.79	35.800
355.15	35.834
355.51	37.570
355.87	37.224
356.24	36.808
356.60	36.087
356.96	36.766
357.32	37.531
357.68	37.008
358.04	35.709
358.40	36.105
358.77	35.915
359.13	35.833
359.49	36.078
359.85	34.762
360.21	36.922
360.57	37.354
360.93	35.615
361.29	36.508
361.66	36.997
362.02	35.896
362.38	38.555
362.74	36.756
363.10	37.010
363.46	37.344
363.82	37.037
364.18	37.151
364.54	37.444
364.90	36.615
365.26	37.721
365.62	37.180
365.98	36.961
366.35	36.246
366.71	37.527
367.07	37.873
367.43	38.679
367.79	37.830
368.15	39.224
368.51	37.500
368.87	38.901
369.23	38.771
369.59	38.595
369.95	37.132
370.31	37.464
370.67	38.043
371.03	39.625
371.39	38.776
371.75	39.632
372.11	37.696
372.47	40.103
372.83	40.058
373.19	38.728
373.55	39.837
373.91	40.059
374.27	37.869
374.63	37.964
374.99	40.113
375.35	38.311
375.71	39.205
376.07	39.232
376.42	40.234
376.78	40.292
377.14	39.484
377.50	39.536
377.86	38.364
378.22	39.886
378.58	39.411
378.94	38.592
379.30	39.822
379.66	39.911
380.02	40.356
380.38	39.405
380.74	41.176
381.09	40.098
381.45	40.012
381.81	41.093
382.17	40.510
382.53	40.692
382.89	42.037
383.25	40.588
383.61	42.007
383.97	41.588
384.32	41.110
384.68	40.520
385.04	40.197
385.40	41.796
385.76	41.339
386.12	41.904
386.48	41.661
386.83	43.618
387.19	42.486
387.55	40.507
387.91	43.108
388.27	41.692
388.62	42.041
388.98	42.015
389.34	42.616
389.70	42.244
390.06	42.522
390.42	42.023
390.77	42.239
391.13	42.948
391.49	42.322
391.85	41.566
392.20	41.514
392.56	41.856
392.92	42.554
393.28	41.775
393.64	42.566
393.99	42.211
394.35	42.494
394.71	43.036
395.07	42.804
395.42	43.016
395.78	43.575
396.14	42.706
396.50	43.358
396.85	43.420
397.21	42.602
397.57	42.405
397.92	43.570
398.28	41.928
398.64	43.250
399.00	43.089
399.35	41.117
399.71	43.229
400.07	42.756
400.42	42.945
400.78	43.727
401.14	42.195
401.49	43.463
401.85	42.166
402.21	42.216
402.57	42.443
402.92	43.884
403.28	43.660
403.63	43.255
403.99	43.248
404.35	43.636
404.70	42.086
405.06	42.458
405.42	44.354
405.77	42.229
406.13	42.269
406.49	42.992
406.84	41.760
407.20	41.667
407.55	43.331
407.91	43.867
408.27	43.523
408.62	42.565
408.98	43.444
409.34	43.604
409.69	42.645
410.05	42.627
410.40	42.446
410.76	43.369
411.11	42.642
411.47	43.003
411.83	42.822
412.18	41.558
412.54	43.026
412.89	42.289
413.25	40.673
413.60	42.434
413.96	41.409
414.31	42.527
414.67	42.395
415.03	41.921
415.38	42.010
415.74	41.350
416.09	43.370
416.45	42.169
416.80	43.093
417.16	43.566
417.51	43.265
417.87	41.233
418.22	42.524
418.58	42.544
418.93	42.076
419.29	41.630
419.64	41.940
420.00	41.402
420.35	41.507
420.71	41.721
421.06	41.766
421.42	40.936
421.77	40.471
422.12	40.707
422.48	40.097
422.83	42.225
423.19	40.221
423.54	41.207
423.90	41.101
424.25	40.927
424.61	40.298
424.96	42.449
425.31	41.362
425.67	39.888
426.02	39.257
426.38	40.842
426.73	39.731
427.09	40.486
427.44	40.196
427.79	39.218
428.15	40.357
428.50	39.848
428.85	40.346
429.21	39.923
429.56	39.502
429.92	39.507
430.27	39.126
430.62	38.505
430.98	39.699
431.33	39.124
431.68	38.534
432.04	38.392
432.39	39.292
432.74	38.779
433.10	38.993
433.45	39.417
433.80	38.747
434.16	38.996
434.51	38.789
434.86	39.225
435.22	38.633
435.57	38.723
435.92	37.215
436.28	39.027
436.63	38.742
436.98	37.951
437.34	38.760
437.69	39.382
438.04	38.392
438.39	37.672
438.75	39.396
439.10	38.492
439.45	37.426
439.81	37.523
440.16	37.436
440.51	37.727
440.86	38.622
441.22	37.597
441.57	36.890
441.92	37.871
442.27	37.460
442.63	36.651
442.98	37.634
443.33	35.652
443.68	36.448
444.03	36.603
444.39	35.930
444.74	36.255
445.09	36.334
445.44	36.085
445.79	36.418
446.15	35.839
446.50	37.318
446.85	35.046
447.20	35.696
447.55	35.790
447.91	35.797
448.26	35.893
448.61	35.953
448.96	35.825
449.31	36.108
449.66	34.834
450.02	35.376
450.37	34.410
450.72	35.533
451.07	33.943
451.42	33.799
451.77	34.762
452.12	34.353
452.47	34.639
452.83	34.848
453.18	33.557
453.53	33.890
453.88	33.786
454.23	34.250
454.58	34.767
454.93	34.266
455.28	33.915
455.63	33.556
455.98	34.048
456.34	33.480
456.69	34.001
457.04	33.684
457.39	32.671
457.74	32.095
458.09	33.870
458.44	32.269
458.79	31.399
459.14	32.731
459.49	32.049
459.84	31.967
460.19	32.174
460.54	31.134
460.89	31.761
461.24	32.726
461.59	32.830
461.94	31.874
462.29	32.641
462.64	31.270
462.99	31.034
463.34	31.867
463.69	32.083
464.04	31.652
464.39	30.609
464.74	30.541
465.09	31.846
465.44	29.751
465.79	30.593
466.14	30.706
466.49	29.366
466.84	30.414
467.19	30.416
467.54	30.687
467.89	29.652
468.24	29.785
468.59	30.403
468.94	29.016
469.29	29.692
469.64	30.455
469.99	30.108
470.34	29.987
470.68	30.172
471.03	29.252
471.38	29.951
471.73	30.047
472.08	29.211
472.43	28.518
472.78	28.637
473.13	28.498
473.48	28.090
473.83	29.085
474.17	28.500
474.52	28.722
474.87	29.013
475.22	27.916
475.57	28.211
475.92	28.093
476.27	27.734
476.61	28.130
476.96	27.048
477.31	27.263
477.66	26.969
478.01	27.182
478.36	26.758
478.70	26.376
479.05	27.316
479.40	27.584
479.75	27.199
480.10	26.491
480.45	26.368
480.79	25.991
481.14	26.076
481.49	25.724
481.84	25.972
482.19	25.988
482.53	25.826
482.88	25.128
483.23	25.841
483.58	25.341
483.92	25.773
484.27	24.706
484.62	25.345
484.97	24.557
485.31	24.760
485.66	23.427
486.01	22.771
486.36	22.430
486.70	22.328
487.05	22.598
487.40	22.651
487.75	23.302
488.09	23.264
488.44	23.015
488.79	24.195
489.13	23.835
489.48	24.021
489.83	23.781
490.17	24.025
490.52	23.782
490.87	23.926
491.22	23.829
491.56	23.280
491.91	22.894
492.26	23.197
492.60	23.963
492.95	23.527
493.30	22.991
493.64	23.612
493.99	22.888
494.34	22.479
494.68	23.718
495.03	23.261
495.37	22.429
495.72	22.368
496.07	23.295
496.41	22.743
496.76	22.515
497.11	22.692
497.45	23.102
497.80	23.417
498.14	22.995
498.49	23.024
498.84	23.154
499.18	22.238
499.53	23.077
499.87	21.855
500.22	22.892
500.56	22.330
500.91	21.827
501.26	21.906
501.60	22.449
501.95	21.952
502.29	22.680
502.64	22.486
502.98	22.020
503.33	21.984
503.67	21.903
504.02	21.983
504.36	22.227
504.71	21.690
505.06	22.072
505.40	22.217
505.75	21.263
506.09	21.429
506.44	21.460
506.78	21.529
507.13	22.463
507.47	22.172
507.82	22.087
508.16	21.226
508.51	22.121
508.85	21.450
509.19	21.020
509.54	21.173
509.88	21.226
510.23	21.337
510.57	21.517
510.92	21.233
511.26	21.480
511.61	21.421
511.95	21.138
512.30	21.103
512.64	21.386
512.98	21.811
513.33	21.734
513.67	20.277
514.02	21.374
514.36	20.699
514.70	20.531
515.05	20.970
515.39	21.649
515.74	20.721
516.08	21.800
516.42	21.587
516.77	21.795
517.11	21.365
517.46	21.727
517.80	21.254
518.14	20.382
518.49	21.587
518.83	20.739
519.17	21.594
519.52	20.713
519.86	21.563
520.20	21.098
520.55	21.125
520.89	20.864
521.23	21.592
521.58	20.288
521.92	21.310
522.26	20.134
522.61	20.623
522.95	19.951
523.29	21.302
523.64	21.159
523.98	21.380
524.32	20.688
524.66	20.505
525.01	20.833
525.35	19.765
525.69	20.628
526.04	20.436
526.38	20.317
526.72	19.509
527.06	20.088
527.41	19.740
527.75	20.193
528.09	21.066
528.43	20.268
528.78	19.975
529.12	19.818
529.46	20.514
529.80	20.050
530.15	20.810
530.49	19.569
530.83	20.316
531.17	21.475
531.51	21.595
531.86	19.806
532.20	20.860
532.54	20.436
532.88	20.026
533.22	19.738
533.57	19.753
533.91	19.868
534.25	19.866
534.59	19.951
534.93	19.036
535.27	19.614
535.62	19.536
535.96	20.213
536.30	20.280
536.64	20.090
536.98	19.443
537.32	19.816
537.66	19.333
538.01	19.816
538.35	20.233
538.69	20.485
539.03	19.103
539.37	18.658
539.71	18.665
540.05	20.196
540.39	20.332
540.73	20.116
541.07	20.960
541.42	20.287
541.76	20.516
542.10	19.534
542.44	19.338
542.78	20.883
543.12	19.194
543.46	19.934
543.80	19.714
544.14	18.357
544.48	20.190
544.82	18.922
545.16	19.519
545.50	19.280
545.84	19.019
546.18	18.990
546.52	19.683
546.86	19.244
547.20	19.555
547.54	19.572
547.88	19.898
548.22	19.054
548.56	18.239
548.90	18.950
549.24	18.721
549.58	19.509
549.92	19.643
550.26	18.892
550.60	19.295
550.94	18.732
551.28	17.849
551.62	19.842
551.96	18.596
552.30	19.454
552.64	18.661
552.98	19.525
553.32	18.611
553.66	19.223
554.00	19.904
554.34	19.117
554.68	19.528
555.02	18.829
555.36	19.137
555.69	18.133
556.03	19.381
556.37	18.554
556.71	18.554
557.05	18.697
557.39	19.034
557.73	17.996
558.07	18.782
558.41	18.234
558.75	19.030
559.08	19.165
559.42	19.577
559.76	19.559
560.10	18.487
560.44	18.169
560.78	18.430
561.12	18.404
561.45	19.557
561.79	17.798
562.13	18.511
562.47	19.194
562.81	18.550
563.15	18.796
563.48	18.634
563.82	17.873
564.16	18.051
564.50	16.602
564.84	18.331
565.17	17.889
565.51	17.636
565.85	17.830
566.19	17.533
566.52	17.479
566.86	17.300
567.20	17.394
567.54	16.667
567.88	16.893
568.21	18.148
568.55	16.229
568.89	16.586
569.23	16.622
569.56	15.992
569.90	16.151
570.24	15.501
570.57	15.641
570.91	15.288
571.25	15.349
571.59	15.641
571.92	15.179
572.26	15.194
572.60	15.556
572.93	15.262
573.27	15.350
573.61	15.829
573.95	14.961
574.28	15.151
574.62	15.160
574.96	14.863
575.29	14.670
575.63	14.812
575.97	14.580
576.30	15.215
576.64	14.582
576.98	14.876
577.31	14.926
577.65	14.767
577.98	14.395
578.32	14.376
578.66	14.885
578.99	14.380
579.33	14.742
579.67	14.473
580.00	14.721
580.34	14.784
580.67	14.228
581.01	14.302
581.35	14.502
581.68	14.264
582.02	14.081
582.35	14.159
582.69	14.288
583.02	14.250
583.36	14.987
583.70	15.185
584.03	14.786
584.37	15.336
584.70	14.603
585.04	14.555
585.37	14.445
585.71	14.662
586.04	14.665
586.38	14.890
586.72	14.941
587.05	14.670
587.39	14.248
587.72	14.481
588.06	14.328
588.39	14.733
588.73	14.784
589.06	14.896
589.40	15.455
589.73	15.241
590.07	14.875
590.40	15.272
590.73	15.496
591.07	15.466
591.40	15.732
591.74	16.364
592.07	15.445
592.41	15.296
592.74	14.981
593.08	15.057
593.41	14.805
593.75	14.428
594.08	15.018
594.41	15.164
594.75	15.157
595.08	14.603
595.42	15.096
595.75	15.064
596.09	15.659
596.42	15.442
596.75	15.534
597.09	15.931
597.42	15.135
597.75	15.395
598.09	15.696
598.42	15.636
598.76	14.998
599.09	14.443
599.42	14.920
599.76	14.714
600.09	14.353
600.42	14.573
600.76	14.714
601.09	14.390
601.42	14.688
601.76	14.383
602.09	15.059
602.42	15.486
602.76	15.719
603.09	14.634
603.42	15.228
603.76	15.434
604.09	14.851
604.42	15.695
604.76	15.268
605.09	15.422
605.42	15.092
605.75	14.363
606.09	14.152
606.42	14.303
606.75	15.015
607.09	15.237
607.42	15.190
607.75	13.966
608.08	14.937
608.42	15.240
608.75	15.284
609.08	15.032
609.41	15.516
609.75	14.864
610.08	15.504
610.41	14.804
610.74	15.894
611.07	15.168
611.41	15.260
611.74	15.686
612.07	15.424
612.40	15.687
612.73	15.263
613.07	15.194
613.40	15.956
613.73	14.840
614.06	15.699
614.39	15.889
614.72	16.105
615.06	15.809
615.39	15.817
615.72	15.031
616.05	14.939
616.38	16.287
616.71	16.211
617.05	15.783
617.38	16.055
617.71	15.916
618.04	15.685
618.37	15.553
618.70	15.930
619.03	16.842
619.36	16.361
619.69	15.775
620.03	16.621
620.36	16.511
620.69	16.781
621.02	17.478
621.35	16.836
621.68	15.888
622.01	16.486
622.34	17.549
622.67	15.817
623.00	16.728
623.33	15.368
623.66	15.868
623.99	16.421
624.32	16.619
624.65	17.020
624.99	15.227
625.32	15.930
625.65	15.928
625.98	16.449
626.31	17.652
626.64	16.408
626.97	17.207
627.30	16.542
627.63	18.458
627.96	17.662
628.29	17.673
628.62	18.207
628.95	19.057
629.28	17.153
629.61	18.607
629.94	17.429
630.26	17.541
630.59	17.541
630.92	18.008
