SpectraSuite Data File
++++++++++++++++++++++++++++++++++++
Date: Wed May 13 19:40:06 PDT 2015
User: schluterlab
Dark Spectrum Present: Yes
Reference Spectrum Present: Yes
Number of Sampled Component Spectra: 1
Spectrometers: USB2E3373
Integration Time (usec): 3000 (USB2E3373)
Spectra Averaged: 3 (USB2E3373)
Boxcar Smoothing: 0 (USB2E3373)
Correct for Electrical Dark: No (USB2E3373)
Strobe/Lamp Enabled: No (USB2E3373)
Correct for Detector Non-linearity: No (USB2E3373)
Correct for Stray Light: No (USB2E3373)
Number of Pixels in Processed Spectrum: 2048
>>>>>Begin Processed Spectral Data<<<<<
178.53	0.000
178.91	-1275.000
179.29	-1400.000
179.67	-283.333
180.04	-1475.000
180.42	2750.000
180.80	1120.000
181.18	-950.000
181.56	657.143
181.94	0.000
182.31	-714.286
182.69	1666.667
183.07	-562.500
183.45	-544.444
183.83	490.909
184.20	-530.000
184.58	2650.000
184.96	6500.000
185.34	-920.000
185.72	-662.500
186.09	-1850.000
186.47	2900.000
186.85	2750.000
187.23	4700.000
187.61	-1900.000
187.98	1275.000
188.36	609.091
188.74	572.727
189.12	-880.000
189.49	650.000
189.87	-5300.000
190.25	-1200.000
190.63	450.000
191.00	446.154
191.38	850.000
191.76	-1325.000
192.14	1475.000
192.51	750.000
192.89	966.667
193.27	700.000
193.65	-1125.000
194.02	630.000
194.40	1020.000
194.78	510.000
195.15	491.667
195.53	570.000
195.91	-2750.000
196.29	400.000
196.66	331.579
197.04	-330.000
197.42	0.000
197.79	570.000
198.17	-4800.000
198.55	757.143
198.92	762.500
199.30	1060.000
199.68	0.000
200.05	344.444
200.43	871.429
200.81	4700.000
201.18	2133.333
201.56	-1700.000
201.94	477.778
202.31	566.667
202.69	458.333
203.07	530.000
203.44	0.000
203.82	1200.000
204.19	828.571
204.57	407.143
204.95	762.500
205.32	1566.667
205.70	572.727
206.08	350.000
206.45	3050.000
206.83	387.500
207.20	966.667
207.58	1000.000
207.96	372.222
208.33	750.000
208.71	-800.000
209.08	871.429
209.46	566.667
209.84	481.818
210.21	-1466.667
210.59	1550.000
210.96	-537.500
211.34	2100.000
211.71	660.000
212.09	950.000
212.46	0.000
212.84	1533.333
213.22	1350.000
213.59	-6000.000
213.97	766.667
214.34	857.143
214.72	609.091
215.09	920.000
215.47	-2250.000
215.84	-2300.000
216.22	1633.333
216.59	471.429
216.97	1500.000
217.34	527.273
217.72	-783.333
218.09	0.000
218.47	-4900.000
218.84	633.333
219.22	642.857
219.59	1900.000
219.97	-671.429
220.34	1040.000
220.72	-1900.000
221.09	442.857
221.47	1525.000
221.84	-966.667
222.22	0.000
222.59	1300.000
222.97	-2400.000
223.34	1340.000
223.72	469.231
224.09	880.000
224.46	2100.000
224.84	-5700.000
225.21	-1040.000
225.59	-5200.000
225.96	570.000
226.34	360.000
226.71	3000.000
227.08	637.500
227.46	610.000
227.83	-1175.000
228.21	-2950.000
228.58	622.222
228.95	-3050.000
229.33	-2800.000
229.70	2066.667
230.08	857.143
230.45	-860.000
230.82	458.333
231.20	816.667
231.57	685.714
231.95	508.333
232.32	277.273
232.69	390.909
233.07	685.714
233.44	330.769
233.81	-1600.000
234.19	305.263
234.56	475.000
234.93	408.333
235.31	418.182
235.68	392.308
236.05	292.857
236.43	160.606
236.80	268.421
237.17	5200.000
237.55	252.381
237.92	210.714
238.29	266.667
238.67	151.613
239.04	182.759
239.41	150.000
239.79	100.000
240.16	128.571
240.53	97.727
240.91	84.314
241.28	100.000
241.65	88.000
242.02	98.551
242.40	87.097
242.77	66.667
243.14	64.516
243.51	67.416
243.89	62.353
244.26	58.889
244.63	55.914
245.00	51.064
245.38	50.495
245.75	44.860
246.12	39.450
246.49	52.555
246.87	48.000
247.24	47.692
247.61	40.000
247.98	33.987
248.36	31.081
248.73	32.484
249.10	33.758
249.47	31.638
249.84	33.155
250.22	27.807
250.59	26.627
250.96	28.283
251.33	27.488
251.70	32.673
252.08	25.714
252.45	19.283
252.82	26.957
253.19	25.106
253.56	20.784
253.94	24.896
254.31	24.609
254.68	22.692
255.05	24.354
255.42	18.293
255.79	19.485
256.16	24.188
256.54	16.608
256.91	22.064
257.28	15.468
257.65	19.142
258.02	16.149
258.39	15.142
258.76	16.054
259.14	16.667
259.51	16.717
259.88	11.491
260.25	18.429
260.62	15.607
260.99	13.975
261.36	18.919
261.73	14.900
262.10	12.500
262.47	16.056
262.85	15.320
263.22	12.536
263.59	16.809
263.96	13.736
264.33	16.449
264.70	14.737
265.07	16.880
265.44	17.424
265.81	10.462
266.18	13.317
266.55	12.439
266.92	10.319
267.29	15.046
267.66	13.532
268.03	13.182
268.40	12.850
268.77	10.501
269.14	11.036
269.51	14.221
269.88	12.587
270.25	13.544
270.62	13.258
270.99	14.624
271.36	13.734
271.73	11.215
272.10	13.478
272.47	14.194
272.84	12.121
273.21	13.836
273.58	11.354
273.95	11.111
274.32	12.810
274.69	11.349
275.06	10.433
275.43	10.426
275.80	9.820
276.17	10.591
276.54	12.682
276.91	11.462
277.28	10.352
277.65	10.832
278.02	11.180
278.39	12.305
278.76	10.909
279.13	12.830
279.50	9.683
279.87	11.355
280.23	11.377
280.60	10.832
280.97	9.057
281.34	10.619
281.71	12.182
282.08	11.708
282.45	10.182
282.82	10.124
283.19	9.091
283.56	11.228
283.92	11.337
284.29	8.818
284.66	10.708
285.03	9.403
285.40	7.570
285.77	9.091
286.14	9.672
286.51	9.500
286.87	10.085
287.24	10.749
287.61	8.828
287.98	9.740
288.35	10.143
288.72	9.813
289.08	9.233
289.45	8.402
289.82	10.081
290.19	8.006
290.56	11.485
290.93	7.855
291.29	8.589
291.66	9.145
292.03	10.610
292.40	9.985
292.77	7.396
293.13	9.104
293.50	7.434
293.87	7.259
294.24	8.593
294.60	6.114
294.97	7.558
295.34	10.296
295.71	8.807
296.08	8.262
296.44	7.428
296.81	6.737
297.18	10.434
297.55	5.805
297.91	6.992
298.28	7.764
298.65	8.225
299.02	9.354
299.38	6.109
299.75	4.447
300.12	7.152
300.48	7.375
300.85	7.891
301.22	7.261
301.59	6.061
301.95	7.053
302.32	6.547
302.69	7.168
303.05	5.576
303.42	5.802
303.79	6.682
304.15	6.993
304.52	6.489
304.89	5.807
305.25	6.613
305.62	7.022
305.99	6.139
306.35	5.593
306.72	6.502
307.09	7.436
307.45	7.545
307.82	5.804
308.19	5.740
308.55	7.659
308.92	6.015
309.29	5.491
309.65	4.878
310.02	6.765
310.38	5.806
310.75	5.808
311.12	6.448
311.48	6.792
311.85	6.499
312.22	5.619
312.58	5.094
312.95	6.969
313.31	5.146
313.68	6.341
314.05	7.594
314.41	5.829
314.78	6.344
315.14	6.356
315.51	5.973
315.87	7.228
316.24	6.753
316.61	5.556
316.97	7.045
317.34	5.284
317.70	6.214
318.07	6.160
318.43	5.382
318.80	6.842
319.16	5.556
319.53	6.004
319.89	6.571
320.26	6.900
320.62	5.952
320.99	7.071
321.35	6.465
321.72	6.879
322.08	6.713
322.45	7.761
322.81	6.977
323.18	6.840
323.54	6.865
323.91	6.698
324.27	6.214
324.64	5.126
325.00	6.312
325.37	7.097
325.73	6.732
326.10	6.178
326.46	5.645
326.83	6.989
327.19	6.149
327.56	6.359
327.92	7.087
328.29	7.187
328.65	7.090
329.01	6.137
329.38	5.550
329.74	7.202
330.11	6.975
330.47	7.346
330.84	7.996
331.20	6.284
331.56	7.523
331.93	6.204
332.29	7.276
332.66	7.522
333.02	7.678
333.38	7.227
333.75	7.843
334.11	7.562
334.48	7.187
334.84	6.066
335.20	6.545
335.57	6.165
335.93	6.607
336.29	6.868
336.66	7.304
337.02	6.244
337.38	6.759
337.75	6.417
338.11	6.804
338.47	6.998
338.84	6.691
339.20	6.697
339.56	7.482
339.93	7.091
340.29	6.159
340.65	7.041
341.02	7.243
341.38	7.028
341.74	6.667
342.11	6.463
342.47	6.256
342.83	6.849
343.20	7.273
343.56	6.318
343.92	6.842
344.28	6.037
344.65	6.277
345.01	6.145
345.37	5.832
345.73	6.430
346.10	6.223
346.46	5.932
346.82	6.672
347.19	6.349
347.55	5.829
347.91	5.744
348.27	6.245
348.63	7.191
349.00	6.796
349.36	6.897
349.72	6.255
350.08	6.807
350.45	7.160
350.81	6.824
351.17	6.888
351.53	6.224
351.89	5.033
352.26	6.393
352.62	5.132
352.98	6.564
353.34	6.409
353.70	5.237
354.07	5.645
354.43	6.587
354.79	5.712
355.15	5.906
355.51	6.395
355.87	5.878
356.24	6.270
356.60	4.972
356.96	5.632
357.32	5.805
357.68	7.402
358.04	6.334
358.40	6.809
358.77	6.651
359.13	5.841
359.49	5.412
359.85	4.286
360.21	4.466
360.57	6.148
360.93	6.000
361.29	5.593
361.66	5.418
362.02	6.119
362.38	5.932
362.74	6.399
363.10	5.774
363.46	5.136
363.82	5.442
364.18	5.286
364.54	6.092
364.90	6.091
365.26	4.706
365.62	6.136
365.98	4.602
366.35	5.587
366.71	5.206
367.07	5.535
367.43	5.007
367.79	6.138
368.15	6.394
368.51	5.451
368.87	6.281
369.23	5.779
369.59	6.010
369.95	4.265
370.31	5.627
370.67	5.870
371.03	5.843
371.39	6.122
371.75	5.368
372.11	6.046
372.47	5.938
372.83	5.259
373.19	4.480
373.55	5.100
373.91	6.186
374.27	5.704
374.63	4.945
374.99	5.438
375.35	4.466
375.71	6.100
376.07	6.036
376.42	5.227
376.78	5.500
377.14	5.427
377.50	6.093
377.86	4.455
378.22	5.247
378.58	5.013
378.94	5.217
379.30	3.880
379.66	4.695
380.02	5.405
380.38	5.464
380.74	5.822
381.09	5.073
381.45	5.224
381.81	5.528
382.17	5.032
382.53	4.654
382.89	5.432
383.25	4.941
383.61	5.266
383.97	4.690
384.32	5.115
384.68	4.709
385.04	4.487
385.40	4.520
385.76	4.361
386.12	4.145
386.48	5.412
386.83	4.747
387.19	5.751
387.55	5.257
387.91	4.232
388.27	4.782
388.62	4.794
388.98	4.791
389.34	5.569
389.70	5.028
390.06	4.880
390.42	4.864
390.77	4.898
391.13	5.041
391.49	4.695
391.85	5.092
392.20	4.479
392.56	5.240
392.92	4.885
393.28	3.373
393.64	4.856
393.99	5.315
394.35	4.094
394.71	4.266
395.07	4.050
395.42	5.068
395.78	4.517
396.14	5.711
396.50	5.138
396.85	4.832
397.21	4.871
397.57	4.712
397.92	4.988
398.28	3.756
398.64	4.839
399.00	4.253
399.35	3.948
399.71	4.398
400.07	5.322
400.42	4.663
400.78	5.730
401.14	4.878
401.49	4.955
401.85	3.993
402.21	4.551
402.57	4.503
402.92	4.729
403.28	4.685
403.63	4.827
403.99	4.459
404.35	4.485
404.70	4.676
405.06	4.077
405.42	4.616
405.77	4.229
406.13	4.797
406.49	4.199
406.84	4.371
407.20	4.019
407.55	4.212
407.91	4.733
408.27	3.638
408.62	4.636
408.98	4.473
409.34	4.613
409.69	4.581
410.05	3.903
410.40	4.220
410.76	4.540
411.11	4.946
411.47	4.792
411.83	4.093
412.18	4.762
412.54	5.168
412.89	4.458
413.25	4.782
413.60	4.447
413.96	4.493
414.31	4.313
414.67	5.260
415.03	4.172
415.38	5.284
415.74	4.630
416.09	4.768
416.45	4.485
416.80	5.089
417.16	5.094
417.51	5.441
417.87	4.367
418.22	4.984
418.58	4.971
418.93	4.975
419.29	4.456
419.64	5.793
420.00	4.634
420.35	5.217
420.71	5.260
421.06	4.415
421.42	4.327
421.77	4.821
422.12	3.818
422.48	3.940
422.83	4.252
423.19	4.972
423.54	3.947
423.90	4.522
424.25	4.802
424.61	4.583
424.96	4.140
425.31	4.707
425.67	4.944
426.02	4.229
426.38	4.518
426.73	4.389
427.09	4.681
427.44	3.738
427.79	4.198
428.15	5.476
428.50	4.623
428.85	4.470
429.21	4.086
429.56	4.458
429.92	3.875
430.27	4.220
430.62	3.635
430.98	4.411
431.33	4.021
431.68	4.293
432.04	4.207
432.39	4.055
432.74	4.728
433.10	4.697
433.45	5.306
433.80	4.213
434.16	4.647
434.51	4.789
434.86	4.618
435.22	4.169
435.57	4.863
435.92	4.506
436.28	4.567
436.63	5.243
436.98	4.293
437.34	5.009
437.69	5.251
438.04	4.216
438.39	5.134
438.75	5.462
439.10	4.525
439.45	4.545
439.81	4.350
440.16	4.969
440.51	4.277
440.86	4.980
441.22	4.394
441.57	4.406
441.92	5.169
442.27	4.413
442.63	4.107
442.98	5.183
443.33	5.163
443.68	4.543
444.03	4.783
444.39	4.090
444.74	4.275
445.09	5.337
445.44	4.866
445.79	4.701
446.15	5.506
446.50	4.362
446.85	4.882
447.20	4.131
447.55	4.523
447.91	4.578
448.26	4.508
448.61	4.579
448.96	5.482
449.31	4.781
449.66	5.290
450.02	4.178
450.37	4.819
450.72	4.174
451.07	4.570
451.42	4.620
451.77	5.520
452.12	4.908
452.47	5.348
452.83	5.186
453.18	5.257
453.53	4.886
453.88	4.135
454.23	4.842
454.58	5.330
454.93	5.531
455.28	4.676
455.63	5.036
455.98	5.000
456.34	4.774
456.69	4.947
457.04	5.077
457.39	4.559
457.74	4.527
458.09	5.060
458.44	5.530
458.79	4.610
459.14	4.910
459.49	4.787
459.84	5.319
460.19	4.420
460.54	5.556
460.89	5.101
461.24	4.797
461.59	5.578
461.94	5.302
462.29	5.816
462.64	4.978
462.99	5.140
463.34	5.800
463.69	5.629
464.04	5.623
464.39	5.449
464.74	5.585
465.09	5.428
465.44	4.709
465.79	4.306
466.14	5.036
466.49	4.561
466.84	4.845
467.19	4.647
467.54	5.563
467.89	4.682
468.24	5.701
468.59	6.044
468.94	5.864
469.29	5.206
469.64	5.489
469.99	5.819
470.34	4.557
470.68	5.244
471.03	4.966
471.38	6.185
471.73	5.663
472.08	5.066
472.43	4.962
472.78	5.662
473.13	5.327
473.48	5.368
473.83	5.732
474.17	5.103
474.52	5.769
474.87	6.188
475.22	5.281
475.57	5.105
475.92	4.567
476.27	5.073
476.61	4.909
476.96	4.783
477.31	4.919
477.66	5.033
478.01	4.757
478.36	5.130
478.70	4.621
479.05	4.633
479.40	5.169
479.75	4.270
480.10	4.920
480.45	4.569
480.79	4.491
481.14	4.207
481.49	4.699
481.84	4.344
482.19	4.271
482.53	4.312
482.88	4.746
483.23	4.439
483.58	4.959
483.92	4.780
484.27	3.791
484.62	4.440
484.97	4.257
485.31	3.664
485.66	3.368
486.01	2.874
486.36	2.981
486.70	2.617
487.05	2.954
487.40	3.218
487.75	3.341
488.09	3.700
488.44	3.936
488.79	4.195
489.13	4.584
489.48	3.834
489.83	4.402
490.17	4.165
490.52	4.473
490.87	4.071
491.22	4.820
491.56	4.237
491.91	4.886
492.26	4.548
492.60	4.378
492.95	4.022
493.30	4.486
493.64	4.806
493.99	4.318
494.34	4.764
494.68	5.082
495.03	4.652
495.37	4.839
495.72	4.142
496.07	4.501
496.41	4.381
496.76	4.793
497.11	4.502
497.45	4.378
497.80	4.655
498.14	4.155
498.49	4.585
498.84	4.842
499.18	4.476
499.53	4.606
499.87	4.101
500.22	4.757
500.56	5.243
500.91	4.375
501.26	4.789
501.60	5.316
501.95	4.262
502.29	4.873
502.64	4.236
502.98	4.675
503.33	5.073
503.67	4.176
504.02	4.818
504.36	5.288
504.71	4.739
505.06	5.060
505.40	4.570
505.75	4.484
506.09	4.713
506.44	4.243
506.78	4.286
507.13	4.644
507.47	5.000
507.82	5.015
508.16	4.965
508.51	4.363
508.85	4.667
509.19	4.490
509.54	4.745
509.88	4.585
510.23	5.090
510.57	5.005
510.92	4.247
511.26	5.396
511.61	5.031
511.95	4.958
512.30	4.825
512.64	5.105
512.98	4.930
513.33	5.353
513.67	4.856
514.02	4.816
514.36	4.861
514.70	5.313
515.05	4.796
515.39	4.767
515.74	4.617
516.08	5.869
516.42	5.660
516.77	6.243
517.11	5.327
517.46	5.305
517.80	5.459
518.14	4.227
518.49	5.659
518.83	5.227
519.17	4.792
519.52	5.659
519.86	5.134
520.20	6.416
520.55	5.925
520.89	6.022
521.23	5.308
521.58	5.102
521.92	5.205
522.26	4.881
522.61	4.922
522.95	5.832
523.29	5.417
523.64	5.671
523.98	5.792
524.32	5.911
524.66	6.073
525.01	5.944
525.35	6.134
525.69	5.172
526.04	5.732
526.38	6.406
526.72	5.215
527.06	5.901
527.41	4.579
527.75	5.788
528.09	5.780
528.43	5.927
528.78	6.269
529.12	6.061
529.46	6.001
529.80	5.569
530.15	5.919
530.49	5.415
530.83	6.519
531.17	6.136
531.51	6.355
531.86	5.677
532.20	6.910
532.54	6.919
532.88	6.418
533.22	5.497
533.57	6.358
533.91	5.780
534.25	5.468
534.59	5.369
534.93	5.889
535.27	4.949
535.62	6.105
535.96	5.775
536.30	5.340
536.64	6.117
536.98	5.508
537.32	5.201
537.66	4.733
538.01	6.188
538.35	5.947
538.69	6.445
539.03	5.588
539.37	5.048
539.71	5.703
540.05	5.752
540.39	5.714
540.73	5.239
541.07	7.268
541.42	5.675
541.76	7.355
542.10	6.274
542.44	5.232
542.78	6.588
543.12	5.758
543.46	7.016
543.80	5.856
544.14	4.685
544.48	5.968
544.82	5.516
545.16	5.400
545.50	5.977
545.84	5.712
546.18	6.195
546.52	6.469
546.86	5.911
547.20	6.069
547.54	5.945
547.88	6.569
548.22	6.040
548.56	6.478
548.90	6.210
549.24	5.522
549.58	6.412
549.92	5.838
550.26	5.327
550.60	6.017
550.94	6.972
551.28	5.706
551.62	6.039
551.96	6.175
552.30	6.826
552.64	5.747
552.98	6.373
553.32	6.676
553.66	6.817
554.00	6.863
554.34	6.901
554.68	7.010
555.02	6.629
555.36	5.985
555.69	6.157
556.03	6.528
556.37	5.935
556.71	5.935
557.05	6.863
557.39	6.998
557.73	6.422
558.07	5.656
558.41	6.078
558.75	5.584
559.08	6.711
559.42	6.425
559.76	7.500
560.10	6.852
560.44	5.870
560.78	6.387
561.12	5.937
561.45	7.236
561.79	6.724
562.13	6.841
562.47	6.284
562.81	6.555
563.15	6.421
563.48	5.902
563.82	6.262
564.16	5.363
564.50	5.534
564.84	6.068
565.17	5.470
565.51	5.623
565.85	6.218
566.19	5.448
566.52	6.396
566.86	5.726
567.20	5.837
567.54	5.594
567.88	4.997
568.21	5.979
568.55	5.561
568.89	4.329
569.23	5.125
569.56	4.575
569.90	4.302
570.24	4.342
570.57	4.590
570.91	4.202
571.25	3.953
571.59	4.359
571.92	3.773
572.26	3.986
572.60	4.084
572.93	3.898
573.27	4.259
573.61	4.243
573.95	3.669
574.28	3.492
574.62	3.596
574.96	3.680
575.29	3.589
575.63	3.963
575.97	3.671
576.30	4.010
576.64	3.791
576.98	3.330
577.31	3.558
577.65	3.626
577.98	3.277
578.32	3.316
578.66	3.711
578.99	3.584
579.33	3.728
579.67	3.381
580.00	3.452
580.34	3.892
580.67	3.663
581.01	3.778
581.35	3.620
581.68	3.459
582.02	3.306
582.35	3.273
582.69	3.430
583.02	3.264
583.36	3.804
583.70	3.771
584.03	3.736
584.37	4.137
584.70	3.553
585.04	4.012
585.37	3.844
585.71	3.924
586.04	3.697
586.38	3.710
586.72	4.225
587.05	4.021
587.39	3.641
587.72	4.071
588.06	3.895
588.39	4.417
588.73	4.077
589.06	4.487
589.40	4.175
589.73	4.541
590.07	4.484
590.40	4.129
590.73	4.567
591.07	4.518
591.40	5.230
591.74	4.719
592.07	5.323
592.41	5.085
592.74	4.906
593.08	4.397
593.41	4.176
593.75	3.935
594.08	4.459
594.41	4.525
594.75	4.547
595.08	4.689
595.42	4.448
595.75	4.167
596.09	4.807
596.42	5.029
596.75	5.023
597.09	5.368
597.42	4.764
597.75	4.916
598.09	5.043
598.42	5.198
598.76	4.986
599.09	4.675
599.42	4.476
599.76	4.832
600.09	4.590
600.42	4.456
600.76	4.179
601.09	4.699
601.42	4.566
601.76	4.478
602.09	4.506
602.42	5.096
602.76	5.240
603.09	4.760
603.42	4.764
603.76	4.840
604.09	4.420
604.42	4.810
604.76	5.188
605.09	4.762
605.42	4.746
605.75	4.760
606.09	4.758
606.42	4.495
606.75	4.936
607.09	5.609
607.42	4.835
607.75	4.262
608.08	4.993
608.42	5.334
608.75	4.779
609.08	4.949
609.41	4.950
609.75	5.098
610.08	5.514
610.41	4.702
610.74	5.203
611.07	5.287
611.41	5.299
611.74	5.782
612.07	5.849
612.40	5.509
612.73	5.316
613.07	5.603
613.40	5.319
613.73	4.982
614.06	5.000
614.39	5.926
614.72	6.053
615.06	5.672
615.39	5.414
615.72	5.419
616.05	5.316
616.38	6.170
616.71	5.760
617.05	6.478
617.38	5.652
617.71	5.165
618.04	6.310
618.37	5.322
618.70	6.285
619.03	5.658
619.36	6.382
619.69	6.268
620.03	6.593
620.36	7.152
620.69	7.055
621.02	7.080
621.35	6.735
621.68	6.931
622.01	6.656
622.34	6.959
622.67	6.844
623.00	6.310
623.33	6.648
623.66	6.505
623.99	6.186
624.32	6.705
624.65	6.638
624.99	5.382
625.32	6.083
625.65	6.762
625.98	6.072
626.31	7.309
626.64	8.163
626.97	6.816
627.30	6.567
627.63	7.137
627.96	7.990
628.29	7.349
628.62	7.411
628.95	8.302
629.28	7.573
629.61	7.699
629.94	7.238
630.26	8.198
630.59	8.484
630.92	8.142
631.25	7.897
631.58	8.308
631.91	7.505
632.24	7.489
632.57	8.499
632.90	8.662
633.23	8.389
633.56	8.814
633.89	8.494
634.22	9.194
634.55	9.231
634.88	8.144
635.20	9.200
635.53	9.277
635.86	8.911
636.19	7.529
636.52	8.189
636.85	9.049
637.18	7.949
637.51	10.638
637.83	9.248
638.16	9.719
638.49	9.824
638.82	10.240
639.15	9.875
639.48	9.352
639.81	8.847
640.13	9.766
640.46	10.336
640.79	9.775
641.12	7.290
641.45	9.358
641.77	9.278
642.10	10.088
642.43	9.459
642.76	9.443
643.09	9.969
643.41	12.140
643.74	12.191
644.07	9.909
644.40	11.810
644.73	11.339
645.05	11.886
645.38	9.795
645.71	9.179
646.04	11.794
646.36	11.519
646.69	13.043
647.02	12.075
647.35	11.512
647.67	10.619
648.00	11.382
648.33	9.076
648.66	9.848
648.98	12.444
649.31	9.118
649.64	9.716
649.96	11.177
650.29	10.585
650.62	9.871
650.94	11.669
651.27	12.331
651.60	11.814
651.92	12.300
652.25	9.446
652.58	12.150
652.90	9.637
653.23	9.399
653.56	10.551
