SpectraSuite Data File
++++++++++++++++++++++++++++++++++++
Date: Tue May 12 19:38:32 PDT 2015
User: schluterlab
Dark Spectrum Present: Yes
Reference Spectrum Present: Yes
Number of Sampled Component Spectra: 1
Spectrometers: USB2E3373
Integration Time (usec): 3000 (USB2E3373)
Spectra Averaged: 3 (USB2E3373)
Boxcar Smoothing: 0 (USB2E3373)
Correct for Electrical Dark: No (USB2E3373)
Strobe/Lamp Enabled: No (USB2E3373)
Correct for Detector Non-linearity: No (USB2E3373)
Correct for Stray Light: No (USB2E3373)
Number of Pixels in Processed Spectrum: 2048
>>>>>Begin Processed Spectral Data<<<<<
178.53	0.000
178.91	-120.000
179.29	-116.667
179.67	333.333
180.04	0.000
180.42	-140.000
180.80	-200.000
181.18	850.000
181.56	-600.000
181.94	283.333
182.31	1800.000
182.69	-14.286
183.07	0.000
183.45	158.333
183.83	320.000
184.20	50.000
184.58	900.000
184.96	200.000
185.34	-400.000
185.72	14.286
186.09	-100.000
186.47	-1200.000
186.85	20.000
187.23	108.333
187.61	-214.286
187.98	-200.000
188.36	100.000
188.74	-250.000
189.12	-88.889
189.49	-70.000
189.87	125.000
190.25	77.778
190.63	566.667
191.00	180.000
191.38	-566.667
191.76	300.000
192.14	28.571
192.51	20.000
192.89	20.000
193.27	-100.000
193.65	-33.333
194.02	-233.333
194.40	900.000
194.78	-75.000
195.15	-157.143
195.53	133.333
195.91	100.000
196.29	-600.000
196.66	-66.667
197.04	-85.714
197.42	140.000
197.79	-37.500
198.17	-75.000
198.55	0.000
198.92	-44.444
199.30	250.000
199.68	-50.000
200.05	-1000.000
200.43	-5.556
200.81	-158.333
201.18	316.667
201.56	-400.000
201.94	0.000
202.31	-33.333
202.69	11.111
203.07	16.667
203.44	25.000
203.82	0.000
204.19	212.500
204.57	-266.667
204.95	136.364
205.32	340.000
205.70	25.000
206.08	500.000
206.45	0.000
206.83	2000.000
207.20	-88.889
207.58	-38.462
207.96	166.667
208.33	366.667
208.71	366.667
209.08	650.000
209.46	-33.333
209.84	400.000
210.21	-533.333
210.59	250.000
210.96	188.889
211.34	-275.000
211.71	750.000
212.09	80.000
212.46	-125.000
212.84	-237.500
213.22	-0.000
213.59	-12.500
213.97	0.000
214.34	-450.000
214.72	-900.000
215.09	450.000
215.47	26.667
215.84	-125.000
216.22	-1200.000
216.59	1100.000
216.97	0.000
217.34	-83.333
217.72	33.333
218.09	175.000
218.47	31.579
218.84	-87.500
219.22	-21.429
219.59	-10.000
219.97	-30.000
220.34	250.000
220.72	72.727
221.09	-350.000
221.47	0.000
221.84	-300.000
222.22	-325.000
222.59	-200.000
222.97	-56.522
223.34	126.667
223.72	257.143
224.09	16.667
224.46	153.846
224.84	20.000
225.21	-650.000
225.59	-75.000
225.96	40.000
226.34	83.333
226.71	130.000
227.08	0.000
227.46	-185.714
227.83	-41.667
228.21	-950.000
228.58	100.000
228.95	31.579
229.33	18.750
229.70	-100.000
230.08	-155.556
230.45	-500.000
230.82	-500.000
231.20	71.429
231.57	-140.000
231.95	-400.000
232.32	100.000
232.69	-500.000
233.07	18.750
233.44	-25.000
233.81	58.065
234.19	-100.000
234.56	-11.111
234.93	-66.667
235.31	40.741
235.68	3.704
236.05	11.538
236.43	-63.158
236.80	-4.545
237.17	-71.429
237.55	-25.000
237.92	27.907
238.29	22.581
238.67	28.571
239.04	28.571
239.41	0.000
239.79	10.000
240.16	10.000
240.53	10.345
240.91	4.110
241.28	18.310
241.65	12.500
242.02	17.544
242.40	4.000
242.77	23.158
243.14	23.529
243.51	21.505
243.89	0.000
244.26	17.593
244.63	16.327
245.00	13.393
245.38	13.445
245.75	21.186
246.12	25.000
246.49	21.600
246.87	8.197
247.24	14.789
247.61	16.556
247.98	16.292
248.36	25.157
248.73	13.068
249.10	22.778
249.47	16.146
249.84	16.751
250.22	19.792
250.59	16.854
250.96	21.818
251.33	20.755
251.70	28.440
252.08	21.212
252.45	19.592
252.82	18.565
253.19	19.066
253.56	24.314
253.94	21.951
254.31	25.180
254.68	21.875
255.05	25.166
255.42	24.000
255.79	22.848
256.16	23.264
256.54	23.030
256.91	25.641
257.28	24.026
257.65	17.705
258.02	23.123
258.39	22.961
258.76	23.853
259.14	22.941
259.51	22.817
259.88	26.225
260.25	19.602
260.62	20.225
260.99	22.284
261.36	20.115
261.73	21.333
262.10	21.526
262.47	24.242
262.85	21.337
263.22	21.237
263.59	23.861
263.96	19.321
264.33	18.329
264.70	22.113
265.07	22.660
265.44	26.932
265.81	21.928
266.18	21.780
266.55	23.095
266.92	25.000
267.29	22.444
267.66	19.773
268.03	21.720
268.40	22.426
268.77	19.376
269.14	21.429
269.51	21.041
269.88	22.650
270.25	19.831
270.62	21.849
270.99	21.263
271.36	22.517
271.73	22.500
272.10	22.199
272.47	21.400
272.84	22.718
273.21	20.877
273.58	20.408
273.95	20.319
274.32	22.050
274.69	22.896
275.06	21.764
275.43	22.000
275.80	23.327
276.17	22.332
276.54	21.293
276.91	22.073
277.28	22.437
277.65	21.550
278.02	22.727
278.39	20.871
278.76	23.091
279.13	23.256
279.50	22.202
279.87	20.377
280.23	22.769
280.60	20.141
280.97	22.320
281.34	21.864
281.71	21.492
282.08	21.467
282.45	20.811
282.82	21.549
283.19	21.380
283.56	23.720
283.92	21.011
284.29	22.166
284.66	21.770
285.03	20.069
285.40	21.000
285.77	23.153
286.14	21.236
286.51	21.865
286.87	20.259
287.24	18.590
287.61	20.833
287.98	22.848
288.35	20.620
288.72	21.407
289.08	18.553
289.45	18.721
289.82	19.720
290.19	20.000
290.56	19.971
290.93	18.907
291.29	19.433
291.66	18.539
292.03	18.938
292.40	20.288
292.77	18.222
293.13	16.887
293.50	18.733
293.87	16.921
294.24	18.961
294.60	18.579
294.97	16.759
295.34	17.534
295.71	15.118
296.08	18.033
296.44	19.104
296.81	16.300
297.18	18.241
297.55	17.965
297.91	17.893
298.28	15.473
298.65	16.947
299.02	16.769
299.38	17.219
299.75	16.088
300.12	17.386
300.48	15.962
300.85	16.504
301.22	16.346
301.59	16.788
301.95	16.951
302.32	15.917
302.69	15.339
303.05	16.411
303.42	16.787
303.79	13.820
304.15	16.082
304.52	15.307
304.89	15.558
305.25	15.826
305.62	15.682
305.99	15.118
306.35	14.877
306.72	16.885
307.09	15.125
307.45	16.073
307.82	15.048
308.19	16.172
308.55	16.350
308.92	14.619
309.29	14.854
309.65	16.099
310.02	15.618
310.38	16.525
310.75	17.008
311.12	14.751
311.48	16.752
311.85	15.198
312.22	15.909
312.58	15.509
312.95	15.606
313.31	16.323
313.68	16.385
314.05	16.981
314.41	15.717
314.78	15.980
315.14	16.259
315.51	16.584
315.87	17.285
316.24	16.518
316.61	17.767
316.97	17.157
317.34	17.608
317.70	16.900
318.07	18.322
318.43	19.187
318.80	16.940
319.16	18.733
319.53	19.245
319.89	20.265
320.26	19.666
320.62	21.415
320.99	20.102
321.35	20.949
321.72	22.626
322.08	21.386
322.45	22.781
322.81	22.266
323.18	23.969
323.54	24.360
323.91	23.435
324.27	23.529
324.64	24.555
325.00	25.933
325.37	26.439
325.73	26.642
326.10	26.883
326.46	28.649
326.83	27.880
327.19	28.734
327.56	30.062
327.92	28.299
328.29	29.928
328.65	30.508
329.01	30.459
329.38	31.772
329.74	33.240
330.11	31.873
330.47	33.240
330.84	32.425
331.20	32.717
331.56	33.679
331.93	33.852
332.29	35.708
332.66	35.172
333.02	36.119
333.38	37.316
333.75	35.956
334.11	35.443
334.48	35.868
334.84	36.995
335.20	35.184
335.57	37.875
335.93	39.163
336.29	38.208
336.66	38.342
337.02	37.534
337.38	38.585
337.75	40.273
338.11	39.562
338.47	39.369
338.84	40.516
339.20	41.888
339.56	41.286
339.93	40.631
340.29	40.073
340.65	43.014
341.02	41.807
341.38	41.306
341.74	42.082
342.11	42.971
342.47	41.608
342.83	41.023
343.20	43.059
343.56	42.395
343.92	43.132
344.28	42.624
344.65	43.322
345.01	43.728
345.37	44.530
345.73	45.306
346.10	45.808
346.46	43.486
346.82	45.794
347.19	46.510
347.55	46.599
347.91	44.799
348.27	46.925
348.63	45.895
349.00	49.165
349.36	46.826
349.72	46.962
350.08	47.627
350.45	46.135
350.81	48.555
351.17	46.952
351.53	46.940
351.89	47.323
352.26	47.886
352.62	48.078
352.98	49.205
353.34	49.290
353.70	49.465
354.07	49.012
354.43	48.998
354.79	49.344
355.15	47.861
355.51	49.959
355.87	52.956
356.24	51.389
356.60	50.584
356.96	49.842
357.32	50.123
357.68	49.960
358.04	52.107
358.40	52.373
358.77	49.398
359.13	52.129
359.49	50.880
359.85	52.438
360.21	52.419
360.57	51.435
360.93	52.494
361.29	52.025
361.66	52.129
362.02	54.160
362.38	53.069
362.74	54.343
363.10	53.017
363.46	53.499
363.82	52.833
364.18	53.747
364.54	53.893
364.90	54.444
365.26	54.545
365.62	52.460
365.98	55.172
366.35	55.144
366.71	54.145
367.07	54.244
367.43	54.296
367.79	54.215
368.15	55.893
368.51	55.955
368.87	56.461
369.23	56.018
369.59	55.441
369.95	54.694
370.31	55.606
370.67	56.917
371.03	55.341
371.39	57.100
371.75	54.458
372.11	55.852
372.47	54.863
372.83	57.341
373.19	57.530
373.55	55.838
373.91	56.591
374.27	57.837
374.63	57.364
374.99	56.589
375.35	57.983
375.71	56.600
376.07	57.385
376.42	57.331
376.78	57.143
377.14	57.472
377.50	57.798
377.86	57.869
378.22	58.124
378.58	59.803
378.94	58.153
379.30	56.178
379.66	58.003
380.02	58.360
380.38	58.015
380.74	58.546
381.09	58.577
381.45	58.921
381.81	58.801
382.17	59.088
382.53	59.632
382.89	60.038
383.25	59.353
383.61	59.631
383.97	59.324
384.32	59.484
384.68	58.621
385.04	59.898
385.40	59.169
385.76	58.507
386.12	59.472
386.48	58.708
386.83	60.764
387.19	60.920
387.55	59.974
387.91	58.816
388.27	57.646
388.62	59.326
388.98	60.941
389.34	59.857
389.70	60.064
390.06	60.528
390.42	61.460
390.77	60.295
391.13	59.857
391.49	61.186
391.85	59.947
392.20	60.726
392.56	59.725
392.92	60.730
393.28	60.144
393.64	59.658
393.99	60.065
394.35	58.598
394.71	59.934
395.07	60.610
395.42	59.175
395.78	60.753
396.14	59.227
396.50	59.638
396.85	59.617
397.21	60.349
397.57	59.710
397.92	59.478
398.28	60.192
398.64	58.857
399.00	59.141
399.35	58.558
399.71	58.623
400.07	59.172
400.42	61.026
400.78	60.397
401.14	60.417
401.49	58.776
401.85	60.063
402.21	59.708
402.57	58.854
402.92	60.890
403.28	59.558
403.63	58.654
403.99	58.190
404.35	57.834
404.70	58.581
405.06	60.198
405.42	57.254
405.77	57.551
406.13	58.124
406.49	58.549
406.84	59.402
407.20	58.364
407.55	57.315
407.91	57.413
408.27	57.846
408.62	56.849
408.98	59.331
409.34	56.274
409.69	56.254
410.05	57.513
410.40	57.868
410.76	57.721
411.11	56.820
411.47	56.871
411.83	57.695
412.18	57.592
412.54	56.792
412.89	56.995
413.25	56.865
413.60	55.867
413.96	56.052
414.31	55.194
414.67	57.731
415.03	55.878
415.38	57.939
415.74	56.279
416.09	57.271
416.45	56.051
416.80	55.007
417.16	54.937
417.51	55.517
417.87	56.566
418.22	55.882
418.58	56.600
418.93	55.899
419.29	55.834
419.64	57.486
420.00	55.010
420.35	56.246
420.71	55.058
421.06	55.743
421.42	56.274
421.77	55.116
422.12	54.755
422.48	55.854
422.83	55.076
423.19	54.882
423.54	55.589
423.90	55.068
424.25	56.073
424.61	56.065
424.96	55.590
425.31	54.771
425.67	54.061
426.02	54.845
426.38	55.405
426.73	54.393
427.09	54.432
427.44	54.630
427.79	56.250
428.15	54.534
428.50	54.083
428.85	54.073
429.21	55.290
429.56	54.365
429.92	53.164
430.27	52.800
430.62	52.839
430.98	51.961
431.33	53.838
431.68	53.665
432.04	54.373
432.39	52.882
432.74	53.194
433.10	54.275
433.45	53.642
433.80	52.500
434.16	51.726
434.51	52.062
434.86	53.112
435.22	52.270
435.57	53.232
435.92	51.269
436.28	52.179
436.63	52.773
436.98	53.210
437.34	54.575
437.69	51.605
438.04	51.202
438.39	51.958
438.75	51.815
439.10	52.500
439.45	52.888
439.81	52.508
440.16	53.061
440.51	50.496
440.86	52.778
441.22	51.340
441.57	50.940
441.92	50.966
442.27	50.514
442.63	51.354
442.98	52.873
443.33	52.115
443.68	50.471
444.03	50.258
444.39	48.829
444.74	49.685
445.09	50.177
445.44	48.805
445.79	50.378
446.15	48.980
446.50	48.467
446.85	49.505
447.20	49.726
447.55	47.469
447.91	49.912
448.26	49.377
448.61	48.882
448.96	48.078
449.31	49.307
449.66	48.547
450.02	47.751
450.37	48.420
450.72	47.816
451.07	47.726
451.42	48.617
451.77	46.406
452.12	46.491
452.47	47.425
452.83	46.949
453.18	47.806
453.53	47.943
453.88	48.564
454.23	47.732
454.58	47.128
454.93	45.845
455.28	47.318
455.63	46.069
455.98	46.447
456.34	45.948
456.69	46.039
457.04	45.801
457.39	44.569
457.74	45.954
458.09	45.053
458.44	46.536
458.79	44.464
459.14	46.333
459.49	45.287
459.84	45.065
460.19	43.777
460.54	42.551
460.89	43.471
461.24	44.935
461.59	43.975
461.94	44.839
462.29	42.982
462.64	43.733
462.99	43.800
463.34	43.810
463.69	43.964
464.04	43.169
464.39	42.830
464.74	42.245
465.09	42.508
465.44	42.232
465.79	41.336
466.14	40.990
466.49	42.475
466.84	41.769
467.19	42.235
467.54	41.313
467.89	40.888
468.24	41.035
468.59	42.147
468.94	42.165
469.29	41.661
469.64	42.670
469.99	41.384
470.34	40.736
470.68	41.538
471.03	41.022
471.38	41.735
471.73	41.860
472.08	41.851
472.43	42.185
472.78	40.827
473.13	40.561
473.48	40.249
473.83	40.423
474.17	38.559
474.52	39.786
474.87	39.205
475.22	40.661
475.57	39.248
475.92	38.658
476.27	39.120
476.61	39.835
476.96	39.004
477.31	39.783
477.66	39.396
478.01	37.964
478.36	38.052
478.70	40.451
479.05	38.015
479.40	38.474
479.75	38.418
480.10	38.258
480.45	38.953
480.79	38.402
481.14	38.640
481.49	37.686
481.84	37.273
482.19	36.488
482.53	37.206
482.88	38.078
483.23	37.638
483.58	36.683
483.92	37.387
484.27	36.350
484.62	38.001
484.97	36.819
485.31	34.725
485.66	33.107
486.01	31.988
486.36	31.645
486.70	32.423
487.05	33.288
487.40	33.996
487.75	33.696
488.09	33.396
488.44	34.618
488.79	35.015
489.13	34.996
489.48	35.071
489.83	35.506
490.17	35.865
490.52	36.233
490.87	36.746
491.22	35.897
491.56	37.055
491.91	35.341
492.26	37.889
492.60	36.122
492.95	37.372
493.30	36.278
493.64	36.156
493.99	36.499
494.34	35.834
494.68	34.985
495.03	35.446
495.37	35.226
495.72	36.709
496.07	36.663
496.41	34.634
496.76	34.527
497.11	34.613
497.45	35.610
497.80	35.566
498.14	35.428
498.49	35.718
498.84	34.539
499.18	34.821
499.53	34.579
499.87	34.921
500.22	35.429
500.56	34.956
500.91	35.553
501.26	36.063
501.60	34.659
501.95	35.415
502.29	35.146
502.64	33.599
502.98	33.468
503.33	34.199
503.67	34.354
504.02	34.627
504.36	33.847
504.71	34.309
505.06	34.655
505.40	34.638
505.75	34.176
506.09	35.049
506.44	35.193
506.78	34.904
507.13	34.799
507.47	35.069
507.82	34.487
508.16	34.465
508.51	35.066
508.85	34.945
509.19	35.217
509.54	34.391
509.88	34.465
510.23	35.225
510.57	34.696
510.92	34.580
511.26	34.693
511.61	34.475
511.95	35.165
512.30	35.014
512.64	35.308
512.98	34.849
513.33	33.822
513.67	34.731
514.02	35.397
514.36	35.113
514.70	35.155
515.05	35.305
515.39	36.010
515.74	36.028
516.08	35.844
516.42	35.177
516.77	35.280
517.11	34.924
517.46	35.540
517.80	35.737
518.14	36.243
518.49	37.193
518.83	36.446
519.17	36.440
519.52	35.228
519.86	36.352
520.20	34.968
520.55	36.423
520.89	36.032
521.23	35.137
521.58	36.111
521.92	36.716
522.26	36.495
522.61	36.314
522.95	36.849
523.29	36.100
523.64	36.635
523.98	35.820
524.32	36.835
524.66	35.758
525.01	36.564
525.35	35.568
525.69	36.614
526.04	37.280
526.38	35.641
526.72	36.875
527.06	37.412
527.41	35.507
527.75	37.904
528.09	36.917
528.43	35.648
528.78	35.709
529.12	35.685
529.46	33.887
529.80	34.445
530.15	36.623
530.49	35.983
530.83	35.358
531.17	36.017
531.51	35.118
531.86	35.994
532.20	35.137
532.54	36.187
532.88	35.200
533.22	36.063
533.57	34.207
533.91	36.063
534.25	35.370
534.59	35.007
534.93	34.251
535.27	33.603
535.62	33.626
535.96	34.962
536.30	33.820
536.64	34.835
536.98	35.398
537.32	35.938
537.66	35.117
538.01	34.536
538.35	35.636
538.69	33.404
539.03	33.814
539.37	34.171
539.71	34.638
540.05	34.949
540.39	34.277
540.73	34.799
541.07	34.191
541.42	33.072
541.76	34.101
542.10	33.070
542.44	35.043
542.78	33.211
543.12	32.996
543.46	34.873
543.80	33.381
544.14	34.265
544.48	34.386
544.82	33.428
545.16	33.986
545.50	34.134
545.84	34.601
546.18	33.708
546.52	34.743
546.86	34.736
547.20	34.015
547.54	33.813
547.88	33.262
548.22	33.122
548.56	33.545
548.90	32.281
549.24	33.553
549.58	34.501
549.92	34.586
550.26	34.208
550.60	33.783
550.94	34.048
551.28	33.902
551.62	34.808
551.96	33.387
552.30	34.419
552.64	33.509
552.98	33.507
553.32	33.864
553.66	32.777
554.00	33.205
554.34	34.375
554.68	33.892
555.02	33.095
555.36	32.883
555.69	33.051
556.03	32.964
556.37	33.983
556.71	33.107
557.05	32.734
557.39	34.217
557.73	34.041
558.07	34.194
558.41	33.839
558.75	34.772
559.08	34.213
559.42	34.448
559.76	34.288
560.10	34.230
560.44	32.779
560.78	32.757
561.12	32.532
561.45	32.961
561.79	32.159
562.13	32.987
562.47	33.180
562.81	31.918
563.15	31.407
563.48	32.360
563.82	33.479
564.16	32.075
564.50	32.163
564.84	33.451
565.17	32.618
565.51	32.090
565.85	31.690
566.19	32.846
566.52	32.258
566.86	33.060
567.20	31.404
567.54	29.228
567.88	30.097
568.21	29.777
568.55	30.108
568.89	29.286
569.23	28.614
569.56	28.322
569.90	27.195
570.24	27.147
570.57	26.561
570.91	25.837
571.25	26.515
571.59	25.672
571.92	24.992
572.26	25.177
572.60	24.888
572.93	25.671
573.27	25.698
573.61	25.193
573.95	24.583
574.28	24.497
574.62	23.474
574.96	24.198
575.29	24.032
575.63	23.485
575.97	23.653
576.30	24.494
576.64	24.642
576.98	24.060
577.31	23.927
577.65	23.796
577.98	23.369
578.32	23.107
578.66	22.933
578.99	23.512
579.33	24.111
579.67	23.944
580.00	23.988
580.34	24.276
580.67	23.830
581.01	23.636
581.35	22.868
581.68	22.449
582.02	22.538
582.35	22.468
582.69	22.490
583.02	23.220
583.36	23.162
583.70	23.876
584.03	24.124
584.37	24.493
584.70	24.142
585.04	23.688
585.37	22.898
585.71	23.162
586.04	23.226
586.38	23.454
586.72	24.051
587.05	24.105
587.39	24.002
587.72	23.673
588.06	24.166
588.39	23.810
588.73	24.360
589.06	24.119
589.40	25.132
589.73	25.467
590.07	25.319
590.40	25.900
590.73	25.781
591.07	25.152
591.40	26.085
591.74	26.353
592.07	26.648
592.41	26.710
592.74	25.650
593.08	25.094
593.41	24.374
593.75	24.166
594.08	25.134
594.41	25.320
594.75	25.059
595.08	25.010
595.42	24.822
595.75	25.000
596.09	25.180
596.42	25.370
596.75	26.682
597.09	24.953
597.42	25.903
597.75	25.797
598.09	24.860
598.42	25.556
598.76	25.228
599.09	24.706
599.42	24.194
599.76	24.872
600.09	25.346
600.42	24.219
600.76	24.788
601.09	24.745
601.42	25.081
601.76	24.432
602.09	24.592
602.42	25.749
602.76	25.349
603.09	25.326
603.42	25.085
603.76	24.003
604.09	24.520
604.42	25.247
604.76	25.285
605.09	25.319
605.42	26.919
605.75	25.354
606.09	26.000
606.42	24.322
606.75	25.444
607.09	25.933
607.42	25.562
607.75	25.207
608.08	25.772
608.42	25.946
608.75	26.263
609.08	25.088
609.41	26.283
609.75	25.961
610.08	25.736
610.41	25.496
610.74	25.683
611.07	26.071
611.41	25.428
611.74	26.279
612.07	26.618
612.40	26.462
612.73	26.273
613.07	26.659
613.40	26.740
613.73	25.945
614.06	25.937
614.39	26.831
614.72	26.269
615.06	27.612
615.39	26.270
615.72	25.700
616.05	26.957
616.38	26.750
616.71	27.363
617.05	26.508
617.38	27.290
617.71	28.739
618.04	27.792
618.37	26.815
618.70	28.125
619.03	28.644
619.36	29.161
619.69	27.838
620.03	29.748
620.36	29.101
620.69	29.268
621.02	28.979
621.35	29.872
621.68	31.053
622.01	30.749
622.34	30.067
622.67	29.848
623.00	28.911
623.33	29.291
623.66	30.837
623.99	29.187
624.32	28.832
624.65	28.438
624.99	27.969
625.32	29.226
625.65	28.663
625.98	30.583
626.31	30.043
626.64	29.820
626.97	31.801
627.30	31.574
627.63	31.628
627.96	32.030
628.29	32.600
628.62	31.546
628.95	32.207
629.28	33.058
629.61	33.124
629.94	32.054
630.26	32.845
630.59	33.194
630.92	31.718
631.25	32.737
631.58	33.721
631.91	33.713
632.24	33.373
632.57	33.888
632.90	34.932
633.23	36.000
