SpectraSuite Data File
++++++++++++++++++++++++++++++++++++
Date: Wed May 13 19:50:41 PDT 2015
User: schluterlab
Dark Spectrum Present: Yes
Reference Spectrum Present: Yes
Number of Sampled Component Spectra: 1
Spectrometers: USB2E3373
Integration Time (usec): 3000 (USB2E3373)
Spectra Averaged: 3 (USB2E3373)
Boxcar Smoothing: 0 (USB2E3373)
Correct for Electrical Dark: No (USB2E3373)
Strobe/Lamp Enabled: No (USB2E3373)
Correct for Detector Non-linearity: No (USB2E3373)
Correct for Stray Light: No (USB2E3373)
Number of Pixels in Processed Spectrum: 2048
>>>>>Begin Processed Spectral Data<<<<<
178.53	0.000
178.91	-1250.000
179.29	-1325.000
179.67	-250.000
180.04	-1425.000
180.42	2300.000
180.80	1040.000
181.18	-1075.000
181.56	757.143
181.94	0.000
182.31	-642.857
182.69	2000.000
183.07	-612.500
183.45	-588.889
183.83	563.636
184.20	-420.000
184.58	2850.000
184.96	6000.000
185.34	-860.000
185.72	-662.500
186.09	-2400.000
186.47	3050.000
186.85	2900.000
187.23	6100.000
187.61	-1366.667
187.98	1250.000
188.36	572.727
188.74	518.182
189.12	-980.000
189.49	600.000
189.87	-5400.000
190.25	-1175.000
190.63	428.571
191.00	446.154
191.38	933.333
191.76	-1300.000
192.14	1600.000
192.51	687.500
192.89	766.667
193.27	700.000
193.65	-1125.000
194.02	490.000
194.40	940.000
194.78	440.000
195.15	508.333
195.53	640.000
195.91	-2500.000
196.29	325.000
196.66	378.947
197.04	-340.000
197.42	0.000
197.79	670.000
198.17	-5400.000
198.55	728.571
198.92	712.500
199.30	960.000
199.68	0.000
200.05	355.556
200.43	842.857
200.81	3900.000
201.18	1933.333
201.56	-1700.000
201.94	588.889
202.31	511.111
202.69	508.333
203.07	550.000
203.44	0.000
203.82	1400.000
204.19	785.714
204.57	485.714
204.95	587.500
205.32	1633.333
205.70	590.909
206.08	342.857
206.45	2700.000
206.83	418.750
207.20	1100.000
207.58	740.000
207.96	311.111
208.33	737.500
208.71	-866.667
209.08	871.429
209.46	688.889
209.84	500.000
210.21	-1433.333
210.59	1350.000
210.96	-525.000
211.34	2400.000
211.71	560.000
212.09	966.667
212.46	0.000
212.84	1633.333
213.22	1400.000
213.59	-4700.000
213.97	916.667
214.34	800.000
214.72	600.000
215.09	1040.000
215.47	-2400.000
215.84	-3200.000
216.22	1766.667
216.59	414.286
216.97	1475.000
217.34	554.545
217.72	-766.667
218.09	0.000
218.47	-6000.000
218.84	533.333
219.22	671.429
219.59	1966.667
219.97	-657.143
220.34	1080.000
220.72	-1766.667
221.09	435.714
221.47	1350.000
221.84	-916.667
222.22	0.000
222.59	1325.000
222.97	-2900.000
223.34	1160.000
223.72	453.846
224.09	980.000
224.46	2500.000
224.84	-5500.000
225.21	-920.000
225.59	-5100.000
225.96	590.000
226.34	295.000
226.71	2700.000
227.08	650.000
227.46	530.000
227.83	-850.000
228.21	-2650.000
228.58	666.667
228.95	-2550.000
229.33	-2350.000
229.70	1966.667
230.08	728.571
230.45	-800.000
230.82	433.333
231.20	766.667
231.57	685.714
231.95	508.333
232.32	272.727
232.69	390.909
233.07	714.286
233.44	407.692
233.81	-1500.000
234.19	305.263
234.56	466.667
234.93	433.333
235.31	509.091
235.68	384.615
236.05	328.571
236.43	175.758
236.80	263.158
237.17	5000.000
237.55	247.619
237.92	175.000
238.29	223.810
238.67	183.871
239.04	196.552
239.41	141.667
239.79	110.870
240.16	152.381
240.53	115.909
240.91	90.196
241.28	118.000
241.65	104.000
242.02	86.957
242.40	90.323
242.77	75.000
243.14	73.118
243.51	71.910
243.89	67.059
244.26	53.333
244.63	52.688
245.00	54.255
245.38	52.475
245.75	51.402
246.12	54.128
246.49	52.555
246.87	60.000
247.24	56.154
247.61	47.857
247.98	44.444
248.36	34.459
248.73	43.949
249.10	36.943
249.47	35.593
249.84	41.711
250.22	33.690
250.59	32.544
250.96	33.333
251.33	36.019
251.70	36.139
252.08	30.000
252.45	30.045
252.82	29.565
253.19	30.213
253.56	29.412
253.94	32.780
254.31	28.906
254.68	29.615
255.05	29.151
255.42	24.390
255.79	26.838
256.16	29.603
256.54	21.201
256.91	26.335
257.28	24.460
257.65	25.083
258.02	21.429
258.39	22.713
258.76	22.074
259.14	23.512
259.51	26.140
259.88	21.429
260.25	19.940
260.62	22.832
260.99	22.981
261.36	23.423
261.73	20.630
262.10	21.512
262.47	23.380
262.85	20.613
263.22	20.228
263.59	22.507
263.96	20.604
264.33	21.671
264.70	19.737
265.07	21.228
265.44	20.707
265.81	16.545
266.18	20.854
266.55	18.293
266.92	21.376
267.29	20.139
267.66	16.743
268.03	16.818
268.40	19.393
268.77	19.093
269.14	16.441
269.51	20.090
269.88	17.249
270.25	18.510
270.62	20.000
270.99	19.140
271.36	19.313
271.73	15.421
272.10	19.783
272.47	18.280
272.84	17.749
273.21	19.287
273.58	14.847
273.95	15.514
274.32	17.355
274.69	16.702
275.06	15.748
275.43	18.511
275.80	15.631
276.17	15.682
276.54	17.464
276.91	16.798
277.28	14.844
277.65	17.021
278.02	15.942
278.39	20.703
278.76	17.091
279.13	16.981
279.50	18.250
279.87	15.737
280.23	15.569
280.60	13.153
280.97	14.233
281.34	17.345
281.71	17.273
282.08	16.315
282.45	13.273
282.82	17.407
283.19	14.082
283.56	14.386
283.92	15.228
284.29	14.638
284.66	15.971
285.03	13.924
285.40	15.141
285.77	14.141
286.14	14.508
286.51	15.500
286.87	15.214
287.24	14.169
287.61	15.409
287.98	15.097
288.35	13.471
288.72	14.019
289.08	15.649
289.45	14.168
289.82	14.309
290.19	11.303
290.56	13.476
290.93	11.934
291.29	12.423
291.66	13.127
292.03	15.262
292.40	15.565
292.77	12.130
293.13	13.134
293.50	14.140
293.87	13.185
294.24	12.000
294.60	10.335
294.97	14.535
295.34	11.848
295.71	14.062
296.08	11.538
296.44	11.692
296.81	11.889
297.18	13.279
297.55	10.554
297.91	11.741
298.28	12.450
298.65	12.402
299.02	12.253
299.38	10.757
299.75	10.243
300.12	9.962
300.48	11.000
300.85	11.714
301.22	11.592
301.59	10.227
301.95	10.831
302.32	13.350
302.69	12.067
303.05	10.909
303.42	10.123
303.79	11.212
304.15	10.023
304.52	9.618
304.89	11.498
305.25	9.861
305.62	11.212
305.99	10.862
306.35	11.186
306.72	10.987
307.09	10.766
307.45	11.149
307.82	9.487
308.19	10.486
308.55	11.435
308.92	11.063
309.29	9.715
309.65	9.650
310.02	11.416
310.38	10.000
310.75	9.926
311.12	10.952
311.48	9.613
311.85	10.377
312.22	10.198
312.58	9.148
312.95	10.348
313.31	9.320
313.68	10.291
314.05	12.623
314.41	10.151
314.78	11.279
315.14	8.838
315.51	10.814
315.87	10.198
316.24	10.228
316.61	9.844
316.97	10.372
317.34	9.393
317.70	10.325
318.07	9.432
318.43	9.687
318.80	10.309
319.16	10.640
319.53	9.381
319.89	11.905
320.26	10.400
320.62	11.111
320.99	12.727
321.35	9.596
321.72	10.780
322.08	9.970
322.45	10.746
322.81	10.853
323.18	10.019
323.54	11.039
323.91	11.415
324.27	9.943
324.64	9.692
325.00	10.009
325.37	10.282
325.73	10.952
326.10	9.532
326.46	9.946
326.83	11.303
327.19	10.162
327.56	10.017
327.92	9.799
328.29	9.938
328.65	11.050
329.01	10.921
329.38	9.621
329.74	9.880
330.11	10.368
330.47	8.999
330.84	10.846
331.20	9.745
331.56	10.826
331.93	9.444
332.29	10.736
332.66	10.885
333.02	10.878
333.38	10.930
333.75	11.230
334.11	9.698
334.48	10.648
334.84	10.846
335.20	10.273
335.57	9.519
335.93	8.750
336.29	10.348
336.66	10.370
337.02	9.050
337.38	10.278
337.75	9.002
338.11	9.937
338.47	9.208
338.84	9.991
339.20	9.174
339.56	11.405
339.93	8.818
340.29	8.696
340.65	10.428
341.02	10.297
341.38	10.498
341.74	9.298
342.11	9.869
342.47	8.722
342.83	10.103
343.20	10.216
343.56	9.351
343.92	9.912
344.28	9.524
344.65	9.716
345.01	9.091
345.37	8.834
345.73	10.152
346.10	9.207
346.46	9.153
346.82	10.214
347.19	9.190
347.55	9.031
347.91	9.871
348.27	10.435
348.63	9.114
349.00	8.819
349.36	9.278
349.72	8.901
350.08	9.076
350.45	9.439
350.81	9.180
351.17	9.562
351.53	8.518
351.89	9.406
352.26	10.734
352.62	9.142
352.98	8.914
353.34	8.874
353.70	8.838
354.07	9.355
354.43	8.492
354.79	8.689
355.15	8.220
355.51	9.592
355.87	8.735
356.24	9.121
356.60	8.821
356.96	8.206
357.32	7.850
357.68	9.528
358.04	8.868
358.40	9.501
358.77	9.311
359.13	9.234
359.49	8.549
359.85	7.381
360.21	8.852
360.57	9.494
360.93	8.692
361.29	8.466
361.66	7.972
362.02	7.761
362.38	8.441
362.74	8.185
363.10	8.068
363.46	7.117
363.82	8.768
364.18	7.783
364.54	8.841
364.90	8.711
365.26	8.235
365.62	8.035
365.98	7.451
366.35	7.808
366.71	8.315
367.07	7.720
367.43	8.273
367.79	8.066
368.15	9.124
368.51	7.631
368.87	8.280
369.23	7.754
369.59	8.327
369.95	7.206
370.31	7.479
370.67	7.971
371.03	8.689
371.39	8.017
371.75	8.235
372.11	7.468
372.47	8.871
372.83	8.790
373.19	8.020
373.55	7.687
373.91	8.689
374.27	7.629
374.63	6.909
374.99	7.980
375.35	7.397
375.71	7.265
376.07	7.888
376.42	7.840
376.78	8.814
377.14	7.598
377.50	7.748
377.86	7.846
378.22	7.522
378.58	6.767
378.94	7.794
379.30	6.425
379.66	7.551
380.02	7.862
380.38	6.679
380.74	7.563
381.09	7.946
381.45	8.175
381.81	7.985
382.17	7.898
382.53	7.547
382.89	7.716
383.25	7.317
383.61	7.435
383.97	7.755
384.32	7.112
384.68	6.753
385.04	7.191
385.40	7.492
385.76	6.634
386.12	7.966
386.48	7.615
386.83	7.633
387.19	7.545
387.55	8.040
387.91	6.953
388.27	6.744
388.62	7.560
388.98	7.187
389.34	7.635
389.70	7.480
390.06	8.302
390.42	7.263
390.77	7.697
391.13	7.084
391.49	7.297
391.85	7.257
392.20	6.183
392.56	7.386
392.92	7.240
393.28	6.272
393.64	6.775
393.99	8.064
394.35	7.072
394.71	7.026
395.07	6.978
395.42	7.787
395.78	7.634
396.14	7.697
396.50	7.080
396.85	7.438
397.21	7.460
397.57	7.502
397.92	6.611
398.28	6.839
398.64	7.228
399.00	7.051
399.35	6.994
399.71	7.002
400.07	7.274
400.42	7.914
400.78	7.660
401.14	7.744
401.49	6.806
401.85	6.715
402.21	7.246
402.57	6.786
402.92	7.251
403.28	7.558
403.63	6.436
403.99	6.115
404.35	6.909
404.70	7.074
405.06	6.348
405.42	7.112
405.77	6.571
406.13	6.772
406.49	7.333
406.84	7.561
407.20	6.442
407.55	6.828
407.91	7.267
408.27	7.147
408.62	7.285
408.98	7.108
409.34	7.811
409.69	7.290
410.05	6.877
410.40	7.645
410.76	6.691
411.11	7.539
411.47	7.348
411.83	7.392
412.18	7.359
412.54	7.721
412.89	7.651
413.25	7.084
413.60	7.412
413.96	6.982
414.31	7.230
414.67	7.478
415.03	6.887
415.38	7.796
415.74	7.203
416.09	7.511
416.45	6.627
416.80	7.403
417.16	8.378
417.51	7.299
417.87	6.808
418.22	7.382
418.58	8.263
418.93	6.941
419.29	7.957
419.64	7.494
420.00	7.256
420.35	7.594
420.71	7.292
421.06	7.279
421.42	7.602
421.77	7.511
422.12	6.962
422.48	5.720
422.83	7.222
423.19	6.906
423.54	7.139
423.90	7.304
424.25	7.594
424.61	7.381
424.96	7.114
425.31	7.032
425.67	6.517
426.02	6.800
426.38	7.692
426.73	7.373
427.09	6.991
427.44	7.303
427.79	7.131
428.15	7.917
428.50	6.846
428.85	8.522
429.21	6.516
429.56	6.273
429.92	6.492
430.27	6.753
430.62	6.861
430.98	6.694
431.33	6.753
431.68	7.120
432.04	7.455
432.39	6.739
432.74	7.540
433.10	7.074
433.45	7.114
433.80	7.373
434.16	7.692
434.51	7.211
434.86	7.925
435.22	7.059
435.57	7.416
435.92	6.788
436.28	6.940
436.63	8.057
436.98	6.812
437.34	8.289
437.69	7.876
438.04	7.195
438.39	6.866
438.75	7.960
439.10	7.318
439.45	7.556
439.81	7.372
440.16	6.663
440.51	7.733
440.86	7.354
441.22	6.841
441.57	7.325
441.92	7.369
442.27	6.835
442.63	7.214
442.98	7.775
443.33	7.554
443.68	7.331
444.03	7.321
444.39	6.670
444.74	7.576
445.09	6.415
445.44	7.490
445.79	7.274
446.15	7.835
446.50	7.270
446.85	6.989
447.20	6.425
447.55	7.426
447.91	7.170
448.26	7.457
448.61	7.010
448.96	7.641
449.31	7.255
449.66	7.485
450.02	6.741
450.37	7.313
450.72	6.994
451.07	7.739
451.42	6.869
451.77	8.338
452.12	7.564
452.47	7.214
452.83	7.110
453.18	7.457
453.53	7.483
453.88	7.088
454.23	7.890
454.58	7.692
454.93	8.137
455.28	6.920
455.63	8.313
455.98	7.679
456.34	7.726
456.69	6.951
457.04	8.297
457.39	7.715
457.74	7.719
458.09	7.706
458.44	7.298
458.79	6.345
459.14	7.562
459.49	7.472
459.84	7.091
460.19	7.248
460.54	7.465
460.89	6.857
461.24	8.015
461.59	8.483
461.94	7.213
462.29	8.131
462.64	7.658
462.99	7.677
463.34	8.267
463.69	8.130
464.04	9.449
464.39	7.304
464.74	7.605
465.09	6.876
465.44	7.922
465.79	6.823
466.14	6.732
466.49	7.620
466.84	7.647
467.19	7.423
467.54	8.062
467.89	7.083
468.24	7.563
468.59	7.753
468.94	7.514
469.29	7.519
469.64	9.036
469.99	7.510
470.34	7.530
470.68	8.333
471.03	6.871
471.38	8.061
471.73	8.661
472.08	8.553
472.43	8.166
472.78	7.702
473.13	7.831
473.48	7.553
473.83	7.622
474.17	7.094
474.52	7.940
474.87	7.764
475.22	7.777
475.57	7.093
475.92	7.276
476.27	6.877
476.61	8.108
476.96	7.312
477.31	7.117
477.66	7.385
478.01	7.475
478.36	7.615
478.70	7.373
479.05	7.401
479.40	7.574
479.75	6.863
480.10	6.610
480.45	7.044
480.79	6.880
481.14	6.996
481.49	7.689
481.84	6.767
482.19	6.633
482.53	7.110
482.88	6.933
483.23	6.542
483.58	7.507
483.92	6.420
484.27	6.710
484.62	6.810
484.97	6.661
485.31	6.610
485.66	5.826
486.01	4.864
486.36	4.850
486.70	4.685
487.05	5.616
487.40	5.490
487.75	5.340
488.09	6.218
488.44	5.904
488.79	6.293
489.13	6.341
489.48	6.036
489.83	6.949
490.17	7.058
490.52	6.599
490.87	6.558
491.22	6.912
491.56	6.378
491.91	6.375
492.26	6.247
492.60	6.866
492.95	6.408
493.30	6.589
493.64	6.486
493.99	6.267
494.34	6.938
494.68	7.097
495.03	6.297
495.37	6.794
495.72	6.676
496.07	7.100
496.41	6.195
496.76	6.157
497.11	6.348
497.45	6.055
497.80	7.006
498.14	6.570
498.49	6.976
498.84	6.711
499.18	6.810
499.53	6.648
499.87	6.850
500.22	7.207
500.56	6.845
500.91	6.731
501.26	6.638
501.60	6.739
501.95	6.783
502.29	7.216
502.64	6.425
502.98	6.779
503.33	7.084
503.67	6.682
504.02	6.969
504.36	6.458
504.71	7.474
505.06	7.229
505.40	7.049
505.75	6.461
506.09	7.289
506.44	6.512
506.78	7.014
507.13	6.764
507.47	7.020
507.82	7.295
508.16	7.194
508.51	7.052
508.85	6.504
509.19	6.888
509.54	7.143
509.88	7.058
510.23	7.404
510.57	7.327
510.92	7.302
511.26	7.760
511.61	7.210
511.95	6.889
512.30	7.105
512.64	6.932
512.98	7.503
513.33	7.869
513.67	7.311
514.02	6.926
514.36	7.100
514.70	7.471
515.05	6.916
515.39	7.796
515.74	7.376
516.08	7.881
516.42	7.103
516.77	8.640
517.11	6.271
517.46	7.449
517.80	8.072
518.14	7.238
518.49	7.410
518.83	8.295
519.17	7.275
519.52	7.866
519.86	7.872
520.20	7.630
520.55	8.079
520.89	8.212
521.23	8.323
521.58	8.163
521.92	7.165
522.26	7.505
522.61	8.162
522.95	7.673
523.29	7.669
523.64	7.683
523.98	7.948
524.32	7.539
524.66	8.178
525.01	8.395
525.35	7.807
525.69	7.697
526.04	8.474
526.38	7.627
526.72	8.282
527.06	8.663
527.41	7.240
527.75	7.910
528.09	7.836
528.43	8.604
528.78	8.297
529.12	7.394
529.46	8.573
529.80	8.540
530.15	8.349
530.49	7.692
530.83	8.354
531.17	8.420
531.51	9.014
531.86	8.129
532.20	8.540
532.54	8.905
532.88	8.665
533.22	8.245
533.57	8.642
533.91	8.007
534.25	8.262
534.59	7.810
534.93	8.031
535.27	7.544
535.62	7.692
535.96	7.847
536.30	7.883
536.64	8.757
536.98	8.295
537.32	8.558
537.66	9.400
538.01	7.834
538.35	7.822
538.69	9.190
539.03	7.342
539.37	7.412
539.71	7.259
540.05	8.366
540.39	8.970
540.73	7.827
541.07	9.020
541.42	8.676
541.76	9.097
542.10	8.603
542.44	8.079
542.78	8.432
543.12	7.358
543.46	8.656
543.80	8.653
544.14	7.702
544.48	8.571
544.82	7.954
545.16	8.783
545.50	8.419
545.84	8.535
546.18	8.687
546.52	8.672
546.86	7.491
547.20	8.901
547.54	8.417
547.88	9.056
548.22	8.468
548.56	7.987
548.90	8.963
549.24	7.677
549.58	9.072
549.92	9.341
550.26	8.594
550.60	8.921
550.94	8.803
551.28	8.266
551.62	7.620
551.96	7.860
552.30	8.805
552.64	8.452
552.98	8.136
553.32	8.361
553.66	8.793
554.00	8.442
554.34	8.558
554.68	9.442
555.02	8.815
555.36	8.072
555.69	7.713
556.03	8.883
556.37	8.390
556.71	8.527
557.05	8.053
557.39	8.817
557.73	8.186
558.07	8.194
558.41	8.755
558.75	8.082
559.08	9.023
559.42	8.844
559.76	9.559
560.10	9.208
560.44	8.526
560.78	7.452
561.12	9.037
561.45	8.670
561.79	8.042
562.13	8.249
562.47	8.470
562.81	8.577
563.15	8.161
563.48	8.621
563.82	8.545
564.16	7.979
564.50	7.617
564.84	7.901
565.17	7.851
565.51	8.179
565.85	8.756
566.19	7.952
566.52	8.676
566.86	7.776
567.20	8.667
567.54	7.534
567.88	7.224
568.21	8.042
568.55	7.179
568.89	7.296
569.23	7.353
569.56	6.680
569.90	6.642
570.24	6.494
570.57	6.630
570.91	6.044
571.25	6.208
571.59	6.333
571.92	6.250
572.26	5.893
572.60	6.517
572.93	6.447
573.27	6.241
573.61	6.588
573.95	5.995
574.28	6.080
574.62	5.515
574.96	5.711
575.29	5.844
575.63	5.818
575.97	6.092
576.30	5.975
576.64	5.661
576.98	5.882
577.31	5.591
577.65	5.711
577.98	5.690
578.32	5.361
578.66	5.807
578.99	5.547
579.33	5.519
579.67	5.570
580.00	5.874
580.34	5.790
580.67	6.051
581.01	6.116
581.35	5.461
581.68	5.598
582.02	5.387
582.35	5.407
582.69	5.514
583.02	5.503
583.36	5.695
583.70	6.194
584.03	5.982
584.37	6.693
584.70	5.721
585.04	6.115
585.37	5.732
585.71	6.086
586.04	5.774
586.38	6.243
586.72	6.435
587.05	5.786
587.39	5.620
587.72	5.901
588.06	5.816
588.39	6.283
588.73	6.160
589.06	5.952
589.40	6.633
589.73	6.160
590.07	6.477
590.40	6.284
590.73	6.753
591.07	6.838
591.40	6.706
591.74	7.489
592.07	6.937
592.41	6.366
592.74	6.367
593.08	6.629
593.41	6.106
593.75	6.309
594.08	6.470
594.41	6.504
594.75	6.322
595.08	6.586
595.42	6.550
595.75	6.232
596.09	6.496
596.42	6.955
596.75	7.176
597.09	7.749
597.42	6.703
597.75	6.986
598.09	7.000
598.42	6.787
598.76	6.080
599.09	6.880
599.42	6.441
599.76	6.552
600.09	6.375
600.42	6.136
600.76	6.179
601.09	6.120
601.42	6.240
601.76	6.490
602.09	6.245
602.42	6.608
602.76	7.497
603.09	6.373
603.42	6.677
603.76	7.165
604.09	6.204
604.42	6.482
604.76	7.550
605.09	7.165
605.42	7.054
605.75	6.250
606.09	6.710
606.42	6.334
606.75	6.885
607.09	6.990
607.42	6.162
607.75	6.118
608.08	6.600
608.42	6.903
608.75	7.124
609.08	6.568
609.41	6.901
609.75	7.099
610.08	7.304
610.41	6.704
610.74	6.291
611.07	7.362
611.41	7.507
611.74	7.340
612.07	7.195
612.40	7.712
612.73	7.263
613.07	7.489
613.40	7.688
613.73	7.551
614.06	7.151
614.39	7.971
614.72	7.526
615.06	7.248
615.39	6.847
615.72	7.260
616.05	6.964
616.38	7.504
616.71	7.245
617.05	7.715
617.38	8.479
617.71	7.267
618.04	7.692
618.37	7.629
618.70	8.401
619.03	8.421
619.36	7.604
619.69	8.873
620.03	8.654
620.36	9.425
620.69	8.767
621.02	8.481
621.35	8.614
621.68	9.034
622.01	9.056
622.34	9.304
622.67	8.137
623.00	7.557
623.33	8.292
623.66	8.649
623.99	8.910
624.32	8.417
624.65	8.192
624.99	7.861
625.32	7.676
625.65	7.889
625.98	8.686
626.31	8.865
626.64	8.980
626.97	8.229
627.30	8.645
627.63	9.106
627.96	9.420
628.29	9.099
628.62	9.790
628.95	10.660
629.28	9.398
629.61	9.899
629.94	10.667
630.26	9.247
630.59	9.724
630.92	9.483
631.25	9.082
631.58	10.410
631.91	9.432
632.24	9.072
632.57	10.073
632.90	9.978
633.23	11.633
633.56	11.977
633.89	10.985
634.22	9.308
634.55	11.243
634.88	10.060
635.20	10.633
635.53	11.325
635.86	11.262
636.19	10.000
636.52	10.727
636.85	10.195
637.18	10.023
637.51	11.229
637.83	9.371
638.16	10.997
638.49	11.713
638.82	11.504
639.15	10.250
639.48	11.970
639.81	11.662
640.13	12.891
640.46	10.201
640.79	12.153
641.12	10.729
641.45	11.034
641.77	11.046
642.10	10.965
642.43	11.562
642.76	12.539
643.09	12.423
643.41	11.381
643.74	12.500
644.07	12.805
644.40	12.730
644.73	14.488
645.05	15.055
645.38	14.534
645.71	14.654
646.04	13.455
646.36	13.689
646.69	14.548
647.02	12.415
647.35	13.058
647.67	12.389
648.00	15.285
648.33	13.696
648.66	11.061
648.98	14.093
649.31	11.809
649.64	11.958
649.96	12.221
