SpectraSuite Data File
++++++++++++++++++++++++++++++++++++
Date: Tue May 12 19:44:45 PDT 2015
User: schluterlab
Dark Spectrum Present: Yes
Reference Spectrum Present: Yes
Number of Sampled Component Spectra: 1
Spectrometers: USB2E3373
Integration Time (usec): 3000 (USB2E3373)
Spectra Averaged: 3 (USB2E3373)
Boxcar Smoothing: 0 (USB2E3373)
Correct for Electrical Dark: No (USB2E3373)
Strobe/Lamp Enabled: No (USB2E3373)
Correct for Detector Non-linearity: No (USB2E3373)
Correct for Stray Light: No (USB2E3373)
Number of Pixels in Processed Spectrum: 2048
>>>>>Begin Processed Spectral Data<<<<<
178.53	0.000
178.91	-20.000
179.29	-83.333
179.67	366.667
180.04	0.000
180.42	-280.000
180.80	33.333
181.18	1300.000
181.56	-200.000
181.94	150.000
182.31	1300.000
182.69	-28.571
183.07	0.000
183.45	208.333
183.83	260.000
184.20	250.000
184.58	800.000
184.96	233.333
185.34	-266.667
185.72	-50.000
186.09	-183.333
186.47	-1500.000
186.85	-20.000
187.23	100.000
187.61	-228.571
187.98	-380.000
188.36	300.000
188.74	-25.000
189.12	-11.111
189.49	-30.000
189.87	425.000
190.25	211.111
190.63	533.333
191.00	360.000
191.38	-533.333
191.76	260.000
192.14	28.571
192.51	-100.000
192.89	-40.000
193.27	-80.000
193.65	-200.000
194.02	-33.333
194.40	600.000
194.78	-50.000
195.15	-200.000
195.53	600.000
195.91	80.000
196.29	-475.000
196.66	0.000
197.04	-257.143
197.42	-0.000
197.79	-200.000
198.17	-75.000
198.55	-800.000
198.92	-111.111
199.30	150.000
199.68	-25.000
200.05	-800.000
200.43	0.000
200.81	-83.333
201.18	316.667
201.56	-300.000
201.94	-900.000
202.31	-100.000
202.69	-66.667
203.07	-133.333
203.44	-250.000
203.82	0.000
204.19	262.500
204.57	-266.667
204.95	127.273
205.32	400.000
205.70	150.000
206.08	-600.000
206.45	-100.000
206.83	1800.000
207.20	-55.556
207.58	23.077
207.96	133.333
208.33	533.333
208.71	133.333
209.08	550.000
209.46	44.444
209.84	566.667
210.21	-166.667
210.59	1100.000
210.96	177.778
211.34	-250.000
211.71	1050.000
212.09	-60.000
212.46	-212.500
212.84	-137.500
213.22	57.143
213.59	-75.000
213.97	0.000
214.34	250.000
214.72	-1300.000
215.09	650.000
215.47	6.667
215.84	-12.500
216.22	-100.000
216.59	1200.000
216.97	-66.667
217.34	66.667
217.72	22.222
218.09	300.000
218.47	-21.053
218.84	-112.500
219.22	7.143
219.59	-110.000
219.97	-70.000
220.34	283.333
220.72	-0.000
221.09	-900.000
221.47	0.000
221.84	650.000
222.22	75.000
222.59	-325.000
222.97	8.696
223.34	113.333
223.72	314.286
224.09	-166.667
224.46	92.308
224.84	-86.667
225.21	-100.000
225.59	-450.000
225.96	-15.000
226.34	183.333
226.71	170.000
227.08	-100.000
227.46	85.714
227.83	-16.667
228.21	-900.000
228.58	183.333
228.95	-5.263
229.33	12.500
229.70	-116.667
230.08	-22.222
230.45	-333.333
230.82	-1700.000
231.20	-33.333
231.57	-300.000
231.95	-200.000
232.32	100.000
232.69	-800.000
233.07	-18.750
233.44	-162.500
233.81	25.806
234.19	-240.000
234.56	-61.111
234.93	-116.667
235.31	-11.111
235.68	-18.519
236.05	-19.231
236.43	-36.842
236.80	-50.000
237.17	-150.000
237.55	-80.000
237.92	2.326
238.29	-32.258
238.67	-25.000
239.04	-14.286
239.41	-17.647
239.79	-14.000
240.16	-22.500
240.53	-22.414
240.91	8.219
241.28	-1.408
241.65	-3.125
242.02	-21.053
242.40	-1.333
242.77	5.263
243.14	4.706
243.51	5.376
243.89	0.000
244.26	12.037
244.63	6.122
245.00	-5.357
245.38	-7.563
245.75	-1.695
246.12	5.469
246.49	-8.800
246.87	-4.918
247.24	-0.704
247.61	-5.960
247.98	8.989
248.36	-1.258
248.73	0.568
249.10	-0.556
249.47	3.646
249.84	5.584
250.22	1.562
250.59	0.000
250.96	5.000
251.33	7.075
251.70	2.294
252.08	8.658
252.45	2.449
252.82	1.688
253.19	4.280
253.56	7.451
253.94	-0.407
254.31	8.633
254.68	0.694
255.05	8.609
255.42	10.182
255.79	10.265
256.16	7.639
256.54	8.182
256.91	6.090
257.28	7.792
257.65	3.607
258.02	7.207
258.39	6.344
258.76	8.257
259.14	4.412
259.51	9.014
259.88	6.628
260.25	6.534
260.62	4.775
260.99	8.357
261.36	2.586
261.73	6.933
262.10	10.354
262.47	7.163
262.85	7.969
263.22	8.065
263.59	7.775
263.96	6.527
264.33	1.617
264.70	6.634
265.07	6.158
265.44	7.963
265.81	11.084
266.18	5.855
266.55	8.333
266.92	8.929
267.29	5.556
267.66	3.409
268.03	6.667
268.40	8.238
268.77	9.354
269.14	4.622
269.51	7.240
269.88	6.624
270.25	7.173
270.62	7.563
270.99	6.947
271.36	6.623
271.73	7.292
272.10	7.054
272.47	6.000
272.84	5.520
273.21	3.758
273.58	5.714
273.95	9.163
274.32	7.157
274.69	7.045
275.06	7.880
275.43	5.200
275.80	7.075
276.17	7.312
276.54	8.175
276.91	7.102
277.28	8.317
277.65	6.805
278.02	9.659
278.39	7.985
278.76	5.214
279.13	9.123
279.50	6.679
279.87	7.358
280.23	7.468
280.60	4.594
280.97	7.909
281.34	7.288
281.71	5.684
282.08	6.261
282.45	6.173
282.82	6.397
283.19	7.744
283.56	7.850
283.92	7.109
284.29	7.953
284.66	6.726
285.03	6.346
285.40	9.000
285.77	7.882
286.14	7.765
286.51	5.627
286.87	6.969
287.24	4.006
287.61	7.870
287.98	8.138
288.35	8.682
288.72	9.021
289.08	6.132
289.45	5.304
289.82	5.745
290.19	6.667
290.56	8.249
290.93	6.795
291.29	7.234
291.66	6.461
292.03	8.465
292.40	6.763
292.77	6.122
293.13	6.021
293.50	6.474
293.87	5.964
294.24	6.039
294.60	6.831
294.97	4.709
295.34	6.849
295.71	4.716
296.08	4.098
296.44	6.061
296.81	6.468
297.18	7.245
297.55	4.774
297.91	5.076
298.28	4.987
298.65	5.045
299.02	5.179
299.38	4.719
299.75	5.019
300.12	5.755
300.48	6.338
300.85	5.012
301.22	4.447
301.59	6.569
301.95	6.098
302.32	6.561
302.69	3.686
303.05	5.903
303.42	5.072
303.79	4.607
304.15	5.663
304.52	4.134
304.89	4.848
305.25	6.078
305.62	5.909
305.99	5.599
306.35	4.139
306.72	6.100
307.09	4.026
307.45	5.609
307.82	6.937
308.19	5.281
308.55	5.485
308.92	5.297
309.29	4.603
309.65	5.573
310.02	5.346
310.38	5.650
310.75	5.943
311.12	4.985
311.48	6.064
311.85	5.066
312.22	5.269
312.58	4.733
312.95	5.133
313.31	5.900
313.68	4.965
314.05	6.256
314.41	5.697
314.78	5.025
315.14	5.289
315.51	5.958
315.87	6.445
316.24	6.034
316.61	6.019
316.97	6.176
317.34	7.081
317.70	5.696
318.07	4.725
318.43	7.278
318.80	6.648
319.16	6.710
319.53	7.642
319.89	6.345
320.26	7.276
320.62	7.171
320.99	8.367
321.35	7.115
321.72	9.394
322.08	8.317
322.45	6.607
322.81	10.049
323.18	9.492
323.54	10.995
323.91	9.867
324.27	8.775
324.64	9.185
325.00	10.282
325.37	12.950
325.73	11.131
326.10	11.909
326.46	12.149
326.83	13.456
327.19	13.974
327.56	16.004
327.92	14.410
328.29	14.695
328.65	15.819
329.01	16.239
329.38	15.611
329.74	17.084
330.11	16.030
330.47	18.063
330.84	17.857
331.20	17.283
331.56	18.491
331.93	17.383
332.29	18.224
332.66	18.897
333.02	19.313
333.38	19.118
333.75	19.762
334.11	19.711
334.48	19.320
334.84	18.216
335.20	19.964
335.57	21.344
335.93	19.256
336.29	20.018
336.66	20.036
337.02	19.855
337.38	21.604
337.75	21.091
338.11	21.604
338.47	21.541
338.84	21.639
339.20	21.265
339.56	20.690
339.93	21.532
340.29	21.940
340.65	20.913
341.02	20.815
341.38	21.977
341.74	21.174
342.11	20.866
342.47	21.416
342.83	20.815
343.20	22.104
343.56	21.766
343.92	22.485
344.28	20.840
344.65	22.003
345.01	21.864
345.37	22.650
345.73	21.016
346.10	21.262
346.46	21.829
346.82	22.175
347.19	21.867
347.55	22.619
347.91	20.803
348.27	21.735
348.63	21.694
349.00	22.955
349.36	21.929
349.72	22.085
350.08	20.949
350.45	21.969
350.81	22.213
351.17	21.417
351.53	20.934
351.89	21.848
352.26	21.057
352.62	21.423
352.98	22.510
353.34	21.972
353.70	21.728
354.07	23.641
354.43	21.870
354.79	22.213
355.15	21.308
355.51	22.983
355.87	22.065
356.24	23.366
356.60	22.037
356.96	22.354
357.32	22.140
357.68	22.116
358.04	22.609
358.40	22.831
358.77	21.365
359.13	23.133
359.49	21.840
359.85	23.421
360.21	21.174
360.57	22.807
360.93	22.486
361.29	23.364
361.66	21.767
362.02	22.920
362.38	23.310
362.74	23.674
363.10	22.624
363.46	23.025
363.82	22.818
364.18	23.543
364.54	23.740
364.90	22.815
365.26	23.025
365.62	23.013
365.98	24.063
366.35	23.298
366.71	23.973
367.07	23.690
367.43	22.671
367.79	23.547
368.15	24.240
368.51	24.719
368.87	24.523
369.23	24.224
369.59	23.309
369.95	24.069
370.31	23.636
370.67	23.910
371.03	24.149
371.39	25.302
371.75	24.740
372.11	22.963
372.47	23.831
372.83	24.909
373.19	24.849
373.55	25.075
373.91	25.076
374.27	25.386
374.63	25.037
374.99	25.403
375.35	24.238
375.71	24.821
376.07	25.654
376.42	24.689
376.78	24.878
377.14	26.746
377.50	26.265
377.86	26.602
378.22	25.826
378.58	26.579
378.94	26.195
379.30	27.027
379.66	26.120
380.02	26.955
380.38	26.654
380.74	27.098
381.09	26.366
381.45	26.349
381.81	26.786
382.17	26.971
382.53	28.928
382.89	26.684
383.25	27.521
383.61	27.400
383.97	26.836
384.32	27.484
384.68	27.395
385.04	27.944
385.40	27.732
385.76	27.767
386.12	27.921
386.48	27.723
386.83	29.164
387.19	29.183
387.55	28.433
387.91	28.847
388.27	29.047
388.62	29.598
388.98	29.771
389.34	29.148
389.70	29.103
390.06	29.901
390.42	29.074
390.77	29.779
391.13	29.408
391.49	30.930
391.85	31.071
392.20	30.627
392.56	28.880
392.92	30.736
393.28	30.221
393.64	31.476
393.99	31.104
394.35	30.954
394.71	30.728
395.07	32.095
395.42	31.619
395.78	32.594
396.14	30.846
396.50	32.988
396.85	30.271
397.21	31.177
397.57	32.192
397.92	32.697
398.28	33.094
398.64	31.810
399.00	32.618
399.35	33.118
399.71	32.814
400.07	32.613
400.42	33.397
400.78	34.165
401.14	33.838
401.49	33.854
401.85	34.032
402.21	34.962
402.57	33.419
402.92	35.392
403.28	34.005
403.63	35.321
403.99	34.346
404.35	34.650
404.70	34.262
405.06	34.780
405.42	35.719
405.77	34.839
406.13	35.364
406.49	34.953
406.84	36.115
407.20	34.634
407.55	36.740
407.91	36.364
408.27	36.902
408.62	36.141
408.98	37.902
409.34	36.172
409.69	36.589
410.05	36.788
410.40	36.224
410.76	37.858
411.11	36.716
411.47	37.347
411.83	36.446
412.18	38.613
412.54	37.128
412.89	38.472
413.25	38.683
413.60	38.074
413.96	39.676
414.31	37.667
414.67	41.256
415.03	38.935
415.38	38.858
415.74	39.490
416.09	39.145
416.45	40.694
416.80	38.595
417.16	40.268
417.51	42.054
417.87	41.587
418.22	40.775
418.58	40.014
418.93	40.619
419.29	40.909
419.64	43.681
420.00	42.174
420.35	42.373
420.71	41.357
421.06	41.661
421.42	42.785
421.77	43.910
422.12	42.351
422.48	42.490
422.83	42.918
423.19	43.294
423.54	43.250
423.90	43.511
424.25	43.202
424.61	43.871
424.96	44.902
425.31	43.599
425.67	43.212
426.02	45.093
426.38	44.015
426.73	44.611
427.09	43.664
427.44	45.802
427.79	46.225
428.15	45.212
428.50	45.854
428.85	44.836
429.21	46.025
429.56	45.414
429.92	45.160
430.27	46.080
430.62	45.646
430.98	46.051
431.33	47.164
431.68	45.350
432.04	46.893
432.39	46.583
432.74	46.679
433.10	46.998
433.45	48.575
433.80	48.274
434.16	47.641
434.51	47.882
434.86	47.190
435.22	48.196
435.57	50.000
435.92	46.563
436.28	46.513
436.63	49.076
436.98	48.272
437.34	50.608
437.69	48.395
438.04	49.339
438.39	50.587
438.75	49.108
439.10	50.238
439.45	50.642
439.81	49.079
440.16	49.536
440.51	50.867
440.86	50.189
441.22	49.672
441.57	49.972
441.92	51.022
442.27	51.143
442.63	51.354
442.98	52.262
443.33	50.294
443.68	51.359
444.03	50.361
444.39	51.379
444.74	49.971
445.09	51.830
445.44	51.137
445.79	52.535
446.15	51.895
446.50	51.591
446.85	51.100
447.20	52.133
447.55	50.727
447.91	52.734
448.26	52.700
448.61	52.085
448.96	51.981
449.31	53.285
449.66	51.816
450.02	51.953
450.37	53.584
450.72	51.825
451.07	54.252
451.42	53.821
451.77	53.153
452.12	53.383
452.47	53.862
452.83	54.608
453.18	54.828
453.53	55.519
453.88	55.010
454.23	54.696
454.58	54.765
454.93	53.270
455.28	53.768
455.63	54.971
455.98	55.266
456.34	54.052
456.69	55.383
457.04	54.856
457.39	54.744
457.74	54.741
458.09	53.205
458.44	54.077
458.79	54.122
459.14	54.800
459.49	55.669
459.84	55.589
460.19	55.097
460.54	54.230
460.89	54.647
461.24	56.429
461.59	56.909
461.94	55.490
462.29	54.825
462.64	56.616
462.99	56.055
463.34	56.044
463.69	57.682
464.04	56.639
464.39	56.399
464.74	54.510
465.09	56.141
465.44	54.409
465.79	55.475
466.14	54.893
466.49	55.503
466.84	55.405
467.19	56.010
467.54	53.846
467.89	55.846
468.24	55.934
468.59	56.086
468.94	57.633
469.29	57.509
469.64	56.601
469.99	56.741
470.34	56.294
470.68	56.154
471.03	57.007
471.38	58.115
471.73	55.814
472.08	59.146
472.43	58.714
472.78	57.433
473.13	57.404
473.48	59.613
473.83	59.049
474.17	57.171
474.52	58.205
474.87	57.197
475.22	57.370
475.57	57.814
475.92	58.101
476.27	56.962
476.61	58.333
476.96	58.921
477.31	57.934
477.66	57.408
478.01	57.916
478.36	57.994
478.70	59.606
479.05	58.561
479.40	57.711
479.75	58.553
480.10	58.874
480.45	58.743
480.79	58.329
481.14	58.408
481.49	56.967
481.84	57.576
482.19	58.146
482.53	57.745
482.88	59.329
483.23	59.146
483.58	58.911
483.92	58.744
484.27	58.180
484.62	58.746
484.97	57.645
485.31	56.883
485.66	55.237
486.01	54.508
486.36	54.708
486.70	55.342
487.05	56.040
487.40	55.538
487.75	56.026
488.09	54.574
488.44	56.612
488.79	57.187
489.13	57.190
489.48	58.171
489.83	57.883
490.17	58.275
490.52	57.744
490.87	59.891
491.22	58.925
491.56	58.350
491.91	59.237
492.26	61.397
492.60	60.153
492.95	59.548
493.30	60.376
493.64	60.294
493.99	60.370
494.34	60.416
494.68	59.366
495.03	59.128
495.37	59.757
495.72	60.549
496.07	59.077
496.41	59.387
496.76	58.883
497.11	59.921
497.45	61.125
497.80	59.502
498.14	60.084
498.49	61.666
498.84	59.329
499.18	60.093
499.53	61.526
499.87	60.778
500.22	60.416
500.56	60.963
500.91	62.559
501.26	60.735
501.60	60.754
501.95	60.850
502.29	61.929
502.64	60.179
502.98	60.071
503.33	59.261
503.67	60.796
504.02	60.981
504.36	60.966
504.71	62.340
505.06	61.810
505.40	62.413
505.75	60.979
506.09	61.647
506.44	62.768
506.78	61.617
507.13	61.944
507.47	63.934
507.82	63.504
508.16	62.695
508.51	63.403
508.85	62.692
509.19	62.809
509.54	61.813
509.88	61.910
510.23	63.708
510.57	63.089
510.92	63.776
511.26	62.608
511.61	62.728
511.95	63.274
512.30	64.058
512.64	62.874
512.98	64.619
513.33	63.775
513.67	64.072
514.02	64.483
514.36	62.633
514.70	65.574
515.05	65.305
515.39	64.868
515.74	66.103
516.08	65.599
516.42	66.439
516.77	65.839
517.11	65.138
517.46	67.395
517.80	67.071
518.14	65.844
518.49	66.106
518.83	67.445
519.17	67.159
519.52	66.646
519.86	69.601
520.20	66.115
520.55	68.081
520.89	69.366
521.23	69.005
521.58	67.923
521.92	67.223
522.26	70.378
522.61	69.693
522.95	69.589
523.29	68.691
523.64	68.996
523.98	67.876
524.32	69.495
524.66	69.273
525.01	70.172
525.35	69.425
525.69	68.754
526.04	71.952
526.38	71.145
526.72	69.861
527.06	71.167
527.41	70.163
527.75	71.931
528.09	68.741
528.43	70.092
528.78	70.580
529.12	70.479
529.46	69.701
529.80	69.912
530.15	71.647
530.49	70.642
530.83	71.150
531.17	70.339
531.51	71.021
531.86	70.518
532.20	70.851
532.54	70.360
532.88	71.709
533.22	70.474
533.57	70.138
533.91	70.200
534.25	69.790
534.59	70.426
534.93	69.711
535.27	69.360
535.62	68.467
535.96	71.389
536.30	71.399
536.64	72.389
536.98	71.313
537.32	71.503
537.66	70.894
538.01	71.870
538.35	70.400
538.69	68.719
539.03	70.007
539.37	69.490
539.71	70.942
540.05	71.418
540.39	70.951
540.73	69.817
541.07	71.544
541.42	70.349
541.76	71.511
542.10	69.440
542.44	69.147
542.78	70.455
543.12	68.448
543.46	70.119
543.80	69.192
544.14	70.323
544.48	69.754
544.82	71.043
545.16	70.435
545.50	71.980
545.84	71.397
546.18	70.412
546.52	71.407
546.86	70.620
547.20	70.606
547.54	71.039
547.88	69.872
548.22	68.706
548.56	70.825
548.90	68.772
549.24	71.491
549.58	69.449
549.92	68.872
550.26	72.896
550.60	71.293
550.94	73.095
551.28	73.415
551.62	73.956
551.96	70.527
552.30	70.698
552.64	70.023
552.98	70.431
553.32	70.606
553.66	70.030
554.00	71.892
554.34	71.797
554.68	72.249
555.02	69.603
555.36	71.565
555.69	69.408
556.03	69.549
556.37	70.368
556.71	71.116
557.05	71.016
557.39	71.165
557.73	71.619
558.07	70.892
558.41	70.630
558.75	72.365
559.08	74.468
559.42	72.742
559.76	72.030
560.10	71.801
560.44	70.546
560.78	71.150
561.12	71.150
561.45	70.461
561.79	69.824
562.13	70.126
562.47	71.713
562.81	70.735
563.15	67.300
563.48	69.213
563.82	68.341
564.16	69.884
564.50	70.129
564.84	68.746
565.17	69.099
565.51	68.895
565.85	68.662
566.19	68.963
566.52	70.323
566.86	68.443
567.20	68.530
567.54	67.581
567.88	66.626
568.21	66.120
568.55	66.101
568.89	65.495
569.23	64.106
569.56	63.494
569.90	63.469
570.24	61.820
570.57	61.287
570.91	61.099
571.25	61.226
571.59	60.164
571.92	59.783
572.26	58.778
572.60	59.718
572.93	59.070
573.27	59.637
573.61	59.177
573.95	58.670
574.28	58.345
574.62	56.860
574.96	58.070
575.29	57.434
575.63	56.205
575.97	56.645
576.30	58.762
576.64	56.836
576.98	58.042
577.31	57.607
577.65	56.722
577.98	56.208
578.32	56.168
578.66	56.031
578.99	56.982
579.33	55.970
579.67	55.895
580.00	57.113
580.34	56.355
580.67	55.722
581.01	56.712
581.35	55.004
581.68	54.959
582.02	55.625
582.35	55.234
582.69	56.304
583.02	55.956
583.36	55.679
583.70	56.851
584.03	56.038
584.37	56.894
584.70	56.397
585.04	55.720
585.37	56.248
585.71	55.438
586.04	56.396
586.38	56.688
586.72	56.256
587.05	56.344
587.39	55.814
587.72	56.571
588.06	55.957
588.39	56.646
588.73	56.839
589.06	56.903
589.40	56.952
589.73	57.554
590.07	57.685
590.40	57.493
590.73	59.517
591.07	57.359
591.40	58.840
591.74	58.909
592.07	59.121
592.41	59.138
592.74	58.543
593.08	57.213
593.41	55.811
593.75	57.061
594.08	57.347
594.41	57.197
594.75	57.283
595.08	57.499
595.42	56.665
595.75	56.591
596.09	57.406
596.42	57.759
596.75	58.455
597.09	57.229
597.42	58.376
597.75	57.974
598.09	57.022
598.42	58.258
598.76	57.332
599.09	57.311
599.42	56.058
599.76	56.375
600.09	56.940
600.42	55.664
600.76	56.043
601.09	56.039
601.42	55.314
601.76	55.804
602.09	56.640
602.42	56.405
602.76	56.675
603.09	57.702
603.42	56.474
603.76	56.819
604.09	55.764
604.42	56.247
604.76	56.595
605.09	57.062
605.42	57.393
605.75	56.236
606.09	57.022
606.42	55.468
606.75	55.639
607.09	56.950
607.42	56.127
607.75	55.142
608.08	55.426
608.42	56.208
608.75	57.029
609.08	55.780
609.41	57.024
609.75	56.872
610.08	56.537
610.41	56.438
610.74	56.117
611.07	55.949
611.41	56.210
611.74	56.801
612.07	57.254
612.40	57.047
612.73	57.986
613.07	57.780
613.40	56.412
613.73	56.128
614.06	56.323
614.39	56.942
614.72	57.202
615.06	56.946
615.39	56.409
615.72	55.487
616.05	56.928
616.38	56.406
616.71	56.841
617.05	56.784
617.38	56.129
617.71	57.805
618.04	57.556
618.37	56.442
618.70	57.269
619.03	59.536
619.36	59.867
619.69	59.020
620.03	60.107
620.36	59.486
620.69	57.650
621.02	58.195
621.35	60.511
621.68	61.656
622.01	62.032
622.34	59.380
622.67	60.624
623.00	59.459
623.33	58.819
623.66	60.956
623.99	58.772
624.32	58.618
624.65	59.297
624.99	57.734
625.32	56.714
625.65	56.765
625.98	58.500
626.31	59.307
626.64	60.450
626.97	63.235
627.30	60.741
627.63	61.581
627.96	60.242
628.29	60.421
628.62	61.753
628.95	59.556
629.28	61.467
629.61	61.964
629.94	63.485
630.26	62.971
630.59	63.351
630.92	61.012
631.25	63.017
631.58	63.488
631.91	61.959
632.24	64.615
632.57	63.971
632.90	65.068
633.23	67.097
633.56	63.019
633.89	64.644
634.22	66.923
634.55	66.623
634.88	66.667
635.20	65.616
635.53	65.782
635.86	65.761
636.19	63.847
636.52	65.903
636.85	63.494
