SpectraSuite Data File
++++++++++++++++++++++++++++++++++++
Date: Wed May 13 19:23:37 PDT 2015
User: schluterlab
Dark Spectrum Present: Yes
Reference Spectrum Present: Yes
Number of Sampled Component Spectra: 1
Spectrometers: USB2E3373
Integration Time (usec): 3000 (USB2E3373)
Spectra Averaged: 3 (USB2E3373)
Boxcar Smoothing: 0 (USB2E3373)
Correct for Electrical Dark: No (USB2E3373)
Strobe/Lamp Enabled: No (USB2E3373)
Correct for Detector Non-linearity: No (USB2E3373)
Correct for Stray Light: No (USB2E3373)
Number of Pixels in Processed Spectrum: 2048
>>>>>Begin Processed Spectral Data<<<<<
178.53	0.000
178.91	-1250.000
179.29	-1625.000
179.67	-255.556
180.04	-1375.000
180.42	2750.000
180.80	1240.000
181.18	-1000.000
181.56	742.857
181.94	0.000
182.31	-642.857
182.69	1766.667
183.07	-587.500
183.45	-622.222
183.83	590.909
184.20	-440.000
184.58	2500.000
184.96	5800.000
185.34	-1000.000
185.72	-687.500
186.09	-2350.000
186.47	2900.000
186.85	2850.000
187.23	5600.000
187.61	-1633.333
187.98	1500.000
188.36	545.455
188.74	572.727
189.12	-1040.000
189.49	640.000
189.87	-5500.000
190.25	-1250.000
190.63	414.286
191.00	492.308
191.38	966.667
191.76	-1300.000
192.14	1525.000
192.51	725.000
192.89	1033.333
193.27	650.000
193.65	-1550.000
194.02	670.000
194.40	960.000
194.78	640.000
195.15	591.667
195.53	710.000
195.91	-2450.000
196.29	350.000
196.66	331.579
197.04	-470.000
197.42	0.000
197.79	610.000
198.17	-5100.000
198.55	842.857
198.92	712.500
199.30	1160.000
199.68	0.000
200.05	405.556
200.43	771.429
200.81	4800.000
201.18	2000.000
201.56	-1533.333
201.94	555.556
202.31	711.111
202.69	400.000
203.07	530.000
203.44	0.000
203.82	1375.000
204.19	928.571
204.57	492.857
204.95	687.500
205.32	1600.000
205.70	536.364
206.08	421.429
206.45	2650.000
206.83	450.000
207.20	950.000
207.58	920.000
207.96	372.222
208.33	762.500
208.71	-950.000
209.08	900.000
209.46	611.111
209.84	454.545
210.21	-1833.333
210.59	1700.000
210.96	-600.000
211.34	2900.000
211.71	640.000
212.09	866.667
212.46	0.000
212.84	1566.667
213.22	1425.000
213.59	-4700.000
213.97	916.667
214.34	842.857
214.72	609.091
215.09	1200.000
215.47	-3200.000
215.84	-2850.000
216.22	1700.000
216.59	514.286
216.97	1575.000
217.34	536.364
217.72	-883.333
218.09	0.000
218.47	-5900.000
218.84	700.000
219.22	814.286
219.59	1633.333
219.97	-728.571
220.34	1400.000
220.72	-2000.000
221.09	442.857
221.47	1625.000
221.84	-916.667
222.22	0.000
222.59	1300.000
222.97	-2900.000
223.34	1160.000
223.72	461.538
224.09	1260.000
224.46	2400.000
224.84	-5200.000
225.21	-1200.000
225.59	-5500.000
225.96	600.000
226.34	330.000
226.71	2400.000
227.08	637.500
227.46	580.000
227.83	-1225.000
228.21	-2700.000
228.58	544.444
228.95	-2400.000
229.33	-2250.000
229.70	1866.667
230.08	828.571
230.45	-840.000
230.82	508.333
231.20	1133.333
231.57	657.143
231.95	491.667
232.32	277.273
232.69	500.000
233.07	714.286
233.44	484.615
233.81	-1900.000
234.19	305.263
234.56	550.000
234.93	358.333
235.31	581.818
235.68	400.000
236.05	421.429
236.43	184.848
236.80	257.895
237.17	5600.000
237.55	295.238
237.92	232.143
238.29	266.667
238.67	225.806
239.04	255.172
239.41	191.667
239.79	145.652
240.16	150.000
240.53	175.000
240.91	131.373
241.28	138.000
241.65	132.000
242.02	104.348
242.40	116.129
242.77	106.667
243.14	90.323
243.51	94.382
243.89	92.941
244.26	85.556
244.63	84.946
245.00	93.617
245.38	78.218
245.75	81.308
246.12	77.982
246.49	80.292
246.87	84.800
247.24	76.923
247.61	65.000
247.98	62.745
248.36	62.162
248.73	65.605
249.10	66.242
249.47	60.452
249.84	54.011
250.22	48.663
250.59	60.947
250.96	54.545
251.33	57.820
251.70	53.465
252.08	50.952
252.45	52.915
252.82	53.913
253.19	56.170
253.56	47.843
253.94	51.452
254.31	46.875
254.68	51.154
255.05	50.554
255.42	47.561
255.79	48.162
256.16	50.542
256.54	43.110
256.91	48.754
257.28	44.964
257.65	45.215
258.02	45.652
258.39	43.849
258.76	41.806
259.14	44.048
259.51	43.769
259.88	43.168
260.25	42.900
260.62	41.040
260.99	46.273
261.36	45.946
261.73	43.553
262.10	41.279
262.47	42.254
262.85	43.733
263.22	41.880
263.59	44.160
263.96	40.385
264.33	38.903
264.70	43.684
265.07	42.967
265.44	44.444
265.81	38.200
266.18	38.945
266.55	40.732
266.92	41.523
267.29	41.667
267.66	41.055
268.03	38.636
268.40	39.720
268.77	38.663
269.14	38.288
269.51	39.729
269.88	40.326
270.25	38.375
270.62	39.101
270.99	38.710
271.36	37.124
271.73	43.458
272.10	37.609
272.47	42.151
272.84	39.827
273.21	40.881
273.58	35.153
273.95	35.010
274.32	37.190
274.69	38.116
275.06	38.189
275.43	34.894
275.80	40.681
276.17	34.216
276.54	38.669
276.91	38.538
277.28	38.086
277.65	37.911
278.02	36.646
278.39	37.500
278.76	36.727
279.13	36.415
279.50	35.754
279.87	36.653
280.23	34.731
280.60	36.170
280.97	35.120
281.34	37.345
281.71	35.818
282.08	37.044
282.45	34.909
282.82	33.925
283.19	35.472
283.56	34.035
283.92	35.871
284.29	32.981
284.66	34.120
285.03	33.816
285.40	33.803
285.77	34.848
286.14	33.333
286.51	33.167
286.87	34.530
287.24	33.550
287.61	31.621
287.98	33.279
288.35	32.488
288.72	32.399
289.08	30.673
289.45	32.784
289.82	33.659
290.19	29.984
290.56	31.700
290.93	29.154
291.29	29.908
291.66	31.121
292.03	31.250
292.40	31.131
292.77	29.586
293.13	30.000
293.50	29.738
293.87	30.667
294.24	29.037
294.60	28.384
294.97	28.052
295.34	28.773
295.71	29.545
296.08	27.350
296.44	29.298
296.81	25.760
297.18	29.268
297.55	24.934
297.91	27.573
298.28	26.774
298.65	28.198
299.02	26.087
299.38	26.428
299.75	24.259
300.12	25.543
300.48	26.000
300.85	25.647
301.22	26.497
301.59	23.611
301.95	25.693
302.32	24.647
302.69	26.643
303.05	25.091
303.42	25.062
303.79	24.122
304.15	24.009
304.52	23.870
304.89	22.880
305.25	23.666
305.62	24.575
305.99	24.085
306.35	22.931
306.72	24.664
307.09	25.527
307.45	25.676
307.82	25.335
308.19	23.510
308.55	24.164
308.92	24.705
309.29	24.076
309.65	23.012
310.02	25.053
310.38	24.516
310.75	25.343
311.12	24.565
311.48	24.242
311.85	24.004
312.22	24.454
312.58	24.220
312.95	24.815
313.31	22.524
313.68	25.780
314.05	25.148
314.41	24.523
314.78	24.572
315.14	25.124
315.51	25.232
315.87	25.545
316.24	26.018
316.61	25.146
316.97	25.538
317.34	24.951
317.70	27.055
318.07	26.468
318.43	27.886
318.80	27.835
319.16	28.531
319.53	27.205
319.89	28.286
320.26	28.900
320.62	29.266
320.99	31.010
321.35	30.606
321.72	32.238
322.08	30.701
322.45	30.945
322.81	30.717
323.18	30.154
323.54	30.612
323.91	30.755
324.27	30.880
324.64	30.755
325.00	30.839
325.37	32.120
325.73	32.406
326.10	33.451
326.46	32.616
326.83	34.858
327.19	34.159
327.56	34.756
327.92	34.996
328.29	36.025
328.65	37.109
329.01	35.469
329.38	35.800
329.74	36.288
330.11	36.475
330.47	35.996
330.84	37.316
331.20	37.432
331.56	35.780
331.93	37.500
332.29	36.469
332.66	37.257
333.02	36.563
333.38	36.947
333.75	37.879
334.11	37.189
334.48	36.557
334.84	38.511
335.20	37.000
335.57	37.171
335.93	36.250
336.29	38.187
336.66	37.782
337.02	36.833
337.38	39.167
337.75	37.344
338.11	37.869
338.47	38.306
338.84	38.955
339.20	37.982
339.56	38.595
339.93	37.727
340.29	36.685
340.65	37.433
341.02	39.354
341.38	38.167
341.74	36.842
342.11	38.952
342.47	37.797
342.83	37.757
343.20	39.567
343.56	37.405
343.92	38.684
344.28	37.415
344.65	39.037
345.01	36.785
345.37	38.250
345.73	38.240
346.10	38.107
346.46	38.220
346.82	38.880
347.19	37.176
347.55	36.864
347.91	39.320
348.27	39.606
348.63	38.378
349.00	38.754
349.36	37.603
349.72	39.775
350.08	37.439
350.45	38.812
350.81	37.530
351.17	38.574
351.53	39.312
351.89	38.119
352.26	39.069
352.62	39.775
352.98	39.222
353.34	38.702
353.70	38.953
354.07	38.548
354.43	37.778
354.79	38.455
355.15	38.627
355.51	39.968
355.87	40.408
356.24	40.961
356.60	38.573
356.96	39.662
357.32	40.065
357.68	39.370
358.04	39.667
358.40	39.034
358.77	40.141
359.13	38.674
359.49	40.706
359.85	38.571
360.21	39.713
360.57	41.790
360.93	40.231
361.29	40.136
361.66	40.325
362.02	41.045
362.38	41.673
362.74	40.774
363.10	40.933
363.46	41.233
363.82	41.950
364.18	41.189
364.54	41.530
364.90	42.422
365.26	41.838
365.62	42.001
365.98	42.294
366.35	40.401
366.71	41.721
367.07	41.952
367.43	43.033
367.79	43.897
368.15	43.103
368.51	43.387
368.87	43.754
369.23	43.160
369.59	43.736
369.95	43.676
370.31	43.590
370.67	44.638
371.03	46.067
371.39	45.627
371.75	45.147
372.11	44.666
372.47	47.214
372.83	46.830
373.19	45.303
373.55	46.046
373.91	46.760
374.27	45.155
374.63	46.109
374.99	46.681
375.35	46.895
375.71	46.881
376.07	46.365
376.42	48.556
376.78	46.587
377.14	48.304
377.50	49.007
377.86	48.205
378.22	48.989
378.58	46.366
378.94	48.774
379.30	48.982
379.66	49.239
380.02	48.771
380.38	48.695
380.74	49.520
381.09	49.328
381.45	49.478
381.81	50.061
382.17	50.573
382.53	50.818
382.89	51.111
383.25	50.719
383.61	51.673
383.97	51.345
384.32	51.279
384.68	51.363
385.04	51.199
385.40	51.517
385.76	52.088
386.12	53.821
386.48	52.989
386.83	54.586
387.19	53.865
387.55	52.752
387.91	53.325
388.27	53.403
388.62	53.657
388.98	53.194
389.34	54.881
389.70	53.893
390.06	54.056
390.42	54.280
390.77	54.008
391.13	55.010
391.49	54.569
391.85	54.233
392.20	55.142
392.56	54.798
392.92	55.150
393.28	55.089
393.64	56.355
393.99	54.612
394.35	56.328
394.71	54.141
395.07	54.579
395.42	56.428
395.78	55.534
396.14	54.873
396.50	57.519
396.85	56.453
397.21	56.042
397.57	56.541
397.92	56.611
398.28	56.054
398.64	56.691
399.00	56.463
399.35	56.853
399.71	57.523
400.07	56.771
400.42	57.914
400.78	56.031
401.14	57.195
401.49	56.657
401.85	57.653
402.21	57.784
402.57	57.187
402.92	58.512
403.28	58.026
403.63	57.673
403.99	57.197
404.35	58.242
404.70	57.614
405.06	57.833
405.42	58.702
405.77	57.543
406.13	57.731
406.49	57.776
406.84	57.472
407.20	56.797
407.55	58.328
407.91	58.400
408.27	59.413
408.62	58.158
408.98	57.904
409.34	58.549
409.69	58.516
410.05	58.116
410.40	58.226
410.76	58.542
411.11	58.263
411.47	58.339
411.83	59.560
412.18	58.874
412.54	58.842
412.89	58.795
413.25	58.146
413.60	59.172
413.96	57.984
414.31	59.174
414.67	58.745
415.03	59.934
415.38	59.794
415.74	60.450
416.09	60.418
416.45	60.643
416.80	60.013
417.16	60.523
417.51	60.717
417.87	59.473
418.22	59.306
418.58	59.329
418.93	59.644
419.29	59.835
419.64	59.005
420.00	59.756
420.35	59.304
420.71	58.936
421.06	59.129
421.42	58.538
421.77	59.641
422.12	59.573
422.48	58.877
422.83	59.814
423.19	59.337
423.54	60.882
423.90	60.232
424.25	59.129
424.61	60.179
424.96	60.700
425.31	60.576
425.67	58.708
426.02	59.886
426.38	60.867
426.73	59.157
427.09	60.669
427.44	59.977
427.79	59.402
428.15	59.286
428.50	58.982
428.85	60.787
429.21	59.801
429.56	59.461
429.92	59.235
430.27	59.881
430.62	58.372
430.98	59.678
431.33	58.402
431.68	60.157
432.04	58.200
432.39	60.423
432.74	60.263
433.10	60.781
433.45	59.883
433.80	60.144
434.16	59.776
434.51	59.263
434.86	59.293
435.22	59.867
435.57	60.243
435.92	60.269
436.28	59.253
436.63	60.706
436.98	59.702
437.34	60.823
437.69	59.860
438.04	59.359
438.39	61.194
438.75	60.372
439.10	60.000
439.45	61.275
439.81	61.027
440.16	59.571
440.51	60.516
440.86	59.815
441.22	59.121
441.57	60.403
441.92	60.287
442.27	59.742
442.63	59.031
442.98	60.282
443.33	59.076
443.68	60.041
444.03	59.980
444.39	57.936
444.74	60.335
445.09	60.108
445.44	59.431
445.79	59.080
446.15	58.761
446.50	58.212
446.85	58.787
447.20	58.899
447.55	60.469
447.91	59.570
448.26	58.542
448.61	58.282
448.96	60.244
449.31	59.449
449.66	57.963
450.02	59.053
450.37	58.503
450.72	58.770
451.07	59.232
451.42	57.751
451.77	58.602
452.12	58.603
452.47	59.888
452.83	59.266
453.18	58.557
453.53	59.184
453.88	59.185
454.23	58.757
454.58	59.964
454.93	60.521
455.28	58.167
455.63	60.558
455.98	60.179
456.34	59.862
456.69	59.612
457.04	59.628
457.39	57.569
457.74	58.793
458.09	58.942
458.44	58.438
458.79	56.128
459.14	57.167
459.49	57.443
459.84	57.950
460.19	57.101
460.54	55.845
460.89	56.939
461.24	58.349
461.59	58.280
461.94	56.535
462.29	58.635
462.64	58.137
462.99	57.580
463.34	56.933
463.69	57.036
464.04	56.406
464.39	56.116
464.74	56.031
465.09	56.333
465.44	56.288
465.79	56.096
466.14	55.391
466.49	55.006
466.84	55.750
467.19	54.858
467.54	55.375
467.89	55.282
468.24	55.614
468.59	55.006
468.94	55.040
469.29	56.427
469.64	55.622
469.99	56.225
470.34	55.020
470.68	55.891
471.03	55.102
471.38	57.609
471.73	56.096
472.08	56.382
472.43	54.460
472.78	54.773
473.13	54.493
473.48	53.308
473.83	55.122
474.17	53.454
474.52	55.025
474.87	54.174
475.22	53.627
475.57	52.821
475.92	53.107
476.27	52.649
476.61	52.289
476.96	53.106
477.31	51.648
477.66	53.228
478.01	51.699
478.36	52.671
478.70	51.350
479.05	52.396
479.40	52.968
479.75	51.703
480.10	50.000
480.45	50.833
480.79	49.642
481.14	51.419
481.49	50.831
481.84	49.931
482.19	51.477
482.53	49.633
482.88	50.349
483.23	50.514
483.58	50.591
483.92	50.375
484.27	47.669
484.62	49.224
484.97	48.640
485.31	49.212
485.66	48.156
486.01	46.592
486.36	45.295
486.70	44.345
487.05	45.038
487.40	45.838
487.75	46.386
488.09	46.618
488.44	46.398
488.79	47.957
489.13	48.587
489.48	47.268
489.83	46.828
490.17	48.575
490.52	47.121
490.87	47.399
491.22	47.294
491.56	46.333
491.91	48.022
492.26	45.889
492.60	46.452
492.95	46.632
493.30	46.449
493.64	47.690
493.99	45.265
494.34	46.670
494.68	46.749
495.03	46.805
495.37	46.114
495.72	46.784
496.07	46.172
496.41	45.221
496.76	45.515
497.11	44.800
497.45	45.925
497.80	44.674
498.14	45.314
498.49	45.366
498.84	45.398
499.18	43.905
499.53	44.539
499.87	45.340
500.22	43.853
500.56	45.049
500.91	44.135
501.26	44.808
501.60	44.234
501.95	43.905
502.29	44.939
502.64	44.879
502.98	44.086
503.33	42.367
503.67	43.155
504.02	42.937
504.36	43.893
504.71	43.918
505.06	43.373
505.40	43.024
505.75	42.671
506.09	42.760
506.44	42.871
506.78	43.254
507.13	42.756
507.47	43.586
507.82	43.313
508.16	43.364
508.51	44.343
508.85	42.354
509.19	42.857
509.54	41.276
509.88	42.452
510.23	42.725
510.57	43.240
510.92	42.413
511.26	41.521
511.61	41.961
511.95	40.605
512.30	41.782
512.64	41.268
512.98	42.229
513.33	42.345
513.67	40.662
514.02	41.342
514.36	41.617
514.70	41.118
515.05	40.993
515.39	41.447
515.74	41.385
516.08	42.035
516.42	41.287
516.77	42.531
517.11	40.344
517.46	41.366
517.80	41.580
518.14	40.706
518.49	40.723
518.83	41.136
519.17	40.878
519.52	40.634
519.86	41.529
520.20	39.711
520.55	40.694
520.89	40.511
521.23	40.410
521.58	40.096
521.92	39.682
522.26	39.963
522.61	40.374
522.95	39.165
523.29	39.805
523.64	39.756
523.98	39.988
524.32	38.963
524.66	40.349
525.01	38.542
525.35	39.033
525.69	38.670
526.04	39.751
526.38	37.767
526.72	37.669
527.06	38.481
527.41	37.809
527.75	40.386
528.09	40.270
528.43	38.942
528.78	38.537
529.12	38.364
529.46	38.518
529.80	38.119
530.15	39.128
530.49	36.862
530.83	38.291
531.17	40.013
531.51	38.781
531.86	38.387
532.20	38.266
532.54	38.693
532.88	37.291
533.22	36.977
533.57	37.840
533.91	36.183
534.25	37.303
534.59	36.913
534.93	36.407
535.27	36.874
535.62	36.508
535.96	37.476
536.30	36.809
536.64	37.154
536.98	36.496
537.32	35.221
537.66	37.067
538.01	36.866
538.35	36.134
538.69	36.503
539.03	36.647
539.37	35.527
539.71	35.839
540.05	36.144
540.39	35.615
540.73	34.735
541.07	36.470
541.42	36.921
541.76	36.710
542.10	35.058
542.44	35.828
542.78	36.298
543.12	34.037
543.46	36.197
543.80	34.548
544.14	34.275
544.48	35.492
544.82	34.189
545.16	35.264
545.50	34.190
545.84	34.677
546.18	35.960
546.52	35.444
546.86	35.601
547.20	35.738
547.54	35.070
547.88	35.651
548.22	34.745
548.56	34.403
548.90	34.827
549.24	34.613
549.58	33.970
549.92	34.272
550.26	35.156
550.60	33.402
550.94	33.662
551.28	34.601
551.62	33.573
551.96	34.947
552.30	34.061
552.64	34.415
552.98	33.356
553.32	34.120
553.66	34.015
554.00	34.043
554.34	33.195
554.68	34.907
555.02	32.652
555.36	32.916
555.69	33.627
556.03	33.311
556.37	32.810
556.71	32.947
557.05	32.703
557.39	34.290
557.73	33.310
558.07	33.793
558.41	33.719
558.75	35.562
559.08	33.781
559.42	33.182
559.76	32.794
560.10	32.762
560.44	32.565
560.78	32.069
561.12	32.388
561.45	32.529
561.79	32.828
562.13	32.596
562.47	33.333
562.81	32.078
563.15	32.107
563.48	32.626
563.82	32.746
564.16	32.243
564.50	31.250
564.84	31.479
565.17	30.888
565.51	32.332
565.85	31.726
566.19	32.123
566.52	31.412
566.86	30.862
567.20	31.368
567.54	31.050
567.88	30.744
568.21	31.005
568.55	30.890
568.89	31.226
569.23	30.080
569.56	29.028
569.90	29.623
570.24	29.566
570.57	29.038
570.91	28.378
571.25	28.258
571.59	28.218
571.92	28.802
572.26	28.481
572.60	27.688
572.93	27.436
573.27	28.335
573.61	28.559
573.95	27.959
574.28	27.437
574.62	27.284
574.96	27.455
575.29	27.207
575.63	27.388
575.97	27.571
576.30	27.297
576.64	27.369
576.98	26.957
577.31	27.819
577.65	27.079
577.98	27.443
578.32	26.350
578.66	26.939
578.99	26.524
579.33	26.870
579.67	26.393
580.00	26.948
580.34	27.005
580.67	26.849
581.01	27.142
581.35	27.081
581.68	26.539
582.02	26.465
582.35	26.600
582.69	26.454
583.02	26.282
583.36	26.677
583.70	26.848
584.03	26.594
584.37	26.877
584.70	26.803
585.04	26.761
585.37	26.305
585.71	26.880
586.04	26.432
586.38	26.907
586.72	27.037
587.05	26.379
587.39	26.596
587.72	26.617
588.06	26.067
588.39	26.968
588.73	26.899
589.06	26.768
589.40	27.037
589.73	27.138
590.07	27.438
590.40	26.708
590.73	27.322
591.07	27.554
591.40	27.625
591.74	27.619
592.07	26.920
592.41	27.656
592.74	27.079
593.08	26.915
593.41	27.460
593.75	26.546
594.08	26.316
594.41	26.228
594.75	26.876
595.08	26.521
595.42	27.005
595.75	26.781
596.09	27.075
596.42	27.348
596.75	26.636
597.09	27.446
597.42	25.927
597.75	27.339
598.09	26.739
598.42	26.933
598.76	26.632
599.09	26.758
599.42	26.019
599.76	26.171
600.09	25.829
600.42	26.370
600.76	25.429
601.09	26.120
601.42	26.027
601.76	26.224
602.09	26.601
602.42	26.553
602.76	26.965
603.09	26.947
603.42	26.630
603.76	26.296
604.09	25.708
604.42	25.968
604.76	26.402
605.09	26.911
605.42	26.080
605.75	26.614
606.09	26.108
606.42	26.727
606.75	25.467
607.09	25.576
607.42	25.631
607.75	25.527
608.08	25.532
608.42	26.670
608.75	26.150
609.08	25.671
609.41	26.083
609.75	25.774
610.08	26.909
610.41	25.931
610.74	26.301
611.07	26.581
611.41	26.202
611.74	26.898
612.07	26.656
612.40	27.125
612.73	25.947
613.07	27.101
613.40	26.066
613.73	26.429
614.06	26.398
614.39	26.219
614.72	26.105
615.06	27.048
615.39	25.584
615.72	26.074
616.05	25.678
616.38	26.515
616.71	26.960
617.05	26.443
617.38	26.398
617.71	26.727
618.04	26.863
618.37	26.316
618.70	27.442
619.03	27.303
619.36	26.001
619.69	27.113
620.03	27.129
620.36	27.139
620.69	28.904
621.02	27.360
621.35	27.251
621.68	26.713
622.01	26.935
622.34	26.626
622.67	26.692
623.00	25.899
623.33	27.305
623.66	27.520
623.99	27.982
624.32	27.675
624.65	26.977
624.99	26.416
625.32	27.009
625.65	27.648
625.98	27.440
626.31	27.294
626.64	28.082
626.97	28.096
627.30	26.683
627.63	27.974
627.96	28.007
628.29	26.684
628.62	28.637
628.95	28.585
629.28	28.650
629.61	28.414
629.94	28.286
630.26	28.408
630.59	29.647
