SpectraSuite Data File
++++++++++++++++++++++++++++++++++++
Date: Wed May 13 19:47:57 PDT 2015
User: schluterlab
Dark Spectrum Present: Yes
Reference Spectrum Present: Yes
Number of Sampled Component Spectra: 1
Spectrometers: USB2E3373
Integration Time (usec): 3000 (USB2E3373)
Spectra Averaged: 3 (USB2E3373)
Boxcar Smoothing: 0 (USB2E3373)
Correct for Electrical Dark: No (USB2E3373)
Strobe/Lamp Enabled: No (USB2E3373)
Correct for Detector Non-linearity: No (USB2E3373)
Correct for Stray Light: No (USB2E3373)
Number of Pixels in Processed Spectrum: 2048
>>>>>Begin Processed Spectral Data<<<<<
178.53	0.000
178.91	-1225.000
179.29	-1325.000
179.67	-211.111
180.04	-1400.000
180.42	3150.000
180.80	1100.000
181.18	-1175.000
181.56	771.429
181.94	0.000
182.31	-642.857
182.69	1533.333
183.07	-525.000
183.45	-433.333
183.83	490.909
184.20	-370.000
184.58	2650.000
184.96	5700.000
185.34	-640.000
185.72	-750.000
186.09	-1850.000
186.47	2750.000
186.85	2750.000
187.23	5400.000
187.61	-2000.000
187.98	1700.000
188.36	563.636
188.74	445.455
189.12	-920.000
189.49	530.000
189.87	-4700.000
190.25	-1500.000
190.63	407.143
191.00	369.231
191.38	1016.667
191.76	-1275.000
192.14	1325.000
192.51	562.500
192.89	983.333
193.27	562.500
193.65	-1375.000
194.02	520.000
194.40	900.000
194.78	590.000
195.15	525.000
195.53	600.000
195.91	-2450.000
196.29	300.000
196.66	347.368
197.04	-350.000
197.42	0.000
197.79	600.000
198.17	-5500.000
198.55	642.857
198.92	600.000
199.30	1040.000
199.68	0.000
200.05	333.333
200.43	685.714
200.81	4600.000
201.18	2033.333
201.56	-1433.333
201.94	522.222
202.31	533.333
202.69	400.000
203.07	610.000
203.44	0.000
203.82	1225.000
204.19	828.571
204.57	450.000
204.95	750.000
205.32	1466.667
205.70	581.818
206.08	407.143
206.45	2750.000
206.83	356.250
207.20	1016.667
207.58	880.000
207.96	311.111
208.33	762.500
208.71	-900.000
209.08	742.857
209.46	566.667
209.84	500.000
210.21	-1633.333
210.59	1350.000
210.96	-462.500
211.34	2300.000
211.71	520.000
212.09	850.000
212.46	0.000
212.84	1800.000
213.22	1400.000
213.59	-4200.000
213.97	900.000
214.34	828.571
214.72	572.727
215.09	1040.000
215.47	-2450.000
215.84	-2600.000
216.22	1566.667
216.59	371.429
216.97	1175.000
217.34	481.818
217.72	-600.000
218.09	0.000
218.47	-4000.000
218.84	655.556
219.22	814.286
219.59	1600.000
219.97	-657.143
220.34	940.000
220.72	-1633.333
221.09	421.429
221.47	1450.000
221.84	-883.333
222.22	0.000
222.59	1025.000
222.97	-2500.000
223.34	1140.000
223.72	430.769
224.09	1120.000
224.46	2200.000
224.84	-5400.000
225.21	-840.000
225.59	-5800.000
225.96	610.000
226.34	315.000
226.71	2450.000
227.08	612.500
227.46	570.000
227.83	-1125.000
228.21	-2350.000
228.58	688.889
228.95	-2350.000
229.33	-2050.000
229.70	1800.000
230.08	857.143
230.45	-1020.000
230.82	391.667
231.20	866.667
231.57	671.429
231.95	500.000
232.32	245.455
232.69	427.273
233.07	671.429
233.44	353.846
233.81	-1833.333
234.19	252.632
234.56	450.000
234.93	400.000
235.31	418.182
235.68	330.769
236.05	371.429
236.43	163.636
236.80	273.684
237.17	4000.000
237.55	214.286
237.92	221.429
238.29	242.857
238.67	180.645
239.04	189.655
239.41	127.778
239.79	104.348
240.16	140.476
240.53	115.909
240.91	78.431
241.28	88.000
241.65	82.000
242.02	86.957
242.40	85.484
242.77	76.667
243.14	63.441
243.51	66.292
243.89	67.059
244.26	48.889
244.63	43.011
245.00	44.681
245.38	46.535
245.75	44.860
246.12	40.367
246.49	54.015
246.87	54.400
247.24	40.000
247.61	46.429
247.98	39.869
248.36	25.676
248.73	38.217
249.10	40.127
249.47	33.898
249.84	40.107
250.22	31.016
250.59	25.444
250.96	30.303
251.33	27.488
251.70	29.208
252.08	24.762
252.45	22.422
252.82	24.348
253.19	25.106
253.56	26.275
253.94	26.556
254.31	21.875
254.68	23.462
255.05	24.723
255.42	21.138
255.79	22.426
256.16	19.495
256.54	18.375
256.91	22.420
257.28	17.266
257.65	22.442
258.02	22.671
258.39	17.350
258.76	19.398
259.14	19.940
259.51	14.286
259.88	15.839
260.25	17.221
260.62	14.740
260.99	15.217
261.36	14.715
261.73	16.332
262.10	13.663
262.47	15.493
262.85	13.928
263.22	12.536
263.59	18.803
263.96	16.758
264.33	13.838
264.70	15.789
265.07	15.345
265.44	14.646
265.81	14.112
266.18	13.317
266.55	13.659
266.92	15.233
267.29	15.046
267.66	10.550
268.03	12.727
268.40	13.084
268.77	14.797
269.14	13.514
269.51	17.156
269.88	13.753
270.25	13.318
270.62	13.933
270.99	15.054
271.36	11.588
271.73	13.318
272.10	12.826
272.47	12.903
272.84	12.121
273.21	15.304
273.58	8.952
273.95	10.063
274.32	11.983
274.69	12.420
275.06	10.827
275.43	11.702
275.80	14.228
276.17	13.646
276.54	10.187
276.91	10.870
277.28	11.523
277.65	12.379
278.02	12.422
278.39	11.328
278.76	11.636
279.13	12.453
279.50	13.408
279.87	11.753
280.23	12.176
280.60	10.058
280.97	11.645
281.34	11.858
281.71	12.909
282.08	10.749
282.45	11.455
282.82	11.012
283.19	9.447
283.56	10.702
283.92	9.983
284.29	11.287
284.66	10.526
285.03	9.222
285.40	9.859
285.77	9.764
286.14	9.499
286.51	10.000
286.87	9.573
287.24	12.541
287.61	8.989
287.98	9.903
288.35	10.301
288.72	10.748
289.08	11.268
289.45	9.720
289.82	10.407
290.19	8.948
290.56	10.567
290.93	7.402
291.29	8.742
291.66	8.997
292.03	11.192
292.40	10.426
292.77	7.692
293.13	8.358
293.50	9.184
293.87	10.074
294.24	7.556
294.60	6.696
294.97	9.448
295.34	10.437
295.71	8.239
296.08	7.550
296.44	7.978
296.81	6.473
297.18	9.756
297.55	6.201
297.91	6.992
298.28	9.103
298.65	8.616
299.02	7.773
299.38	7.835
299.75	6.334
300.12	5.492
300.48	6.500
300.85	8.385
301.22	7.898
301.59	5.682
301.95	7.053
302.32	7.060
302.69	7.168
303.05	6.788
303.42	6.543
303.79	8.154
304.15	6.294
304.52	6.952
304.89	7.201
305.25	6.148
305.62	7.248
305.99	7.792
306.35	6.040
306.72	7.735
307.09	7.325
307.45	6.757
307.82	5.692
308.19	7.064
308.55	7.875
308.92	6.767
309.29	6.125
309.65	6.151
310.02	6.977
310.38	7.097
310.75	6.864
311.12	6.551
311.48	6.165
311.85	7.757
312.22	7.076
312.58	5.301
312.95	6.864
313.31	5.728
313.68	5.717
314.05	8.580
314.41	5.829
314.78	5.337
315.14	5.958
315.51	7.621
315.87	6.931
316.24	6.256
316.61	5.750
316.97	5.969
317.34	5.382
317.70	6.692
318.07	7.218
318.43	6.360
318.80	7.404
319.16	7.345
319.53	5.722
319.89	7.524
320.26	7.500
320.62	7.440
320.99	6.869
321.35	7.374
321.72	7.906
322.08	8.193
322.45	8.060
322.81	7.461
323.18	7.900
323.54	8.813
323.91	9.057
324.27	8.031
324.64	7.363
325.00	8.386
325.37	8.098
325.73	9.246
326.10	8.385
326.46	7.527
326.83	8.628
327.19	8.625
327.56	7.666
327.92	8.661
328.29	8.962
328.65	8.840
329.01	9.025
329.38	8.418
329.74	8.587
330.11	9.048
330.47	10.009
330.84	10.937
331.20	7.923
331.56	9.817
331.93	8.426
332.29	10.027
332.66	9.469
333.02	10.695
333.38	7.769
333.75	10.428
334.11	10.498
334.48	8.518
334.84	8.732
335.20	9.091
335.57	9.701
335.93	7.857
336.29	9.066
336.66	9.919
337.02	8.778
337.38	9.167
337.75	8.734
338.11	9.400
338.47	10.037
338.84	9.074
339.20	8.624
339.56	10.584
339.93	8.545
340.29	8.877
340.65	10.428
341.02	9.860
341.38	9.342
341.74	8.860
342.11	10.306
342.47	10.132
342.83	9.589
343.20	9.437
343.56	9.520
343.92	8.772
344.28	9.184
344.65	10.232
345.01	9.091
345.37	8.148
345.73	9.391
346.10	8.781
346.46	8.983
346.82	9.390
347.19	8.354
347.55	9.278
347.91	10.275
348.27	10.518
348.63	9.950
349.00	9.223
349.36	9.113
349.72	8.901
350.08	9.968
350.45	10.415
350.81	9.667
351.17	9.481
351.53	9.419
351.89	8.828
352.26	9.708
352.62	10.184
352.98	9.319
353.34	9.778
353.70	9.165
354.07	9.435
354.43	9.841
354.79	9.332
355.15	8.460
355.51	9.672
355.87	10.041
356.24	10.179
356.60	8.420
356.96	9.171
357.32	8.831
357.68	8.819
358.04	9.343
358.40	9.739
358.77	9.233
359.13	7.893
359.49	10.275
359.85	7.857
360.21	8.453
360.57	10.272
360.93	8.692
361.29	8.541
361.66	8.591
362.02	9.478
362.38	9.582
362.74	8.929
363.10	8.808
363.46	8.951
363.82	9.373
364.18	9.178
364.54	10.253
364.90	8.924
365.26	9.265
365.62	8.692
365.98	8.254
366.35	8.739
366.71	9.111
367.07	8.886
367.43	9.507
367.79	8.565
368.15	10.560
368.51	8.212
368.87	10.207
369.23	8.559
369.59	9.848
369.95	9.118
370.31	8.974
370.67	9.275
371.03	9.288
371.39	8.965
371.75	9.265
372.11	9.317
372.47	9.971
372.83	8.573
373.19	9.032
373.55	9.239
373.91	9.131
374.27	8.522
374.63	8.145
374.99	9.110
375.35	7.816
375.71	9.596
376.07	9.053
376.42	7.703
376.78	9.476
377.14	9.023
377.50	8.278
377.86	8.178
378.22	9.229
378.58	7.581
378.94	7.668
379.30	7.634
379.66	8.249
380.02	8.968
380.38	8.318
380.74	9.484
381.09	9.535
381.45	8.851
381.81	8.354
382.17	9.554
382.53	7.484
382.89	9.506
383.25	8.505
383.61	9.356
383.97	8.568
384.32	9.170
384.68	8.178
385.04	9.096
385.40	7.430
385.76	7.985
386.12	8.420
386.48	8.999
386.83	9.237
387.19	9.709
387.55	8.905
387.91	9.069
388.27	8.461
388.62	9.096
388.98	8.600
389.34	9.387
389.70	9.503
390.06	9.316
390.42	8.366
390.77	8.461
391.13	8.105
391.49	9.137
391.85	8.530
392.20	7.571
392.56	8.902
392.92	8.711
393.28	7.574
393.64	8.153
393.99	8.919
394.35	8.375
394.71	8.846
395.07	8.287
395.42	8.838
395.78	9.288
396.14	8.504
396.50	9.461
396.85	8.582
397.21	8.323
397.57	9.299
397.92	9.014
398.28	8.408
398.64	9.379
399.00	8.394
399.35	8.178
399.71	7.639
400.07	8.634
400.42	8.773
400.78	8.866
401.14	8.354
401.49	8.716
401.85	7.623
402.21	8.503
402.57	8.328
402.92	8.575
403.28	8.245
403.63	8.478
403.99	7.771
404.35	9.333
404.70	8.094
405.06	8.503
405.42	8.671
405.77	7.771
406.13	8.126
406.49	8.575
406.84	9.037
407.20	8.452
407.55	8.551
407.91	8.267
408.27	7.594
408.62	8.489
408.98	8.640
409.34	8.979
409.69	8.516
410.05	8.550
410.40	8.807
410.76	8.542
411.11	8.504
411.47	7.732
411.83	9.224
412.18	8.287
412.54	8.406
412.89	8.434
413.25	8.264
413.60	8.524
413.96	8.075
414.31	8.688
414.67	9.062
415.03	8.742
415.38	8.634
415.74	8.360
416.09	8.883
416.45	8.768
416.80	7.931
417.16	8.780
417.51	8.693
417.87	8.349
418.22	9.401
418.58	8.651
418.93	8.231
419.29	8.084
419.64	8.879
420.00	8.354
420.35	8.986
420.71	8.607
421.06	8.115
421.42	8.713
421.77	8.800
422.12	7.692
422.48	8.311
422.83	8.561
423.19	8.674
423.54	8.241
423.90	8.522
424.25	8.152
424.61	8.214
424.96	8.571
425.31	9.136
425.67	7.753
426.02	8.000
426.38	9.280
426.73	8.426
427.09	9.058
427.44	8.568
427.79	8.511
428.15	8.690
428.50	8.426
428.85	9.595
429.21	7.896
429.56	8.035
429.92	8.052
430.27	7.795
430.62	7.578
430.98	8.407
431.33	8.866
431.68	8.115
432.04	8.253
432.39	7.938
432.74	8.259
433.10	8.829
433.45	8.630
433.80	8.259
434.16	8.280
434.51	7.789
434.86	8.837
435.22	8.338
435.57	8.207
435.92	8.836
436.28	8.482
436.63	9.161
436.98	7.384
437.34	8.468
437.69	8.751
438.04	8.263
438.39	8.000
438.75	8.193
439.10	8.212
439.45	8.501
439.81	7.795
440.16	7.679
440.51	8.143
440.86	8.975
441.22	8.231
441.57	8.174
441.92	8.086
442.27	8.127
442.63	8.057
442.98	9.183
443.33	8.261
443.68	7.899
444.03	7.565
444.39	7.595
444.74	8.658
445.09	8.356
445.44	8.803
445.79	7.818
446.15	8.576
446.50	8.347
446.85	7.503
447.20	7.139
447.55	8.264
447.91	7.501
448.26	8.236
448.61	8.253
448.96	8.859
449.31	8.436
449.66	8.554
450.02	7.577
450.37	7.823
450.72	7.840
451.07	7.374
451.42	8.267
451.77	9.043
452.12	7.737
452.47	8.706
452.83	8.566
453.18	7.824
453.53	8.287
453.88	8.447
454.23	8.368
454.58	8.601
454.93	8.900
455.28	7.668
455.63	8.920
455.98	8.750
456.34	8.417
456.69	8.641
457.04	9.226
457.39	8.767
457.74	7.661
458.09	8.338
458.44	8.552
458.79	7.484
459.14	8.691
459.49	8.114
459.84	7.535
460.19	7.837
460.54	8.218
460.89	7.625
461.24	8.440
461.59	8.658
461.94	8.878
462.29	9.021
462.64	8.232
462.99	8.328
463.34	9.400
463.69	8.755
464.04	8.522
464.39	8.000
464.74	8.616
465.09	8.203
465.44	7.258
465.79	7.438
466.14	8.374
466.49	7.953
466.84	8.581
467.19	8.690
467.54	8.375
467.89	8.103
468.24	8.086
468.59	8.547
468.94	8.247
469.29	8.419
469.64	9.036
469.99	8.728
470.34	7.794
470.68	9.267
471.03	8.503
471.38	8.617
471.73	8.861
472.08	9.342
472.43	8.794
472.78	7.834
473.13	8.023
473.48	8.115
473.83	8.232
474.17	8.090
474.52	8.499
474.87	7.939
475.22	9.112
475.57	8.598
475.92	8.019
476.27	7.948
476.61	7.722
476.96	8.081
477.31	7.797
477.66	7.877
478.01	7.789
478.36	8.038
478.70	7.580
479.05	7.987
479.40	7.421
479.75	7.321
480.10	7.406
480.45	6.854
480.79	6.976
481.14	7.436
481.49	7.451
481.84	7.225
482.19	7.542
482.53	7.569
482.88	7.538
483.23	7.290
483.58	7.188
483.92	6.982
484.27	6.536
484.62	6.767
484.97	7.253
485.31	6.541
485.66	5.752
486.01	5.287
486.36	5.011
486.70	5.454
487.05	5.525
487.40	5.848
487.75	5.969
488.09	6.551
488.44	6.604
488.79	6.582
489.13	7.219
489.48	6.403
489.83	6.992
490.17	7.365
490.52	6.643
490.87	7.010
491.22	7.185
491.56	6.469
491.91	7.445
492.26	7.258
492.60	6.820
492.95	6.595
493.30	7.196
493.64	6.580
493.99	6.500
494.34	6.707
494.68	6.822
495.03	6.955
495.37	7.399
495.72	7.456
496.07	7.285
496.41	6.504
496.76	6.376
497.11	6.754
497.45	6.754
497.80	6.958
498.14	7.005
498.49	6.293
498.84	7.143
499.18	6.905
499.53	7.312
499.87	7.363
500.22	6.594
500.56	7.961
500.91	6.827
501.26	7.492
501.60	7.546
501.95	6.370
502.29	6.795
502.64	6.983
502.98	7.059
503.33	6.399
503.67	6.404
504.02	6.829
504.36	6.926
504.71	7.035
505.06	7.181
505.40	7.146
505.75	6.413
506.09	7.386
506.44	6.857
506.78	7.112
507.13	7.067
507.47	7.424
507.82	7.649
508.16	6.890
508.51	6.951
508.85	7.249
509.19	6.786
509.54	7.398
509.88	7.007
510.23	6.478
510.57	7.379
510.92	7.043
511.26	7.194
511.61	7.573
511.95	6.367
512.30	7.105
512.64	7.362
512.98	7.503
513.33	7.869
513.67	6.830
514.02	6.981
514.36	7.865
514.70	7.471
515.05	7.027
515.39	8.020
515.74	6.982
516.08	8.161
516.42	8.213
516.77	7.804
517.11	7.325
517.46	7.336
517.80	7.433
518.14	7.354
518.49	7.643
518.83	7.670
519.17	7.506
519.52	7.583
519.86	7.530
520.20	8.035
520.55	8.259
520.89	7.664
521.23	7.660
521.58	7.503
521.92	8.206
522.26	7.566
522.61	7.477
522.95	7.551
523.29	7.304
523.64	7.683
523.98	7.825
524.32	6.695
524.66	8.178
525.01	7.782
525.35	7.931
525.69	7.820
526.04	7.290
526.38	7.566
526.72	7.607
527.06	7.784
527.41	7.054
527.75	7.781
528.09	7.514
528.43	7.839
528.78	7.929
529.12	7.152
529.46	7.410
529.80	7.426
530.15	7.850
530.49	7.446
530.83	8.038
531.17	7.768
531.51	8.625
531.86	8.065
532.20	8.996
532.54	8.264
532.88	8.023
533.22	7.495
533.57	7.840
533.91	7.345
534.25	7.290
534.59	7.932
534.93	8.388
535.27	7.302
535.62	7.875
535.96	8.349
536.30	7.565
536.64	8.628
536.98	7.830
537.32	7.373
537.66	7.600
538.01	7.571
538.35	8.339
538.69	8.296
539.03	7.147
539.37	7.029
539.71	6.286
540.05	8.039
540.39	7.375
540.73	7.180
541.07	8.825
541.42	8.089
541.76	8.258
542.10	8.021
542.44	7.417
542.78	8.564
543.12	7.678
543.46	8.328
543.80	7.807
544.14	7.510
544.48	7.810
544.82	8.146
545.16	7.938
545.50	7.455
545.84	7.325
546.18	7.609
546.52	8.121
546.86	7.766
547.20	8.631
547.54	8.150
547.88	8.418
548.22	8.157
548.56	8.176
548.90	7.234
549.24	6.801
549.58	8.117
549.92	8.379
550.26	8.026
550.60	8.230
550.94	7.817
551.28	6.657
551.62	7.836
551.96	7.930
552.30	8.191
552.64	8.654
552.98	8.407
553.32	8.564
553.66	8.793
554.00	8.167
554.34	7.729
554.68	8.441
555.02	8.392
555.36	7.307
555.69	7.442
556.03	7.941
556.37	7.231
556.71	7.367
557.05	8.543
557.39	8.048
557.73	8.186
558.07	8.122
558.41	7.236
558.75	8.082
559.08	8.277
559.42	8.390
559.76	7.941
560.10	8.137
560.44	7.547
560.78	7.718
561.12	7.256
561.45	8.214
561.79	7.647
562.13	8.249
562.47	7.582
562.81	7.392
563.15	7.492
563.48	8.289
563.82	7.828
564.16	6.736
564.50	6.445
564.84	7.080
565.17	7.593
565.51	7.987
565.85	7.741
566.19	7.389
566.52	7.536
566.86	6.631
567.20	7.370
567.54	7.249
567.88	6.247
568.21	7.249
568.55	6.522
568.89	6.858
569.23	6.105
569.56	6.154
569.90	5.925
570.24	5.884
570.57	6.052
570.91	5.591
571.25	5.312
571.59	5.538
571.92	5.415
572.26	5.546
572.60	5.465
572.93	5.397
573.27	5.649
573.61	6.030
573.95	5.168
574.28	5.176
574.62	5.199
574.96	5.209
575.29	4.995
575.63	5.030
575.97	5.311
576.30	5.364
576.64	5.181
576.98	5.250
577.31	4.921
577.65	5.125
577.98	4.745
578.32	4.885
578.66	4.990
578.99	5.090
579.33	5.035
579.67	5.230
580.00	4.939
580.34	5.221
580.67	5.105
581.01	5.217
581.35	5.032
581.68	4.891
582.02	4.495
582.35	4.684
582.69	4.946
583.02	5.001
583.36	4.819
583.70	5.120
584.03	5.094
584.37	5.560
584.70	5.120
585.04	5.308
585.37	5.242
585.71	5.404
586.04	5.219
586.38	5.172
586.72	5.468
587.05	5.216
587.39	4.776
587.72	5.282
588.06	5.229
588.39	5.652
588.73	5.397
589.06	5.547
589.40	5.657
589.73	5.667
590.07	5.552
590.40	5.846
590.73	6.089
591.07	6.268
591.40	6.242
591.74	6.364
592.07	6.326
592.41	6.738
592.74	6.030
593.08	5.929
593.41	5.789
593.75	5.122
594.08	6.068
594.41	5.514
594.75	5.952
595.08	5.798
595.42	6.095
595.75	5.734
596.09	6.271
596.42	6.405
596.75	6.374
597.09	6.710
597.42	6.113
597.75	6.296
598.09	6.522
598.42	5.842
598.76	6.040
599.09	5.739
599.42	6.041
599.76	5.600
600.09	5.537
600.42	5.807
600.76	5.321
601.09	5.829
601.42	5.327
601.76	5.806
602.09	5.850
602.42	5.932
602.76	6.449
603.09	6.137
603.42	6.248
603.76	5.831
604.09	6.010
604.42	5.707
604.76	6.326
605.09	6.335
605.42	6.071
605.75	6.333
606.09	6.019
606.42	5.926
606.75	5.807
607.09	6.697
607.42	5.905
607.75	5.949
608.08	5.818
608.42	6.813
608.75	5.951
609.08	6.429
609.41	6.235
609.75	6.146
610.08	6.315
610.41	5.633
610.74	5.913
611.07	5.879
611.41	6.526
611.74	6.838
612.07	6.936
612.40	6.978
612.73	6.421
613.07	6.735
613.40	7.688
613.73	5.821
614.06	6.452
614.39	6.869
614.72	6.947
615.06	6.985
615.39	6.210
615.72	7.004
616.05	6.273
616.38	7.059
616.71	6.829
617.05	6.655
617.38	6.855
617.71	6.967
618.04	6.851
618.37	6.978
618.70	7.281
619.03	8.026
619.36	7.536
619.69	7.394
620.03	7.967
620.36	7.754
620.69	8.219
621.02	8.186
621.35	7.048
621.68	7.788
622.01	6.966
622.34	7.337
622.67	8.137
623.00	7.483
623.33	7.362
623.66	7.434
623.99	7.290
624.32	8.417
624.65	7.274
624.99	7.082
625.32	6.010
625.65	7.062
625.98	7.686
626.31	8.787
626.64	8.408
626.97	7.648
627.30	7.066
627.63	8.696
627.96	8.495
628.29	8.136
628.62	9.332
628.95	11.132
629.28	8.394
629.61	9.258
629.94	8.286
630.26	7.150
630.59	8.675
630.92	8.908
631.25	8.193
631.58	9.309
631.91	8.925
632.24	8.439
632.57	9.969
632.90	10.197
633.23	9.620
633.56	10.169
633.89	10.079
634.22	10.102
634.55	9.822
634.88	9.581
635.20	11.350
635.53	10.361
635.86	9.653
636.19	10.000
636.52	10.611
636.85	10.538
637.18	8.295
637.51	11.348
637.83	8.385
638.16	10.997
638.49	10.831
638.82	11.125
639.15	10.125
639.48	10.474
639.81	12.064
640.13	11.068
640.46	10.604
640.79	11.757
641.12	11.004
641.45	12.151
641.77	8.542
642.10	11.111
642.43	9.760
642.76	11.146
643.09	11.963
643.41	10.319
643.74	14.352
644.07	11.128
644.40	13.190
644.73	12.283
645.05	12.203
645.38	11.690
645.71	13.527
646.04	10.963
646.36	13.856
646.69	12.876
647.02	12.585
647.35	12.543
647.67	13.274
648.00	15.122
648.33	11.881
648.66	10.455
648.98	10.945
649.31	10.613
649.64	11.958
649.96	12.668
650.29	11.848
650.62	11.003
650.94	14.100
651.27	13.345
651.60	12.646
651.92	13.738
652.25	10.261
