SpectraSuite Data File
++++++++++++++++++++++++++++++++++++
Date: Wed May 13 19:21:32 PDT 2015
User: schluterlab
Dark Spectrum Present: Yes
Reference Spectrum Present: Yes
Number of Sampled Component Spectra: 1
Spectrometers: USB2E3373
Integration Time (usec): 3000 (USB2E3373)
Spectra Averaged: 3 (USB2E3373)
Boxcar Smoothing: 0 (USB2E3373)
Correct for Electrical Dark: No (USB2E3373)
Strobe/Lamp Enabled: No (USB2E3373)
Correct for Detector Non-linearity: No (USB2E3373)
Correct for Stray Light: No (USB2E3373)
Number of Pixels in Processed Spectrum: 2048
>>>>>Begin Processed Spectral Data<<<<<
178.53	0.000
178.91	-1425.000
179.29	-1475.000
179.67	-272.222
180.04	-1425.000
180.42	2950.000
180.80	1300.000
181.18	-1100.000
181.56	785.714
181.94	0.000
182.31	-771.429
182.69	2133.333
183.07	-787.500
183.45	-533.333
183.83	600.000
184.20	-520.000
184.58	2500.000
184.96	5800.000
185.34	-1120.000
185.72	-737.500
186.09	-2600.000
186.47	2500.000
186.85	3050.000
187.23	5400.000
187.61	-2166.667
187.98	1725.000
188.36	545.455
188.74	572.727
189.12	-1080.000
189.49	640.000
189.87	-6200.000
190.25	-1400.000
190.63	500.000
191.00	446.154
191.38	866.667
191.76	-1325.000
192.14	1475.000
192.51	675.000
192.89	1133.333
193.27	775.000
193.65	-1375.000
194.02	620.000
194.40	1080.000
194.78	610.000
195.15	508.333
195.53	660.000
195.91	-2800.000
196.29	412.500
196.66	342.105
197.04	-420.000
197.42	0.000
197.79	720.000
198.17	-5600.000
198.55	800.000
198.92	862.500
199.30	1040.000
199.68	0.000
200.05	366.667
200.43	785.714
200.81	4600.000
201.18	1566.667
201.56	-1700.000
201.94	644.444
202.31	688.889
202.69	500.000
203.07	630.000
203.44	0.000
203.82	1125.000
204.19	742.857
204.57	521.429
204.95	662.500
205.32	1900.000
205.70	581.818
206.08	464.286
206.45	3000.000
206.83	412.500
207.20	950.000
207.58	1000.000
207.96	383.333
208.33	750.000
208.71	-916.667
209.08	828.571
209.46	722.222
209.84	545.455
210.21	-1866.667
210.59	1600.000
210.96	-537.500
211.34	3250.000
211.71	600.000
212.09	933.333
212.46	0.000
212.84	2033.333
213.22	1525.000
213.59	-5000.000
213.97	883.333
214.34	942.857
214.72	609.091
215.09	1200.000
215.47	-2950.000
215.84	-2700.000
216.22	2033.333
216.59	464.286
216.97	1500.000
217.34	445.455
217.72	-800.000
218.09	0.000
218.47	-5400.000
218.84	722.222
219.22	857.143
219.59	2033.333
219.97	-671.429
220.34	940.000
220.72	-1833.333
221.09	428.571
221.47	1625.000
221.84	-1116.667
222.22	0.000
222.59	1600.000
222.97	-3050.000
223.34	1180.000
223.72	461.538
224.09	1420.000
224.46	2300.000
224.84	-6500.000
225.21	-1220.000
225.59	-6000.000
225.96	640.000
226.34	310.000
226.71	2750.000
227.08	737.500
227.46	610.000
227.83	-1150.000
228.21	-2050.000
228.58	744.444
228.95	-2850.000
229.33	-2700.000
229.70	1733.333
230.08	828.571
230.45	-840.000
230.82	558.333
231.20	1033.333
231.57	828.571
231.95	541.667
232.32	304.545
232.69	509.091
233.07	742.857
233.44	323.077
233.81	-1866.667
234.19	294.737
234.56	441.667
234.93	425.000
235.31	454.545
235.68	392.308
236.05	350.000
236.43	184.848
236.80	284.211
237.17	3100.000
237.55	223.810
237.92	221.429
238.29	257.143
238.67	177.419
239.04	196.552
239.41	144.444
239.79	106.522
240.16	130.952
240.53	127.273
240.91	105.882
241.28	108.000
241.65	100.000
242.02	86.957
242.40	80.645
242.77	76.667
243.14	66.667
243.51	79.775
243.89	63.529
244.26	55.556
244.63	49.462
245.00	55.319
245.38	56.436
245.75	55.140
246.12	43.119
246.49	56.934
246.87	52.000
247.24	46.923
247.61	42.143
247.98	39.869
248.36	36.486
248.73	29.936
249.10	37.580
249.47	36.723
249.84	39.037
250.22	35.829
250.59	32.544
250.96	27.778
251.33	31.754
251.70	31.683
252.08	26.667
252.45	29.596
252.82	27.826
253.19	25.532
253.56	23.529
253.94	26.971
254.31	21.875
254.68	25.769
255.05	22.878
255.42	22.764
255.79	22.059
256.16	25.271
256.54	20.141
256.91	25.623
257.28	17.986
257.65	19.802
258.02	22.981
258.39	22.713
258.76	17.057
259.14	21.726
259.51	19.149
259.88	19.565
260.25	20.846
260.62	20.520
260.99	21.739
261.36	19.820
261.73	19.771
262.10	16.570
262.47	16.901
262.85	20.891
263.22	15.670
263.59	19.088
263.96	19.780
264.33	15.927
264.70	19.211
265.07	16.880
265.44	16.414
265.81	15.328
266.18	18.090
266.55	15.122
266.92	16.462
267.29	16.435
267.66	17.202
268.03	19.318
268.40	17.757
268.77	13.126
269.14	16.216
269.51	17.381
269.88	15.385
270.25	16.253
270.62	15.730
270.99	18.495
271.36	15.880
271.73	12.850
272.10	16.739
272.47	16.559
272.84	16.450
273.21	15.094
273.58	11.135
273.95	12.369
274.32	13.223
274.69	14.561
275.06	12.008
275.43	15.957
275.80	12.625
276.17	13.035
276.54	13.721
276.91	12.253
277.28	14.648
277.65	13.346
278.02	12.629
278.39	14.453
278.76	13.455
279.13	13.962
279.50	14.153
279.87	12.351
280.23	13.373
280.60	11.605
280.97	12.015
281.34	13.274
281.71	14.182
282.08	13.628
282.45	11.818
282.82	11.901
283.19	11.408
283.56	14.211
283.92	13.198
284.29	12.875
284.66	10.889
285.03	11.031
285.40	10.739
285.77	12.626
286.14	10.535
286.51	12.500
286.87	12.308
287.24	11.889
287.61	10.754
287.98	11.039
288.35	13.312
288.72	11.215
289.08	11.268
289.45	11.367
289.82	10.407
290.19	10.989
290.56	9.801
290.93	11.329
291.29	10.429
291.66	10.324
292.03	12.936
292.40	10.866
292.77	10.355
293.13	10.000
293.50	11.224
293.87	11.259
294.24	10.519
294.60	8.151
294.97	9.884
295.34	11.707
295.71	10.795
296.08	9.687
296.44	8.803
296.81	8.719
297.18	11.789
297.55	9.367
297.91	8.971
298.28	9.371
298.65	10.183
299.02	9.618
299.38	9.960
299.75	7.008
300.12	8.046
300.48	9.500
300.85	8.015
301.22	8.280
301.59	8.460
301.95	8.690
302.32	7.831
302.69	9.319
303.05	7.879
303.42	8.148
303.79	8.041
304.15	7.343
304.52	7.416
304.89	8.246
305.25	7.889
305.62	7.588
305.99	8.855
306.35	7.942
306.72	7.960
307.09	7.991
307.45	9.685
307.82	7.813
308.19	8.499
308.55	9.061
308.92	8.163
309.29	7.392
309.65	7.635
310.02	9.091
310.38	7.957
310.75	8.131
311.12	8.598
311.48	7.732
311.85	9.119
312.22	8.429
312.58	7.380
312.95	8.765
313.31	8.350
313.68	9.459
314.05	9.961
314.41	8.241
314.78	8.157
315.14	8.342
315.51	8.857
315.87	9.109
316.24	8.441
316.61	7.895
316.97	8.708
317.34	6.262
317.70	9.656
318.07	8.085
318.43	8.219
318.80	9.841
319.16	9.605
319.53	9.006
319.89	9.429
320.26	8.900
320.62	9.921
320.99	9.899
321.35	11.313
321.72	10.164
322.08	11.352
322.45	12.935
322.81	11.337
323.18	11.850
323.54	12.152
323.91	12.736
324.27	11.472
324.64	10.624
325.00	11.271
325.37	11.920
325.73	12.478
326.10	11.562
326.46	11.470
326.83	12.425
327.19	12.041
327.56	12.805
327.92	13.473
328.29	14.197
328.65	12.615
329.01	13.628
329.38	13.043
329.74	12.188
330.11	12.630
330.47	14.141
330.84	15.349
331.20	13.297
331.56	14.312
331.93	13.148
332.29	14.108
332.66	13.805
333.02	15.174
333.38	14.453
333.75	14.171
334.11	14.502
334.48	14.374
334.84	14.706
335.20	13.636
335.57	14.053
335.93	14.018
336.29	13.462
336.66	13.977
337.02	13.665
337.38	14.444
337.75	14.171
338.11	14.503
338.47	13.536
338.84	14.940
339.20	13.945
339.56	14.872
339.93	14.273
340.29	14.764
340.65	14.973
341.02	14.921
341.38	14.324
341.74	13.684
342.11	14.934
342.47	14.449
342.83	14.555
343.20	14.719
343.56	13.901
343.92	14.649
344.28	14.796
344.65	15.133
345.01	13.889
345.37	13.293
345.73	13.706
346.10	13.299
346.46	14.915
346.82	13.921
347.19	13.701
347.55	13.383
347.91	14.159
348.27	14.955
348.63	13.545
349.00	14.078
349.36	13.465
349.72	15.557
350.08	14.019
350.45	14.402
350.81	13.729
351.17	14.263
351.53	13.595
351.89	13.036
352.26	14.128
352.62	14.435
352.98	14.019
353.34	14.133
353.70	12.766
354.07	13.710
354.43	13.810
354.79	13.113
355.15	14.525
355.51	14.788
355.87	13.796
356.24	14.332
356.60	13.793
356.96	14.240
357.32	12.183
357.68	14.488
358.04	14.014
358.40	13.935
358.77	14.945
359.13	13.654
359.49	13.804
359.85	11.905
360.21	13.477
360.57	14.319
360.93	14.538
361.29	13.983
361.66	13.235
362.02	14.925
362.38	14.905
362.74	14.062
363.10	12.657
363.46	12.766
363.82	14.210
364.18	14.611
364.54	13.819
364.90	14.377
365.26	13.603
365.62	15.047
365.98	13.733
366.35	13.395
366.71	14.027
367.07	14.348
367.43	14.006
367.79	14.418
368.15	14.799
368.51	13.517
368.87	14.418
369.23	14.119
369.59	14.337
369.95	14.485
370.31	13.960
370.67	14.928
371.03	14.607
371.39	14.723
371.75	14.265
372.11	14.011
372.47	14.516
372.83	14.986
373.19	13.656
373.55	14.265
373.91	16.274
374.27	13.540
374.63	14.764
374.99	14.972
375.35	14.096
375.71	13.845
376.07	15.501
376.42	14.718
376.78	15.507
377.14	14.518
377.50	15.232
377.86	14.761
378.22	14.918
378.58	13.847
378.94	14.519
379.30	13.550
379.66	15.102
380.02	13.636
380.38	14.390
380.74	14.406
381.09	13.998
381.45	14.567
381.81	14.803
382.17	15.096
382.53	14.591
382.89	14.815
383.25	15.134
383.61	15.861
383.97	15.197
384.32	15.097
384.68	14.126
385.04	14.382
385.40	14.923
385.76	15.725
386.12	15.738
386.48	15.419
386.83	15.715
387.19	16.327
387.55	14.780
387.91	15.538
388.27	15.083
388.62	15.366
388.98	14.926
389.34	15.332
389.70	15.635
390.06	16.477
390.42	16.213
390.77	16.158
391.13	15.635
391.49	15.799
391.85	15.022
392.20	14.385
392.56	15.846
392.92	15.715
393.28	14.615
393.64	15.288
393.99	15.883
394.35	15.447
394.71	15.935
395.07	15.639
395.42	15.822
395.78	16.221
396.14	16.015
396.50	16.291
396.85	16.465
397.21	15.166
397.57	15.685
397.92	16.286
398.28	15.135
398.64	16.547
399.00	15.837
399.35	15.567
399.71	15.799
400.07	15.612
400.42	16.196
400.78	16.707
401.14	15.061
401.49	16.299
401.85	16.455
402.21	15.928
402.57	16.656
402.92	16.267
403.28	16.677
403.63	16.770
403.99	16.178
404.35	16.121
404.70	16.187
405.06	15.434
405.42	16.594
405.77	15.829
406.13	16.084
406.49	16.499
406.84	16.775
407.20	16.076
407.55	16.528
407.91	16.533
408.27	16.273
408.62	16.195
408.98	16.973
409.34	16.113
409.69	17.097
410.05	16.791
410.40	16.820
410.76	16.249
411.11	17.250
411.47	16.933
411.83	17.532
412.18	15.708
412.54	17.123
412.89	17.229
413.25	16.824
413.60	16.986
413.96	15.968
414.31	16.707
414.67	17.554
415.03	17.086
415.38	17.397
415.74	17.492
416.09	17.701
416.45	17.805
416.80	17.647
417.16	17.493
417.51	17.784
417.87	16.570
418.22	17.350
418.58	17.495
418.93	17.690
419.29	17.823
419.64	17.569
420.00	17.195
420.35	17.913
420.71	17.992
421.06	16.826
421.42	17.602
421.77	18.217
422.12	17.462
422.48	15.596
422.83	17.123
423.19	18.122
423.54	17.934
423.90	17.507
424.25	17.811
424.61	17.381
424.96	16.910
425.31	17.885
425.67	17.416
426.02	17.600
426.38	19.475
426.73	17.613
427.09	17.994
427.44	18.114
427.79	17.826
428.15	17.619
428.50	17.671
428.85	18.653
429.21	17.615
429.56	17.470
429.92	17.614
430.27	17.229
430.62	17.512
430.98	17.800
431.33	17.577
431.68	17.906
432.04	17.785
432.39	18.047
432.74	19.210
433.10	18.110
433.45	18.834
433.80	18.237
434.16	18.056
434.51	18.000
434.86	19.783
435.22	18.177
435.57	18.419
435.92	18.256
436.28	18.921
436.63	18.819
436.98	18.546
437.34	18.843
437.69	19.662
438.04	17.931
438.39	19.463
438.75	19.175
439.10	19.106
439.45	19.717
439.81	18.066
440.16	18.521
440.51	19.156
440.86	19.572
441.22	18.521
441.57	19.268
441.92	18.424
442.27	18.676
442.63	17.957
442.98	19.549
443.33	18.913
443.68	18.585
444.03	18.790
444.39	18.890
444.74	19.264
445.09	19.084
445.44	19.355
445.79	19.050
446.15	19.005
446.50	19.225
446.85	19.013
447.20	19.378
447.55	19.542
447.91	19.415
448.26	18.753
448.61	19.503
448.96	19.601
449.31	19.741
449.66	19.190
450.02	18.384
450.37	18.707
450.72	19.910
451.07	19.683
451.42	19.514
451.77	20.141
452.12	19.457
452.47	19.776
452.83	19.172
453.18	18.888
453.53	19.604
453.88	18.488
454.23	20.024
454.58	20.109
454.93	20.534
455.28	19.389
455.63	20.570
455.98	20.179
456.34	20.163
456.69	19.787
457.04	19.690
457.39	19.871
457.74	19.443
458.09	19.896
458.44	19.783
458.79	19.089
459.14	19.187
459.49	20.549
459.84	19.058
460.19	19.151
460.54	19.329
460.89	19.912
461.24	19.672
461.59	20.511
461.94	20.284
462.29	19.466
462.64	19.592
462.99	19.258
463.34	21.133
463.69	19.012
464.04	19.072
464.39	19.942
464.74	19.964
465.09	19.662
465.44	18.283
465.79	19.351
466.14	18.446
466.49	19.132
466.84	19.556
467.19	19.010
467.54	20.813
467.89	19.628
468.24	19.314
468.59	20.024
468.94	18.876
469.29	19.859
469.64	20.817
469.99	20.433
470.34	19.419
470.68	21.552
471.03	20.068
471.38	19.458
471.73	19.387
472.08	20.461
472.43	20.352
472.78	18.697
473.13	19.897
473.48	19.476
473.83	19.939
474.17	19.664
474.52	20.037
474.87	20.315
475.22	18.630
475.57	18.592
475.92	18.853
476.27	19.335
476.61	19.801
476.96	18.527
477.31	18.943
477.66	18.818
478.01	18.662
478.36	19.408
478.70	18.744
479.05	19.116
479.40	19.089
479.75	18.709
480.10	18.638
480.45	19.372
480.79	18.395
481.14	18.738
481.49	19.127
481.84	17.833
482.19	18.310
482.53	18.486
482.88	18.753
483.23	18.692
483.58	19.154
483.92	18.510
484.27	17.691
484.62	18.233
484.97	17.895
485.31	17.842
485.66	16.593
486.01	14.996
486.36	15.211
486.70	15.373
487.05	15.810
487.40	16.216
487.75	16.867
488.09	17.592
488.44	17.745
488.79	18.770
489.13	18.678
489.48	18.638
489.83	18.170
490.17	18.413
490.52	18.689
490.87	18.182
491.22	17.281
491.56	17.312
491.91	17.962
492.26	17.593
492.60	18.018
492.95	17.587
493.30	17.570
493.64	18.012
493.99	18.802
494.34	18.594
494.68	19.048
495.03	17.669
495.37	17.403
495.72	18.372
496.07	18.422
496.41	17.257
496.76	17.898
497.11	18.055
497.45	18.258
497.80	17.994
498.14	18.116
498.49	17.707
498.84	18.313
499.18	17.571
499.53	17.759
499.87	18.406
500.22	17.381
500.56	18.350
500.91	17.500
501.26	18.303
501.60	18.557
501.95	17.782
502.29	17.901
502.64	17.691
502.98	17.672
503.33	17.413
503.67	18.144
504.02	17.493
504.36	18.437
504.71	18.173
505.06	17.590
505.40	17.064
505.75	17.695
506.09	17.930
506.44	17.563
506.78	17.146
507.13	17.769
507.47	17.576
507.82	18.136
508.16	17.275
508.51	18.468
508.85	17.676
509.19	17.500
509.54	17.041
509.88	17.826
510.23	17.224
510.57	18.524
510.92	18.384
511.26	17.009
511.61	18.620
511.95	17.171
512.30	17.391
512.64	17.786
512.98	17.846
513.33	18.630
513.67	17.556
514.02	17.911
514.36	18.514
514.70	18.096
515.05	16.955
515.39	18.340
515.74	17.455
516.08	18.502
516.42	18.036
516.77	18.562
517.11	17.592
517.46	18.510
517.80	17.944
518.14	16.618
518.49	18.378
518.83	18.523
519.17	17.610
519.52	18.676
519.86	18.311
520.20	18.613
520.55	18.013
520.89	18.309
521.23	18.637
521.58	18.367
521.92	18.187
522.26	17.572
522.61	17.757
522.95	17.250
523.29	17.772
523.64	18.476
523.98	18.608
524.32	18.215
524.66	17.859
525.01	17.586
525.35	17.968
525.69	18.227
526.04	17.882
526.38	17.755
526.72	18.160
527.06	18.519
527.41	17.017
527.75	17.749
528.09	17.469
528.43	18.101
528.78	18.316
529.12	17.636
529.46	17.269
529.80	18.255
530.15	19.065
530.49	17.969
530.83	18.418
531.17	17.885
531.51	18.677
531.86	18.194
532.20	19.361
532.54	18.898
532.88	17.715
533.22	17.801
533.57	18.086
533.91	16.857
534.25	17.193
534.59	17.206
534.93	17.906
535.27	17.200
535.62	17.766
535.96	16.698
536.30	17.483
536.64	18.416
536.98	17.784
537.32	17.643
537.66	18.200
538.01	18.433
538.35	18.358
538.69	17.549
539.03	18.129
539.37	17.125
539.71	16.267
540.05	17.386
540.39	17.542
540.73	17.788
541.07	18.430
541.42	16.634
541.76	18.774
542.10	18.241
542.44	17.351
542.78	17.589
543.12	17.530
543.46	18.295
543.80	17.111
544.14	16.367
544.48	17.397
544.82	16.998
545.16	17.111
545.50	16.710
545.84	17.944
546.18	17.374
546.52	18.169
546.86	17.457
547.20	17.330
547.54	17.435
547.88	18.431
548.22	17.435
548.56	16.792
548.90	17.286
549.24	16.431
549.58	17.940
549.92	17.239
550.26	17.969
550.60	16.805
550.94	17.606
551.28	16.752
551.62	17.613
551.96	17.333
552.30	17.884
552.64	17.715
552.98	18.441
553.32	16.588
553.66	18.200
554.00	17.364
554.34	17.943
554.68	17.954
555.02	17.560
555.36	17.049
555.69	16.779
556.03	16.689
556.37	16.712
556.71	16.371
557.05	16.877
557.39	16.655
557.73	17.149
558.07	16.461
558.41	16.715
558.75	17.120
559.08	18.046
559.42	17.007
559.76	17.500
560.10	16.916
560.44	16.771
560.78	16.367
561.12	16.227
561.45	16.819
561.79	16.480
562.13	16.164
562.47	16.803
562.81	17.155
563.15	16.522
563.48	16.976
563.82	16.504
564.16	16.612
564.50	15.495
564.84	16.182
565.17	15.894
565.51	16.486
565.85	16.053
566.19	15.341
566.52	16.023
566.86	14.828
567.20	16.097
567.54	15.183
567.88	15.209
568.21	15.185
568.55	14.863
568.89	14.689
569.23	14.572
569.56	13.806
569.90	13.925
570.24	13.778
570.57	13.125
570.91	12.961
571.25	13.095
571.59	13.078
571.92	13.249
572.26	13.027
572.60	13.514
572.93	13.043
573.27	13.635
573.61	13.456
573.95	12.946
574.28	12.337
574.62	12.682
574.96	12.449
575.29	12.415
575.63	12.703
575.97	12.523
576.30	12.931
576.64	12.509
576.98	12.105
577.31	12.292
577.65	12.182
577.98	12.244
578.32	12.053
578.66	12.264
578.99	12.349
579.33	12.370
579.67	12.698
580.00	12.515
580.34	12.387
580.67	12.361
581.01	12.166
581.35	12.170
581.68	11.810
582.02	11.877
582.35	11.899
582.69	11.901
583.02	12.325
583.36	12.751
583.70	12.662
584.03	13.009
584.37	13.123
584.70	12.670
585.04	12.524
585.37	12.418
585.71	12.711
586.04	12.056
586.38	12.487
586.72	12.566
587.05	12.524
587.39	12.243
587.72	12.110
588.06	12.353
588.39	12.785
588.73	13.024
589.06	13.337
589.40	13.401
589.73	12.918
590.07	13.523
590.40	12.788
590.73	13.739
591.07	14.204
591.40	14.129
591.74	14.372
592.07	13.569
592.41	13.063
592.74	12.996
593.08	12.392
593.41	12.275
593.75	12.430
594.08	12.638
594.41	13.397
594.75	13.235
595.08	12.849
595.42	13.695
595.75	12.785
596.09	12.955
596.42	13.635
596.75	13.423
597.09	14.026
597.42	13.153
597.75	13.627
598.09	13.435
598.42	13.273
598.76	13.417
599.09	12.125
599.42	12.336
599.76	12.884
600.09	12.568
600.42	12.710
600.76	11.929
601.09	13.260
601.42	12.443
601.76	13.093
602.09	12.767
602.42	13.455
602.76	13.422
603.09	12.549
603.42	13.042
603.76	12.386
604.09	13.028
604.42	13.290
604.76	13.960
605.09	13.456
605.42	13.211
605.75	12.500
606.09	12.729
606.42	12.955
606.75	12.816
607.09	13.478
607.42	12.709
607.75	12.489
608.08	12.940
608.42	13.088
608.75	12.759
609.08	12.997
609.41	13.470
609.75	13.721
610.08	13.289
610.41	12.616
610.74	12.914
611.07	13.439
611.41	13.346
611.74	14.178
612.07	13.923
612.40	13.641
612.73	13.842
613.07	14.009
613.40	13.533
613.73	12.795
614.06	13.387
614.39	14.263
614.72	13.579
615.06	13.235
615.39	13.376
615.72	12.883
616.05	13.131
616.38	13.897
616.71	13.480
617.05	14.252
617.38	12.928
617.71	13.514
618.04	13.882
618.37	13.838
618.70	14.375
619.03	14.211
619.36	14.868
619.69	14.859
620.03	14.354
620.36	14.639
620.69	15.068
621.02	14.749
621.35	14.722
621.68	14.486
622.01	14.628
622.34	15.053
622.67	14.297
623.00	14.380
623.33	14.081
623.66	15.011
623.99	13.918
624.32	14.551
624.65	14.477
624.99	13.314
625.32	13.541
625.65	14.651
625.98	15.142
626.31	15.863
626.64	15.429
626.97	15.628
627.30	15.461
627.63	15.751
627.96	16.064
628.29	16.448
628.62	15.554
628.95	16.698
629.28	14.599
629.61	16.315
629.94	16.571
630.26	14.871
630.59	15.348
630.92	16.092
631.25	16.881
631.58	14.815
631.91	16.126
632.24	15.506
