SpectraSuite Data File
++++++++++++++++++++++++++++++++++++
Date: Wed May 13 19:46:30 PDT 2015
User: schluterlab
Dark Spectrum Present: Yes
Reference Spectrum Present: Yes
Number of Sampled Component Spectra: 1
Spectrometers: USB2E3373
Integration Time (usec): 3000 (USB2E3373)
Spectra Averaged: 3 (USB2E3373)
Boxcar Smoothing: 0 (USB2E3373)
Correct for Electrical Dark: No (USB2E3373)
Strobe/Lamp Enabled: No (USB2E3373)
Correct for Detector Non-linearity: No (USB2E3373)
Correct for Stray Light: No (USB2E3373)
Number of Pixels in Processed Spectrum: 2048
>>>>>Begin Processed Spectral Data<<<<<
178.53	0.000
178.91	-1150.000
179.29	-1400.000
179.67	-200.000
180.04	-1125.000
180.42	2300.000
180.80	1120.000
181.18	-1075.000
181.56	385.714
181.94	0.000
182.31	-685.714
182.69	1200.000
183.07	-537.500
183.45	-466.667
183.83	527.273
184.20	-480.000
184.58	2200.000
184.96	5800.000
185.34	-860.000
185.72	-625.000
186.09	-2350.000
186.47	2800.000
186.85	2600.000
187.23	5200.000
187.61	-1600.000
187.98	1275.000
188.36	509.091
188.74	454.545
189.12	-840.000
189.49	570.000
189.87	-4600.000
190.25	-950.000
190.63	457.143
191.00	407.692
191.38	950.000
191.76	-1175.000
192.14	1350.000
192.51	675.000
192.89	983.333
193.27	575.000
193.65	-1250.000
194.02	610.000
194.40	940.000
194.78	550.000
195.15	516.667
195.53	580.000
195.91	-2100.000
196.29	362.500
196.66	268.421
197.04	-380.000
197.42	0.000
197.79	590.000
198.17	-5100.000
198.55	685.714
198.92	625.000
199.30	960.000
199.68	0.000
200.05	355.556
200.43	800.000
200.81	4100.000
201.18	1666.667
201.56	-1166.667
201.94	633.333
202.31	566.667
202.69	450.000
203.07	600.000
203.44	0.000
203.82	1050.000
204.19	814.286
204.57	450.000
204.95	512.500
205.32	1733.333
205.70	445.455
206.08	407.143
206.45	2200.000
206.83	318.750
207.20	950.000
207.58	720.000
207.96	305.556
208.33	812.500
208.71	-833.333
209.08	742.857
209.46	566.667
209.84	454.545
210.21	-1500.000
210.59	1400.000
210.96	-437.500
211.34	2750.000
211.71	520.000
212.09	700.000
212.46	0.000
212.84	1833.333
213.22	1375.000
213.59	-5300.000
213.97	950.000
214.34	742.857
214.72	581.818
215.09	960.000
215.47	-2550.000
215.84	-2450.000
216.22	1600.000
216.59	400.000
216.97	1175.000
217.34	381.818
217.72	-750.000
218.09	0.000
218.47	-5400.000
218.84	666.667
219.22	800.000
219.59	1700.000
219.97	-628.571
220.34	940.000
220.72	-1866.667
221.09	392.857
221.47	1325.000
221.84	-900.000
222.22	0.000
222.59	1350.000
222.97	-2550.000
223.34	1080.000
223.72	415.385
224.09	1060.000
224.46	2800.000
224.84	-5400.000
225.21	-1040.000
225.59	-5300.000
225.96	460.000
226.34	310.000
226.71	2550.000
227.08	637.500
227.46	510.000
227.83	-875.000
228.21	-1950.000
228.58	500.000
228.95	-1900.000
229.33	-2300.000
229.70	1933.333
230.08	857.143
230.45	-840.000
230.82	391.667
231.20	750.000
231.57	614.286
231.95	441.667
232.32	222.727
232.69	390.909
233.07	542.857
233.44	369.231
233.81	-1700.000
234.19	247.368
234.56	383.333
234.93	466.667
235.31	418.182
235.68	361.538
236.05	271.429
236.43	172.727
236.80	263.158
237.17	4500.000
237.55	200.000
237.92	185.714
238.29	219.048
238.67	158.065
239.04	182.759
239.41	116.667
239.79	100.000
240.16	123.810
240.53	127.273
240.91	80.392
241.28	88.000
241.65	66.000
242.02	73.913
242.40	82.258
242.77	68.333
243.14	67.742
243.51	79.775
243.89	60.000
244.26	40.000
244.63	54.839
245.00	51.064
245.38	50.495
245.75	39.252
246.12	40.367
246.49	49.635
246.87	45.600
247.24	38.462
247.61	36.429
247.98	37.255
248.36	29.730
248.73	28.662
249.10	26.115
249.47	27.684
249.84	23.529
250.22	27.273
250.59	23.669
250.96	25.253
251.33	23.697
251.70	24.257
252.08	21.905
252.45	20.628
252.82	21.739
253.19	20.851
253.56	23.529
253.94	23.651
254.31	21.484
254.68	22.308
255.05	18.450
255.42	19.919
255.79	18.382
256.16	20.217
256.54	19.081
256.91	17.438
257.28	15.468
257.65	17.162
258.02	18.944
258.39	16.719
258.76	16.054
259.14	16.369
259.51	14.286
259.88	11.801
260.25	19.033
260.62	17.052
260.99	14.596
261.36	17.417
261.73	13.754
262.10	14.244
262.47	16.056
262.85	15.599
263.22	10.826
263.59	17.379
263.96	10.714
264.33	15.405
264.70	14.211
265.07	14.578
265.44	11.616
265.81	13.382
266.18	10.804
266.55	10.976
266.92	13.268
267.29	12.731
267.66	11.697
268.03	13.636
268.40	10.748
268.77	12.411
269.14	11.937
269.51	13.544
269.88	12.121
270.25	12.415
270.62	11.910
270.99	12.258
271.36	13.734
271.73	9.579
272.10	11.304
272.47	13.118
272.84	12.121
273.21	11.321
273.58	8.734
273.95	12.159
274.32	10.124
274.69	10.064
275.06	7.677
275.43	12.553
275.80	9.218
276.17	10.794
276.54	11.019
276.91	11.067
277.28	10.938
277.65	9.865
278.02	10.766
278.39	10.352
278.76	10.727
279.13	10.566
279.50	9.870
279.87	10.159
280.23	8.583
280.60	7.544
280.97	8.133
281.34	9.204
281.71	10.364
282.08	10.365
282.45	8.000
282.82	7.815
283.19	7.843
283.56	11.579
283.92	9.814
284.29	9.171
284.66	8.530
285.03	7.595
285.40	7.570
285.77	9.596
286.14	8.636
286.51	10.167
286.87	9.231
287.24	11.075
287.61	8.507
287.98	8.766
288.35	9.033
288.72	7.477
289.08	9.859
289.45	9.555
289.82	8.455
290.19	8.477
290.56	8.116
290.93	7.855
291.29	8.589
291.66	7.227
292.03	10.465
292.40	8.664
292.77	7.544
293.13	8.806
293.50	6.268
293.87	6.519
294.24	8.000
294.60	6.259
294.97	6.395
295.34	7.898
295.71	5.966
296.08	8.262
296.44	6.740
296.81	7.001
297.18	7.995
297.55	4.881
297.91	6.069
298.28	8.568
298.65	8.616
299.02	7.905
299.38	7.039
299.75	4.987
300.12	6.386
300.48	6.500
300.85	5.425
301.22	5.605
301.59	6.439
301.95	5.919
302.32	5.520
302.69	7.288
303.05	6.909
303.42	5.679
303.79	7.022
304.15	4.895
304.52	4.867
304.89	5.343
305.25	5.800
305.62	6.682
305.99	6.494
306.35	5.817
306.72	5.942
307.09	5.216
307.45	7.320
307.82	5.022
308.19	6.623
308.55	6.904
308.92	5.156
309.29	5.069
309.65	6.151
310.02	6.237
310.38	6.989
310.75	5.808
311.12	6.551
311.48	5.956
311.85	6.604
312.22	6.452
312.58	4.366
312.95	6.758
313.31	5.340
313.68	5.821
314.05	7.890
314.41	6.432
314.78	5.841
315.14	6.157
315.51	6.694
315.87	6.040
316.24	4.866
316.61	5.263
316.97	4.795
317.34	4.305
317.70	5.163
318.07	6.641
318.43	5.871
318.80	5.904
319.16	5.650
319.53	6.567
319.89	6.476
320.26	6.500
320.62	7.242
320.99	5.758
321.35	6.768
321.72	5.749
322.08	7.108
322.45	6.965
322.81	6.686
323.18	6.840
323.54	7.514
323.91	6.321
324.27	5.927
324.64	5.033
325.00	5.410
325.37	6.824
325.73	7.271
326.10	6.620
326.46	6.004
326.83	6.816
327.19	7.003
327.56	6.446
327.92	7.174
328.29	6.744
328.65	6.722
329.01	6.588
329.38	6.475
329.74	6.741
330.11	6.503
330.47	7.530
330.84	7.537
331.20	7.013
331.56	6.239
331.93	6.759
332.29	7.453
332.66	7.876
333.02	6.947
333.38	8.130
333.75	8.289
334.11	6.673
334.48	6.655
334.84	6.710
335.20	6.545
335.57	6.709
335.93	5.268
336.29	6.777
336.66	6.402
337.02	4.977
337.38	7.407
337.75	6.239
338.11	6.177
338.47	6.169
338.84	7.058
339.20	6.147
339.56	7.208
339.93	5.818
340.29	6.341
340.65	6.150
341.02	7.068
341.38	6.851
341.74	6.404
342.11	7.074
342.47	6.256
342.83	6.164
343.20	7.532
343.56	6.908
343.92	5.965
344.28	6.633
344.65	6.707
345.01	5.808
345.37	6.432
345.73	6.345
346.10	5.882
346.46	6.949
346.82	6.343
347.19	5.514
347.55	5.993
347.91	5.987
348.27	6.656
348.63	7.023
349.00	5.987
349.36	6.322
349.72	6.816
350.08	5.916
350.45	6.916
350.81	6.742
351.17	5.916
351.53	5.487
351.89	5.116
352.26	6.472
352.62	6.255
352.98	6.726
353.34	6.409
353.70	5.319
354.07	6.371
354.43	6.032
354.79	5.229
355.15	6.065
355.51	6.475
355.87	6.041
356.24	5.619
356.60	5.934
356.96	5.712
357.32	5.397
357.68	6.378
358.04	5.701
358.40	5.859
358.77	5.947
359.13	5.367
359.49	4.784
359.85	4.286
360.21	5.104
360.57	5.759
360.93	5.923
361.29	5.820
361.66	4.567
362.02	6.716
362.38	6.616
362.74	5.506
363.10	4.367
363.46	5.649
363.82	5.820
364.18	5.360
364.54	6.018
364.90	5.949
365.26	6.176
365.62	5.625
365.98	5.113
366.35	5.229
366.71	5.495
367.07	5.608
367.43	5.443
367.79	5.996
368.15	6.034
368.51	5.451
368.87	5.282
369.23	5.925
369.59	6.083
369.95	5.221
370.31	5.413
370.67	5.290
371.03	6.292
371.39	5.394
371.75	6.691
372.11	4.765
372.47	6.598
372.83	6.340
373.19	5.130
373.55	4.952
373.91	6.775
374.27	5.361
374.63	4.800
374.99	6.073
375.35	4.396
375.71	5.620
376.07	6.173
376.42	4.952
376.78	5.898
377.14	5.020
377.50	5.166
377.86	5.120
378.22	5.563
378.58	5.263
378.94	5.280
379.30	4.771
379.66	5.013
380.02	5.160
380.38	4.979
380.74	5.402
381.09	5.012
381.45	6.208
381.81	5.590
382.17	5.350
382.53	5.283
382.89	6.111
383.25	4.941
383.61	5.514
383.97	5.003
384.32	4.928
384.68	4.523
385.04	4.671
385.40	5.820
385.76	5.774
386.12	5.440
386.48	5.790
386.83	4.554
387.19	6.122
387.55	5.257
387.91	5.320
388.27	5.028
388.62	5.286
388.98	4.177
389.34	5.820
389.70	5.763
390.06	5.767
390.42	6.031
390.77	5.280
391.13	5.680
391.49	5.901
391.85	5.411
392.20	4.669
392.56	5.429
392.92	5.474
393.28	3.254
393.64	5.635
393.99	6.109
394.35	5.335
394.71	5.332
395.07	4.922
395.42	5.624
395.78	5.280
396.14	5.649
396.50	5.952
396.85	5.594
397.21	5.795
397.57	5.518
397.92	5.469
398.28	4.933
398.64	6.213
399.00	5.596
399.35	5.189
399.71	5.324
400.07	6.564
400.42	5.521
400.78	5.971
401.14	5.183
401.49	5.493
401.85	5.142
402.21	5.689
402.57	5.429
402.92	5.233
403.28	5.684
403.63	5.507
403.99	4.459
404.35	6.182
404.70	5.336
405.06	5.125
405.42	5.864
405.77	5.143
406.13	5.361
406.49	5.973
406.84	5.493
407.20	5.260
407.55	5.935
407.91	6.067
408.27	4.659
408.62	5.840
408.98	5.576
409.34	5.412
409.69	5.161
410.05	5.762
410.40	6.055
410.76	5.496
411.11	6.454
411.47	5.751
411.83	6.170
412.18	6.555
412.54	6.164
412.89	5.904
413.25	5.431
413.60	6.115
413.96	5.829
414.31	5.346
414.67	5.513
415.03	5.430
415.38	6.379
415.74	5.466
416.09	6.466
416.45	5.422
416.80	5.618
417.16	6.568
417.51	6.503
417.87	6.294
418.22	6.562
418.58	6.649
418.93	6.081
419.29	6.111
419.64	6.675
420.00	6.159
420.35	6.957
420.71	6.157
421.06	5.668
421.42	6.082
421.77	6.334
422.12	4.829
422.48	5.235
422.83	5.591
423.19	6.243
423.54	6.036
423.90	5.681
424.25	5.416
424.61	5.893
424.96	6.239
425.31	5.869
425.67	5.787
426.02	6.343
426.38	6.288
426.73	5.851
427.09	5.593
427.44	5.635
427.79	5.405
428.15	6.310
428.50	5.910
428.85	6.436
429.21	5.908
429.56	5.910
429.92	5.888
430.27	5.065
430.62	5.325
430.98	6.020
431.33	6.031
431.68	5.864
432.04	6.070
432.39	5.540
432.74	6.224
433.10	6.282
433.45	6.356
433.80	5.710
434.16	6.197
434.51	5.737
434.86	6.043
435.22	5.837
435.57	6.261
435.92	5.851
436.28	6.168
436.63	6.788
436.98	5.839
437.34	6.440
437.69	6.534
438.04	5.846
438.39	6.388
438.75	5.927
439.10	6.313
439.45	6.080
439.81	5.982
440.16	5.759
440.51	6.503
440.86	6.312
441.22	5.729
441.57	5.626
441.92	6.448
442.27	6.082
442.63	4.739
442.98	5.915
443.33	6.033
443.68	5.627
444.03	5.612
444.39	5.307
444.74	5.087
445.09	6.038
445.44	5.577
445.79	5.740
446.15	6.564
446.50	5.008
446.85	5.807
447.20	5.558
447.55	6.086
447.91	5.847
448.26	6.066
448.61	5.709
448.96	6.645
449.31	6.018
449.66	6.134
450.02	5.181
450.37	5.896
450.72	5.809
451.07	5.606
451.42	5.593
451.77	6.518
452.12	6.005
452.47	6.530
452.83	4.953
453.18	6.785
453.53	5.813
453.88	4.962
454.23	5.499
454.58	6.299
454.93	6.230
455.28	5.549
455.63	5.886
455.98	6.369
456.34	6.156
456.69	5.761
457.04	5.820
457.39	5.728
457.74	5.514
458.09	6.555
458.44	6.328
458.79	5.586
459.14	6.208
459.49	6.013
459.84	5.429
460.19	5.186
460.54	6.308
460.89	5.540
461.24	5.768
461.59	6.392
461.94	6.289
462.29	6.172
462.64	6.254
462.99	4.945
463.34	6.733
463.69	5.879
464.04	6.377
464.39	5.797
464.74	5.645
465.09	5.308
465.44	5.540
465.79	4.810
466.14	5.692
466.49	5.895
466.84	5.371
467.19	6.276
467.54	6.625
467.89	6.303
468.24	6.108
468.59	6.654
468.94	5.009
469.29	5.656
469.64	6.024
469.99	6.089
470.34	5.812
470.68	5.316
471.03	5.374
471.38	5.629
471.73	6.529
472.08	6.316
472.43	5.339
472.78	5.662
473.13	6.226
473.48	6.055
473.83	6.402
474.17	5.787
474.52	6.203
474.87	5.546
475.22	5.281
475.57	5.696
475.92	5.736
476.27	5.299
476.61	5.185
476.96	5.058
477.31	5.442
477.66	5.525
478.01	4.914
478.36	5.024
478.70	5.556
479.05	5.059
479.40	5.015
479.75	4.982
480.10	4.970
480.45	4.474
480.79	4.826
481.14	5.284
481.49	5.268
481.84	5.030
482.19	4.907
482.53	5.229
482.88	4.839
483.23	4.766
483.58	4.868
483.92	4.827
484.27	3.747
484.62	4.698
484.97	4.218
485.31	4.178
485.66	3.859
486.01	3.187
486.36	3.239
486.70	3.404
487.05	3.496
487.40	3.652
487.75	3.779
488.09	3.943
488.44	4.069
488.79	4.448
489.13	4.278
489.48	4.201
489.83	4.230
490.17	4.779
490.52	4.473
490.87	4.478
491.22	4.411
491.56	4.100
491.91	5.072
492.26	4.364
492.60	4.654
492.95	4.022
493.30	4.907
493.64	5.086
493.99	4.550
494.34	4.487
494.68	5.037
495.03	5.404
495.37	4.979
495.72	4.386
496.07	4.733
496.41	4.558
496.76	4.837
497.11	4.322
497.45	4.658
497.80	4.559
498.14	4.686
498.49	4.195
498.84	5.417
499.18	4.381
499.53	4.131
499.87	4.613
500.22	4.475
500.56	5.388
500.91	4.231
501.26	4.742
501.60	5.078
501.95	4.354
502.29	4.827
502.64	4.749
502.98	4.021
503.33	4.707
503.67	4.548
504.02	4.630
504.36	4.492
504.71	4.739
505.06	4.627
505.40	4.959
505.75	4.532
506.09	4.470
506.44	4.292
506.78	4.384
507.13	4.947
507.47	5.101
507.82	4.509
508.16	4.965
508.51	4.566
508.85	5.114
509.19	4.643
509.54	4.796
509.88	5.100
510.23	4.576
510.57	5.676
510.92	4.816
511.26	5.139
511.61	5.446
511.95	3.914
512.30	4.560
512.64	5.266
512.98	5.520
513.33	5.246
513.67	5.016
514.02	5.249
514.36	4.369
514.70	3.985
515.05	4.406
515.39	4.879
515.74	4.448
516.08	5.254
516.42	5.272
516.77	5.853
517.11	4.772
517.46	5.474
517.80	5.691
518.14	4.748
518.49	5.251
518.83	5.455
519.17	4.619
519.52	5.150
519.86	5.248
520.20	5.260
520.55	5.206
520.89	5.231
521.23	5.247
521.58	5.582
521.92	6.124
522.26	4.637
522.61	5.607
522.95	5.279
523.29	5.478
523.64	5.549
523.98	5.052
524.32	5.247
524.66	6.073
525.01	5.637
525.35	6.072
525.69	5.049
526.04	6.044
526.38	5.369
526.72	4.601
527.06	5.273
527.41	4.641
527.75	5.981
528.09	5.909
528.43	4.908
528.78	5.839
529.12	5.576
529.46	5.205
529.80	6.002
530.15	6.231
530.49	4.308
530.83	6.139
531.17	5.940
531.51	7.069
531.86	5.290
532.20	6.389
532.54	6.662
532.88	6.162
533.22	5.871
533.57	5.617
533.91	5.659
534.25	5.286
534.59	5.674
534.93	5.889
535.27	5.552
535.62	6.044
535.96	5.336
536.30	5.086
536.64	5.602
536.98	6.569
537.32	5.727
537.66	5.800
538.01	4.937
538.35	6.399
538.69	6.765
539.03	5.523
539.37	5.048
539.71	4.666
540.05	5.490
540.39	5.581
540.73	5.433
541.07	6.360
541.42	5.349
541.76	6.000
542.10	5.821
542.44	4.834
542.78	6.522
543.12	5.438
543.46	7.607
543.80	6.116
544.14	4.942
544.48	5.968
544.82	6.222
545.16	5.400
545.50	5.784
545.84	5.511
546.18	5.185
546.52	6.263
546.86	5.498
547.20	6.069
547.54	5.678
547.88	6.633
548.22	5.542
548.56	6.038
548.90	5.570
549.24	5.859
549.58	6.548
549.92	5.495
550.26	6.463
550.60	5.671
550.94	5.352
551.28	5.194
551.62	5.607
551.96	5.263
552.30	6.894
552.64	6.423
552.98	6.508
553.32	6.136
553.66	7.157
554.00	5.422
554.34	5.866
554.68	7.010
555.02	6.206
555.36	5.776
555.69	6.428
556.03	5.855
556.37	6.003
556.71	5.184
557.05	6.022
557.39	6.788
557.73	5.928
558.07	6.526
558.41	5.065
558.75	6.466
559.08	6.935
559.42	5.518
559.76	6.838
560.10	6.138
560.44	5.870
560.78	6.121
561.12	5.937
561.45	6.323
561.79	5.603
562.13	5.500
562.47	6.284
562.81	5.509
563.15	5.753
563.48	5.637
563.82	6.067
564.16	5.690
564.50	5.599
564.84	5.499
565.17	5.598
565.51	5.942
565.85	5.711
566.19	4.759
566.52	5.510
566.86	4.641
567.20	5.425
567.54	4.966
567.88	5.269
568.21	5.556
568.55	4.954
568.89	4.669
569.23	4.947
569.56	4.696
569.90	4.453
570.24	4.449
570.57	4.114
570.91	4.040
571.25	4.107
571.59	4.183
571.92	3.859
572.26	3.640
572.60	3.994
572.93	3.868
573.27	3.815
573.61	3.741
573.95	3.540
574.28	3.040
574.62	3.741
574.96	3.656
575.29	3.274
575.63	3.506
575.97	3.697
576.30	3.691
576.64	3.260
576.98	3.500
577.31	3.443
577.65	3.301
577.98	3.237
578.32	3.296
578.66	3.145
578.99	3.424
579.33	3.171
579.67	3.041
580.00	3.476
580.34	3.370
580.67	3.451
581.01	3.643
581.35	3.395
581.68	3.310
582.02	3.026
582.35	3.038
582.69	3.222
583.02	3.202
583.36	3.551
583.70	3.447
584.03	3.683
584.37	3.794
584.70	3.318
585.04	3.669
585.37	3.611
585.71	3.806
586.04	3.672
586.38	3.396
586.72	4.032
587.05	3.477
587.39	3.377
587.72	3.504
588.06	3.415
588.39	3.923
588.73	3.725
589.06	4.082
589.40	3.906
589.73	4.083
590.07	3.808
590.40	4.019
590.73	4.020
591.07	4.233
591.40	4.850
591.74	4.719
592.07	4.363
592.41	4.589
592.74	4.457
593.08	3.831
593.41	4.018
593.75	3.873
594.08	4.392
594.41	4.312
594.75	4.067
595.08	3.973
595.42	4.238
595.75	4.202
596.09	4.093
596.42	4.597
596.75	4.010
597.09	4.935
597.42	4.132
597.75	4.614
598.09	4.739
598.42	4.510
598.76	4.297
599.09	3.991
599.42	3.785
599.76	4.356
600.09	4.117
600.42	3.835
600.76	3.857
601.09	4.080
601.42	4.072
601.76	4.137
602.09	3.953
602.42	4.379
602.76	4.353
603.09	4.052
603.42	4.529
603.76	3.925
604.09	3.839
604.42	4.158
604.76	5.314
605.09	4.019
605.42	4.233
605.75	4.139
606.09	3.823
606.42	3.882
606.75	4.272
607.09	5.316
607.42	3.894
607.75	4.135
608.08	4.255
608.42	4.706
608.75	4.869
609.08	4.857
609.41	4.236
609.75	4.288
610.08	4.760
610.41	4.376
610.74	4.068
611.07	4.595
611.41	5.152
611.74	5.028
612.07	5.280
612.40	4.827
612.73	5.158
613.07	5.388
613.40	4.950
613.73	4.300
614.06	5.108
614.39	5.401
614.72	4.947
615.06	5.252
615.39	4.299
615.72	5.470
616.05	4.678
616.38	4.614
616.71	4.632
617.05	5.477
617.38	4.570
617.71	4.444
618.04	5.409
618.37	5.204
618.70	6.472
619.03	6.118
619.36	5.363
619.69	5.845
620.03	6.387
620.36	5.615
620.69	5.959
621.02	6.342
621.35	5.638
621.68	5.685
622.01	5.495
622.34	6.505
622.67	5.779
623.00	5.943
623.33	5.361
623.66	6.147
623.99	5.081
624.32	5.635
624.65	5.862
624.99	5.595
625.32	5.865
625.65	5.635
625.98	6.457
626.31	6.610
626.64	6.204
626.97	5.486
627.30	5.736
627.63	6.481
627.96	6.476
628.29	6.299
628.62	8.234
628.95	7.264
629.28	6.934
629.61	7.791
629.94	6.095
630.26	5.148
630.59	7.245
630.92	6.418
631.25	6.022
631.58	7.007
631.91	6.998
632.24	6.751
632.57	8.814
632.90	7.018
633.23	7.271
633.56	8.362
633.89	7.248
634.22	8.513
634.55	7.811
634.88	6.108
635.20	8.005
635.53	7.711
635.86	7.921
636.19	8.000
636.52	7.843
636.85	7.904
637.18	7.028
637.51	8.274
637.83	6.042
638.16	8.696
638.49	7.179
638.82	8.597
639.15	8.750
639.48	8.853
639.81	8.713
640.13	10.286
640.46	7.919
640.79	9.247
641.12	6.740
641.45	8.939
641.77	8.689
642.10	8.918
642.43	7.658
642.76	9.133
643.09	9.202
643.41	9.408
643.74	8.951
644.07	8.994
644.40	11.350
644.73	11.654
645.05	10.618
645.38	10.111
645.71	8.857
646.04	11.130
646.36	12.354
646.69	12.207
647.02	10.034
647.35	9.966
647.67	9.735
648.00	11.870
648.33	10.891
648.66	9.545
648.98	8.996
649.31	9.417
649.64	9.417
649.96	10.283
650.29	10.742
650.62	8.252
650.94	12.480
651.27	11.824
651.60	10.316
651.92	11.182
652.25	9.935
652.58	10.125
652.90	10.427
653.23	9.399
653.56	8.189
653.88	10.143
