SpectraSuite Data File
++++++++++++++++++++++++++++++++++++
Date: Wed May 13 19:55:14 PDT 2015
User: schluterlab
Dark Spectrum Present: Yes
Reference Spectrum Present: Yes
Number of Sampled Component Spectra: 1
Spectrometers: USB2E3373
Integration Time (usec): 3000 (USB2E3373)
Spectra Averaged: 3 (USB2E3373)
Boxcar Smoothing: 0 (USB2E3373)
Correct for Electrical Dark: No (USB2E3373)
Strobe/Lamp Enabled: No (USB2E3373)
Correct for Detector Non-linearity: No (USB2E3373)
Correct for Stray Light: No (USB2E3373)
Number of Pixels in Processed Spectrum: 2048
>>>>>Begin Processed Spectral Data<<<<<
178.53	0.000
178.91	-1425.000
179.29	-1525.000
179.67	-244.444
180.04	-1400.000
180.42	2400.000
180.80	1140.000
181.18	-1100.000
181.56	714.286
181.94	0.000
182.31	-485.714
182.69	1800.000
183.07	-512.500
183.45	-588.889
183.83	609.091
184.20	-440.000
184.58	2150.000
184.96	5500.000
185.34	-940.000
185.72	-700.000
186.09	-2250.000
186.47	2400.000
186.85	2550.000
187.23	5200.000
187.61	-1533.333
187.98	1375.000
188.36	581.818
188.74	545.455
189.12	-1000.000
189.49	600.000
189.87	-4300.000
190.25	-1400.000
190.63	464.286
191.00	376.923
191.38	833.333
191.76	-1400.000
192.14	1500.000
192.51	687.500
192.89	950.000
193.27	600.000
193.65	-1075.000
194.02	490.000
194.40	1080.000
194.78	580.000
195.15	466.667
195.53	620.000
195.91	-1700.000
196.29	356.250
196.66	373.684
197.04	-340.000
197.42	0.000
197.79	590.000
198.17	-5000.000
198.55	871.429
198.92	712.500
199.30	800.000
199.68	0.000
200.05	316.667
200.43	842.857
200.81	4600.000
201.18	1433.333
201.56	-1500.000
201.94	611.111
202.31	588.889
202.69	458.333
203.07	600.000
203.44	0.000
203.82	1500.000
204.19	700.000
204.57	428.571
204.95	700.000
205.32	1766.667
205.70	527.273
206.08	428.571
206.45	2600.000
206.83	331.250
207.20	783.333
207.58	620.000
207.96	333.333
208.33	687.500
208.71	-816.667
209.08	757.143
209.46	622.222
209.84	463.636
210.21	-1566.667
210.59	1275.000
210.96	-412.500
211.34	2800.000
211.71	560.000
212.09	750.000
212.46	0.000
212.84	1500.000
213.22	1400.000
213.59	-4800.000
213.97	900.000
214.34	857.143
214.72	663.636
215.09	1160.000
215.47	-2550.000
215.84	-2600.000
216.22	1833.333
216.59	435.714
216.97	1600.000
217.34	518.182
217.72	-833.333
218.09	0.000
218.47	-4600.000
218.84	766.667
219.22	871.429
219.59	1766.667
219.97	-628.571
220.34	920.000
220.72	-1933.333
221.09	378.571
221.47	1525.000
221.84	-750.000
222.22	0.000
222.59	1475.000
222.97	-2850.000
223.34	940.000
223.72	438.462
224.09	1020.000
224.46	2450.000
224.84	-5200.000
225.21	-920.000
225.59	-4400.000
225.96	660.000
226.34	310.000
226.71	2800.000
227.08	675.000
227.46	590.000
227.83	-1150.000
228.21	-2200.000
228.58	522.222
228.95	-2600.000
229.33	-2400.000
229.70	1933.333
230.08	800.000
230.45	-880.000
230.82	375.000
231.20	750.000
231.57	757.143
231.95	483.333
232.32	281.818
232.69	372.727
233.07	742.857
233.44	384.615
233.81	-1600.000
234.19	310.526
234.56	375.000
234.93	350.000
235.31	427.273
235.68	346.154
236.05	357.143
236.43	181.818
236.80	294.737
237.17	4400.000
237.55	228.571
237.92	200.000
238.29	242.857
238.67	170.968
239.04	189.655
239.41	127.778
239.79	121.739
240.16	111.905
240.53	115.909
240.91	98.039
241.28	106.000
241.65	94.000
242.02	89.855
242.40	64.516
242.77	91.667
243.14	66.667
243.51	75.281
243.89	58.824
244.26	53.333
244.63	55.914
245.00	54.255
245.38	58.416
245.75	56.075
246.12	36.697
246.49	50.365
246.87	56.800
247.24	48.462
247.61	45.714
247.98	45.752
248.36	41.216
248.73	35.669
249.10	44.586
249.47	42.938
249.84	35.294
250.22	34.759
250.59	39.053
250.96	35.354
251.33	37.915
251.70	31.683
252.08	31.429
252.45	31.390
252.82	30.000
253.19	27.660
253.56	26.275
253.94	31.120
254.31	28.906
254.68	28.846
255.05	30.627
255.42	30.894
255.79	26.103
256.16	30.325
256.54	22.261
256.91	26.690
257.28	23.741
257.65	23.762
258.02	24.534
258.39	22.713
258.76	20.736
259.14	24.107
259.51	22.188
259.88	18.012
260.25	23.867
260.62	19.364
260.99	21.118
261.36	21.622
261.73	20.917
262.10	18.605
262.47	23.662
262.85	21.727
263.22	16.524
263.59	20.513
263.96	19.780
264.33	19.582
264.70	19.211
265.07	18.926
265.44	19.192
265.81	20.438
266.18	17.337
266.55	20.732
266.92	19.410
267.29	20.139
267.66	17.202
268.03	17.955
268.40	17.991
268.77	17.422
269.14	17.342
269.51	18.284
269.88	16.084
270.25	17.156
270.62	15.955
270.99	16.774
271.36	18.455
271.73	17.523
272.10	17.826
272.47	21.290
272.84	13.853
273.21	18.658
273.58	14.192
273.95	16.143
274.32	16.116
274.69	15.846
275.06	14.961
275.43	16.596
275.80	14.028
276.17	16.701
276.54	17.879
276.91	16.008
277.28	16.797
277.65	15.667
278.02	14.700
278.39	17.578
278.76	15.091
279.13	15.472
279.50	15.084
279.87	14.343
280.23	15.768
280.60	15.087
280.97	13.863
281.34	15.044
281.71	15.273
282.08	16.123
282.45	14.182
282.82	13.499
283.19	14.439
283.56	12.982
283.92	14.890
284.29	13.580
284.66	17.241
285.03	11.573
285.40	14.789
285.77	13.636
286.14	15.199
286.51	15.833
286.87	15.385
287.24	15.147
287.61	13.965
287.98	14.610
288.35	15.055
288.72	13.707
289.08	14.397
289.45	14.003
289.82	15.122
290.19	12.873
290.56	14.242
290.93	11.782
291.29	13.037
291.66	11.504
292.03	16.424
292.40	14.684
292.77	12.130
293.13	13.433
293.50	13.120
293.87	12.741
294.24	11.704
294.60	12.373
294.97	13.081
295.34	13.117
295.71	13.636
296.08	10.969
296.44	11.142
296.81	12.946
297.18	12.737
297.55	10.158
297.91	11.478
298.28	11.914
298.65	13.708
299.02	12.385
299.38	12.351
299.75	9.704
300.12	10.600
300.48	11.125
300.85	11.221
301.22	11.465
301.59	11.616
301.95	11.587
302.32	10.398
302.69	11.708
303.05	10.909
303.42	11.358
303.79	12.118
304.15	10.606
304.52	11.472
304.89	9.872
305.25	11.601
305.62	11.212
305.99	11.688
306.35	10.291
306.72	10.987
307.09	11.432
307.45	13.176
307.82	10.826
308.19	11.148
308.55	11.866
308.92	9.882
309.29	9.715
309.65	10.286
310.02	10.571
310.38	10.323
310.75	11.088
311.12	10.747
311.48	11.390
311.85	11.740
312.22	11.550
312.58	9.979
312.95	11.193
313.31	9.126
313.68	10.083
314.05	11.736
314.41	10.653
314.78	10.272
315.14	10.427
315.51	11.843
315.87	10.099
316.24	10.030
316.61	9.259
316.97	9.393
317.34	9.295
317.70	10.612
318.07	10.202
318.43	10.176
318.80	11.153
319.16	8.945
319.53	9.756
319.89	10.190
320.26	10.600
320.62	11.012
320.99	10.606
321.35	10.303
321.72	10.370
322.08	9.279
322.45	11.244
322.81	10.659
323.18	11.272
323.54	9.276
323.91	10.755
324.27	9.847
324.64	9.413
325.00	10.730
325.37	10.191
325.73	10.413
326.10	10.150
326.46	9.319
326.83	11.130
327.19	10.931
327.56	10.192
327.92	9.711
328.29	9.938
328.65	10.221
329.01	9.928
329.38	9.991
329.74	10.065
330.11	10.745
330.47	10.652
330.84	11.857
331.20	10.565
331.56	10.367
331.93	9.815
332.29	9.583
332.66	10.354
333.02	10.055
333.38	10.840
333.75	10.695
334.11	10.765
334.48	10.914
334.84	11.029
335.20	10.091
335.57	10.154
335.93	9.732
336.29	9.799
336.66	9.919
337.02	9.412
337.38	10.463
337.75	10.071
338.11	9.400
338.47	8.471
338.84	10.541
339.20	9.266
339.56	10.949
339.93	9.091
340.29	9.964
340.65	9.982
341.02	10.820
341.38	10.409
341.74	9.825
342.11	9.345
342.47	9.868
342.83	9.846
343.20	10.909
343.56	10.110
343.92	9.386
344.28	9.949
344.65	9.974
345.01	8.754
345.37	9.005
345.73	10.068
346.10	9.804
346.46	9.831
346.82	9.720
347.19	8.354
347.55	9.278
347.91	9.790
348.27	9.532
348.63	9.950
349.00	9.709
349.36	8.785
349.72	8.581
350.08	9.076
350.45	9.439
350.81	9.342
351.17	8.590
351.53	9.828
351.89	8.663
352.26	9.945
352.62	9.864
352.98	8.914
353.34	8.792
353.70	8.756
354.07	9.435
354.43	8.571
354.79	9.010
355.15	9.098
355.51	9.912
355.87	9.388
356.24	9.039
356.60	9.463
356.96	9.010
357.32	8.667
357.68	8.819
358.04	9.580
358.40	9.184
358.77	9.468
359.13	8.840
359.49	8.863
359.85	7.937
360.21	8.293
360.57	9.416
360.93	9.154
361.29	9.070
361.66	8.901
362.02	8.657
362.38	9.430
362.74	9.003
363.10	8.364
363.46	8.217
363.82	7.559
364.18	9.471
364.54	9.807
364.90	9.632
365.26	7.794
365.62	8.766
365.98	8.327
366.35	7.951
366.71	8.966
367.07	7.793
367.43	8.200
367.79	9.422
368.15	9.195
368.51	8.140
368.87	9.493
369.23	8.120
369.59	9.196
369.95	7.941
370.31	8.405
370.67	8.188
371.03	8.614
371.39	8.892
371.75	8.162
372.11	8.606
372.47	9.824
372.83	9.510
373.19	8.454
373.55	8.204
373.91	8.910
374.27	8.522
374.63	7.709
374.99	8.969
375.35	7.676
375.71	8.293
376.07	9.396
376.42	7.703
376.78	8.615
377.14	8.548
377.50	8.278
377.86	7.447
378.22	7.965
378.58	6.704
378.94	7.668
379.30	7.697
379.66	8.312
380.02	7.924
380.38	7.893
380.74	8.223
381.09	8.374
381.45	8.297
381.81	7.494
382.17	8.471
382.53	7.610
382.89	8.395
383.25	7.067
383.61	7.745
383.97	7.880
384.32	7.673
384.68	7.125
385.04	8.175
385.40	7.554
385.76	7.064
386.12	7.642
386.48	8.055
386.83	8.018
387.19	8.287
387.55	7.607
387.91	7.316
388.27	7.051
388.62	7.191
388.98	7.494
389.34	7.822
389.70	7.848
390.06	8.238
390.42	8.625
390.77	8.588
391.13	8.105
391.49	8.376
391.85	7.447
392.20	7.445
392.56	7.639
392.92	7.769
393.28	6.805
393.64	8.034
393.99	7.941
394.35	7.692
394.71	7.716
395.07	7.850
395.42	8.096
395.78	8.333
396.14	7.759
396.50	8.208
396.85	8.201
397.21	7.645
397.57	7.998
397.92	7.873
398.28	6.670
398.64	7.945
399.00	8.170
399.35	7.050
399.71	7.639
400.07	7.629
400.42	8.037
400.78	7.961
401.14	7.439
401.49	8.060
401.85	7.743
402.21	7.665
402.57	6.663
402.92	8.386
403.28	7.495
403.63	7.488
403.99	7.389
404.35	8.485
404.70	7.854
405.06	7.105
405.42	7.611
405.77	7.543
406.13	8.014
406.49	8.043
406.84	7.620
407.20	6.974
407.55	8.232
407.91	8.200
408.27	7.211
408.62	7.345
408.98	7.047
409.34	7.503
409.69	8.323
410.05	7.373
410.40	7.523
410.76	7.885
411.11	8.263
411.47	7.668
411.83	8.735
412.18	7.112
412.54	7.597
412.89	7.831
413.25	7.261
413.60	7.721
413.96	6.982
414.31	7.655
414.67	9.062
415.03	7.616
415.38	8.892
415.74	6.688
416.09	8.165
416.45	7.831
416.80	8.063
417.16	8.713
417.51	7.830
417.87	7.771
418.22	8.013
418.58	7.876
418.93	7.862
419.29	7.766
419.64	8.501
420.00	7.500
420.35	8.580
420.71	7.113
421.06	7.041
421.42	7.661
421.77	8.352
422.12	7.131
422.48	6.962
422.83	7.688
423.19	7.845
423.54	7.545
423.90	7.536
424.25	7.649
424.61	7.500
424.96	7.638
425.31	7.918
425.67	7.303
426.02	7.029
426.38	8.059
426.73	7.490
427.09	7.477
427.44	7.246
427.79	7.476
428.15	8.274
428.50	8.426
428.85	7.330
429.21	7.068
429.56	7.672
429.92	7.146
430.27	7.150
430.62	6.708
430.98	7.473
431.33	7.577
431.68	7.330
432.04	7.827
432.39	7.310
432.74	7.002
433.10	7.470
433.45	7.638
433.80	7.151
434.16	7.158
434.51	7.789
434.86	7.982
435.22	7.560
435.57	7.416
435.92	7.139
436.28	7.592
436.63	8.333
436.98	7.556
437.34	8.229
437.69	8.226
438.04	7.364
438.39	8.000
438.75	8.193
439.10	7.374
439.45	7.910
439.81	7.915
440.16	7.962
440.51	7.557
440.86	8.512
441.22	7.341
441.57	7.537
441.92	7.830
442.27	7.427
442.63	7.056
442.98	8.000
443.33	8.315
443.68	7.847
444.03	7.369
444.39	6.426
444.74	7.630
445.09	7.601
445.44	7.545
445.79	7.571
446.15	8.047
446.50	7.377
446.85	7.091
447.20	7.343
447.55	7.426
447.91	7.281
448.26	7.513
448.61	7.688
448.96	8.583
449.31	8.155
449.66	7.597
450.02	7.577
450.37	7.370
450.72	7.389
451.07	6.825
451.42	7.842
451.77	8.867
452.12	8.141
452.47	8.022
452.83	7.925
453.18	7.763
453.53	8.101
453.88	7.856
454.23	8.368
454.58	8.419
454.93	8.137
455.28	7.357
455.63	7.524
455.98	8.214
456.34	7.663
456.69	8.015
457.04	8.050
457.39	8.065
457.74	7.487
458.09	8.166
458.44	7.469
458.79	6.941
459.14	7.844
459.49	8.056
459.84	7.590
460.19	7.837
460.54	8.449
460.89	7.954
461.24	8.257
461.59	9.123
461.94	8.200
462.29	8.309
462.64	8.424
462.99	7.807
463.34	9.267
463.69	8.005
464.04	8.870
464.39	7.942
464.74	8.140
465.09	8.444
465.44	8.033
465.79	7.271
466.14	7.882
466.49	7.508
466.84	8.757
467.19	8.328
467.54	8.188
467.89	8.103
468.24	8.261
468.59	9.158
468.94	8.430
469.29	8.355
469.64	9.371
469.99	9.337
470.34	8.454
470.68	9.195
471.03	8.231
471.38	8.478
471.73	9.394
472.08	9.408
472.43	8.731
472.78	8.690
473.13	9.243
473.48	9.238
473.83	8.293
474.17	8.401
474.52	8.002
474.87	8.523
475.22	7.719
475.57	7.845
475.92	7.966
476.27	8.512
476.61	8.605
476.96	7.367
477.31	7.797
477.66	7.877
478.01	7.423
478.36	8.144
478.70	7.425
479.05	7.614
479.40	7.728
479.75	7.829
480.10	7.058
480.45	7.473
480.79	7.262
481.14	7.534
481.49	8.211
481.84	7.499
482.19	7.224
482.53	7.661
482.88	7.818
483.23	8.084
483.58	8.508
483.92	7.779
484.27	7.190
484.62	6.897
484.97	6.937
485.31	7.055
485.66	6.170
486.01	5.822
486.36	5.640
486.70	5.893
487.05	6.157
487.40	6.359
487.75	6.654
488.09	6.976
488.44	6.471
488.79	7.450
489.13	7.296
489.48	7.300
489.83	7.164
490.17	7.365
490.52	7.352
490.87	7.553
491.22	7.822
491.56	7.107
491.91	7.911
492.26	8.085
492.60	7.972
492.95	6.735
493.30	7.850
493.64	7.559
493.99	7.660
494.34	7.771
494.68	7.967
495.03	8.412
495.37	7.864
495.72	7.797
496.07	7.657
496.41	7.301
496.76	7.608
497.11	7.564
497.45	8.011
497.80	7.678
498.14	7.343
498.49	7.805
498.84	8.293
499.18	7.476
499.53	7.740
499.87	7.735
500.22	8.243
500.56	8.689
500.91	7.692
501.26	8.108
501.60	7.973
501.95	7.883
502.29	8.341
502.64	7.868
502.98	7.620
503.33	7.815
503.67	7.657
504.02	8.185
504.36	8.610
504.71	8.061
505.06	9.012
505.40	7.876
505.75	7.811
506.09	7.483
506.44	8.091
506.78	8.378
507.13	7.925
507.47	8.283
507.82	8.713
508.16	8.105
508.51	7.965
508.85	8.788
509.19	8.265
509.54	8.265
509.88	8.552
510.23	8.432
510.57	8.927
510.92	8.286
511.26	8.684
511.61	8.973
511.95	7.881
512.30	8.431
512.64	8.705
512.98	9.003
513.33	8.940
513.67	8.378
514.02	8.712
514.36	9.285
514.70	8.910
515.05	8.812
515.39	9.198
515.74	9.234
516.08	8.776
516.42	8.879
516.77	9.810
517.11	8.491
517.46	9.312
517.80	9.001
518.14	8.454
518.49	9.393
518.83	9.545
519.17	9.988
519.52	9.394
519.86	9.184
520.20	9.769
520.55	9.336
520.89	9.976
521.23	10.133
521.58	9.664
521.92	9.982
522.26	9.335
522.61	9.221
522.95	9.269
523.29	9.738
523.64	9.329
523.98	9.365
524.32	9.047
524.66	10.162
525.01	10.294
525.35	9.542
525.69	10.037
526.04	10.093
526.38	10.738
526.72	9.939
527.06	10.421
527.41	9.901
527.75	9.904
528.09	9.377
528.43	9.433
528.78	9.281
529.12	9.939
529.46	9.920
529.80	10.210
530.15	10.218
530.49	9.292
530.83	10.063
531.17	10.117
531.51	10.700
531.86	9.613
532.20	10.365
532.54	10.762
532.88	10.270
533.22	9.681
533.57	9.815
533.91	10.295
534.25	10.085
534.59	10.189
534.93	10.173
535.27	10.441
535.62	10.195
535.96	9.542
536.30	10.299
536.64	10.367
536.98	10.683
537.32	9.875
537.66	10.667
538.01	10.270
538.35	11.054
538.69	10.274
539.03	10.071
539.37	9.712
539.71	9.138
540.05	9.739
540.39	8.904
540.73	10.091
541.07	10.383
541.42	10.959
541.76	9.806
542.10	9.573
542.44	10.530
542.78	11.133
543.12	10.173
543.46	10.230
543.80	9.889
544.14	9.114
544.48	10.667
544.82	9.878
545.16	10.735
545.50	10.476
545.84	9.812
546.18	10.370
546.52	11.425
546.86	10.103
547.20	10.856
547.54	10.354
547.88	11.033
548.22	10.710
548.56	10.692
548.90	10.563
549.24	10.034
549.58	11.187
549.92	10.714
550.26	10.795
550.60	10.788
550.94	10.563
551.28	9.437
551.62	10.855
551.96	11.018
552.30	10.922
552.64	10.074
552.98	10.441
553.32	10.654
553.66	11.247
554.00	11.050
554.34	10.352
554.68	10.873
555.02	11.142
555.36	10.786
555.69	9.946
556.03	10.834
556.37	11.255
556.71	11.187
557.05	10.784
557.39	10.567
557.73	11.080
558.07	11.022
558.41	10.420
558.75	11.168
559.08	10.887
559.42	10.658
559.76	11.250
560.10	10.707
560.44	10.832
560.78	8.982
561.12	10.158
561.45	11.017
561.79	10.218
562.13	10.530
562.47	10.656
562.81	10.669
563.15	10.635
563.48	11.207
563.82	10.763
564.16	10.530
564.50	10.221
564.84	9.861
565.17	9.717
565.51	10.927
565.85	10.089
566.19	10.394
566.52	10.133
566.86	9.403
567.20	9.375
567.54	10.103
567.88	8.908
568.21	10.053
568.55	9.353
568.89	9.047
569.23	9.180
569.56	9.069
569.90	8.491
570.24	8.504
570.57	8.092
570.91	7.822
571.25	8.091
571.59	8.513
571.92	7.921
572.26	8.174
572.60	8.258
572.93	8.486
573.27	8.400
573.61	8.626
573.95	8.269
574.28	7.965
574.62	8.139
574.96	7.766
575.29	8.050
575.63	7.978
575.97	8.071
576.30	8.311
576.64	8.011
576.98	7.657
577.31	8.041
577.65	8.035
577.98	7.439
578.32	7.724
578.66	7.904
578.99	7.761
579.33	8.109
579.67	7.760
580.00	8.104
580.34	8.045
580.67	8.225
581.01	8.568
581.35	7.670
581.68	7.588
582.02	7.242
582.35	7.179
582.69	7.485
583.02	7.847
583.36	7.586
583.70	8.442
584.03	8.333
584.37	8.458
584.70	8.150
585.04	7.901
585.37	8.248
585.71	8.083
586.04	8.070
586.38	8.333
586.72	8.423
587.05	8.259
587.39	7.836
587.72	8.220
588.06	8.004
588.39	8.038
588.73	7.950
589.06	8.601
589.40	8.653
589.73	8.553
590.07	9.217
590.40	8.367
590.73	9.055
591.07	9.402
591.40	9.658
591.74	9.221
592.07	9.380
592.41	8.805
592.74	8.727
593.08	8.161
593.41	8.352
593.75	8.588
594.08	8.615
594.41	8.731
594.75	8.429
595.08	8.805
595.42	8.757
595.75	8.155
596.09	9.163
596.42	9.745
596.75	9.582
597.09	9.827
597.42	8.853
597.75	8.711
598.09	9.957
598.42	8.849
598.76	8.675
599.09	8.134
599.42	8.188
599.76	8.675
600.09	7.760
600.42	8.327
600.76	8.536
601.09	8.925
601.42	8.790
601.76	8.501
602.09	8.814
602.42	9.674
602.76	8.827
603.09	8.655
603.42	9.488
603.76	8.651
604.09	8.337
604.42	8.520
604.76	9.363
605.09	8.869
605.42	9.235
605.75	9.603
606.09	8.703
606.42	8.459
606.75	9.083
607.09	9.795
607.42	8.216
607.75	8.692
608.08	8.597
608.42	9.502
608.75	8.882
609.08	8.881
609.41	8.805
609.75	9.481
610.08	9.048
610.41	8.520
610.74	8.988
611.07	9.486
611.41	9.323
611.74	9.904
612.07	9.524
612.40	10.178
612.73	9.579
613.07	9.752
613.40	9.373
613.73	9.177
614.06	9.624
614.39	9.544
614.72	10.158
615.06	8.824
615.39	9.289
615.72	9.356
616.05	9.091
616.38	9.783
616.71	9.501
617.05	10.188
617.38	9.922
617.71	9.610
618.04	10.216
618.37	9.758
618.70	10.330
619.03	10.658
619.36	11.405
619.69	10.352
620.03	11.538
620.36	10.561
620.69	11.096
621.02	10.398
621.35	10.572
621.68	10.826
622.01	10.759
622.34	11.120
622.67	10.570
623.00	10.198
623.33	10.293
623.66	11.365
623.99	10.457
624.32	11.056
624.65	10.523
624.99	10.765
625.32	10.427
625.65	10.443
625.98	10.300
626.31	10.731
626.64	10.286
626.97	11.721
627.30	11.471
627.63	11.321
627.96	11.522
628.29	11.024
628.62	12.260
628.95	12.358
629.28	12.226
629.61	12.191
629.94	10.000
630.26	11.344
630.59	11.916
630.92	11.207
631.25	11.155
631.58	12.713
631.91	11.663
632.24	11.709
632.57	11.752
632.90	12.281
633.23	12.752
633.56	13.672
633.89	14.156
634.22	13.848
634.55	12.899
634.88	11.976
635.20	14.695
635.53	13.253
635.86	12.871
636.19	12.353
636.52	13.149
636.85	12.486
637.18	13.018
637.51	13.830
637.83	12.454
638.16	13.427
638.49	13.098
638.82	13.401
639.15	13.500
639.48	13.092
639.81	11.528
640.13	14.844
640.46	13.960
640.79	13.606
641.12	12.242
641.45	12.849
641.77	13.549
642.10	15.058
642.43	13.213
642.76	15.789
643.09	15.337
643.41	15.175
643.74	13.426
644.07	16.616
644.40	15.951
644.73	14.961
645.05	15.055
645.38	14.060
645.71	14.654
646.04	14.452
646.36	16.361
646.69	16.722
