SpectraSuite Data File
++++++++++++++++++++++++++++++++++++
Date: Tue May 12 19:35:32 PDT 2015
User: schluterlab
Dark Spectrum Present: Yes
Reference Spectrum Present: Yes
Number of Sampled Component Spectra: 1
Spectrometers: USB2E3373
Integration Time (usec): 3000 (USB2E3373)
Spectra Averaged: 3 (USB2E3373)
Boxcar Smoothing: 0 (USB2E3373)
Correct for Electrical Dark: No (USB2E3373)
Strobe/Lamp Enabled: No (USB2E3373)
Correct for Detector Non-linearity: No (USB2E3373)
Correct for Stray Light: No (USB2E3373)
Number of Pixels in Processed Spectrum: 2048
>>>>>Begin Processed Spectral Data<<<<<
178.53	0.000
178.91	-50.000
179.29	-50.000
179.67	133.333
180.04	0.000
180.42	-160.000
180.80	-200.000
181.18	1050.000
181.56	300.000
181.94	250.000
182.31	1400.000
182.69	-28.571
183.07	0.000
183.45	41.667
183.83	80.000
184.20	200.000
184.58	550.000
184.96	83.333
185.34	-366.667
185.72	14.286
186.09	66.667
186.47	-300.000
186.85	-20.000
187.23	150.000
187.61	-71.429
187.98	-240.000
188.36	150.000
188.74	-125.000
189.12	-100.000
189.49	-20.000
189.87	75.000
190.25	55.556
190.63	200.000
191.00	200.000
191.38	-133.333
191.76	320.000
192.14	-100.000
192.51	-40.000
192.89	180.000
193.27	140.000
193.65	-133.333
194.02	16.667
194.40	1800.000
194.78	-100.000
195.15	-185.714
195.53	333.333
195.91	220.000
196.29	-350.000
196.66	-100.000
197.04	-71.429
197.42	120.000
197.79	-12.500
198.17	-50.000
198.55	1000.000
198.92	-44.444
199.30	650.000
199.68	0.000
200.05	-400.000
200.43	-16.667
200.81	-41.667
201.18	266.667
201.56	-250.000
201.94	-1500.000
202.31	-33.333
202.69	11.111
203.07	41.667
203.44	-200.000
203.82	0.000
204.19	112.500
204.57	-500.000
204.95	36.364
205.32	220.000
205.70	200.000
206.08	200.000
206.45	80.000
206.83	1400.000
207.20	-111.111
207.58	15.385
207.96	-100.000
208.33	366.667
208.71	366.667
209.08	1050.000
209.46	44.444
209.84	133.333
210.21	-433.333
210.59	-250.000
210.96	77.778
211.34	175.000
211.71	900.000
212.09	120.000
212.46	-162.500
212.84	-75.000
213.22	28.571
213.59	-100.000
213.97	0.000
214.34	-50.000
214.72	700.000
215.09	150.000
215.47	0.000
215.84	-112.500
216.22	-200.000
216.59	1500.000
216.97	58.333
217.34	-150.000
217.72	50.000
218.09	200.000
218.47	15.789
218.84	-150.000
219.22	14.286
219.59	30.000
219.97	0.000
220.34	183.333
220.72	81.818
221.09	-550.000
221.47	0.000
221.84	300.000
222.22	-200.000
222.59	-125.000
222.97	43.478
223.34	140.000
223.72	114.286
224.09	-50.000
224.46	130.769
224.84	-53.333
225.21	-200.000
225.59	-150.000
225.96	30.000
226.34	33.333
226.71	110.000
227.08	-38.462
227.46	14.286
227.83	-91.667
228.21	-450.000
228.58	33.333
228.95	-15.789
229.33	31.250
229.70	-16.667
230.08	-188.889
230.45	-600.000
230.82	-1000.000
231.20	19.048
231.57	-160.000
231.95	-366.667
232.32	22.222
232.69	-500.000
233.07	18.750
233.44	100.000
233.81	48.387
234.19	-20.000
234.56	-5.556
234.93	-116.667
235.31	40.741
235.68	-22.222
236.05	-11.538
236.43	-36.842
236.80	4.545
237.17	-21.429
237.55	-45.000
237.92	30.233
238.29	6.452
238.67	46.429
239.04	-5.714
239.41	31.373
239.79	16.000
240.16	15.000
240.53	3.448
240.91	8.219
241.28	4.225
241.65	23.437
242.02	14.035
242.40	6.667
242.77	7.368
243.14	27.059
243.51	25.806
243.89	19.048
244.26	13.889
244.63	17.347
245.00	14.286
245.38	13.445
245.75	8.475
246.12	20.312
246.49	16.800
246.87	9.016
247.24	17.606
247.61	21.854
247.98	21.348
248.36	21.384
248.73	15.909
249.10	15.556
249.47	19.792
249.84	19.289
250.22	22.396
250.59	19.101
250.96	25.455
251.33	22.170
251.70	24.312
252.08	29.870
252.45	18.367
252.82	19.831
253.19	15.953
253.56	22.745
253.94	19.512
254.31	24.460
254.68	23.264
255.05	22.185
255.42	22.545
255.79	24.503
256.16	19.792
256.54	22.424
256.91	22.436
257.28	21.753
257.65	20.656
258.02	21.922
258.39	25.378
258.76	23.547
259.14	19.412
259.51	22.254
259.88	21.037
260.25	21.023
260.62	20.787
260.99	17.549
261.36	25.000
261.73	21.333
262.10	23.978
262.47	23.691
262.85	22.108
263.22	23.118
263.59	21.984
263.96	23.760
264.33	21.563
264.70	23.833
265.07	20.443
265.44	22.951
265.81	26.024
266.18	19.672
266.55	22.857
266.92	22.545
267.29	24.444
267.66	20.682
268.03	22.151
268.40	20.595
268.77	22.717
269.14	20.588
269.51	21.946
269.88	21.581
270.25	22.996
270.62	22.899
270.99	22.737
271.36	20.751
271.73	21.667
272.10	21.992
272.47	22.000
272.84	19.108
273.21	19.207
273.58	20.612
273.95	21.315
274.32	23.017
274.69	25.245
275.06	22.326
275.43	19.400
275.80	22.562
276.17	21.146
276.54	23.004
276.91	20.729
277.28	23.211
277.65	20.227
278.02	22.348
278.39	20.690
278.76	23.091
279.13	24.329
279.50	23.827
279.87	19.811
280.23	20.947
280.60	20.318
280.97	22.496
281.34	22.034
281.71	18.472
282.08	19.857
282.45	20.988
282.82	18.855
283.19	20.875
283.56	21.672
283.92	19.747
284.29	21.151
284.66	20.000
285.03	18.868
285.40	20.333
285.77	21.839
286.14	19.017
286.51	19.293
286.87	19.935
287.24	19.391
287.61	19.136
287.98	22.692
288.35	20.155
288.72	17.584
289.08	18.711
289.45	18.409
289.82	18.478
290.19	18.636
290.56	18.234
290.93	18.612
291.29	19.291
291.66	19.944
292.03	20.230
292.40	19.712
292.77	16.910
293.13	17.181
293.50	17.631
293.87	17.892
294.24	19.382
294.60	17.486
294.97	16.620
295.34	17.808
295.71	16.644
296.08	16.667
296.44	18.182
296.81	15.395
297.18	17.076
297.55	16.332
297.91	16.624
298.28	16.624
298.65	16.688
299.02	17.016
299.38	15.434
299.75	16.988
300.12	16.906
300.48	16.197
300.85	14.303
301.22	15.986
301.59	15.937
301.95	16.341
302.32	16.039
302.69	14.388
303.05	13.932
303.42	16.063
303.79	14.494
304.15	15.629
304.52	14.749
304.89	14.318
305.25	14.106
305.62	14.659
305.99	13.102
306.35	14.877
306.72	14.488
307.09	15.560
307.45	13.376
307.82	14.941
308.19	16.062
308.55	15.506
308.92	15.254
309.29	13.912
309.65	15.170
310.02	16.143
310.38	15.458
310.75	14.037
311.12	15.056
311.48	15.108
311.85	13.779
312.22	14.669
312.58	14.804
312.95	14.066
313.31	14.454
313.68	15.194
314.05	14.697
314.41	15.422
314.78	14.573
315.14	15.867
315.51	15.591
315.87	14.844
316.24	13.947
316.61	13.107
316.97	14.314
317.34	14.833
317.70	13.539
318.07	13.790
318.43	14.556
318.80	14.208
319.16	14.632
319.53	14.906
319.89	14.678
320.26	16.519
320.62	16.085
320.99	13.673
321.35	15.316
321.72	16.061
322.08	14.554
322.45	14.300
322.81	13.695
323.18	14.957
323.54	14.313
323.91	14.421
324.27	13.790
324.64	14.714
325.00	14.468
325.37	16.097
325.73	14.507
326.10	14.974
326.46	14.325
326.83	14.336
327.19	14.498
327.56	15.915
327.92	14.323
328.29	14.875
328.65	15.443
329.01	15.229
329.38	13.958
329.74	15.506
330.11	14.166
330.47	13.966
330.84	14.192
331.20	15.157
331.56	14.057
331.93	14.090
332.29	14.709
332.66	14.195
333.02	14.299
333.38	14.890
333.75	14.364
334.11	15.009
334.48	13.953
334.84	12.582
335.20	13.966
335.57	15.077
335.93	13.302
336.29	14.625
336.66	14.299
337.02	14.597
337.38	14.245
337.75	14.818
338.11	15.770
338.47	14.485
338.84	13.996
339.20	15.032
339.56	13.141
339.93	14.324
340.29	14.778
340.65	15.342
341.02	13.640
341.38	15.711
341.74	14.502
342.11	13.705
342.47	14.948
342.83	14.657
343.20	14.766
343.56	13.374
343.92	13.386
344.28	12.436
344.65	13.699
345.01	13.589
345.37	13.761
345.73	13.609
346.10	14.607
346.46	13.374
346.82	14.444
347.19	13.877
347.55	14.626
347.91	14.169
348.27	12.553
348.63	13.915
349.00	15.359
349.36	13.850
349.72	15.189
350.08	14.321
350.45	13.426
350.81	14.368
351.17	13.674
351.53	14.412
351.89	12.522
352.26	14.065
352.62	13.737
352.98	13.891
353.34	12.949
353.70	12.016
354.07	13.756
354.43	12.855
354.79	13.279
355.15	13.075
355.51	14.425
355.87	13.239
356.24	15.441
356.60	13.272
356.96	13.349
357.32	14.074
357.68	14.797
358.04	13.533
358.40	13.993
358.77	13.414
359.13	13.494
359.49	13.200
359.85	14.069
360.21	12.292
360.57	13.796
360.93	13.698
361.29	13.162
361.66	13.722
362.02	13.344
362.38	13.986
362.74	14.758
363.10	14.178
363.46	13.920
363.82	12.940
364.18	13.475
364.54	13.053
364.90	13.037
365.26	13.860
365.62	13.702
365.98	13.568
366.35	13.843
366.71	13.518
367.07	14.317
367.43	12.780
367.79	12.573
368.15	12.083
368.51	13.333
368.87	12.996
369.23	13.475
369.59	13.235
369.95	13.189
370.31	12.045
370.67	13.083
371.03	13.313
371.39	14.653
371.75	12.779
372.11	11.630
372.47	12.695
372.83	13.440
373.19	12.877
373.55	13.249
373.91	12.803
374.27	13.687
374.63	13.402
374.99	12.665
375.35	12.627
375.71	13.558
376.07	13.710
376.42	13.278
376.78	12.892
377.14	13.268
377.50	12.449
377.86	12.604
378.22	13.342
378.58	13.882
378.94	13.949
379.30	13.771
379.66	13.124
380.02	13.477
380.38	12.913
380.74	13.052
381.09	12.389
381.45	13.079
381.81	13.712
382.17	13.941
382.53	12.755
382.89	13.085
383.25	13.380
383.61	12.206
383.97	13.580
384.32	14.645
384.68	14.049
385.04	12.412
385.40	12.013
385.76	13.662
386.12	12.937
386.48	12.264
386.83	13.167
387.19	13.729
387.55	12.435
387.91	12.586
388.27	13.116
388.62	12.435
388.98	12.913
389.34	12.882
389.70	13.077
390.06	13.003
390.42	13.117
390.77	12.810
391.13	13.142
391.49	13.073
391.85	12.908
392.20	13.663
392.56	12.836
392.92	13.358
393.28	12.328
393.64	13.046
393.99	12.792
394.35	13.043
394.71	13.709
395.07	13.793
395.42	12.381
395.78	12.298
396.14	12.458
396.50	12.419
396.85	13.020
397.21	12.419
397.57	11.982
397.92	13.613
398.28	13.909
398.64	12.190
399.00	13.465
399.35	13.247
399.71	13.174
400.07	13.465
400.42	13.910
400.78	13.884
401.14	12.942
401.49	12.617
401.85	13.778
402.21	14.023
402.57	11.977
402.92	13.347
403.28	13.524
403.63	13.654
403.99	12.748
404.35	12.866
404.70	13.046
405.06	13.081
405.42	12.297
405.77	13.436
406.13	13.082
406.49	12.492
406.84	13.387
407.20	13.507
407.55	12.024
407.91	12.517
408.27	13.431
408.62	12.476
408.98	13.707
409.34	12.932
409.69	13.043
410.05	12.759
410.40	13.166
410.76	13.076
411.11	12.670
411.47	13.333
411.83	13.458
412.18	12.762
412.54	13.001
412.89	12.694
413.25	14.044
413.60	12.755
413.96	13.398
414.31	12.492
414.67	13.369
415.03	13.831
415.38	13.510
415.74	13.432
416.09	12.819
416.45	12.314
416.80	12.448
417.16	13.399
417.51	13.602
417.87	14.022
418.22	12.968
418.58	13.614
418.93	13.798
419.29	13.094
419.64	13.874
420.00	12.901
420.35	13.434
420.71	12.740
421.06	13.173
421.42	13.425
421.77	13.703
422.12	13.822
422.48	13.935
422.83	13.435
423.19	13.353
423.54	12.523
423.90	13.721
424.25	14.018
424.61	13.226
424.96	14.373
425.31	13.285
425.67	12.424
426.02	13.540
426.38	12.741
426.73	13.645
427.09	13.723
427.44	13.395
427.79	14.851
428.15	13.887
428.50	14.196
428.85	13.791
429.21	14.704
429.56	13.481
429.92	13.791
430.27	13.440
430.62	13.250
430.98	13.702
431.33	13.014
431.68	14.059
432.04	13.579
432.39	14.023
432.74	13.409
433.10	14.069
433.45	13.553
433.80	14.167
434.16	14.039
434.51	14.103
434.86	13.474
435.22	13.620
435.57	14.314
435.92	13.127
436.28	13.014
436.63	13.655
436.98	13.765
437.34	14.075
437.69	14.506
438.04	14.303
438.39	13.773
438.75	13.600
439.10	14.702
439.45	14.506
439.81	13.968
440.16	13.482
440.51	13.941
440.86	13.510
441.22	13.282
441.57	13.846
441.92	13.308
442.27	13.371
442.63	13.995
442.98	14.548
443.33	14.336
443.68	14.254
444.03	14.124
444.39	13.899
444.74	13.910
445.09	14.699
445.44	14.052
445.79	14.186
446.15	14.344
446.50	13.534
446.85	13.476
447.20	13.895
447.55	14.311
447.91	15.226
448.26	14.421
448.61	14.381
448.96	14.666
449.31	14.165
449.66	13.499
450.02	13.077
450.37	14.459
450.72	13.944
451.07	14.041
451.42	13.966
451.77	13.682
452.12	14.536
452.47	14.566
452.83	15.006
453.18	14.787
453.53	14.566
453.88	14.359
454.23	15.335
454.58	15.144
454.93	13.965
455.28	13.985
455.63	14.360
455.98	15.165
456.34	13.798
456.69	13.270
457.04	14.304
457.39	14.856
457.74	14.475
458.09	14.624
458.44	14.776
458.79	14.370
459.14	14.550
459.49	15.159
459.84	14.804
460.19	14.822
460.54	13.826
460.89	14.235
461.24	14.870
461.59	15.457
461.94	15.253
462.29	14.787
462.64	14.624
462.99	14.938
463.34	14.725
463.69	15.706
464.04	14.689
464.39	15.113
464.74	14.406
465.09	15.756
465.44	15.597
465.79	14.561
466.14	14.678
466.49	15.645
466.84	16.093
467.19	15.400
467.54	14.920
467.89	14.892
468.24	15.530
468.59	15.707
468.94	14.997
469.29	15.502
469.64	16.411
469.99	15.285
470.34	15.417
470.68	15.615
471.03	15.547
471.38	15.408
471.73	16.570
472.08	16.797
472.43	15.837
472.78	14.648
473.13	15.509
473.48	15.145
473.83	15.390
474.17	14.410
474.52	15.472
474.87	16.098
475.22	16.137
475.57	15.100
475.92	14.781
476.27	16.215
476.61	15.957
476.96	15.827
477.31	15.126
477.66	15.979
478.01	15.009
478.36	15.415
478.70	15.549
479.05	15.438
479.40	15.699
479.75	15.984
480.10	16.558
480.45	16.283
480.79	15.776
481.14	16.078
481.49	16.350
481.84	16.111
482.19	15.805
482.53	15.980
482.88	15.963
483.23	15.980
483.58	15.941
483.92	16.332
484.27	15.489
484.62	17.067
484.97	15.422
485.31	15.584
485.66	13.964
486.01	13.915
486.36	13.716
486.70	13.932
487.05	14.055
487.40	14.547
487.75	15.087
488.09	14.975
488.44	15.134
488.79	15.405
489.13	15.254
489.48	15.327
489.83	16.043
490.17	16.268
490.52	15.440
490.87	16.419
491.22	15.828
491.56	16.848
491.91	16.114
492.26	16.369
492.60	17.653
492.95	17.043
493.30	16.100
493.64	16.024
493.99	17.043
494.34	17.233
494.68	16.749
495.03	16.379
495.37	17.486
495.72	16.719
496.07	17.241
496.41	15.909
496.76	16.905
497.11	17.085
497.45	17.378
497.80	17.445
498.14	17.371
498.49	16.765
498.84	16.562
499.18	16.554
499.53	17.342
499.87	16.948
500.22	16.519
500.56	17.530
500.91	17.934
501.26	17.585
501.60	16.667
501.95	17.400
502.29	16.932
502.64	16.476
502.98	17.062
503.33	16.675
503.67	17.203
504.02	17.109
504.36	16.641
504.71	17.447
505.06	17.247
505.40	17.319
505.75	17.483
506.09	17.335
506.44	17.597
506.78	17.291
507.13	17.970
507.47	17.895
507.82	17.467
508.16	17.984
508.51	18.709
508.85	17.802
509.19	17.608
509.54	17.904
509.88	18.009
510.23	17.697
510.57	17.206
510.92	18.027
511.26	17.002
511.61	17.523
511.95	18.334
512.30	18.783
512.64	17.889
512.98	18.547
513.33	18.054
513.67	17.784
514.02	17.608
514.36	18.565
514.70	18.701
515.05	17.988
515.39	18.946
515.74	18.484
516.08	17.326
516.42	18.459
516.77	18.882
517.11	18.838
517.46	18.176
517.80	19.209
518.14	18.849
518.49	19.534
518.83	19.520
519.17	18.702
519.52	19.051
519.86	20.139
520.20	19.745
520.55	20.104
520.89	19.568
521.23	19.439
521.58	19.511
521.92	19.760
522.26	19.656
522.61	19.522
522.95	19.315
523.29	20.648
523.64	19.132
523.98	18.616
524.32	19.192
524.66	19.986
525.01	20.344
525.35	19.494
525.69	20.165
526.04	20.366
526.38	19.740
526.72	20.208
527.06	19.620
527.41	19.702
527.75	19.598
528.09	19.731
528.43	20.624
528.78	19.217
529.12	20.068
529.46	20.864
529.80	19.333
530.15	19.736
530.49	19.596
530.83	19.089
531.17	19.845
531.51	20.343
531.86	20.308
532.20	19.769
532.54	21.151
532.88	20.000
533.22	20.905
533.57	18.897
533.91	20.509
534.25	19.891
534.59	20.220
534.93	19.745
535.27	19.865
535.62	19.311
535.96	20.377
536.30	19.972
536.64	20.815
536.98	19.248
537.32	20.387
537.66	19.501
538.01	19.661
538.35	19.636
538.69	19.179
539.03	19.394
539.37	19.024
539.71	19.855
540.05	20.767
540.39	20.407
540.73	20.147
541.07	21.544
541.42	19.387
541.76	20.288
542.10	20.014
542.44	21.315
542.78	18.622
543.12	18.917
543.46	19.821
543.80	20.372
544.14	19.570
544.48	19.228
544.82	20.156
545.16	19.783
545.50	20.233
545.84	20.263
546.18	20.225
546.52	20.907
546.86	19.587
547.20	19.545
547.54	19.636
547.88	18.732
548.22	19.269
548.56	20.296
548.90	19.719
549.24	20.541
549.58	20.045
549.92	20.376
550.26	21.390
550.60	20.856
550.94	20.635
551.28	20.407
551.62	20.966
551.96	20.927
552.30	20.078
552.64	20.661
552.98	20.505
553.32	20.000
553.66	20.561
554.00	19.923
554.34	20.078
554.68	20.415
555.02	20.873
555.36	19.778
555.69	20.523
556.03	20.843
556.37	19.505
556.71	20.362
557.05	19.766
557.39	20.964
557.73	20.991
558.07	20.579
558.41	20.351
558.75	21.079
559.08	21.787
559.42	20.736
559.76	19.966
560.10	21.516
560.44	19.398
560.78	20.285
561.12	19.760
561.45	19.643
561.79	18.869
562.13	19.570
562.47	19.954
562.81	19.636
563.15	19.772
563.48	18.652
563.82	19.214
564.16	19.303
564.50	19.556
564.84	19.561
565.17	19.742
565.51	20.197
565.85	20.070
566.19	19.903
566.52	20.000
566.86	20.423
567.20	19.295
567.54	18.634
567.88	18.447
568.21	18.230
568.55	18.563
568.89	18.462
569.23	17.922
569.56	17.425
569.90	17.473
570.24	17.139
570.57	16.441
570.91	16.812
571.25	16.804
571.59	16.131
571.92	15.597
572.26	15.952
572.60	15.876
572.93	15.717
573.27	15.931
573.61	15.568
573.95	14.880
574.28	15.614
574.62	14.789
574.96	14.785
575.29	14.765
575.63	15.052
575.97	14.977
576.30	15.529
576.64	15.187
576.98	14.884
577.31	15.011
577.65	14.594
577.98	14.619
578.32	15.018
578.66	14.531
578.99	15.451
579.33	14.932
579.67	15.180
580.00	14.979
580.34	15.226
580.67	14.827
581.01	14.645
581.35	14.879
581.68	14.506
582.02	14.356
582.35	14.475
582.69	14.941
583.02	14.912
583.36	14.962
583.70	14.775
584.03	15.275
584.37	15.786
584.70	14.922
585.04	14.832
585.37	14.720
585.71	14.728
586.04	14.966
586.38	15.418
586.72	15.190
587.05	15.350
587.39	15.676
587.72	15.310
588.06	14.943
588.39	15.221
588.73	15.240
589.06	15.519
589.40	16.015
589.73	15.931
590.07	16.067
590.40	16.291
590.73	16.285
591.07	16.537
591.40	16.766
591.74	16.371
592.07	16.571
592.41	17.151
592.74	16.745
593.08	15.702
593.41	15.872
593.75	16.313
594.08	15.338
594.41	15.976
594.75	16.484
595.08	15.894
595.42	15.734
595.75	16.364
596.09	16.013
596.42	16.195
596.75	17.227
597.09	16.978
597.42	16.002
597.75	17.073
598.09	16.573
598.42	16.422
598.76	16.348
599.09	16.345
599.42	15.539
599.76	15.732
600.09	16.014
600.42	14.648
600.76	15.858
601.09	15.020
601.42	15.580
601.76	15.422
602.09	15.752
602.42	16.196
602.76	16.099
603.09	16.319
603.42	16.397
603.76	15.359
604.09	16.834
604.42	16.445
604.76	16.248
605.09	16.391
605.42	16.445
605.75	15.943
606.09	16.844
606.42	15.704
606.75	17.052
607.09	16.651
607.42	16.888
607.75	16.070
608.08	16.978
608.42	16.780
608.75	16.458
609.08	15.952
609.41	17.729
609.75	17.746
610.08	17.106
610.41	16.336
610.74	16.785
611.07	16.975
611.41	16.756
611.74	17.954
612.07	17.801
612.40	17.103
612.73	17.824
613.07	17.205
613.40	17.136
613.73	17.239
614.06	17.389
614.39	18.043
614.72	17.769
615.06	17.681
615.39	18.072
615.72	16.629
616.05	17.391
616.38	16.845
616.71	17.351
617.05	16.709
617.38	17.484
617.71	18.027
618.04	17.937
618.37	18.378
618.70	18.478
619.03	18.347
619.36	19.146
619.69	18.507
620.03	19.222
620.36	20.333
620.69	18.108
621.02	18.131
621.35	20.596
621.68	19.262
622.01	20.143
622.34	19.514
622.67	20.573
623.00	19.165
623.33	20.236
623.66	19.203
623.99	18.182
624.32	18.586
624.65	18.906
624.99	18.750
625.32	18.878
625.65	19.055
625.98	20.000
626.31	19.913
626.64	19.550
626.97	20.956
627.30	19.907
627.63	18.791
627.96	19.926
628.29	20.746
628.62	20.206
628.95	20.803
629.28	20.558
629.61	20.794
629.94	21.369
630.26	20.921
630.59	22.513
630.92	21.075
631.25	21.676
631.58	21.744
631.91	21.298
632.24	21.420
632.57	22.473
632.90	22.386
633.23	24.258
