SpectraSuite Data File
++++++++++++++++++++++++++++++++++++
Date: Wed May 13 19:55:43 PDT 2015
User: schluterlab
Dark Spectrum Present: Yes
Reference Spectrum Present: Yes
Number of Sampled Component Spectra: 1
Spectrometers: USB2E3373
Integration Time (usec): 3000 (USB2E3373)
Spectra Averaged: 3 (USB2E3373)
Boxcar Smoothing: 0 (USB2E3373)
Correct for Electrical Dark: No (USB2E3373)
Strobe/Lamp Enabled: No (USB2E3373)
Correct for Detector Non-linearity: No (USB2E3373)
Correct for Stray Light: No (USB2E3373)
Number of Pixels in Processed Spectrum: 2048
>>>>>Begin Processed Spectral Data<<<<<
178.53	0.000
178.91	-1325.000
179.29	-1250.000
179.67	-250.000
180.04	-1175.000
180.42	2550.000
180.80	1140.000
181.18	-1250.000
181.56	757.143
181.94	0.000
182.31	-528.571
182.69	1766.667
183.07	-587.500
183.45	-477.778
183.83	572.727
184.20	-490.000
184.58	2500.000
184.96	5500.000
185.34	-840.000
185.72	-712.500
186.09	-2250.000
186.47	2350.000
186.85	2700.000
187.23	5000.000
187.61	-1733.333
187.98	1575.000
188.36	572.727
188.74	481.818
189.12	-920.000
189.49	530.000
189.87	-5500.000
190.25	-1300.000
190.63	421.429
191.00	492.308
191.38	816.667
191.76	-1500.000
192.14	1525.000
192.51	650.000
192.89	833.333
193.27	650.000
193.65	-1075.000
194.02	490.000
194.40	920.000
194.78	540.000
195.15	600.000
195.53	620.000
195.91	-2350.000
196.29	393.750
196.66	326.316
197.04	-430.000
197.42	0.000
197.79	640.000
198.17	-4400.000
198.55	685.714
198.92	750.000
199.30	1020.000
199.68	0.000
200.05	322.222
200.43	814.286
200.81	5600.000
201.18	1900.000
201.56	-1933.333
201.94	511.111
202.31	577.778
202.69	475.000
203.07	540.000
203.44	0.000
203.82	1500.000
204.19	828.571
204.57	478.571
204.95	762.500
205.32	1700.000
205.70	554.545
206.08	500.000
206.45	2650.000
206.83	337.500
207.20	883.333
207.58	940.000
207.96	311.111
208.33	800.000
208.71	-883.333
209.08	814.286
209.46	711.111
209.84	509.091
210.21	-1700.000
210.59	1525.000
210.96	-500.000
211.34	2650.000
211.71	640.000
212.09	966.667
212.46	0.000
212.84	1633.333
213.22	1400.000
213.59	-4400.000
213.97	700.000
214.34	771.429
214.72	672.727
215.09	1040.000
215.47	-2350.000
215.84	-2650.000
216.22	1833.333
216.59	414.286
216.97	1275.000
217.34	527.273
217.72	-733.333
218.09	0.000
218.47	-5600.000
218.84	600.000
219.22	857.143
219.59	1800.000
219.97	-728.571
220.34	1160.000
220.72	-1933.333
221.09	357.143
221.47	1675.000
221.84	-1016.667
222.22	0.000
222.59	1225.000
222.97	-2800.000
223.34	1180.000
223.72	453.846
224.09	1220.000
224.46	2250.000
224.84	-5900.000
225.21	-1020.000
225.59	-4700.000
225.96	590.000
226.34	315.000
226.71	2550.000
227.08	600.000
227.46	470.000
227.83	-1250.000
228.21	-2600.000
228.58	577.778
228.95	-2900.000
229.33	-2350.000
229.70	2233.333
230.08	714.286
230.45	-1020.000
230.82	475.000
231.20	1033.333
231.57	685.714
231.95	508.333
232.32	240.909
232.69	427.273
233.07	685.714
233.44	338.462
233.81	-1800.000
234.19	352.632
234.56	450.000
234.93	391.667
235.31	445.455
235.68	407.692
236.05	442.857
236.43	221.212
236.80	263.158
237.17	5800.000
237.55	252.381
237.92	250.000
238.29	280.952
238.67	229.032
239.04	272.414
239.41	169.444
239.79	130.435
240.16	138.095
240.53	150.000
240.91	111.765
241.28	152.000
241.65	118.000
242.02	124.638
242.40	114.516
242.77	111.667
243.14	86.022
243.51	92.135
243.89	92.941
244.26	95.556
244.63	84.946
245.00	89.362
245.38	86.139
245.75	77.570
246.12	79.817
246.49	80.292
246.87	81.600
247.24	78.462
247.61	72.857
247.98	72.549
248.36	68.243
248.73	73.248
249.10	70.064
249.47	59.887
249.84	71.658
250.22	64.706
250.59	66.272
250.96	69.192
251.33	61.611
251.70	61.386
252.08	64.286
252.45	59.193
252.82	59.130
253.19	60.426
253.56	59.608
253.94	57.676
254.31	57.031
254.68	58.462
255.05	56.089
255.42	56.504
255.79	55.147
256.16	54.874
256.54	54.770
256.91	58.363
257.28	53.597
257.65	54.125
258.02	54.658
258.39	48.265
258.76	52.508
259.14	50.595
259.51	49.848
259.88	54.037
260.25	49.547
260.62	51.734
260.99	51.863
261.36	48.949
261.73	49.570
262.10	47.093
262.47	52.958
262.85	50.418
263.22	47.578
263.59	51.567
263.96	47.802
264.33	45.953
264.70	47.368
265.07	51.662
265.44	47.222
265.81	46.959
266.18	48.995
266.55	45.122
266.92	44.472
267.29	46.296
267.66	47.477
268.03	46.364
268.40	46.729
268.77	45.107
269.14	45.495
269.51	46.050
269.88	47.552
270.25	43.115
270.62	44.494
270.99	45.806
271.36	45.064
271.73	46.028
272.10	46.087
272.47	45.161
272.84	46.104
273.21	44.235
273.58	41.921
273.95	42.767
274.32	42.562
274.69	42.827
275.06	41.535
275.43	44.681
275.80	43.287
276.17	45.010
276.54	44.906
276.91	41.700
277.28	43.359
277.65	42.940
278.02	42.236
278.39	42.578
278.76	42.364
279.13	42.075
279.50	41.899
279.87	42.231
280.23	44.112
280.60	44.487
280.97	43.808
281.34	44.071
281.71	42.182
282.08	43.954
282.45	41.818
282.82	41.385
283.19	40.463
283.56	41.053
283.92	42.470
284.29	41.093
284.66	41.561
285.03	39.964
285.40	42.430
285.77	40.236
286.14	40.760
286.51	41.000
286.87	41.368
287.24	39.902
287.61	38.202
287.98	41.071
288.35	38.669
288.72	40.031
289.08	40.689
289.45	38.715
289.82	40.813
290.19	37.520
290.56	38.897
290.93	36.707
291.29	37.270
291.66	37.168
292.03	38.663
292.40	38.473
292.77	35.355
293.13	35.672
293.50	36.880
293.87	35.407
294.24	36.444
294.60	35.226
294.97	37.791
295.34	36.530
295.71	36.932
296.08	35.043
296.44	34.388
296.81	34.082
297.18	33.875
297.55	33.113
297.91	34.697
298.28	33.735
298.65	33.551
299.02	34.651
299.38	32.271
299.75	31.671
300.12	32.056
300.48	33.000
300.85	32.552
301.22	32.484
301.59	32.197
301.95	34.383
302.32	33.376
302.69	32.616
303.05	33.333
303.42	32.716
303.79	32.729
304.15	32.401
304.52	32.793
304.89	31.940
305.25	32.367
305.62	32.616
305.99	33.058
306.35	32.774
306.72	33.072
307.09	33.740
307.45	35.023
307.82	33.482
308.19	33.333
308.55	34.844
308.92	34.479
309.29	33.580
309.65	33.404
310.02	34.567
310.38	34.301
310.75	35.375
311.12	35.926
311.48	36.573
311.85	35.744
312.22	35.276
312.58	36.279
312.95	36.325
313.31	36.214
313.68	37.214
314.05	39.053
314.41	37.487
314.78	38.771
315.14	40.318
315.51	39.856
315.87	39.505
316.24	39.027
316.61	40.351
316.97	39.824
317.34	41.389
317.70	43.212
318.07	44.466
318.43	45.108
318.80	43.112
319.16	43.315
319.53	44.371
319.89	45.810
320.26	48.300
320.62	48.313
320.99	47.576
321.35	49.293
321.72	51.027
322.08	51.629
322.45	55.522
322.81	55.233
323.18	56.647
323.54	55.566
323.91	56.226
324.27	57.457
324.64	57.968
325.00	58.070
325.37	59.236
325.73	61.580
326.10	61.077
326.46	63.799
326.83	63.848
327.19	64.304
327.56	67.073
327.92	67.892
328.29	69.920
328.65	70.442
329.01	68.412
329.38	69.658
329.74	69.437
330.11	71.631
330.47	71.993
330.84	72.243
331.20	71.494
331.56	71.835
331.93	73.241
332.29	71.961
332.66	71.947
333.02	72.761
333.38	75.339
333.75	75.312
334.11	75.801
334.48	74.445
334.84	76.195
335.20	76.909
335.57	75.431
335.93	75.982
336.29	77.106
336.66	76.646
337.02	77.104
337.38	76.481
337.75	74.688
338.11	78.335
338.47	78.729
338.84	79.193
339.20	76.881
339.56	78.741
339.93	76.909
340.29	76.902
340.65	78.520
341.02	78.709
341.38	79.626
341.74	77.544
342.11	77.467
342.47	77.004
342.83	75.942
343.20	76.277
343.56	76.748
343.92	79.298
344.28	77.466
344.65	78.246
345.01	77.104
345.37	77.959
345.73	78.173
346.10	78.176
346.46	77.542
346.82	78.418
347.19	77.109
347.55	76.273
347.91	77.427
348.27	79.047
348.63	77.174
349.00	76.294
349.36	77.504
349.72	76.985
350.08	77.310
350.45	77.055
350.81	76.523
351.17	77.066
351.53	77.723
351.89	77.145
352.26	76.559
352.62	78.107
352.98	75.932
353.34	77.650
353.70	76.678
354.07	77.097
354.43	75.000
354.79	76.348
355.15	75.978
355.51	78.177
355.87	77.714
356.24	76.629
356.60	74.338
356.96	76.669
357.32	76.778
357.68	76.299
358.04	74.663
358.40	76.247
358.77	76.291
359.13	76.796
359.49	75.216
359.85	75.714
360.21	76.635
360.57	75.253
360.93	76.385
361.29	76.115
361.66	76.006
362.02	74.925
362.38	76.578
362.74	75.595
363.10	75.204
363.46	74.762
363.82	75.132
364.18	73.054
364.54	75.260
364.90	74.929
365.26	76.691
365.62	75.676
365.98	74.945
366.35	73.926
366.71	74.910
367.07	74.945
367.43	77.213
367.79	74.946
368.15	75.000
368.51	73.765
368.87	73.947
369.23	76.298
369.59	75.525
369.95	74.191
370.31	73.362
370.67	72.971
371.03	74.757
371.39	74.198
371.75	75.074
372.11	73.826
372.47	75.293
372.83	75.504
373.19	73.988
373.55	76.792
373.91	75.110
374.27	71.959
374.63	73.964
374.99	74.576
375.35	74.320
375.71	72.721
376.07	73.045
376.42	73.590
376.78	73.360
377.14	72.185
377.50	73.775
377.86	72.274
378.22	73.831
378.58	71.805
378.94	72.219
379.30	72.837
379.66	73.414
380.02	72.727
380.38	71.038
380.74	71.909
381.09	72.311
381.45	73.325
381.81	71.560
382.17	71.975
382.53	71.887
382.89	72.099
383.25	71.169
383.61	73.420
383.97	70.607
384.32	70.056
384.68	69.641
385.04	71.420
385.40	69.907
385.76	70.393
386.12	71.438
386.48	70.610
386.83	72.803
387.19	70.315
387.55	69.882
387.91	69.287
388.27	70.202
388.62	69.330
388.98	69.226
389.34	69.650
389.70	69.221
390.06	70.469
390.42	69.390
390.77	68.575
391.13	70.070
391.49	69.670
391.85	67.473
392.20	69.527
392.56	68.939
392.92	67.863
393.28	67.870
393.64	68.106
393.99	66.830
394.35	69.913
394.71	67.691
395.07	67.290
395.42	68.418
395.78	68.384
396.14	67.784
396.50	67.794
396.85	67.896
397.21	65.906
397.57	66.522
397.92	66.587
398.28	65.583
398.64	65.591
399.00	66.480
399.35	65.651
399.71	66.146
400.07	66.292
400.42	67.117
400.78	66.345
401.14	65.854
401.49	65.493
401.85	63.823
402.21	64.012
402.57	63.788
402.92	66.141
403.28	66.146
403.63	65.408
403.99	65.924
404.35	64.545
404.70	64.329
405.06	63.891
405.42	63.319
405.77	63.714
406.13	62.302
406.49	63.986
406.84	62.138
407.20	62.648
407.55	63.433
407.91	64.733
408.27	62.987
408.62	62.071
408.98	62.255
409.34	63.223
409.69	63.161
410.05	61.152
410.40	61.590
410.76	61.529
411.11	61.279
411.47	60.703
411.83	61.820
412.18	60.915
412.54	60.772
412.89	60.843
413.25	60.803
413.60	60.593
413.96	59.138
414.31	59.599
414.67	60.773
415.03	60.596
415.38	60.180
415.74	58.971
416.09	61.267
416.45	59.170
416.80	60.939
417.16	60.657
417.51	61.115
417.87	59.024
418.22	60.568
418.58	58.683
418.93	60.319
419.29	60.025
419.64	59.698
420.00	57.317
420.35	57.449
420.71	59.175
421.06	58.115
421.42	58.129
421.77	58.520
422.12	57.664
422.48	57.798
422.83	58.824
423.19	57.845
423.54	57.632
423.90	58.319
424.25	57.286
424.61	56.905
424.96	57.901
425.31	56.257
425.67	55.787
426.02	56.857
426.38	57.021
426.73	57.168
427.09	57.264
427.44	55.779
427.79	57.044
428.15	57.202
428.50	56.583
428.85	57.092
429.21	55.163
429.56	55.832
429.92	54.555
430.27	54.419
430.62	54.275
430.98	55.475
431.33	53.814
431.68	55.183
432.04	53.940
432.39	56.254
432.74	55.356
433.10	55.857
433.45	55.510
433.80	54.213
434.16	55.502
434.51	55.000
434.86	55.587
435.22	55.031
435.57	54.894
435.92	54.593
436.28	54.686
436.63	53.918
436.98	53.749
437.34	54.919
437.69	54.259
438.04	54.300
438.39	54.448
438.75	54.445
439.10	54.134
439.45	54.073
439.81	53.353
440.16	53.981
440.51	53.779
440.86	52.924
441.22	52.002
441.57	52.919
441.92	52.201
442.27	52.153
442.63	52.396
442.98	53.127
443.33	52.500
443.68	51.988
444.03	53.050
444.39	52.093
444.74	52.165
445.09	51.644
445.44	51.777
445.79	51.806
446.15	50.715
446.50	51.373
446.85	51.079
447.20	51.810
447.55	52.261
447.91	52.289
448.26	51.976
448.61	51.272
448.96	51.827
449.31	53.150
449.66	50.872
450.02	50.474
450.37	51.474
450.72	51.325
451.07	50.762
451.42	50.881
451.77	52.496
452.12	50.058
452.47	50.311
452.83	50.641
453.18	49.450
453.53	51.453
453.88	51.211
454.23	50.090
454.58	50.939
454.93	50.731
455.28	49.626
455.63	49.879
455.98	51.012
456.34	49.812
456.69	50.595
457.04	50.093
457.39	48.919
457.74	48.346
458.09	48.994
458.44	50.171
458.79	48.210
459.14	49.436
459.49	49.912
459.84	49.197
460.19	48.321
460.54	46.470
460.89	48.711
461.24	49.727
461.59	49.855
461.94	48.274
462.29	49.792
462.64	47.543
462.99	48.406
463.34	47.933
463.69	47.842
464.04	47.594
464.39	47.478
464.74	47.415
465.09	46.984
465.44	46.482
465.79	47.204
466.14	48.112
466.49	47.052
466.84	46.702
467.19	47.194
467.54	47.562
467.89	46.759
468.24	46.539
468.59	46.886
468.94	46.549
469.29	45.630
469.64	46.854
469.99	47.903
470.34	46.565
470.68	47.270
471.03	45.782
471.38	47.325
471.73	46.769
472.08	47.237
472.43	45.603
472.78	44.700
473.13	46.085
473.48	44.694
473.83	46.280
474.17	46.111
474.52	45.161
474.87	45.476
475.22	45.038
475.57	44.815
475.92	44.291
476.27	45.434
476.61	44.457
476.96	44.035
477.31	44.898
477.66	44.365
478.01	42.969
478.36	43.786
478.70	45.067
479.05	44.675
479.40	43.654
479.75	44.026
480.10	43.191
480.45	43.503
480.79	44.004
481.14	43.738
481.49	43.711
481.84	43.621
482.19	43.026
482.53	43.761
482.88	43.509
483.23	43.785
483.58	42.584
483.92	43.674
484.27	41.961
484.62	42.241
484.97	42.294
485.31	42.089
485.66	39.798
486.01	38.928
486.36	38.672
486.70	39.385
487.05	39.806
487.40	40.935
487.75	42.032
488.09	43.282
488.44	43.362
488.79	44.376
489.13	43.812
489.48	43.230
489.83	42.382
490.17	42.262
490.52	41.807
490.87	41.655
491.22	42.065
491.56	41.139
491.91	40.251
492.26	41.341
492.60	41.613
492.95	41.300
493.30	41.262
493.64	41.671
493.99	40.529
494.34	41.212
494.68	40.888
495.03	41.071
495.37	41.508
495.72	41.374
496.07	40.557
496.41	39.248
496.76	40.018
497.11	40.117
497.45	41.034
497.80	40.835
498.14	39.903
498.49	40.293
498.84	41.371
499.18	40.238
499.53	40.361
499.87	39.562
500.22	39.567
500.56	40.583
500.91	40.481
501.26	39.640
501.60	40.864
501.95	39.368
502.29	39.691
502.64	40.177
502.98	39.598
503.33	38.894
503.67	39.861
504.02	39.008
504.36	38.933
504.71	39.717
505.06	39.470
505.40	38.989
505.75	38.187
506.09	39.067
506.44	39.023
506.78	39.016
507.13	39.929
507.47	39.949
507.82	39.362
508.16	39.159
508.51	39.878
508.85	39.027
509.19	39.592
509.54	38.469
509.88	38.537
510.23	39.075
510.57	40.454
510.92	38.736
511.26	38.386
511.61	38.849
511.95	37.578
512.30	39.183
512.64	38.474
512.98	38.424
513.33	39.293
513.67	37.780
514.02	37.933
514.36	38.121
514.70	38.240
515.05	37.312
515.39	38.755
515.74	38.345
516.08	38.122
516.42	37.902
516.77	39.019
517.11	37.791
517.46	37.980
517.80	39.605
518.14	37.753
518.49	39.382
518.83	38.011
519.17	37.644
519.52	38.427
519.86	38.848
520.20	39.538
520.55	38.959
520.89	38.504
521.23	39.204
521.58	37.995
521.92	37.538
522.26	37.584
522.61	37.695
522.95	37.201
523.29	37.614
523.64	38.354
523.98	37.585
524.32	36.791
524.66	37.943
525.01	37.868
525.35	37.856
525.69	38.177
526.04	37.445
526.38	38.072
526.72	38.098
527.06	36.660
527.41	36.077
527.75	37.685
528.09	38.150
528.43	37.412
528.78	37.984
529.12	36.364
529.46	37.477
529.80	37.995
530.15	37.757
530.49	36.308
530.83	36.962
531.17	37.794
531.51	38.262
531.86	36.387
532.20	37.940
532.54	38.245
532.88	37.099
533.22	36.540
533.57	36.605
533.91	36.243
534.25	36.756
534.59	36.547
534.93	35.336
535.27	36.934
535.62	37.912
535.96	36.409
536.30	36.427
536.64	36.188
536.98	37.624
537.32	36.142
537.66	36.533
538.01	37.130
538.35	37.298
538.69	38.290
539.03	36.777
539.37	36.422
539.71	36.228
540.05	36.863
540.39	36.611
540.73	36.287
541.07	37.833
541.42	36.204
541.76	36.903
542.10	37.581
542.44	36.556
542.78	36.957
543.12	35.317
543.46	37.246
543.80	36.370
544.14	36.329
544.48	36.571
544.82	35.664
545.16	35.784
545.50	35.540
545.84	37.097
546.18	37.172
546.52	35.169
546.86	37.113
547.20	36.615
547.54	36.540
547.88	35.714
548.22	34.932
548.56	35.912
548.90	36.684
549.24	36.229
549.58	35.880
549.92	36.126
550.26	37.358
550.60	35.823
550.94	35.282
551.28	35.187
551.62	36.233
551.96	36.070
552.30	35.495
552.64	36.308
552.98	35.797
553.32	36.210
553.66	35.378
554.00	35.827
554.34	35.266
554.68	36.981
555.02	35.825
555.36	35.212
555.69	34.641
556.03	35.128
556.37	35.471
556.71	35.061
557.05	35.154
557.39	35.759
557.73	35.639
558.07	36.548
558.41	35.962
558.75	36.370
559.08	36.391
559.42	36.432
559.76	34.926
560.10	35.332
560.44	34.871
560.78	33.932
561.12	35.026
561.45	35.202
561.79	35.267
562.13	34.406
562.47	34.563
562.81	35.286
563.15	34.181
563.48	35.610
563.82	35.225
564.16	34.467
564.50	34.766
564.84	35.019
565.17	34.813
565.51	35.527
565.85	34.201
566.19	34.126
566.52	33.882
566.86	34.539
567.20	34.788
567.54	35.445
567.88	33.895
568.21	35.344
568.55	34.277
568.89	33.804
569.23	32.709
569.56	31.984
569.90	32.604
570.24	33.262
570.57	32.472
570.91	31.739
571.25	31.655
571.59	31.546
571.92	32.085
572.26	32.207
572.60	32.282
572.93	32.354
573.27	32.298
573.61	32.440
573.95	31.809
574.28	31.884
574.62	31.973
574.96	31.637
575.29	31.668
575.63	31.758
575.97	32.075
576.30	32.554
576.64	31.539
576.98	31.648
577.31	32.093
577.65	31.053
577.98	30.881
578.32	31.295
578.66	32.096
578.99	32.413
579.33	32.220
579.67	31.987
580.00	31.791
580.34	32.795
580.67	32.238
581.01	31.864
581.35	31.090
581.68	30.630
582.02	30.575
582.35	30.976
582.69	31.381
583.02	31.764
583.36	32.465
583.70	32.567
584.03	33.020
584.37	32.964
584.70	32.915
585.04	31.972
585.37	31.943
585.71	31.767
586.04	31.674
586.38	32.001
586.72	33.085
587.05	31.975
587.39	31.187
587.72	31.796
588.06	32.097
588.39	32.209
588.73	32.502
589.06	33.157
589.40	32.593
589.73	33.228
590.07	32.562
590.40	32.335
590.73	33.724
591.07	33.944
591.40	32.476
591.74	32.511
592.07	33.028
592.41	32.493
592.74	30.749
593.08	31.512
593.41	31.098
593.75	30.543
594.08	31.277
594.41	32.450
594.75	32.717
595.08	31.210
595.42	32.224
595.75	32.194
596.09	32.445
596.42	33.556
596.75	32.967
597.09	33.290
597.42	31.788
597.75	33.247
598.09	32.913
598.42	32.818
598.76	31.334
599.09	31.243
599.42	31.223
599.76	31.369
600.09	31.148
600.42	30.643
600.76	30.714
601.09	31.257
601.42	31.240
601.76	32.068
602.09	32.095
602.42	32.205
602.76	32.326
603.09	32.415
603.42	32.175
603.76	30.983
604.09	31.446
604.42	32.124
604.76	32.687
605.09	31.935
605.42	30.953
605.75	31.498
606.09	32.412
606.42	32.366
606.75	31.149
607.09	32.147
607.42	31.194
607.75	31.055
608.08	31.220
608.42	31.511
608.75	31.470
609.08	31.499
609.41	32.366
609.75	31.158
610.08	32.092
610.41	30.866
610.74	32.971
611.07	32.708
611.41	32.090
611.74	33.082
612.07	32.402
612.40	32.634
612.73	32.684
613.07	33.136
613.40	32.596
613.73	30.834
614.06	32.151
614.39	31.830
614.72	32.368
615.06	31.513
615.39	31.529
615.72	31.391
616.05	31.260
616.38	32.796
616.71	32.542
617.05	31.743
617.38	32.231
617.71	32.492
618.04	32.572
618.37	32.052
618.70	33.479
619.03	32.895
619.36	34.148
619.69	33.099
620.03	32.761
620.36	31.551
620.69	33.973
621.02	32.965
621.35	32.968
621.68	32.087
622.01	32.972
622.34	33.132
622.67	34.144
623.00	31.915
623.33	31.308
623.66	32.523
623.99	32.180
624.32	32.240
624.65	31.003
624.99	32.790
625.32	31.789
625.65	32.908
625.98	33.820
626.31	33.359
626.64	33.388
626.97	33.832
627.30	32.253
627.63	32.322
627.96	34.315
628.29	32.196
628.62	33.394
628.95	33.491
629.28	33.485
629.61	34.005
629.94	33.333
630.26	31.745
630.59	33.746
