SpectraSuite Data File
++++++++++++++++++++++++++++++++++++
Date: Wed May 13 19:57:15 PDT 2015
User: schluterlab
Dark Spectrum Present: Yes
Reference Spectrum Present: Yes
Number of Sampled Component Spectra: 1
Spectrometers: USB2E3373
Integration Time (usec): 3000 (USB2E3373)
Spectra Averaged: 3 (USB2E3373)
Boxcar Smoothing: 0 (USB2E3373)
Correct for Electrical Dark: No (USB2E3373)
Strobe/Lamp Enabled: No (USB2E3373)
Correct for Detector Non-linearity: No (USB2E3373)
Correct for Stray Light: No (USB2E3373)
Number of Pixels in Processed Spectrum: 2048
>>>>>Begin Processed Spectral Data<<<<<
178.53	0.000
178.91	-1075.000
179.29	-1250.000
179.67	-177.778
180.04	-1150.000
180.42	2500.000
180.80	1080.000
181.18	-1125.000
181.56	728.571
181.94	0.000
182.31	-757.143
182.69	1833.333
183.07	-625.000
183.45	-611.111
183.83	527.273
184.20	-350.000
184.58	2400.000
184.96	5900.000
185.34	-1040.000
185.72	-537.500
186.09	-2200.000
186.47	2450.000
186.85	2450.000
187.23	4600.000
187.61	-1266.667
187.98	1375.000
188.36	590.909
188.74	563.636
189.12	-1000.000
189.49	560.000
189.87	-5500.000
190.25	-925.000
190.63	414.286
191.00	423.077
191.38	700.000
191.76	-925.000
192.14	1200.000
192.51	675.000
192.89	900.000
193.27	750.000
193.65	-1225.000
194.02	400.000
194.40	860.000
194.78	630.000
195.15	550.000
195.53	630.000
195.91	-2100.000
196.29	387.500
196.66	331.579
197.04	-290.000
197.42	0.000
197.79	650.000
198.17	-5400.000
198.55	671.429
198.92	812.500
199.30	980.000
199.68	0.000
200.05	333.333
200.43	785.714
200.81	5400.000
201.18	1733.333
201.56	-1466.667
201.94	544.444
202.31	633.333
202.69	458.333
203.07	570.000
203.44	0.000
203.82	1150.000
204.19	757.143
204.57	514.286
204.95	637.500
205.32	1500.000
205.70	554.545
206.08	371.429
206.45	2600.000
206.83	362.500
207.20	950.000
207.58	860.000
207.96	344.444
208.33	700.000
208.71	-850.000
209.08	814.286
209.46	677.778
209.84	427.273
210.21	-1400.000
210.59	1375.000
210.96	-500.000
211.34	2350.000
211.71	650.000
212.09	916.667
212.46	0.000
212.84	1666.667
213.22	1300.000
213.59	-4500.000
213.97	866.667
214.34	785.714
214.72	545.455
215.09	1080.000
215.47	-2250.000
215.84	-2550.000
216.22	1866.667
216.59	442.857
216.97	1450.000
217.34	481.818
217.72	-816.667
218.09	0.000
218.47	-5300.000
218.84	566.667
219.22	628.571
219.59	1200.000
219.97	-685.714
220.34	1100.000
220.72	-1666.667
221.09	407.143
221.47	1425.000
221.84	-900.000
222.22	0.000
222.59	1550.000
222.97	-2400.000
223.34	1140.000
223.72	430.769
224.09	1140.000
224.46	2300.000
224.84	-4900.000
225.21	-1040.000
225.59	-4600.000
225.96	600.000
226.34	300.000
226.71	2150.000
227.08	762.500
227.46	500.000
227.83	-850.000
228.21	-2800.000
228.58	611.111
228.95	-2400.000
229.33	-2000.000
229.70	1700.000
230.08	971.429
230.45	-800.000
230.82	491.667
231.20	683.333
231.57	671.429
231.95	550.000
232.32	227.273
232.69	390.909
233.07	728.571
233.44	369.231
233.81	-1533.333
234.19	268.421
234.56	433.333
234.93	483.333
235.31	536.364
235.68	330.769
236.05	428.571
236.43	193.939
236.80	242.105
237.17	4600.000
237.55	266.667
237.92	192.857
238.29	238.095
238.67	180.645
239.04	189.655
239.41	152.778
239.79	119.565
240.16	145.238
240.53	140.909
240.91	123.529
241.28	100.000
241.65	108.000
242.02	102.899
242.40	87.097
242.77	91.667
243.14	83.871
243.51	76.404
243.89	75.294
244.26	66.667
244.63	72.043
245.00	68.085
245.38	70.297
245.75	75.701
246.12	70.642
246.49	61.314
246.87	68.000
247.24	57.692
247.61	56.429
247.98	63.399
248.36	45.270
248.73	47.134
249.10	51.592
249.47	49.718
249.84	41.711
250.22	42.246
250.59	49.112
250.96	48.990
251.33	43.602
251.70	48.515
252.08	43.333
252.45	40.359
252.82	40.870
253.19	42.553
253.56	45.882
253.94	42.324
254.31	41.797
254.68	40.769
255.05	38.745
255.42	34.553
255.79	38.603
256.16	39.711
256.54	35.689
256.91	42.705
257.28	34.532
257.65	33.993
258.02	36.335
258.39	32.808
258.76	34.448
259.14	32.143
259.51	36.778
259.88	30.745
260.25	37.160
260.62	36.705
260.99	34.472
261.36	34.535
261.73	33.811
262.10	31.977
262.47	37.746
262.85	32.591
263.22	30.199
263.59	35.897
263.96	32.418
264.33	32.376
264.70	35.526
265.07	35.294
265.44	34.091
265.81	31.387
266.18	33.668
266.55	30.976
266.92	33.661
267.29	32.176
267.66	32.339
268.03	29.773
268.40	28.972
268.77	28.640
269.14	30.856
269.51	28.894
269.88	32.401
270.25	27.765
270.62	31.236
270.99	32.903
271.36	32.189
271.73	28.972
272.10	30.870
272.47	31.828
272.84	27.706
273.21	28.931
273.58	29.258
273.95	28.092
274.32	26.446
274.69	28.480
275.06	27.165
275.43	27.234
275.80	27.856
276.17	28.717
276.54	28.482
276.91	29.644
277.28	24.023
277.65	31.335
278.02	26.708
278.39	28.125
278.76	28.364
279.13	28.679
279.50	29.795
279.87	26.494
280.23	27.545
280.60	25.919
280.97	26.987
281.34	28.496
281.71	26.727
282.08	27.447
282.45	23.636
282.82	25.577
283.19	25.668
283.56	28.070
283.92	27.750
284.29	23.986
284.66	26.679
285.03	26.401
285.40	25.352
285.77	26.094
286.14	25.561
286.51	25.167
286.87	24.274
287.24	27.199
287.61	25.361
287.98	24.026
288.35	25.515
288.72	26.168
289.08	23.787
289.45	25.865
289.82	26.179
290.19	23.548
290.56	23.737
290.93	22.810
291.29	24.080
291.66	22.861
292.03	24.855
292.40	23.495
292.77	21.893
293.13	22.836
293.50	24.052
293.87	22.963
294.24	23.852
294.60	22.853
294.97	23.256
295.34	22.990
295.71	23.011
296.08	22.507
296.44	22.008
296.81	21.004
297.18	22.764
297.55	18.470
297.91	21.768
298.28	23.561
298.65	21.279
299.02	20.949
299.38	20.983
299.75	20.620
300.12	20.690
300.48	20.875
300.85	19.852
301.22	20.764
301.59	19.192
301.95	20.907
302.32	22.080
302.69	20.191
303.05	20.000
303.42	20.988
303.79	19.932
304.15	18.998
304.52	18.656
304.89	19.861
305.25	20.302
305.62	21.065
305.99	21.251
306.35	20.134
306.72	20.628
307.09	20.422
307.45	20.833
307.82	19.085
308.19	21.082
308.55	20.820
308.92	21.375
309.29	20.908
309.65	19.194
310.02	20.719
310.38	21.935
310.75	20.697
311.12	21.290
311.48	22.048
311.85	21.698
312.22	22.581
312.58	21.310
312.95	24.287
313.31	20.971
313.68	22.661
314.05	23.964
314.41	23.417
314.78	22.759
315.14	23.337
315.51	24.511
315.87	25.149
316.24	25.124
316.61	24.269
316.97	23.777
317.34	24.560
317.70	25.048
318.07	26.949
318.43	28.278
318.80	28.585
319.16	28.154
319.53	27.767
319.89	29.905
320.26	30.800
320.62	30.159
320.99	31.111
321.35	31.010
321.72	32.341
322.08	32.478
322.45	34.229
322.81	35.174
323.18	34.393
323.54	34.787
323.91	37.075
324.27	36.329
324.64	35.974
325.00	38.323
325.37	38.944
325.73	39.856
326.10	38.747
326.46	40.412
326.83	41.329
327.19	41.845
327.56	43.118
327.92	43.482
328.29	45.075
328.65	45.488
329.01	45.397
329.38	47.826
329.74	46.076
330.11	46.843
330.47	45.914
330.84	47.886
331.20	48.179
331.56	48.899
331.93	49.167
332.29	48.358
332.66	49.027
333.02	48.812
333.38	49.684
333.75	49.643
334.11	49.822
334.48	49.512
334.84	49.173
335.20	49.727
335.57	49.773
335.93	50.179
336.29	49.359
336.66	50.947
337.02	50.226
337.38	51.574
337.75	51.426
338.11	51.119
338.47	50.645
338.84	51.787
339.20	50.092
339.56	52.464
339.93	50.909
340.29	50.725
340.65	50.624
341.02	51.047
341.38	53.203
341.74	52.018
342.11	51.092
342.47	51.366
342.83	50.942
343.20	51.515
343.56	49.705
343.92	49.298
344.28	51.956
344.65	51.591
345.01	50.673
345.37	49.485
345.73	51.607
346.10	49.275
346.46	51.441
346.82	50.741
347.19	50.459
347.55	50.985
347.91	51.699
348.27	51.109
348.63	51.338
349.00	49.676
349.36	50.411
349.72	50.361
350.08	50.810
350.45	50.366
350.81	49.959
351.17	51.783
351.53	51.188
351.89	50.578
352.26	50.197
352.62	50.441
352.98	49.838
353.34	49.384
353.70	50.818
354.07	50.887
354.43	49.286
354.79	49.879
355.15	49.401
355.51	50.440
355.87	50.286
356.24	50.163
356.60	48.757
356.96	50.603
357.32	50.940
357.68	51.181
358.04	50.594
358.40	50.435
358.77	50.861
359.13	49.092
359.49	50.353
359.85	49.921
360.21	51.116
360.57	50.428
360.93	51.077
361.29	49.358
361.66	49.381
362.02	49.403
362.38	49.658
362.74	50.744
363.10	49.075
363.46	49.523
363.82	50.567
364.18	49.780
364.54	50.223
364.90	50.850
365.26	50.515
365.62	51.424
365.98	48.649
366.35	48.352
366.71	50.470
367.07	50.401
367.43	50.435
367.79	50.607
368.15	49.353
368.51	50.145
368.87	51.106
369.23	50.037
369.59	50.978
369.95	50.294
370.31	50.285
370.67	48.986
371.03	51.910
371.39	49.563
371.75	50.809
372.11	49.573
372.47	50.293
372.83	51.945
373.19	50.939
373.55	50.924
373.91	52.356
374.27	49.691
374.63	51.782
374.99	51.342
375.35	50.454
375.71	50.240
376.07	51.029
376.42	52.132
376.78	50.431
377.14	49.661
377.50	50.596
377.86	48.537
378.22	50.632
378.58	49.561
378.94	48.523
379.30	50.254
379.66	51.904
380.02	49.324
380.38	50.334
380.74	50.120
381.09	50.733
381.45	50.830
381.81	50.614
382.17	51.911
382.53	50.252
382.89	50.617
383.25	50.969
383.61	51.239
383.97	50.031
384.32	51.279
384.68	51.053
385.04	50.215
385.40	50.774
385.76	50.491
386.12	52.526
386.48	51.353
386.83	51.764
387.19	51.763
387.55	49.969
387.91	51.149
388.27	51.196
388.62	51.321
388.98	50.737
389.34	50.939
389.70	49.908
390.06	50.760
390.42	51.427
390.77	50.763
391.13	52.202
391.49	51.396
391.85	50.987
392.20	50.599
392.56	50.316
392.92	50.853
393.28	48.817
393.64	49.700
393.99	50.275
394.35	50.310
394.71	49.122
395.07	49.844
395.42	49.567
395.78	51.527
396.14	49.845
396.50	51.566
396.85	50.159
397.21	50.678
397.57	49.287
397.92	50.060
398.28	48.767
398.64	49.403
399.00	49.860
399.35	49.351
399.71	48.843
400.07	49.438
400.42	49.264
400.78	50.000
401.14	49.634
401.49	50.090
401.85	49.062
402.21	48.743
402.57	49.105
402.92	49.496
403.28	49.219
403.63	48.082
403.99	49.427
404.35	48.364
404.70	48.141
405.06	48.631
405.42	48.347
405.77	48.000
406.13	47.178
406.49	48.433
406.84	47.844
407.20	47.636
407.55	48.245
407.91	49.600
408.27	48.117
408.62	48.043
408.98	48.346
409.34	48.032
409.69	47.161
410.05	47.274
410.40	46.789
410.76	47.611
411.11	46.200
411.47	47.093
411.83	47.526
412.18	47.310
412.54	47.447
412.89	47.590
413.25	47.344
413.60	47.993
413.96	45.962
414.31	46.841
414.67	47.148
415.03	47.351
415.38	47.294
415.74	46.431
416.09	47.877
416.45	46.252
416.80	46.662
417.16	46.448
417.51	47.777
417.87	46.564
418.22	47.192
418.58	46.804
418.93	47.113
419.29	45.130
419.64	46.348
420.00	46.098
420.35	45.623
420.71	46.683
421.06	45.465
421.42	45.380
421.77	45.684
422.12	44.694
422.48	45.008
422.83	45.661
423.19	45.746
423.54	45.850
423.90	44.580
424.25	45.059
424.61	44.583
424.96	45.364
425.31	45.515
425.67	43.596
426.02	43.314
426.38	44.322
426.73	45.114
427.09	45.167
427.44	45.198
427.79	44.681
428.15	45.179
428.50	43.359
428.85	44.815
429.21	42.904
429.56	43.598
429.92	42.828
430.27	43.545
430.62	43.779
430.98	43.643
431.33	42.474
431.68	43.403
432.04	43.930
432.39	43.632
432.74	43.387
433.10	43.067
433.45	43.265
433.80	43.016
434.16	43.429
434.51	42.000
434.86	43.044
435.22	43.913
435.57	43.100
435.92	43.300
436.28	44.365
436.63	42.881
436.98	42.473
437.34	42.934
437.69	43.699
438.04	42.664
438.39	42.269
438.75	43.347
439.10	43.073
439.45	42.739
439.81	42.840
440.16	41.558
440.51	41.652
440.86	43.080
441.22	41.880
441.57	42.516
441.92	42.272
442.27	41.819
442.63	42.391
442.98	43.042
443.33	41.413
443.68	41.766
444.03	41.581
444.39	41.091
444.74	42.045
445.09	41.456
445.44	39.694
445.79	40.475
446.15	40.021
446.50	40.926
446.85	41.264
447.20	39.878
447.55	41.262
447.91	41.092
448.26	40.289
448.61	40.475
448.96	41.362
449.31	40.607
449.66	40.068
450.02	39.666
450.37	40.533
450.72	40.778
451.07	40.524
451.42	38.906
451.77	41.398
452.12	39.838
452.47	40.547
452.83	39.918
453.18	38.570
453.53	41.126
453.88	39.338
454.23	40.048
454.58	39.491
454.93	41.068
455.28	38.840
455.63	39.988
455.98	40.595
456.34	40.201
456.69	39.324
457.04	40.248
457.39	39.568
457.74	39.814
458.09	38.298
458.44	39.225
458.79	37.744
459.14	38.488
459.49	38.295
459.84	38.338
460.19	38.067
460.54	36.806
460.89	38.453
461.24	37.826
461.59	39.047
461.94	36.868
462.29	38.160
462.64	37.524
462.99	36.760
463.34	38.800
463.69	37.836
464.04	37.797
464.39	38.609
464.74	37.433
465.09	36.550
465.44	36.399
465.79	38.031
466.14	36.125
466.49	36.763
466.84	37.245
467.19	36.934
467.54	37.375
467.89	36.555
468.24	37.522
468.59	37.241
468.94	36.347
469.29	36.825
469.64	38.220
469.99	37.415
470.34	36.790
470.68	37.356
471.03	37.551
471.38	37.248
471.73	37.175
472.08	36.974
472.43	35.741
472.78	36.735
473.13	36.393
473.48	36.205
473.83	36.524
474.17	35.345
474.52	35.670
474.87	36.486
475.22	36.042
475.57	34.551
475.92	35.210
476.27	34.724
476.61	35.080
476.96	36.064
477.31	34.118
477.66	35.011
478.01	34.553
478.36	35.325
478.70	34.579
479.05	34.292
479.40	34.135
479.75	35.486
480.10	33.350
480.45	33.841
480.79	33.158
481.14	34.344
481.49	34.362
481.84	33.425
482.19	34.075
482.53	33.028
482.88	34.062
483.23	34.019
483.58	33.621
483.92	33.833
484.27	31.547
484.62	32.284
484.97	33.307
485.31	32.534
485.66	30.728
486.01	29.919
486.36	29.568
486.70	29.173
487.05	29.973
487.40	31.154
487.75	31.024
488.09	31.695
488.44	31.654
488.79	32.622
489.13	32.429
489.48	32.300
489.83	32.499
490.17	32.310
490.52	32.640
490.87	31.660
491.22	31.651
491.56	31.663
491.91	31.596
492.26	32.292
492.60	31.751
492.95	31.946
493.30	31.682
493.64	32.011
493.99	31.012
494.34	31.267
494.68	32.784
495.03	31.814
495.37	31.177
495.72	31.676
496.07	32.251
496.41	30.310
496.76	31.354
497.11	30.527
497.45	31.206
497.80	30.566
498.14	30.773
498.49	31.171
498.84	31.304
499.18	31.238
499.53	30.959
499.87	31.034
500.22	31.135
500.56	31.214
500.91	30.192
501.26	30.062
501.60	30.992
501.95	30.385
502.29	30.928
502.64	30.680
502.98	30.528
503.33	30.302
503.67	30.116
504.02	30.543
504.36	30.276
504.71	29.751
505.06	30.169
505.40	30.092
505.75	29.749
506.09	29.883
506.44	30.686
506.78	30.102
507.13	30.136
507.47	30.101
507.82	30.547
508.16	29.838
508.51	29.782
508.85	29.394
509.19	28.878
509.54	29.235
509.88	29.212
510.23	29.049
510.57	30.341
510.92	30.192
511.26	28.880
511.61	29.461
511.95	29.541
512.30	29.692
512.64	29.554
512.98	28.992
513.33	29.497
513.67	28.282
514.02	27.976
514.36	29.383
514.70	29.386
515.05	29.169
515.39	28.940
515.74	28.773
516.08	29.178
516.42	29.023
516.77	29.822
517.11	28.357
517.46	29.797
517.80	29.210
518.14	28.605
518.49	29.230
518.83	28.523
519.17	28.695
519.52	29.485
519.86	28.180
520.20	29.133
520.55	28.785
520.89	29.319
521.23	29.735
521.58	28.571
521.92	30.006
522.26	28.554
522.61	29.283
522.95	29.036
523.29	29.215
523.64	28.841
523.98	29.082
524.32	28.770
524.66	28.743
525.01	28.799
525.35	29.368
525.69	28.510
526.04	28.785
526.38	28.005
526.72	27.730
527.06	28.562
527.41	27.723
527.75	28.810
528.09	29.544
528.43	28.808
528.78	28.457
529.12	28.061
529.46	28.720
529.80	28.156
530.15	28.411
530.49	27.015
530.83	28.481
531.17	28.329
531.51	28.664
531.86	28.516
532.20	28.748
532.54	27.675
532.88	27.856
533.22	27.920
533.57	27.346
533.91	27.935
534.25	27.825
534.59	27.639
534.93	27.008
535.27	27.218
535.62	27.473
535.96	27.433
536.30	27.082
536.64	27.173
536.98	28.069
537.32	26.662
537.66	28.067
538.01	27.847
538.35	27.149
538.69	27.888
539.03	27.810
539.37	27.796
539.71	25.988
540.05	27.712
540.39	27.043
540.73	26.520
541.07	26.606
541.42	27.136
541.76	27.613
542.10	27.943
542.44	27.815
542.78	27.404
543.12	26.615
543.46	26.885
543.80	27.131
544.14	26.573
544.48	27.619
544.82	26.042
545.16	25.960
545.50	26.028
545.84	26.546
546.18	26.599
546.52	27.185
546.86	26.529
547.20	26.905
547.54	26.453
547.88	27.105
548.22	26.401
548.56	26.352
548.90	26.120
549.24	25.993
549.58	26.398
549.92	26.923
550.26	27.060
550.60	26.625
550.94	26.338
551.28	25.311
551.62	27.534
551.96	25.614
552.30	26.621
552.64	26.234
552.98	25.898
553.32	27.444
553.66	26.858
554.00	26.218
554.34	26.570
554.68	26.681
555.02	25.882
555.36	24.913
555.69	25.169
556.03	26.245
556.37	25.375
556.71	25.375
557.05	25.770
557.39	25.752
557.73	25.406
558.07	25.816
558.41	25.326
558.75	26.231
559.08	26.174
559.42	26.228
559.76	26.176
560.10	25.482
560.44	26.275
560.78	24.484
561.12	25.132
561.45	25.684
561.79	23.995
562.13	25.084
562.47	25.546
562.81	25.105
563.15	24.749
563.48	25.066
563.82	25.310
564.16	24.787
564.50	24.479
564.84	23.831
565.17	24.646
565.51	25.048
565.85	25.381
566.19	25.485
566.52	25.269
566.86	24.292
567.20	23.939
567.54	24.258
567.88	24.335
568.21	23.968
568.55	23.256
568.89	23.006
569.23	22.594
569.56	23.077
569.90	22.981
570.24	22.031
570.57	21.557
570.91	21.526
571.25	21.773
571.59	21.767
571.92	21.976
572.26	21.577
572.60	22.042
572.93	21.469
573.27	21.769
573.61	21.552
573.95	21.628
574.28	21.106
574.62	21.016
574.96	20.836
575.29	20.781
575.63	21.494
575.97	20.828
576.30	21.243
576.64	20.697
576.98	20.929
577.31	20.933
577.65	20.760
577.98	20.426
578.32	20.572
578.66	20.755
578.99	20.703
579.33	20.649
579.67	20.238
580.00	20.882
580.34	21.025
580.67	20.823
581.01	20.846
581.35	20.168
581.68	20.253
582.02	20.238
582.35	20.289
582.69	20.447
583.02	20.423
583.36	20.752
583.70	20.779
584.03	21.029
584.37	21.291
584.70	20.873
585.04	20.939
585.37	20.573
585.71	20.583
586.04	20.150
586.38	21.029
586.72	20.851
587.05	20.130
587.39	20.501
587.72	20.433
588.06	20.678
588.39	20.768
588.73	21.531
589.06	21.876
589.40	21.347
589.73	21.471
590.07	21.495
590.40	21.118
590.73	21.194
591.07	22.833
591.40	21.721
591.74	22.294
592.07	21.640
592.41	21.331
592.74	20.000
593.08	20.819
593.41	20.437
593.75	20.581
594.08	20.784
594.41	21.103
594.75	20.961
595.08	21.260
595.42	21.226
595.75	20.477
596.09	21.292
596.42	21.690
596.75	21.528
597.09	21.948
597.42	20.320
597.75	21.389
598.09	21.348
598.42	20.833
598.76	20.754
599.09	20.448
599.42	20.852
599.76	20.974
600.09	20.073
600.42	20.088
600.76	20.679
601.09	19.818
601.42	20.434
601.76	20.949
602.09	21.067
602.42	21.338
602.76	20.234
603.09	21.282
603.42	20.734
603.76	20.732
604.09	20.977
604.42	20.832
604.76	21.341
605.09	20.446
605.42	20.992
605.75	21.316
606.09	20.618
606.42	20.351
606.75	20.614
607.09	20.176
607.42	20.881
607.75	20.675
608.08	20.452
608.42	21.156
608.75	21.235
609.08	20.722
609.41	21.133
609.75	20.819
610.08	21.112
610.41	20.345
610.74	20.719
611.07	21.245
611.41	21.148
611.74	21.217
612.07	22.205
612.40	22.141
612.73	21.474
613.07	21.983
613.40	22.012
613.73	20.399
614.06	21.344
614.39	20.975
614.72	20.737
615.06	21.008
615.39	20.594
615.72	21.370
616.05	20.787
616.38	21.456
616.71	21.912
617.05	22.320
617.38	21.587
617.71	21.141
618.04	21.815
618.37	20.816
618.70	21.593
619.03	22.039
619.36	21.453
619.69	21.690
620.03	21.978
620.36	22.193
620.69	21.712
621.02	21.608
621.35	22.788
621.68	21.807
622.01	21.827
622.34	22.088
622.67	22.357
623.00	21.570
623.33	21.229
623.66	21.658
623.99	21.723
624.32	22.397
624.65	21.893
624.99	21.246
625.32	21.723
625.65	21.713
625.98	22.444
626.31	22.317
626.64	22.367
626.97	21.862
627.30	22.444
627.63	22.888
627.96	22.708
628.29	23.447
628.62	22.964
628.95	23.396
629.28	23.175
629.61	24.198
629.94	22.000
630.26	23.260
630.59	23.260
630.92	23.180
