SpectraSuite Data File
++++++++++++++++++++++++++++++++++++
Date: Wed May 13 19:33:55 PDT 2015
User: schluterlab
Dark Spectrum Present: Yes
Reference Spectrum Present: Yes
Number of Sampled Component Spectra: 1
Spectrometers: USB2E3373
Integration Time (usec): 3000 (USB2E3373)
Spectra Averaged: 3 (USB2E3373)
Boxcar Smoothing: 0 (USB2E3373)
Correct for Electrical Dark: No (USB2E3373)
Strobe/Lamp Enabled: No (USB2E3373)
Correct for Detector Non-linearity: No (USB2E3373)
Correct for Stray Light: No (USB2E3373)
Number of Pixels in Processed Spectrum: 2048
>>>>>Begin Processed Spectral Data<<<<<
178.53	0.000
178.91	-1350.000
179.29	-1125.000
179.67	-277.778
180.04	-1700.000
180.42	3000.000
180.80	1020.000
181.18	-1200.000
181.56	842.857
181.94	0.000
182.31	-671.429
182.69	1766.667
183.07	-487.500
183.45	-544.444
183.83	636.364
184.20	-510.000
184.58	3050.000
184.96	5300.000
185.34	-800.000
185.72	-625.000
186.09	-2400.000
186.47	3200.000
186.85	2700.000
187.23	5400.000
187.61	-1666.667
187.98	1625.000
188.36	545.455
188.74	681.818
189.12	-1000.000
189.49	590.000
189.87	-5600.000
190.25	-1350.000
190.63	535.714
191.00	430.769
191.38	1000.000
191.76	-1375.000
192.14	1525.000
192.51	700.000
192.89	833.333
193.27	675.000
193.65	-1250.000
194.02	530.000
194.40	1080.000
194.78	610.000
195.15	516.667
195.53	630.000
195.91	-2200.000
196.29	443.750
196.66	289.474
197.04	-360.000
197.42	0.000
197.79	650.000
198.17	-5800.000
198.55	728.571
198.92	812.500
199.30	1000.000
199.68	0.000
200.05	355.556
200.43	900.000
200.81	4500.000
201.18	1466.667
201.56	-1533.333
201.94	577.778
202.31	633.333
202.69	425.000
203.07	580.000
203.44	0.000
203.82	1225.000
204.19	671.429
204.57	478.571
204.95	687.500
205.32	1966.667
205.70	536.364
206.08	485.714
206.45	3050.000
206.83	418.750
207.20	866.667
207.58	800.000
207.96	338.889
208.33	850.000
208.71	-900.000
209.08	828.571
209.46	633.333
209.84	490.909
210.21	-1600.000
210.59	1700.000
210.96	-650.000
211.34	2500.000
211.71	630.000
212.09	916.667
212.46	0.000
212.84	1933.333
213.22	1500.000
213.59	-4900.000
213.97	833.333
214.34	771.429
214.72	672.727
215.09	1100.000
215.47	-2350.000
215.84	-2600.000
216.22	2133.333
216.59	492.857
216.97	1450.000
217.34	572.727
217.72	-833.333
218.09	0.000
218.47	-6000.000
218.84	711.111
219.22	928.571
219.59	1700.000
219.97	-500.000
220.34	1080.000
220.72	-1766.667
221.09	428.571
221.47	1475.000
221.84	-1016.667
222.22	0.000
222.59	1525.000
222.97	-2900.000
223.34	1140.000
223.72	484.615
224.09	1200.000
224.46	2450.000
224.84	-5800.000
225.21	-920.000
225.59	-5500.000
225.96	590.000
226.34	325.000
226.71	2200.000
227.08	762.500
227.46	600.000
227.83	-1225.000
228.21	-2650.000
228.58	688.889
228.95	-2450.000
229.33	-2500.000
229.70	1800.000
230.08	914.286
230.45	-920.000
230.82	416.667
231.20	766.667
231.57	757.143
231.95	516.667
232.32	259.091
232.69	454.545
233.07	814.286
233.44	361.538
233.81	-1666.667
234.19	347.368
234.56	508.333
234.93	450.000
235.31	400.000
235.68	376.923
236.05	350.000
236.43	196.970
236.80	300.000
237.17	5400.000
237.55	228.571
237.92	250.000
238.29	290.476
238.67	212.903
239.04	196.552
239.41	180.556
239.79	110.870
240.16	140.476
240.53	129.545
240.91	94.118
241.28	102.000
241.65	118.000
242.02	107.246
242.40	103.226
242.77	106.667
243.14	82.796
243.51	96.629
243.89	81.176
244.26	67.778
244.63	77.419
245.00	62.766
245.38	55.446
245.75	64.486
246.12	64.220
246.49	62.044
246.87	64.800
247.24	58.462
247.61	61.429
247.98	57.516
248.36	51.351
248.73	52.229
249.10	59.236
249.47	52.542
249.84	48.128
250.22	48.128
250.59	50.888
250.96	51.010
251.33	48.815
251.70	45.545
252.08	37.619
252.45	39.462
252.82	41.739
253.19	40.426
253.56	42.745
253.94	40.249
254.31	36.719
254.68	40.000
255.05	38.376
255.42	38.618
255.79	34.559
256.16	38.628
256.54	35.689
256.91	37.011
257.28	34.892
257.65	34.323
258.02	36.335
258.39	34.069
258.76	34.783
259.14	33.333
259.51	32.523
259.88	32.609
260.25	35.650
260.62	32.659
260.99	29.814
261.36	32.432
261.73	32.378
262.10	31.686
262.47	32.676
262.85	30.641
263.22	26.211
263.59	31.054
263.96	27.473
264.33	29.765
264.70	29.737
265.07	31.714
265.44	30.051
265.81	28.954
266.18	30.151
266.55	28.049
266.92	30.221
267.29	30.093
267.66	28.899
268.03	29.318
268.40	26.168
268.77	25.060
269.14	27.703
269.51	29.120
269.88	27.506
270.25	27.314
270.62	30.112
270.99	30.753
271.36	29.185
271.73	27.103
272.10	27.826
272.47	28.387
272.84	26.407
273.21	28.512
273.58	26.201
273.95	26.834
274.32	27.479
274.69	26.124
275.06	26.575
275.43	29.149
275.80	25.451
276.17	26.273
276.54	28.898
276.91	27.075
277.28	23.438
277.65	27.079
278.02	25.259
278.39	26.953
278.76	25.273
279.13	27.736
279.50	26.443
279.87	24.303
280.23	27.944
280.60	24.565
280.97	25.878
281.34	26.549
281.71	27.273
282.08	29.367
282.45	25.455
282.82	24.867
283.19	25.668
283.56	25.263
283.92	25.550
284.29	23.633
284.66	24.864
285.03	24.593
285.40	23.592
285.77	25.421
286.14	23.834
286.51	25.167
286.87	24.615
287.24	25.244
287.61	24.559
287.98	24.188
288.35	24.247
288.72	23.209
289.08	22.692
289.45	26.030
289.82	23.252
290.19	22.449
290.56	20.061
290.93	21.752
291.29	21.319
291.66	21.976
292.03	24.128
292.40	22.467
292.77	22.189
293.13	21.642
293.50	20.554
293.87	20.296
294.24	20.741
294.60	19.360
294.97	20.930
295.34	21.439
295.71	19.460
296.08	18.803
296.44	20.083
296.81	19.022
297.18	19.783
297.55	17.282
297.91	19.129
298.28	19.411
298.65	20.888
299.02	20.685
299.38	17.264
299.75	17.116
300.12	18.391
300.48	18.750
300.85	19.359
301.22	17.580
301.59	17.424
301.95	18.514
302.32	18.742
302.69	18.519
303.05	18.182
303.42	17.407
303.79	17.667
304.15	17.249
304.52	17.729
304.89	16.492
305.25	16.589
305.62	19.479
305.99	18.300
306.35	17.897
306.72	18.049
307.09	18.424
307.45	17.793
307.82	16.629
308.19	18.433
308.55	17.907
308.92	16.112
309.29	16.156
309.65	17.285
310.02	16.913
310.38	16.344
310.75	16.262
311.12	16.479
311.48	17.241
311.85	17.191
312.22	15.609
312.58	16.528
312.95	16.895
313.31	15.825
313.68	17.672
314.05	17.456
314.41	16.482
314.78	16.616
315.14	17.080
315.51	16.993
315.87	18.218
316.24	17.974
316.61	17.544
316.97	16.536
317.34	16.634
317.70	18.069
318.07	17.517
318.43	17.613
318.80	17.807
319.16	18.738
319.53	17.730
319.89	18.190
320.26	19.100
320.62	19.444
320.99	18.788
321.35	19.899
321.72	19.918
322.08	21.027
322.45	19.900
322.81	21.705
323.18	21.098
323.54	21.243
323.91	21.132
324.27	20.746
324.64	21.062
325.00	20.830
325.37	22.839
325.73	21.993
326.10	22.418
326.46	21.953
326.83	23.037
327.19	23.570
327.56	21.777
327.92	24.409
328.29	23.602
328.65	24.309
329.01	24.729
329.38	24.514
329.74	22.622
330.11	24.317
330.47	24.426
330.84	25.184
331.20	23.588
331.56	25.046
331.93	26.389
332.29	25.288
332.66	25.398
333.02	25.229
333.38	26.739
333.75	25.936
334.11	26.335
334.48	25.466
334.84	26.287
335.20	25.636
335.57	25.657
335.93	25.446
336.29	24.267
336.66	26.060
337.02	26.063
337.38	27.037
337.75	25.134
338.11	26.410
338.47	25.875
338.84	26.856
339.20	25.138
339.56	27.099
339.93	25.455
340.29	26.087
340.65	26.471
341.02	26.353
341.38	26.335
341.74	25.965
342.11	26.463
342.47	26.960
342.83	27.055
343.20	26.234
343.56	25.442
343.92	27.368
344.28	27.041
344.65	27.687
345.01	26.684
345.37	26.072
345.73	27.157
346.10	26.428
346.46	26.017
346.82	25.947
347.19	25.982
347.55	26.355
347.91	26.133
348.27	27.198
348.63	26.421
349.00	26.052
349.36	25.862
349.72	26.303
350.08	26.742
350.45	26.526
350.81	26.158
351.17	26.175
351.53	26.863
351.89	27.145
352.26	27.230
352.62	25.902
352.98	26.661
353.34	25.637
353.70	26.268
354.07	26.290
354.43	25.556
354.79	27.192
355.15	26.097
355.51	27.898
355.87	26.857
356.24	27.524
356.60	26.464
356.96	27.192
357.32	27.228
357.68	28.268
358.04	27.791
358.40	27.474
358.77	26.995
359.13	25.967
359.49	27.608
359.85	26.508
360.21	27.512
360.57	27.237
360.93	27.769
361.29	27.438
361.66	26.703
362.02	27.537
362.38	28.289
362.74	28.199
363.10	27.535
363.46	27.146
363.82	27.438
364.18	28.488
364.54	28.306
364.90	28.541
365.26	27.353
365.62	28.853
365.98	27.173
366.35	28.009
366.71	28.127
367.07	27.822
367.43	27.576
367.79	28.551
368.15	29.526
368.51	28.416
368.87	28.837
369.23	28.895
369.59	29.399
369.95	28.603
370.31	29.345
370.67	27.899
371.03	30.412
371.39	29.956
371.75	30.074
372.11	29.161
372.47	30.059
372.83	29.899
373.19	28.974
373.55	29.933
373.91	31.738
374.27	29.141
374.63	29.673
374.99	30.791
375.35	29.798
375.71	30.089
376.07	30.933
376.42	30.536
376.78	30.484
377.14	30.529
377.50	29.868
377.86	29.122
378.22	30.784
378.58	29.825
378.94	29.918
379.30	30.598
379.66	30.901
380.02	30.835
380.38	30.480
380.74	30.492
381.09	31.968
381.45	32.207
381.81	32.064
382.17	32.038
382.53	31.887
382.89	32.037
383.25	31.332
383.61	32.094
383.97	31.332
384.32	31.316
384.68	30.731
385.04	31.592
385.40	32.693
385.76	32.494
386.12	33.355
386.48	33.228
386.83	33.162
387.19	33.704
387.55	32.715
387.91	32.467
388.27	32.066
388.62	33.251
388.98	32.555
389.34	32.353
389.70	32.005
390.06	33.840
390.42	33.398
390.77	33.842
391.13	34.014
391.49	33.693
391.85	33.736
392.20	33.754
392.56	33.712
392.92	33.490
393.28	32.781
393.64	33.034
393.99	33.781
394.35	33.251
394.71	34.003
395.07	34.019
395.42	33.622
395.78	34.351
396.14	34.078
396.50	34.837
396.85	34.711
397.21	35.080
397.57	34.594
397.92	34.315
398.28	33.184
398.64	34.349
399.00	34.135
399.35	34.292
399.71	34.896
400.07	35.127
400.42	35.828
400.78	35.223
401.14	34.512
401.49	35.104
401.85	34.241
402.21	34.251
402.57	35.225
402.92	35.309
403.28	35.540
403.63	35.644
403.99	35.605
404.35	35.576
404.70	35.252
405.06	34.304
405.42	35.371
405.77	34.514
406.13	35.102
406.49	35.541
406.84	35.617
407.20	34.515
407.55	36.248
407.91	36.000
408.27	36.375
408.62	35.822
408.98	35.539
409.34	35.793
409.69	35.548
410.05	36.431
410.40	34.924
410.76	35.723
411.11	35.404
411.47	36.230
411.83	36.958
412.18	36.549
412.54	36.115
412.89	35.783
413.25	36.128
413.60	36.998
413.96	35.337
414.31	36.695
414.67	36.122
415.03	36.887
415.38	36.147
415.74	36.977
416.09	36.773
416.45	36.011
416.80	36.748
417.16	38.472
417.51	37.823
417.87	36.095
418.22	38.107
418.58	36.798
418.93	37.592
419.29	36.983
419.64	37.154
420.00	38.171
420.35	37.391
420.71	37.657
421.06	36.814
421.42	37.251
421.77	38.173
422.12	37.956
422.48	37.291
422.83	37.798
423.19	38.122
423.54	37.435
423.90	37.855
424.25	38.303
424.61	37.619
424.96	37.959
425.31	37.652
425.67	36.798
426.02	38.114
426.38	38.278
426.73	37.975
427.09	38.116
427.44	38.413
427.79	38.758
428.15	38.393
428.50	38.385
428.85	38.856
429.21	39.039
429.56	37.947
429.92	38.198
430.27	37.488
430.62	37.993
430.98	37.987
431.33	38.660
431.68	39.476
432.04	38.339
432.39	39.577
432.74	38.480
433.10	39.842
433.45	40.058
433.80	38.858
434.16	39.904
434.51	38.947
434.86	40.422
435.22	39.578
435.57	39.696
435.92	40.609
436.28	40.688
436.63	39.790
436.98	39.611
437.34	39.893
437.69	40.782
438.04	40.472
438.39	41.672
438.75	40.442
439.10	40.056
439.45	40.732
439.81	40.302
440.16	39.469
440.51	40.187
440.86	41.807
441.22	40.934
441.57	40.658
441.92	40.225
442.27	39.935
442.63	40.811
442.98	40.789
443.33	39.565
443.68	40.940
444.03	40.508
444.39	39.630
444.74	40.693
445.09	39.299
445.44	39.803
445.79	40.920
446.15	40.498
446.50	40.118
446.85	40.904
447.20	40.031
447.55	41.150
447.91	40.761
448.26	40.122
448.61	40.871
448.96	41.196
449.31	41.901
449.66	41.306
450.02	40.613
450.37	39.739
450.72	40.214
451.07	40.585
451.42	39.818
451.77	40.341
452.12	40.473
452.47	41.169
452.83	41.841
453.18	40.037
453.53	41.620
453.88	41.465
454.23	41.781
454.58	41.308
454.93	42.339
455.28	41.895
455.63	40.959
455.98	42.798
456.34	40.452
456.69	41.828
457.04	42.353
457.39	41.496
457.74	41.149
458.09	40.713
458.44	40.365
458.79	39.913
459.14	41.479
459.49	41.039
459.84	40.332
460.19	40.778
460.54	40.509
460.89	40.428
461.24	41.226
461.59	41.894
461.94	39.704
462.29	40.772
462.64	40.779
462.99	41.054
463.34	42.133
463.69	41.338
464.04	40.058
464.39	39.884
464.74	40.285
465.09	41.013
465.44	40.000
465.79	38.702
466.14	40.066
466.49	39.043
466.84	40.222
467.19	40.374
467.54	40.312
467.89	40.456
468.24	41.129
468.59	41.331
468.94	39.524
469.29	40.810
469.64	40.763
469.99	41.881
470.34	39.432
470.68	41.739
471.03	41.224
471.38	41.835
471.73	40.506
472.08	41.645
472.43	40.075
472.78	40.619
473.13	39.474
473.48	40.137
473.83	40.610
474.17	39.639
474.52	40.819
474.87	41.798
475.22	40.337
475.57	39.710
475.92	39.352
476.27	39.910
476.61	39.603
476.96	39.472
477.31	39.874
477.66	39.934
478.01	38.996
478.36	40.137
478.70	38.733
479.05	40.202
479.40	40.328
479.75	39.603
480.10	39.165
480.45	38.220
480.79	38.318
481.14	39.628
481.49	39.250
481.84	38.409
482.19	39.982
482.53	38.853
482.88	39.041
483.23	38.738
483.58	38.399
483.92	38.988
484.27	38.039
484.62	38.017
484.97	37.367
485.31	37.979
485.66	35.128
486.01	33.714
486.36	32.871
486.70	32.449
487.05	34.010
487.40	34.755
487.75	35.597
488.09	36.275
488.44	37.191
488.79	37.722
489.13	38.350
489.48	37.847
489.83	38.153
490.17	39.149
490.52	37.865
490.87	38.128
491.22	37.744
491.56	37.585
491.91	37.925
492.26	36.977
492.60	37.880
492.95	37.138
493.30	37.336
493.64	37.564
493.99	37.419
494.34	37.928
494.68	37.179
495.03	37.970
495.37	37.413
495.72	38.255
496.07	37.541
496.41	36.814
496.76	36.631
497.11	37.371
497.45	37.587
497.80	37.428
498.14	37.150
498.49	38.293
498.84	37.632
499.18	37.286
499.53	37.274
499.87	37.325
500.22	37.447
500.56	36.408
500.91	36.731
501.26	36.605
501.60	36.877
501.95	36.389
502.29	36.973
502.64	37.011
502.98	36.699
503.33	36.060
503.67	36.473
504.02	36.717
504.36	36.219
504.71	36.492
505.06	36.000
505.40	36.947
505.75	36.403
506.09	36.006
506.44	35.816
506.78	36.240
507.13	36.648
507.47	36.313
507.82	37.335
508.16	37.183
508.51	37.240
508.85	36.643
509.19	36.888
509.54	36.276
509.88	36.837
510.23	37.069
510.57	37.564
510.92	36.924
511.26	36.331
511.61	36.255
511.95	35.438
512.30	35.843
512.64	36.432
512.98	36.066
513.33	35.974
513.67	35.699
514.02	35.498
514.36	37.957
514.70	36.857
515.05	36.252
515.39	37.016
515.74	37.444
516.08	37.675
516.42	37.292
516.77	37.514
517.11	36.626
517.46	37.359
517.80	36.760
518.14	36.595
518.49	37.165
518.83	36.705
519.17	36.490
519.52	36.276
519.86	37.022
520.20	37.572
520.55	37.044
520.89	37.470
521.23	37.937
521.58	38.055
521.92	37.906
522.26	36.486
522.61	38.442
522.95	37.017
523.29	37.614
523.64	36.829
523.98	37.523
524.32	37.153
524.66	36.380
525.01	36.275
525.35	37.546
525.69	35.961
526.04	36.760
526.38	37.096
526.72	35.521
527.06	36.472
527.41	35.087
527.75	35.884
528.09	37.636
528.43	36.584
528.78	35.833
529.12	36.364
529.46	36.375
529.80	37.129
530.15	36.137
530.49	34.954
530.83	35.949
531.17	37.794
531.51	38.262
531.86	36.000
532.20	36.636
532.54	36.643
532.88	35.751
533.22	35.290
533.57	35.988
533.91	35.160
534.25	35.298
534.59	35.326
534.93	34.503
535.27	34.400
535.62	34.676
535.96	35.907
536.30	35.410
536.64	34.965
536.98	35.634
537.32	35.352
537.66	36.133
538.01	35.155
538.35	36.070
538.69	35.482
539.03	34.308
539.37	34.249
539.71	34.478
540.05	35.098
540.39	35.681
540.73	34.605
541.07	36.275
541.42	34.899
541.76	35.097
542.10	34.670
542.44	34.967
542.78	35.310
543.12	33.781
543.46	34.689
543.80	34.938
544.14	33.761
544.48	34.413
544.82	33.932
545.16	34.548
545.50	34.126
545.84	35.215
546.18	34.411
546.52	34.480
546.86	34.158
547.20	34.120
547.54	34.202
547.88	34.503
548.22	33.375
548.56	32.893
548.90	33.483
549.24	33.131
549.58	33.629
549.92	33.791
550.26	35.014
550.60	33.264
550.94	34.155
551.28	34.674
551.62	35.298
551.96	33.825
552.30	33.515
552.64	34.348
552.98	33.966
553.32	32.502
553.66	34.424
554.00	33.699
554.34	33.402
554.68	33.333
555.02	33.921
555.36	33.542
555.69	33.153
556.03	33.513
556.37	33.356
556.71	32.742
557.05	34.314
557.39	33.800
557.73	33.380
558.07	34.228
558.41	32.923
558.75	34.460
559.08	33.482
559.42	34.543
559.76	32.941
560.10	32.691
560.44	33.613
560.78	32.402
561.12	31.860
561.45	33.377
561.79	32.696
562.13	32.529
562.47	32.923
562.81	33.194
563.15	32.642
563.48	32.493
563.82	31.963
564.16	31.851
564.50	32.031
564.84	31.479
565.17	32.304
565.51	32.077
565.85	32.043
566.19	30.557
566.52	31.222
566.86	30.741
567.20	30.307
567.54	29.966
567.88	29.984
568.21	30.106
568.55	30.030
568.89	28.988
569.23	28.565
569.56	27.530
569.90	27.019
570.24	26.875
570.57	26.828
570.91	25.630
571.25	25.818
571.59	25.596
571.92	25.202
572.26	25.563
572.60	26.186
572.93	25.547
573.27	25.614
573.61	24.902
573.95	24.858
574.28	24.497
574.62	24.393
574.96	24.492
575.29	24.321
575.63	24.822
575.97	25.332
576.30	24.934
576.64	24.185
576.98	24.380
577.31	23.660
577.65	23.735
577.98	23.462
578.32	23.133
578.66	23.899
578.99	24.058
579.33	23.723
579.67	24.374
580.00	24.191
580.34	24.490
580.67	23.777
581.01	24.061
581.35	23.440
581.68	23.247
582.02	22.774
582.35	23.183
582.69	23.195
583.02	23.394
583.36	23.496
583.70	24.550
584.03	24.190
584.37	24.848
584.70	24.033
585.04	24.119
585.37	23.719
585.71	23.473
586.04	23.774
586.38	24.190
586.72	23.944
587.05	23.662
587.39	23.720
587.72	23.937
588.06	23.826
588.39	23.868
588.73	24.083
589.06	24.961
589.40	24.949
589.73	24.921
590.07	25.338
590.40	25.100
590.73	25.527
591.07	25.722
591.40	26.571
591.74	26.407
592.07	25.524
592.41	25.341
592.74	24.906
593.08	24.384
593.41	24.011
593.75	24.110
594.08	24.304
594.41	24.214
594.75	24.362
595.08	24.696
595.42	25.149
595.75	24.644
596.09	25.235
596.42	25.619
596.75	25.201
597.09	25.887
597.42	25.422
597.75	24.968
598.09	25.391
598.42	25.558
598.76	24.605
599.09	24.325
599.42	23.399
599.76	24.707
600.09	24.117
600.42	23.630
600.76	23.714
601.09	24.372
601.42	24.734
601.76	24.668
602.09	24.032
602.42	24.721
602.76	24.587
603.09	24.351
603.42	24.639
603.76	23.971
604.09	24.234
604.42	24.623
604.76	24.420
605.09	24.640
605.42	24.369
605.75	24.421
606.09	24.685
606.42	23.784
606.75	24.305
607.09	24.529
607.42	24.048
607.75	24.177
608.08	24.924
608.42	24.204
608.75	24.842
609.08	24.468
609.41	25.369
609.75	24.535
610.08	24.976
610.41	24.348
610.74	24.929
611.07	25.494
611.41	24.779
611.74	25.390
612.07	25.569
612.40	26.180
612.73	25.158
613.07	25.970
613.40	26.224
613.73	24.961
614.06	25.484
614.39	24.279
614.72	25.316
615.06	25.315
615.39	24.416
615.72	24.540
616.05	24.721
616.38	25.737
616.71	25.891
617.05	25.913
617.38	25.436
617.71	25.526
618.04	26.022
618.37	25.902
618.70	26.509
619.03	27.697
619.36	27.020
619.69	27.183
620.03	26.717
620.36	27.139
620.69	27.397
621.02	28.614
621.35	27.878
621.68	27.960
622.01	28.793
622.34	27.988
622.67	27.985
623.00	27.146
623.33	27.377
623.66	26.376
623.99	27.688
624.32	26.890
624.65	26.412
624.99	25.779
625.32	26.575
625.65	27.122
625.98	26.902
626.31	28.227
626.64	28.490
626.97	28.761
627.30	29.011
627.63	29.861
627.96	28.343
628.29	29.746
628.62	30.101
628.95	31.887
629.28	28.832
629.61	30.247
629.94	31.238
630.26	30.696
630.59	30.315
