SpectraSuite Data File
++++++++++++++++++++++++++++++++++++
Date: Wed May 13 19:41:43 PDT 2015
User: schluterlab
Dark Spectrum Present: Yes
Reference Spectrum Present: Yes
Number of Sampled Component Spectra: 1
Spectrometers: USB2E3373
Integration Time (usec): 3000 (USB2E3373)
Spectra Averaged: 3 (USB2E3373)
Boxcar Smoothing: 0 (USB2E3373)
Correct for Electrical Dark: No (USB2E3373)
Strobe/Lamp Enabled: No (USB2E3373)
Correct for Detector Non-linearity: No (USB2E3373)
Correct for Stray Light: No (USB2E3373)
Number of Pixels in Processed Spectrum: 2048
>>>>>Begin Processed Spectral Data<<<<<
178.53	0.000
178.91	-1475.000
179.29	-1400.000
179.67	-233.333
180.04	-1275.000
180.42	2800.000
180.80	980.000
181.18	-1050.000
181.56	600.000
181.94	0.000
182.31	-728.571
182.69	1700.000
183.07	-487.500
183.45	-555.556
183.83	554.545
184.20	-420.000
184.58	2650.000
184.96	5900.000
185.34	-940.000
185.72	-625.000
186.09	-2500.000
186.47	2600.000
186.85	2750.000
187.23	5300.000
187.61	-1866.667
187.98	1325.000
188.36	572.727
188.74	618.182
189.12	-960.000
189.49	560.000
189.87	-4700.000
190.25	-1450.000
190.63	407.143
191.00	446.154
191.38	850.000
191.76	-1300.000
192.14	1425.000
192.51	687.500
192.89	916.667
193.27	637.500
193.65	-1025.000
194.02	570.000
194.40	1060.000
194.78	560.000
195.15	508.333
195.53	690.000
195.91	-2250.000
196.29	350.000
196.66	331.579
197.04	-330.000
197.42	0.000
197.79	620.000
198.17	-5100.000
198.55	642.857
198.92	762.500
199.30	1000.000
199.68	0.000
200.05	333.333
200.43	800.000
200.81	4700.000
201.18	1400.000
201.56	-1600.000
201.94	666.667
202.31	633.333
202.69	400.000
203.07	580.000
203.44	0.000
203.82	1275.000
204.19	685.714
204.57	442.857
204.95	687.500
205.32	1833.333
205.70	609.091
206.08	400.000
206.45	2550.000
206.83	375.000
207.20	883.333
207.58	660.000
207.96	344.444
208.33	750.000
208.71	-1000.000
209.08	728.571
209.46	600.000
209.84	481.818
210.21	-1700.000
210.59	1500.000
210.96	-550.000
211.34	2400.000
211.71	680.000
212.09	883.333
212.46	0.000
212.84	1433.333
213.22	1325.000
213.59	-4000.000
213.97	916.667
214.34	728.571
214.72	554.545
215.09	1100.000
215.47	-1950.000
215.84	-2450.000
216.22	1500.000
216.59	471.429
216.97	1400.000
217.34	527.273
217.72	-733.333
218.09	0.000
218.47	-4800.000
218.84	666.667
219.22	657.143
219.59	1600.000
219.97	-585.714
220.34	1120.000
220.72	-2000.000
221.09	428.571
221.47	1525.000
221.84	-866.667
222.22	0.000
222.59	1275.000
222.97	-2650.000
223.34	980.000
223.72	461.538
224.09	840.000
224.46	2050.000
224.84	-5200.000
225.21	-1100.000
225.59	-4400.000
225.96	600.000
226.34	340.000
226.71	2650.000
227.08	737.500
227.46	540.000
227.83	-1500.000
228.21	-2400.000
228.58	600.000
228.95	-2500.000
229.33	-2450.000
229.70	2133.333
230.08	942.857
230.45	-820.000
230.82	458.333
231.20	850.000
231.57	742.857
231.95	441.667
232.32	222.727
232.69	418.182
233.07	657.143
233.44	338.462
233.81	-1766.667
234.19	310.526
234.56	508.333
234.93	450.000
235.31	490.909
235.68	423.077
236.05	357.143
236.43	157.576
236.80	200.000
237.17	5300.000
237.55	223.810
237.92	153.571
238.29	228.571
238.67	161.290
239.04	179.310
239.41	147.222
239.79	121.739
240.16	128.571
240.53	136.364
240.91	111.765
241.28	100.000
241.65	92.000
242.02	94.203
242.40	83.871
242.77	93.333
243.14	70.968
243.51	75.281
243.89	68.235
244.26	58.889
244.63	50.538
245.00	54.255
245.38	54.455
245.75	49.533
246.12	41.284
246.49	54.015
246.87	59.200
247.24	52.308
247.61	47.143
247.98	41.830
248.36	41.892
248.73	36.943
249.10	48.408
249.47	36.723
249.84	43.316
250.22	41.176
250.59	34.320
250.96	36.869
251.33	36.967
251.70	35.644
252.08	33.333
252.45	31.839
252.82	31.739
253.19	34.043
253.56	28.627
253.94	33.195
254.31	31.641
254.68	30.769
255.05	32.472
255.42	24.390
255.79	29.412
256.16	25.632
256.54	24.028
256.91	27.046
257.28	24.820
257.65	27.723
258.02	28.261
258.39	26.498
258.76	24.749
259.14	26.488
259.51	25.532
259.88	22.671
260.25	22.659
260.62	26.879
260.99	23.292
261.36	27.628
261.73	23.209
262.10	23.256
262.47	24.507
262.85	20.891
263.22	22.222
263.59	25.071
263.96	23.352
264.33	24.543
264.70	20.000
265.07	24.552
265.44	21.212
265.81	22.384
266.18	20.603
266.55	22.195
266.92	21.376
267.29	22.685
267.66	18.807
268.03	20.682
268.40	21.729
268.77	17.900
269.14	18.919
269.51	20.542
269.88	20.280
270.25	23.025
270.62	19.101
270.99	21.720
271.36	20.601
271.73	19.626
272.10	16.957
272.47	20.430
272.84	20.130
273.21	21.384
273.58	18.122
273.95	18.868
274.32	19.421
274.69	20.557
275.06	17.717
275.43	17.234
275.80	18.036
276.17	20.570
276.54	19.127
276.91	19.170
277.28	17.383
277.65	16.634
278.02	19.255
278.39	19.922
278.76	18.182
279.13	20.377
279.50	16.574
279.87	17.131
280.23	18.962
280.60	18.375
280.97	17.745
281.34	17.876
281.71	17.636
282.08	18.426
282.45	17.636
282.82	17.229
283.19	14.795
283.56	18.596
283.92	17.090
284.29	15.344
284.66	16.152
285.03	15.371
285.40	16.725
285.77	17.508
286.14	15.199
286.51	16.833
286.87	16.239
287.24	17.752
287.61	15.409
287.98	15.747
288.35	15.848
288.72	16.822
289.08	15.962
289.45	16.310
289.82	14.797
290.19	14.914
290.56	14.089
290.93	15.257
291.29	14.264
291.66	14.159
292.03	15.552
292.40	16.153
292.77	14.793
293.13	12.985
293.50	14.869
293.87	13.185
294.24	12.889
294.60	13.246
294.97	14.244
295.34	16.079
295.71	13.352
296.08	13.818
296.44	13.480
296.81	13.342
297.18	14.363
297.55	12.533
297.91	12.005
298.28	14.190
298.65	13.838
299.02	14.229
299.38	11.288
299.75	11.186
300.12	11.750
300.48	12.125
300.85	14.303
301.22	11.592
301.59	13.131
301.95	13.602
302.32	11.938
302.69	13.381
303.05	12.727
303.42	11.852
303.79	11.891
304.15	10.839
304.52	10.892
304.89	11.034
305.25	11.253
305.62	12.571
305.99	12.869
306.35	11.521
306.72	11.323
307.09	11.987
307.45	12.387
307.82	11.384
308.19	11.148
308.55	12.729
308.92	10.634
309.29	10.032
309.65	9.862
310.02	10.888
310.38	12.258
310.75	11.088
311.12	11.975
311.48	12.957
311.85	11.845
312.22	11.342
312.58	11.123
312.95	12.249
313.31	11.748
313.68	10.707
314.05	13.018
314.41	11.759
314.78	12.286
315.14	12.115
315.51	11.123
315.87	11.782
316.24	12.115
316.61	11.111
316.97	11.546
317.34	11.840
317.70	14.149
318.07	12.512
318.43	13.307
318.80	13.683
319.16	13.277
319.53	13.321
319.89	13.048
320.26	13.300
320.62	14.881
320.99	14.949
321.35	15.051
321.72	15.092
322.08	14.413
322.45	16.318
322.81	16.957
323.18	18.401
323.54	17.069
323.91	17.358
324.27	17.495
324.64	17.987
325.00	17.133
325.37	18.380
325.73	20.467
326.10	20.035
326.46	18.996
326.83	19.672
327.19	20.922
327.56	20.122
327.92	20.647
328.29	21.739
328.65	22.560
329.01	21.390
329.38	20.907
329.74	22.622
330.11	23.563
330.47	22.681
330.84	23.805
331.20	23.679
331.56	23.119
331.93	22.037
332.29	24.312
332.66	24.779
333.02	24.223
333.38	24.842
333.75	25.223
334.11	24.822
334.48	23.691
334.84	25.460
335.20	25.455
335.57	24.297
335.93	24.286
336.29	24.908
336.66	26.420
337.02	24.344
337.38	24.815
337.75	25.134
338.11	24.799
338.47	24.033
338.84	25.023
339.20	24.404
339.56	25.912
339.93	24.636
340.29	25.181
340.65	24.688
341.02	26.003
341.38	25.890
341.74	25.088
342.11	26.550
342.47	25.198
342.83	24.743
343.20	24.762
343.56	25.527
343.92	25.789
344.28	26.190
344.65	25.795
345.01	23.990
345.37	25.557
345.73	25.804
346.10	26.002
346.46	25.932
346.82	24.794
347.19	25.230
347.55	23.892
347.91	25.647
348.27	26.212
348.63	26.087
349.00	24.676
349.36	25.123
349.72	26.143
350.08	24.878
350.45	25.956
350.81	26.076
351.17	27.147
351.53	25.471
351.89	25.413
352.26	26.361
352.62	25.581
352.98	26.256
353.34	25.801
353.70	25.696
354.07	26.048
354.43	25.873
354.79	26.066
355.15	26.895
355.51	26.219
355.87	25.143
356.24	26.629
356.60	24.940
356.96	26.307
357.32	25.756
357.68	26.220
358.04	25.970
358.40	26.841
358.77	25.509
359.13	25.335
359.49	25.569
359.85	24.762
360.21	25.359
360.57	26.070
360.93	26.154
361.29	26.153
361.66	25.851
362.02	27.463
362.38	26.464
362.74	27.083
363.10	24.870
363.46	25.825
363.82	26.531
364.18	27.166
364.54	28.232
364.90	27.054
365.26	25.588
365.62	26.954
365.98	26.004
366.35	26.576
366.71	27.621
367.07	26.803
367.43	27.141
367.79	27.623
368.15	28.879
368.51	27.544
368.87	28.194
369.23	29.261
369.59	28.892
369.95	27.941
370.31	27.991
370.67	27.899
371.03	28.839
371.39	28.790
371.75	28.603
372.11	28.023
372.47	28.372
372.83	28.674
373.19	28.251
373.55	28.973
373.91	29.455
374.27	29.072
374.63	27.709
374.99	29.096
375.35	28.472
375.71	27.964
376.07	29.424
376.42	29.780
376.78	29.423
377.14	29.240
377.50	30.066
377.86	29.388
378.22	29.962
378.58	29.198
378.94	29.478
379.30	29.580
379.66	30.330
380.02	29.975
380.38	29.387
380.74	29.592
381.09	30.562
381.45	30.486
381.81	31.695
382.17	30.828
382.53	29.434
382.89	31.543
383.25	30.957
383.61	31.103
383.97	30.144
384.32	30.505
384.68	30.235
385.04	30.301
385.40	30.217
385.76	30.590
386.12	31.218
386.48	32.096
386.83	31.815
387.19	32.282
387.55	31.725
387.91	31.923
388.27	31.269
388.62	32.637
388.98	31.695
389.34	32.728
389.70	33.231
390.06	33.714
390.42	33.658
390.77	33.270
391.13	33.504
391.49	33.439
391.85	31.572
392.20	32.429
392.56	34.217
392.92	33.431
393.28	32.249
393.64	33.873
393.99	33.415
394.35	33.871
394.71	33.187
395.07	33.832
395.42	34.672
395.78	33.461
396.14	33.892
396.50	34.900
396.85	35.919
397.21	34.464
397.57	34.904
397.92	35.517
398.28	33.408
398.64	34.409
399.00	34.359
399.35	34.405
399.71	35.648
400.07	35.305
400.42	35.276
400.78	35.947
401.14	36.829
401.49	36.000
401.85	35.874
402.21	34.790
402.57	36.644
402.92	36.570
403.28	37.227
403.63	36.572
403.99	36.943
404.35	36.667
404.70	37.170
405.06	36.459
405.42	37.243
405.77	35.429
406.13	37.472
406.49	37.611
406.84	36.444
407.20	35.757
407.55	38.226
407.91	38.733
408.27	38.162
408.62	37.809
408.98	37.745
409.34	38.315
409.69	37.935
410.05	38.352
410.40	38.532
410.76	38.172
411.11	38.601
411.47	37.827
411.83	39.035
412.18	37.786
412.54	39.415
412.89	39.699
413.25	38.194
413.60	38.542
413.96	37.280
414.31	38.821
414.67	39.924
415.03	40.728
415.38	40.013
415.74	40.450
416.09	40.888
416.45	40.964
416.80	40.185
417.16	41.756
417.51	42.336
417.87	40.912
418.22	40.063
418.58	41.059
418.93	41.585
419.29	41.311
419.64	41.436
420.00	41.402
420.35	40.638
420.71	42.499
421.06	40.811
421.42	40.409
421.77	41.536
422.12	41.494
422.48	40.745
422.83	41.351
423.19	42.155
423.54	41.497
423.90	41.623
424.25	41.653
424.61	42.262
424.96	41.458
425.31	42.193
425.67	41.404
426.02	43.314
426.38	43.651
426.73	42.247
427.09	44.255
427.44	42.611
427.79	43.301
428.15	42.798
428.50	42.832
428.85	44.041
429.21	42.628
429.56	43.494
429.92	42.476
430.27	42.900
430.62	42.960
430.98	42.605
431.33	42.680
431.68	42.408
432.04	42.279
432.39	44.717
432.74	43.986
433.10	44.822
433.45	45.889
433.80	43.514
434.16	43.590
434.51	43.895
434.86	44.356
435.22	45.136
435.57	44.863
435.92	44.002
436.28	46.323
436.63	44.536
436.98	43.732
437.34	45.617
437.69	46.733
438.04	44.969
438.39	45.075
438.75	45.613
439.10	45.587
439.45	45.159
439.81	45.801
440.16	44.777
440.51	45.694
440.86	45.976
441.22	44.661
441.57	45.488
441.92	45.650
442.27	45.640
442.63	44.760
442.98	45.634
443.33	44.837
443.68	45.534
444.03	45.437
444.39	44.450
444.74	44.859
445.09	45.876
445.44	44.943
445.79	45.374
446.15	44.786
446.50	45.719
446.85	45.427
447.20	45.334
447.55	46.008
447.91	44.898
448.26	46.132
448.61	46.693
448.96	46.346
449.31	46.063
449.66	46.708
450.02	46.184
450.37	46.315
450.72	45.178
451.07	45.948
451.42	44.377
451.77	46.389
452.12	45.266
452.47	46.828
452.83	45.047
453.18	45.844
453.53	46.011
453.88	45.245
454.23	45.547
454.58	46.638
454.93	47.680
455.28	45.636
455.63	46.177
455.98	46.726
456.34	45.603
456.69	46.775
457.04	46.440
457.39	46.815
457.74	45.560
458.09	46.463
458.44	46.351
458.79	44.035
459.14	45.711
459.49	46.001
459.84	44.820
460.19	45.787
460.54	45.255
460.89	46.023
461.24	46.387
461.59	46.659
461.94	45.438
462.29	46.825
462.64	45.756
462.99	45.673
463.34	46.200
463.69	46.029
464.04	45.159
464.39	45.971
464.74	44.682
465.09	45.054
465.44	44.321
465.79	44.911
466.14	44.171
466.49	43.993
466.84	44.425
467.19	44.840
467.54	46.125
467.89	45.018
468.24	44.910
468.59	45.849
468.94	43.800
469.29	44.473
469.64	46.720
469.99	46.888
470.34	45.509
470.68	47.055
471.03	45.442
471.38	47.047
471.73	45.836
472.08	45.987
472.43	43.970
472.78	44.371
473.13	44.031
473.48	45.256
473.83	43.537
474.17	44.866
474.52	45.844
474.87	44.775
475.22	44.922
475.57	44.277
475.92	43.070
476.27	43.461
476.61	43.464
476.96	44.475
477.31	43.904
477.66	44.092
478.01	43.126
478.36	44.262
478.70	43.562
479.05	44.622
479.40	44.063
479.75	43.721
480.10	43.091
480.45	43.170
480.79	43.192
481.14	43.053
481.49	43.427
481.84	43.256
482.19	43.980
482.53	42.523
482.88	43.276
483.23	43.411
483.58	42.402
483.92	43.018
484.27	41.525
484.62	43.190
484.97	41.545
485.31	42.500
485.66	40.610
486.01	39.702
486.36	39.317
486.70	39.422
487.05	39.107
487.40	40.501
487.75	40.553
488.09	41.098
488.44	41.661
488.79	42.387
489.13	42.513
489.48	41.395
489.83	41.994
490.17	41.999
490.52	40.965
490.87	41.927
491.22	41.291
491.56	41.686
491.91	41.415
492.26	41.847
492.60	40.876
492.95	41.113
493.30	41.542
493.64	40.924
493.99	41.226
494.34	40.657
494.68	41.392
495.03	40.977
495.37	40.717
495.72	40.643
496.07	41.439
496.41	39.867
496.76	40.545
497.11	40.252
497.45	41.453
497.80	40.691
498.14	40.338
498.49	40.878
498.84	40.604
499.18	40.952
499.53	40.313
499.87	40.308
500.22	38.907
500.56	41.311
500.91	40.721
501.26	40.730
501.60	41.433
501.95	39.368
502.29	40.534
502.64	40.177
502.98	40.346
503.33	39.260
503.67	39.211
504.02	39.383
504.36	39.401
504.71	39.766
505.06	40.096
505.40	39.426
505.75	38.862
506.09	39.359
506.44	40.207
506.78	39.649
507.13	39.374
507.47	40.000
507.82	40.274
508.16	40.071
508.51	39.726
508.85	39.424
509.19	40.051
509.54	39.235
509.88	40.031
510.23	40.000
510.57	40.144
510.92	40.238
511.26	38.335
511.61	38.952
511.95	37.787
512.30	39.077
512.64	38.098
512.98	39.121
513.33	39.186
513.67	38.794
514.02	38.853
514.36	39.596
514.70	39.458
515.05	39.487
515.39	38.811
515.74	38.570
516.08	38.793
516.42	38.624
516.77	39.632
517.11	38.346
517.46	37.923
517.80	39.895
518.14	37.638
518.49	38.681
518.83	38.636
519.17	38.279
519.52	39.106
519.86	38.505
520.20	38.902
520.55	39.378
520.89	38.625
521.23	39.626
521.58	38.355
521.92	39.253
522.26	38.011
522.61	39.439
522.95	38.244
523.29	37.736
523.64	37.927
523.98	38.509
524.32	38.359
524.66	38.605
525.01	37.255
525.35	37.794
525.69	36.330
526.04	36.885
526.38	37.523
526.72	38.160
527.06	37.853
527.41	36.200
527.75	37.621
528.09	38.536
528.43	36.711
528.78	38.045
529.12	37.939
529.46	36.865
529.80	36.139
530.15	37.072
530.49	36.000
530.83	36.392
531.17	38.120
531.51	37.808
531.86	37.097
532.20	37.810
532.54	36.899
532.88	37.356
533.22	35.478
533.57	35.864
533.91	36.544
534.25	37.303
534.59	36.608
534.93	35.396
535.27	36.210
535.62	35.836
535.96	36.472
536.30	36.427
536.64	35.866
536.98	36.762
537.32	36.603
537.66	37.400
538.01	37.261
538.35	36.393
538.69	36.375
539.03	35.348
539.37	34.952
539.71	34.349
540.05	36.144
540.39	35.415
540.73	35.382
541.07	35.951
541.42	36.399
541.76	35.935
542.10	37.063
542.44	35.364
542.78	36.495
543.12	34.869
543.46	35.541
543.80	36.304
544.14	34.981
544.48	35.746
544.82	35.087
545.16	36.109
545.50	34.897
545.84	34.476
546.18	36.027
546.52	36.132
546.86	35.464
547.20	35.873
547.54	35.137
547.88	36.033
548.22	35.243
548.56	34.969
548.90	34.955
549.24	35.556
549.58	34.993
549.92	34.615
550.26	34.446
550.60	34.855
550.94	35.423
551.28	34.601
551.62	35.226
551.96	33.895
552.30	35.290
552.64	36.038
552.98	35.119
553.32	34.255
553.66	33.879
554.00	35.072
554.34	34.576
554.68	34.192
555.02	35.120
555.36	33.612
555.69	33.559
556.03	33.849
556.37	33.629
556.71	32.674
557.05	33.543
557.39	32.610
557.73	33.874
558.07	35.243
558.41	32.489
558.75	34.680
559.08	33.930
559.42	34.392
559.76	32.868
560.10	32.762
560.44	33.194
560.78	32.868
561.12	31.992
561.45	32.725
561.79	32.235
562.13	32.059
562.47	32.923
562.81	33.403
563.15	32.910
563.48	33.090
563.82	32.355
564.16	31.982
564.50	31.576
564.84	32.680
565.17	31.982
565.51	31.757
565.85	31.853
566.19	30.996
566.52	32.742
566.86	32.128
567.20	32.429
567.54	31.450
567.88	30.798
568.21	30.847
568.55	30.081
568.89	30.642
569.23	29.857
569.56	30.000
569.90	29.736
570.24	29.171
570.57	28.664
570.91	28.442
571.25	28.721
571.59	28.483
571.92	28.571
572.26	28.452
572.60	28.829
572.93	27.916
573.27	28.394
573.61	28.197
573.95	28.165
574.28	27.839
574.62	27.405
574.96	26.977
575.29	26.867
575.63	27.312
575.97	27.441
576.30	28.147
576.64	27.344
576.98	27.467
577.31	27.126
577.65	27.427
577.98	27.000
578.32	26.231
578.66	26.897
578.99	27.117
579.33	27.378
579.67	26.344
580.00	26.828
580.34	27.053
580.67	26.802
581.01	26.355
581.35	26.406
581.68	26.372
582.02	26.063
582.35	26.076
582.69	26.189
583.02	26.637
583.36	27.162
583.70	26.923
584.03	26.855
584.37	27.431
584.70	27.377
585.04	26.639
585.37	26.025
585.71	26.457
586.04	26.407
586.38	26.541
586.72	26.650
587.05	26.487
587.39	26.042
587.72	27.081
588.06	27.054
588.39	26.612
588.73	26.723
589.06	27.579
589.40	27.609
589.73	27.420
590.07	27.722
590.40	26.781
590.73	27.479
591.07	27.839
591.40	27.246
591.74	27.186
592.07	26.483
592.41	27.780
592.74	26.255
593.08	25.983
593.41	25.941
593.75	25.203
594.08	26.282
594.41	26.440
594.75	26.913
595.08	26.235
595.42	26.095
595.75	25.962
596.09	26.286
596.42	26.876
596.75	27.184
597.09	27.056
597.42	25.970
597.75	26.649
598.09	26.087
598.42	25.902
598.76	25.821
599.09	25.428
599.42	25.218
599.76	25.549
600.09	24.663
600.42	25.128
600.76	25.571
601.09	25.865
601.42	24.734
601.76	25.123
602.09	25.573
602.42	25.438
602.76	25.715
603.09	25.492
603.42	26.084
603.76	25.343
604.09	25.242
604.42	26.376
604.76	26.318
605.09	25.950
605.42	25.224
605.75	25.828
606.09	25.254
606.42	25.092
606.75	24.844
607.09	25.910
607.42	24.733
607.75	25.232
608.08	24.707
608.42	25.908
608.75	25.113
609.08	24.514
609.41	25.036
609.75	25.298
610.08	25.636
610.41	24.488
610.74	25.355
611.07	25.692
611.41	25.025
611.74	25.792
612.07	25.621
612.40	25.866
612.73	25.421
613.07	25.916
613.40	25.276
613.73	25.380
614.06	24.946
614.39	24.489
614.72	24.737
615.06	25.683
615.39	24.522
615.72	24.438
616.05	23.923
616.38	24.847
616.71	25.831
617.05	25.736
617.38	25.195
617.71	25.706
618.04	25.661
618.37	25.429
618.70	25.327
619.03	26.908
619.36	25.255
619.69	26.408
620.03	26.168
620.36	25.134
620.69	26.644
621.02	27.802
621.35	25.450
621.68	25.779
622.01	25.851
622.34	26.853
622.67	25.247
623.00	25.825
623.33	25.018
623.66	26.233
623.99	25.626
624.32	25.250
624.65	25.071
624.99	24.433
625.32	25.127
625.65	26.296
625.98	25.826
626.31	25.505
626.64	25.878
626.97	25.353
627.30	26.018
627.63	26.005
627.96	26.156
628.29	26.422
628.62	25.709
628.95	27.358
629.28	26.916
629.61	27.956
629.94	25.810
630.26	26.978
630.59	26.597
630.92	25.862
