SpectraSuite Data File
++++++++++++++++++++++++++++++++++++
Date: Wed May 13 19:26:38 PDT 2015
User: schluterlab
Dark Spectrum Present: Yes
Reference Spectrum Present: Yes
Number of Sampled Component Spectra: 1
Spectrometers: USB2E3373
Integration Time (usec): 3000 (USB2E3373)
Spectra Averaged: 3 (USB2E3373)
Boxcar Smoothing: 0 (USB2E3373)
Correct for Electrical Dark: No (USB2E3373)
Strobe/Lamp Enabled: No (USB2E3373)
Correct for Detector Non-linearity: No (USB2E3373)
Correct for Stray Light: No (USB2E3373)
Number of Pixels in Processed Spectrum: 2048
>>>>>Begin Processed Spectral Data<<<<<
178.53	0.000
178.91	-1350.000
179.29	-1175.000
179.67	-216.667
180.04	-1425.000
180.42	2800.000
180.80	1020.000
181.18	-1000.000
181.56	785.714
181.94	0.000
182.31	-642.857
182.69	1933.333
183.07	-612.500
183.45	-477.778
183.83	554.545
184.20	-470.000
184.58	2350.000
184.96	5700.000
185.34	-920.000
185.72	-475.000
186.09	-2400.000
186.47	2700.000
186.85	2550.000
187.23	5000.000
187.61	-1766.667
187.98	1625.000
188.36	636.364
188.74	590.909
189.12	-1020.000
189.49	660.000
189.87	-4800.000
190.25	-1050.000
190.63	442.857
191.00	438.462
191.38	816.667
191.76	-1200.000
192.14	1300.000
192.51	700.000
192.89	966.667
193.27	650.000
193.65	-1475.000
194.02	540.000
194.40	960.000
194.78	530.000
195.15	583.333
195.53	660.000
195.91	-1950.000
196.29	406.250
196.66	336.842
197.04	-380.000
197.42	0.000
197.79	560.000
198.17	-5200.000
198.55	928.571
198.92	775.000
199.30	1220.000
199.68	0.000
200.05	388.889
200.43	700.000
200.81	5300.000
201.18	1566.667
201.56	-1766.667
201.94	566.667
202.31	622.222
202.69	475.000
203.07	620.000
203.44	0.000
203.82	1300.000
204.19	814.286
204.57	407.143
204.95	675.000
205.32	1600.000
205.70	600.000
206.08	392.857
206.45	3050.000
206.83	443.750
207.20	833.333
207.58	1020.000
207.96	327.778
208.33	862.500
208.71	-783.333
209.08	842.857
209.46	555.556
209.84	545.455
210.21	-1633.333
210.59	1450.000
210.96	-612.500
211.34	2550.000
211.71	650.000
212.09	833.333
212.46	0.000
212.84	1700.000
213.22	1325.000
213.59	-5300.000
213.97	1016.667
214.34	928.571
214.72	663.636
215.09	1140.000
215.47	-2100.000
215.84	-3000.000
216.22	1566.667
216.59	471.429
216.97	1325.000
217.34	445.455
217.72	-833.333
218.09	0.000
218.47	-5900.000
218.84	700.000
219.22	828.571
219.59	1933.333
219.97	-742.857
220.34	980.000
220.72	-1666.667
221.09	371.429
221.47	1725.000
221.84	-1000.000
222.22	0.000
222.59	1650.000
222.97	-2700.000
223.34	1260.000
223.72	469.231
224.09	1260.000
224.46	2650.000
224.84	-5900.000
225.21	-1120.000
225.59	-4900.000
225.96	640.000
226.34	355.000
226.71	3200.000
227.08	750.000
227.46	540.000
227.83	-1250.000
228.21	-2350.000
228.58	622.222
228.95	-2200.000
229.33	-2500.000
229.70	1900.000
230.08	785.714
230.45	-740.000
230.82	483.333
231.20	916.667
231.57	757.143
231.95	466.667
232.32	250.000
232.69	427.273
233.07	642.857
233.44	376.923
233.81	-1666.667
234.19	289.474
234.56	433.333
234.93	391.667
235.31	445.455
235.68	300.000
236.05	342.857
236.43	181.818
236.80	284.211
237.17	4600.000
237.55	242.857
237.92	210.714
238.29	214.286
238.67	167.742
239.04	206.897
239.41	169.444
239.79	100.000
240.16	142.857
240.53	129.545
240.91	109.804
241.28	102.000
241.65	122.000
242.02	95.652
242.40	104.839
242.77	106.667
243.14	74.194
243.51	76.404
243.89	63.529
244.26	65.556
244.63	54.839
245.00	59.574
245.38	64.356
245.75	69.159
246.12	50.459
246.49	54.745
246.87	64.800
247.24	56.154
247.61	53.571
247.98	50.980
248.36	44.595
248.73	47.134
249.10	54.140
249.47	41.808
249.84	45.455
250.22	38.503
250.59	46.154
250.96	46.970
251.33	43.128
251.70	42.079
252.08	40.476
252.45	37.220
252.82	33.043
253.19	35.319
253.56	36.863
253.94	40.249
254.31	31.641
254.68	37.308
255.05	34.317
255.42	32.114
255.79	34.926
256.16	33.574
256.54	28.975
256.91	32.740
257.28	32.734
257.65	33.003
258.02	28.882
258.39	31.546
258.76	29.097
259.14	25.595
259.51	28.267
259.88	27.019
260.25	30.816
260.62	27.168
260.99	29.193
261.36	27.628
261.73	26.648
262.10	31.686
262.47	27.606
262.85	25.905
263.22	23.077
263.59	31.909
263.96	26.648
264.33	27.937
264.70	28.158
265.07	27.877
265.44	28.283
265.81	24.574
266.18	25.879
266.55	27.073
266.92	26.536
267.29	27.778
267.66	24.541
268.03	27.045
268.40	28.037
268.77	23.389
269.14	24.550
269.51	24.831
269.88	25.874
270.25	24.153
270.62	24.270
270.99	26.667
271.36	26.395
271.73	24.065
272.10	25.217
272.47	25.591
272.84	24.459
273.21	25.996
273.58	22.052
273.95	22.432
274.32	21.488
274.69	24.197
275.06	21.260
275.43	24.894
275.80	23.246
276.17	23.014
276.54	23.909
276.91	22.134
277.28	22.656
277.65	22.050
278.02	23.602
278.39	23.438
278.76	23.273
279.13	21.509
279.50	24.953
279.87	22.311
280.23	22.754
280.60	20.116
280.97	20.702
281.34	22.301
281.71	22.727
282.08	23.800
282.45	23.091
282.82	20.959
283.19	20.321
283.56	21.228
283.92	22.504
284.29	21.164
284.66	19.601
285.03	20.976
285.40	21.303
285.77	20.707
286.14	18.998
286.51	21.000
286.87	20.855
287.24	20.195
287.61	20.385
287.98	19.643
288.35	21.236
288.72	21.495
289.08	20.031
289.45	19.605
289.82	21.951
290.19	17.582
290.56	17.917
290.93	17.069
291.29	17.945
291.66	18.584
292.03	20.930
292.40	19.530
292.77	17.012
293.13	19.104
293.50	19.388
293.87	17.630
294.24	19.111
294.60	17.467
294.97	18.605
295.34	18.618
295.71	17.614
296.08	18.376
296.44	16.506
296.81	16.909
297.18	19.241
297.55	16.887
297.91	17.150
298.28	18.608
298.65	17.102
299.02	18.577
299.38	17.264
299.75	14.960
300.12	16.092
300.48	17.125
300.85	14.920
301.22	17.070
301.59	16.162
301.95	18.262
302.32	16.175
302.69	15.771
303.05	16.121
303.42	15.802
303.79	15.742
304.15	15.618
304.52	16.107
304.89	16.028
305.25	14.501
305.62	16.648
305.99	17.591
306.35	16.890
306.72	15.359
307.09	16.315
307.45	16.892
307.82	16.853
308.19	16.225
308.55	17.476
308.92	16.756
309.29	15.628
309.65	16.437
310.02	16.279
310.38	17.204
310.75	18.585
311.12	18.321
311.48	18.913
311.85	18.658
312.22	18.730
312.58	17.983
312.95	19.641
313.31	17.961
313.68	20.998
314.05	21.893
314.41	19.899
314.78	21.954
315.14	21.053
315.51	21.833
315.87	21.584
316.24	21.847
316.61	21.637
316.97	22.114
317.34	22.798
317.70	24.761
318.07	24.447
318.43	26.614
318.80	27.085
319.16	29.096
319.53	27.017
319.89	28.571
320.26	29.600
320.62	31.052
320.99	31.818
321.35	33.131
321.72	33.368
322.08	34.057
322.45	36.318
322.81	37.209
323.18	36.127
323.54	37.106
323.91	38.962
324.27	39.866
324.64	41.752
325.00	41.118
325.37	44.040
325.73	46.140
326.10	45.808
326.46	47.133
326.83	49.267
327.19	49.701
327.56	51.394
327.92	53.281
328.29	53.416
328.65	54.604
329.01	55.596
329.38	56.892
329.74	56.510
330.11	58.058
330.47	58.035
330.84	59.835
331.20	57.559
331.56	58.349
331.93	61.389
332.29	60.870
332.66	62.743
333.02	62.706
333.38	63.234
333.75	64.528
334.11	64.413
334.48	63.886
334.84	65.074
335.20	63.727
335.57	67.271
335.93	63.482
336.29	66.392
336.66	68.079
337.02	65.611
337.38	67.963
337.75	65.775
338.11	66.607
338.47	68.969
338.84	66.819
339.20	68.165
339.56	69.799
339.93	70.000
340.29	68.841
340.65	68.984
341.02	69.284
341.38	70.730
341.74	69.298
342.11	69.869
342.47	70.396
342.83	70.120
343.20	70.909
343.56	68.492
343.92	71.053
344.28	70.238
344.65	71.281
345.01	69.613
345.37	72.213
345.73	70.474
346.10	71.867
346.46	71.949
346.82	72.405
347.19	71.429
347.55	70.279
347.91	71.764
348.27	71.734
348.63	72.074
349.00	71.278
349.36	71.675
349.72	70.810
350.08	70.502
350.45	72.905
350.81	72.055
351.17	73.663
351.53	71.499
351.89	71.452
352.26	73.007
352.62	71.532
352.98	71.637
353.34	72.062
353.70	73.813
354.07	72.903
354.43	72.778
354.79	70.877
355.15	73.264
355.51	72.102
355.87	72.327
356.24	73.860
356.60	72.654
356.96	75.302
357.32	74.244
357.68	74.094
358.04	72.447
358.40	72.051
358.77	73.396
359.13	71.981
359.49	73.647
359.85	73.175
360.21	73.525
360.57	74.786
360.93	75.154
361.29	73.696
361.66	73.220
362.02	72.687
362.38	74.677
362.74	72.545
363.10	72.909
363.46	72.340
363.82	75.283
364.18	72.761
364.54	75.186
364.90	74.717
365.26	75.221
365.62	76.114
365.98	74.069
366.35	72.350
366.71	74.042
367.07	74.654
367.43	76.778
367.79	73.804
368.15	74.784
368.51	74.491
368.87	73.804
369.23	74.543
369.59	74.439
369.95	74.632
370.31	74.145
370.67	74.928
371.03	76.629
371.39	74.854
371.75	75.147
372.11	74.395
372.47	74.047
372.83	75.360
373.19	74.855
373.55	75.166
373.91	77.320
374.27	72.440
374.63	75.636
374.99	76.412
375.35	72.575
375.71	73.406
376.07	73.594
376.42	75.791
376.78	75.348
377.14	74.763
377.50	74.901
377.86	74.136
378.22	73.957
378.58	74.624
378.94	74.733
379.30	74.873
379.66	75.317
380.02	75.000
380.38	75.653
380.74	73.709
381.09	74.267
381.45	75.784
381.81	73.771
382.17	76.115
382.53	74.591
382.89	75.185
383.25	74.922
383.61	74.721
383.97	74.296
384.32	74.423
384.68	73.544
385.04	74.800
385.40	73.622
385.76	73.956
386.12	74.028
386.48	73.946
386.83	75.112
387.19	76.067
387.55	74.521
387.91	73.035
388.27	73.881
388.62	73.510
388.98	74.386
389.34	73.342
389.70	74.065
390.06	74.968
390.42	73.735
390.77	73.728
391.13	75.750
391.49	73.858
391.85	73.456
392.20	73.249
392.56	74.242
392.92	73.455
393.28	72.485
393.64	72.722
393.99	72.083
394.35	73.015
394.71	73.463
395.07	72.274
395.42	72.806
395.78	73.092
396.14	71.570
396.50	72.932
396.85	72.473
397.21	71.208
397.57	72.722
397.92	71.995
398.28	70.740
398.64	72.461
399.00	71.125
399.35	70.840
399.71	71.238
400.07	72.028
400.42	71.104
400.78	73.160
401.14	72.317
401.49	72.000
401.85	71.567
402.21	70.659
402.57	71.314
402.92	71.375
403.28	72.455
403.63	71.411
403.99	71.210
404.35	71.091
404.70	69.904
405.06	70.181
405.42	70.867
405.77	70.286
406.13	70.316
406.49	69.131
406.84	69.876
407.20	70.035
407.55	70.325
407.91	72.600
408.27	70.581
408.62	68.874
408.98	69.179
409.34	69.434
409.69	70.774
410.05	70.694
410.40	68.624
410.76	69.235
411.11	67.612
411.47	69.265
411.83	68.723
412.18	69.326
412.54	69.489
412.89	68.072
413.25	68.595
413.60	69.117
413.96	67.638
414.31	68.651
414.67	69.265
415.03	68.411
415.38	67.977
415.74	67.203
416.09	69.366
416.45	69.143
416.80	68.738
417.16	70.107
417.51	68.414
417.87	66.795
418.22	68.896
418.58	68.173
418.93	68.059
419.29	68.237
419.64	68.010
420.00	67.134
420.35	65.681
420.71	66.647
421.06	66.229
421.42	65.322
421.77	65.975
422.12	66.086
422.48	66.055
422.83	66.686
423.19	66.188
423.54	64.887
423.90	66.145
424.25	66.052
424.61	65.655
424.96	65.423
425.31	66.722
425.67	65.056
426.02	64.743
426.38	66.850
426.73	64.833
427.09	65.471
427.44	65.612
427.79	64.635
428.15	64.821
428.50	64.833
428.85	64.124
429.21	63.943
429.56	63.297
429.92	63.966
430.27	63.803
430.62	63.543
430.98	63.467
431.33	63.196
431.68	63.246
432.04	62.354
432.39	63.392
432.74	63.794
433.10	63.045
433.45	64.082
433.80	62.860
434.16	62.821
434.51	62.474
434.86	63.113
435.22	62.868
435.57	63.830
435.92	64.365
436.28	64.116
436.63	63.300
436.98	61.362
437.34	63.268
437.69	62.310
438.04	61.664
438.39	62.209
438.75	62.754
439.10	61.788
439.45	61.983
439.81	63.565
440.16	61.773
440.51	62.156
440.86	62.942
441.22	62.403
441.57	62.473
441.92	61.975
442.27	59.957
442.63	59.979
442.98	61.972
443.33	59.728
443.68	61.125
444.03	60.761
444.39	59.542
444.74	61.797
445.09	59.461
445.44	60.634
445.79	59.327
446.15	58.126
446.50	60.097
446.85	60.175
447.20	60.479
447.55	60.581
447.91	60.397
448.26	60.935
448.61	60.034
448.96	60.963
449.31	59.561
449.66	59.482
450.02	59.331
450.37	59.240
450.72	59.616
451.07	58.684
451.42	59.574
451.77	59.248
452.12	58.776
452.47	59.328
452.83	59.266
453.18	57.274
453.53	60.049
453.88	58.063
454.23	58.697
454.58	58.934
454.93	59.377
455.28	58.915
455.63	58.677
455.98	59.643
456.34	58.354
456.69	59.424
457.04	58.638
457.39	57.276
457.74	57.516
458.09	56.527
458.44	57.355
458.79	56.236
459.14	57.901
459.49	56.334
459.84	56.565
460.19	56.806
460.54	54.977
460.89	56.281
461.24	57.134
461.59	58.106
461.94	56.412
462.29	56.795
462.64	56.158
462.99	56.148
463.34	56.133
463.69	55.785
464.04	55.130
464.39	55.188
464.74	55.734
465.09	54.282
465.44	53.407
465.79	53.971
466.14	53.585
466.49	53.170
466.84	53.298
467.19	54.315
467.54	54.625
467.89	54.142
468.24	53.403
468.59	54.640
468.94	52.291
469.29	54.627
469.64	55.823
469.99	56.901
470.34	54.161
470.68	54.670
471.03	52.789
471.38	54.969
471.73	54.364
472.08	53.158
472.43	53.894
472.78	54.312
473.13	53.851
473.48	53.121
473.83	53.415
474.17	51.960
474.52	53.040
474.87	52.598
475.22	51.538
475.57	52.069
475.92	51.620
476.27	50.902
476.61	51.958
476.96	51.787
477.31	51.177
477.66	52.626
478.01	50.183
478.36	52.195
478.70	51.610
479.05	52.556
479.40	51.177
479.75	51.957
480.10	50.199
480.45	50.024
480.79	49.833
481.14	50.391
481.49	49.597
481.84	49.749
482.19	50.613
482.53	49.312
482.88	50.209
483.23	49.766
483.58	49.955
483.92	49.719
484.27	48.627
484.62	50.000
484.97	47.931
485.31	48.562
485.66	47.148
486.01	45.118
486.36	43.442
486.70	43.265
487.05	44.926
487.40	45.506
487.75	45.455
488.09	45.921
488.44	45.931
488.79	46.799
489.13	47.479
489.48	47.349
489.83	47.648
490.17	48.093
490.52	48.273
490.87	47.942
491.22	47.931
491.56	46.378
491.91	47.557
492.26	46.808
492.60	47.189
492.95	46.773
493.30	47.477
493.64	46.617
493.99	46.379
494.34	46.994
494.68	47.344
495.03	46.805
495.37	46.952
495.72	47.271
496.07	47.285
496.41	45.575
496.76	45.910
497.11	46.195
497.45	46.251
497.80	45.873
498.14	45.942
498.49	46.439
498.84	46.500
499.18	46.048
499.53	45.774
499.87	45.480
500.22	45.266
500.56	45.728
500.91	44.423
501.26	44.381
501.60	46.464
501.95	44.867
502.29	45.548
502.64	44.600
502.98	44.834
503.33	43.830
503.67	44.501
504.02	44.013
504.36	46.186
504.71	45.188
505.06	44.819
505.40	44.191
505.75	44.262
506.09	43.392
506.44	44.697
506.78	43.741
507.13	45.230
507.47	45.101
507.82	45.339
508.16	45.086
508.51	44.444
508.85	43.694
509.19	44.490
509.54	44.082
509.88	43.792
510.23	43.085
510.57	44.737
510.92	44.174
511.26	43.320
511.61	44.502
511.95	42.745
512.30	43.425
512.64	43.041
512.98	43.623
513.33	43.790
513.67	43.703
514.02	43.182
514.36	44.074
514.70	43.221
515.05	43.837
515.39	43.073
515.74	43.581
516.08	43.432
516.42	43.674
516.77	43.645
517.11	42.564
517.46	43.510
517.80	43.380
518.14	43.312
518.49	43.932
518.83	42.102
519.17	43.764
519.52	42.954
519.86	42.556
520.20	43.237
520.55	44.345
520.89	42.944
521.23	43.667
521.58	42.977
521.92	43.050
522.26	42.343
522.61	43.863
522.95	43.217
523.29	41.631
523.64	42.988
523.98	43.438
524.32	41.737
524.66	43.235
525.01	42.279
525.35	42.875
525.69	41.441
526.04	41.931
526.38	42.465
526.72	42.393
527.06	42.875
527.41	41.337
527.75	42.186
528.09	42.582
528.43	41.619
528.78	42.778
529.12	41.212
529.46	42.254
529.80	41.213
530.15	41.807
530.49	40.985
530.83	41.392
531.17	41.841
531.51	43.385
531.86	42.065
532.20	42.308
532.54	41.768
532.88	41.207
533.22	40.974
533.57	40.617
533.91	40.578
534.25	40.826
534.59	41.062
534.93	40.690
535.27	39.831
535.62	40.232
535.96	40.490
536.30	40.242
536.64	40.695
536.98	41.009
537.32	40.487
537.66	41.467
538.01	41.211
538.35	41.112
538.69	40.587
539.03	39.311
539.37	39.425
539.71	39.080
540.05	39.673
540.39	39.934
540.73	38.875
541.07	40.753
541.42	40.444
541.76	40.000
542.10	40.492
542.44	39.404
542.78	39.855
543.12	38.452
543.46	39.803
543.80	39.818
544.14	38.703
544.48	38.603
544.82	39.128
545.16	39.167
545.50	39.075
545.84	39.113
546.18	39.394
546.52	40.537
546.86	39.863
547.20	40.728
547.54	39.011
547.88	39.094
548.22	37.547
548.56	37.862
548.90	38.476
549.24	38.182
549.58	38.881
549.92	38.736
550.26	40.341
550.60	38.313
550.94	38.662
551.28	37.820
551.62	39.540
551.96	39.368
552.30	39.932
552.64	40.230
552.98	38.576
553.32	38.705
553.66	39.332
554.00	38.229
554.34	37.888
554.68	39.413
555.02	38.717
555.36	38.135
555.69	38.498
556.03	38.022
556.37	38.745
556.71	37.722
557.05	38.375
557.39	38.139
557.73	38.250
558.07	38.434
558.41	38.278
558.75	38.868
559.08	38.852
559.42	39.456
559.76	38.456
560.10	37.973
560.44	37.526
560.78	37.259
561.12	37.137
561.45	37.158
561.79	36.651
562.13	36.955
562.47	37.295
562.81	37.936
563.15	35.920
563.48	37.202
563.82	36.791
564.16	36.625
564.50	36.654
564.84	35.272
565.17	36.293
565.51	36.933
565.85	36.485
566.19	35.692
566.52	36.859
566.86	35.865
567.20	35.908
567.54	35.845
567.88	34.329
568.21	34.921
568.55	34.580
568.89	34.484
569.23	33.467
569.56	33.765
569.90	32.868
570.24	32.436
570.57	30.976
570.91	31.125
571.25	30.914
571.59	31.016
571.92	30.530
572.26	30.503
572.60	31.411
572.93	30.795
573.27	30.642
573.61	30.905
573.95	30.413
574.28	30.201
574.62	30.442
574.96	29.749
575.29	29.898
575.63	29.903
575.97	29.836
576.30	29.926
576.64	29.340
576.98	30.092
577.31	29.667
577.65	29.273
577.98	28.991
578.32	28.852
578.66	29.140
578.99	29.057
579.33	29.484
579.67	29.287
580.00	29.250
580.34	29.758
580.67	28.977
581.01	29.346
581.35	28.452
581.68	28.510
582.02	28.144
582.35	28.680
582.69	28.501
583.02	28.876
583.36	29.767
583.70	29.071
584.03	29.154
584.37	30.224
584.70	29.049
585.04	28.914
585.37	29.054
585.71	28.830
586.04	29.017
586.38	29.572
586.72	29.716
587.05	28.824
587.39	28.839
587.72	28.936
588.06	29.189
588.39	29.520
588.73	29.627
589.06	30.196
589.40	30.471
589.73	30.341
590.07	30.605
590.40	29.960
590.73	30.835
591.07	31.217
591.40	31.717
591.74	31.775
592.07	30.934
592.41	31.087
592.74	29.850
593.08	29.780
593.41	28.757
593.75	28.670
594.08	29.232
594.41	29.480
594.75	29.797
595.08	29.850
595.42	30.473
595.75	28.917
596.09	30.267
596.42	30.530
596.75	30.730
597.09	31.472
597.42	29.975
597.75	30.660
598.09	30.696
598.42	30.069
598.76	29.834
599.09	29.190
599.42	28.967
599.76	29.575
600.09	29.144
600.42	29.364
600.76	28.857
601.09	28.925
601.42	28.919
601.76	29.336
602.09	29.723
602.42	29.578
602.76	29.827
603.09	29.976
603.42	30.066
603.76	28.697
604.09	28.848
604.42	29.759
604.76	29.608
605.09	30.144
605.42	28.987
605.75	30.215
606.09	29.443
606.42	29.179
606.75	29.490
607.09	29.259
607.42	29.311
607.75	28.776
608.08	29.614
608.42	29.987
608.75	29.261
609.08	29.833
609.41	30.509
609.75	29.633
610.08	31.056
610.41	29.330
610.74	29.659
611.07	31.275
611.41	29.980
611.74	30.568
612.07	30.745
612.40	31.217
612.73	30.211
613.07	31.358
613.40	30.226
613.73	30.152
614.06	29.892
614.39	30.309
614.72	29.579
615.06	29.884
615.39	30.679
615.72	30.112
616.05	30.303
616.38	30.850
616.71	30.998
617.05	30.801
617.38	30.908
617.71	31.051
618.04	31.611
618.37	30.810
618.70	30.803
619.03	31.842
619.36	31.093
619.69	31.761
620.03	32.418
620.36	31.484
620.69	32.671
621.02	31.416
621.35	32.106
621.68	32.632
622.01	32.043
622.34	32.224
622.67	32.471
623.00	32.282
623.33	31.380
623.66	31.451
623.99	31.811
624.32	31.598
624.65	31.568
624.99	30.666
625.32	31.789
625.65	32.006
625.98	33.205
626.31	33.048
626.64	33.224
626.97	32.918
627.30	32.751
627.63	32.732
627.96	33.474
628.29	33.246
628.62	32.662
628.95	36.321
629.28	34.215
629.61	35.014
629.94	33.619
630.26	33.937
630.59	33.746
