SpectraSuite Data File
++++++++++++++++++++++++++++++++++++
Date: Tue May 12 20:00:23 PDT 2015
User: schluterlab
Dark Spectrum Present: Yes
Reference Spectrum Present: Yes
Number of Sampled Component Spectra: 1
Spectrometers: USB2E3373
Integration Time (usec): 3000 (USB2E3373)
Spectra Averaged: 3 (USB2E3373)
Boxcar Smoothing: 0 (USB2E3373)
Correct for Electrical Dark: No (USB2E3373)
Strobe/Lamp Enabled: No (USB2E3373)
Correct for Detector Non-linearity: No (USB2E3373)
Correct for Stray Light: No (USB2E3373)
Number of Pixels in Processed Spectrum: 2048
>>>>>Begin Processed Spectral Data<<<<<
178.53	0.000
178.91	-150.000
179.29	-283.333
179.67	533.333
180.04	0.000
180.42	-420.000
180.80	-733.333
181.18	1100.000
181.56	-1250.000
181.94	400.000
182.31	3200.000
182.69	-157.143
183.07	0.000
183.45	250.000
183.83	360.000
184.20	283.333
184.58	1400.000
184.96	616.667
185.34	-733.333
185.72	-100.000
186.09	-316.667
186.47	-1800.000
186.85	-220.000
187.23	241.667
187.61	-271.429
187.98	-280.000
188.36	1250.000
188.74	-325.000
189.12	-166.667
189.49	-140.000
189.87	600.000
190.25	255.556
190.63	566.667
191.00	460.000
191.38	-766.667
191.76	480.000
192.14	-228.571
192.51	-100.000
192.89	-120.000
193.27	-320.000
193.65	-700.000
194.02	-383.333
194.40	1700.000
194.78	-150.000
195.15	-357.143
195.53	433.333
195.91	520.000
196.29	-500.000
196.66	-666.667
197.04	-342.857
197.42	140.000
197.79	-175.000
198.17	-125.000
198.55	-600.000
198.92	-300.000
199.30	1100.000
199.68	-625.000
200.05	-1600.000
200.43	-61.111
200.81	-200.000
201.18	433.333
201.56	-1100.000
201.94	-2500.000
202.31	-141.667
202.69	-122.222
203.07	-208.333
203.44	-850.000
203.82	0.000
204.19	312.500
204.57	-700.000
204.95	254.545
205.32	420.000
205.70	675.000
206.08	-1300.000
206.45	-340.000
206.83	2400.000
207.20	-100.000
207.58	-46.154
207.96	233.333
208.33	800.000
208.71	833.333
209.08	1250.000
209.46	-155.556
209.84	1200.000
210.21	-866.667
210.59	1100.000
210.96	322.222
211.34	-600.000
211.71	1950.000
212.09	-300.000
212.46	-250.000
212.84	-275.000
213.22	157.143
213.59	-137.500
213.97	0.000
214.34	-450.000
214.72	-800.000
215.09	1150.000
215.47	-106.667
215.84	-225.000
216.22	-2800.000
216.59	2200.000
216.97	-66.667
217.34	-100.000
217.72	-33.333
218.09	875.000
218.47	-68.421
218.84	-250.000
219.22	-107.143
219.59	-200.000
219.97	-230.000
220.34	183.333
220.72	154.545
221.09	-1650.000
221.47	0.000
221.84	1000.000
222.22	-500.000
222.59	-350.000
222.97	-21.739
223.34	226.667
223.72	471.429
224.09	-366.667
224.46	246.154
224.84	-86.667
225.21	-800.000
225.59	-625.000
225.96	-25.000
226.34	400.000
226.71	280.000
227.08	-138.462
227.46	-142.857
227.83	-158.333
228.21	-1450.000
228.58	433.333
228.95	5.263
229.33	-75.000
229.70	-350.000
230.08	-122.222
230.45	-833.333
230.82	-1700.000
231.20	-47.619
231.57	-380.000
231.95	-766.667
232.32	255.556
232.69	-900.000
233.07	-43.750
233.44	-62.500
233.81	-6.452
234.19	-180.000
234.56	-66.667
234.93	-366.667
235.31	-40.741
235.68	-37.037
236.05	-38.462
236.43	-78.947
236.80	-27.273
237.17	-78.571
237.55	-55.000
237.92	4.651
238.29	-35.484
238.67	25.000
239.04	25.714
239.41	19.608
239.79	18.000
240.16	0.000
240.53	8.621
240.91	31.507
241.28	26.761
241.65	28.125
242.02	12.281
242.40	16.000
242.77	24.211
243.14	17.647
243.51	21.505
243.89	17.143
244.26	41.667
244.63	31.633
245.00	17.857
245.38	18.487
245.75	19.492
246.12	18.750
246.49	28.000
246.87	31.967
247.24	28.873
247.61	32.450
247.98	32.584
248.36	30.189
248.73	34.091
249.10	30.000
249.47	30.729
249.84	32.487
250.22	32.292
250.59	33.708
250.96	31.818
251.33	41.038
251.70	33.945
252.08	38.528
252.45	32.653
252.82	30.380
253.19	37.354
253.56	41.961
253.94	32.520
254.31	42.086
254.68	34.722
255.05	36.755
255.42	37.455
255.79	38.742
256.16	39.583
256.54	39.394
256.91	42.949
257.28	35.390
257.65	36.393
258.02	39.640
258.39	40.483
258.76	37.615
259.14	35.588
259.51	37.746
259.88	38.905
260.25	37.216
260.62	37.079
260.99	39.554
261.36	35.632
261.73	41.333
262.10	39.237
262.47	38.843
262.85	40.360
263.22	38.172
263.59	37.534
263.96	38.903
264.33	37.197
264.70	36.855
265.07	37.931
265.44	39.578
265.81	39.759
266.18	37.237
266.55	38.333
266.92	40.848
267.29	39.333
267.66	36.818
268.03	41.075
268.40	38.673
268.77	39.198
269.14	36.975
269.51	38.462
269.88	40.598
270.25	38.819
270.62	39.916
270.99	37.684
271.36	39.514
271.73	38.333
272.10	40.456
272.47	38.200
272.84	36.943
273.21	36.534
273.58	36.735
273.95	37.450
274.32	39.072
274.69	40.313
275.06	38.837
275.43	34.800
275.80	38.050
276.17	37.747
276.54	38.783
276.91	39.539
277.28	37.911
277.65	36.295
278.02	37.879
278.39	37.931
278.76	37.058
279.13	39.177
279.50	38.628
279.87	36.981
280.23	39.344
280.60	33.922
280.97	38.313
281.34	40.169
281.71	37.123
282.08	37.209
282.45	38.272
282.82	37.037
283.19	37.374
283.56	39.761
283.92	37.125
284.29	37.056
284.66	36.814
285.03	34.648
285.40	37.500
285.77	37.274
286.14	35.658
286.51	36.656
286.87	34.360
287.24	34.776
287.61	35.185
287.98	35.524
288.35	34.729
288.72	33.945
289.08	33.019
289.45	34.009
289.82	32.919
290.19	34.545
290.56	33.285
290.93	33.678
291.29	34.184
291.66	33.006
292.03	34.146
292.40	34.676
292.77	30.175
293.13	32.599
293.50	34.435
293.87	32.732
294.24	30.618
294.60	31.011
294.97	28.947
295.34	30.137
295.71	31.484
296.08	30.464
296.44	29.776
296.81	28.849
297.18	31.436
297.55	30.528
297.91	31.726
298.28	28.517
298.65	30.013
299.02	28.237
299.38	27.806
299.75	28.829
300.12	28.297
300.48	27.582
300.85	27.751
301.22	27.644
301.59	28.102
301.95	27.927
302.32	26.731
302.69	27.824
303.05	27.509
303.42	29.106
303.79	26.629
304.15	27.860
304.52	26.816
304.89	26.719
305.25	27.064
305.62	26.591
305.99	26.316
306.35	27.852
306.72	27.342
307.09	26.877
307.45	25.135
307.82	27.215
308.19	27.063
308.55	28.165
308.92	27.436
309.29	26.255
309.65	27.554
310.02	27.463
310.38	27.612
310.75	26.332
311.12	26.348
311.48	27.646
311.85	25.431
312.22	27.273
312.58	27.190
312.95	26.797
313.31	25.762
313.68	25.621
314.05	29.593
314.41	27.603
314.78	26.231
315.14	27.914
315.51	27.805
315.87	28.027
316.24	28.388
316.61	28.738
316.97	28.039
317.34	28.612
317.70	27.451
318.07	28.255
318.43	28.828
318.80	28.142
319.16	27.773
319.53	31.132
319.89	28.788
320.26	31.268
320.62	31.298
320.99	31.735
321.35	31.126
321.72	33.636
322.08	32.277
322.45	32.742
322.81	35.468
323.18	34.132
323.54	35.735
323.91	35.863
324.27	35.873
324.64	37.582
325.00	38.308
325.37	40.018
325.73	38.869
326.10	39.842
326.46	41.614
326.83	41.337
327.19	40.437
327.56	43.236
327.92	41.406
328.29	43.638
328.65	45.669
329.01	44.037
329.38	45.914
329.74	46.890
330.11	45.760
330.47	47.114
330.84	47.086
331.20	47.412
331.56	48.679
331.93	48.216
332.29	48.289
332.66	49.819
333.02	49.489
333.38	50.368
333.75	50.320
334.11	50.181
334.48	50.000
334.84	51.080
335.20	50.134
335.57	50.318
335.93	50.884
336.29	51.097
336.66	52.368
337.02	51.949
337.38	50.660
337.75	52.182
338.11	51.139
338.47	51.811
338.84	52.855
339.20	52.521
339.56	54.334
339.93	52.703
340.29	52.765
340.65	53.242
341.02	53.853
341.38	52.339
341.74	54.270
342.11	52.520
342.47	53.497
342.83	52.732
343.20	53.935
343.56	51.661
343.92	52.668
344.28	52.316
344.65	52.997
345.01	54.530
345.37	51.966
345.73	53.144
346.10	53.500
346.46	51.855
346.82	52.761
347.19	52.902
347.55	54.337
347.91	51.597
348.27	56.529
348.63	53.846
349.00	54.591
349.36	53.504
349.72	53.120
350.08	53.273
350.45	52.644
350.81	53.014
351.17	51.730
351.53	51.691
351.89	53.541
352.26	52.439
352.62	52.330
352.98	53.640
353.34	52.966
353.70	53.498
354.07	54.366
354.43	52.337
354.79	52.295
355.15	52.139
355.51	52.649
355.87	53.539
356.24	54.493
356.60	52.504
356.96	50.869
357.32	52.922
357.68	53.461
358.04	53.079
358.40	52.782
358.77	53.333
359.13	52.129
359.49	52.800
359.85	53.078
360.21	51.546
360.57	52.711
360.93	54.473
361.29	52.648
361.66	51.577
362.02	52.669
362.38	52.758
362.74	52.652
363.10	52.790
363.46	52.445
363.82	52.067
364.18	52.612
364.54	52.595
364.90	51.111
365.26	52.683
365.62	52.687
365.98	52.849
366.35	52.874
366.71	51.456
367.07	52.841
367.43	51.408
367.79	51.163
368.15	53.225
368.51	52.135
368.87	52.570
369.23	54.201
369.59	51.765
369.95	50.820
370.31	52.576
370.67	52.556
371.03	52.012
371.39	53.776
371.75	52.006
372.11	50.741
372.47	50.334
372.83	52.155
373.19	52.108
373.55	51.722
373.91	51.970
374.27	52.612
374.63	52.577
374.99	51.977
375.35	52.104
375.71	51.435
376.07	50.813
376.42	51.452
376.78	51.220
377.14	51.676
377.50	52.052
377.86	51.393
378.22	51.453
378.58	52.303
378.94	51.343
379.30	51.030
379.66	51.793
380.02	52.003
380.38	52.290
380.74	51.833
381.09	51.652
381.45	51.238
381.81	52.232
382.17	51.596
382.53	53.057
382.89	51.636
383.25	51.554
383.61	50.985
383.97	50.552
384.32	50.968
384.68	51.788
385.04	50.796
385.40	51.310
385.76	51.423
386.12	50.693
386.48	50.228
386.83	51.086
387.19	51.213
387.55	50.777
387.91	49.221
388.27	50.352
388.62	51.554
388.98	50.954
389.34	49.187
389.70	49.872
390.06	50.825
390.42	51.386
390.77	51.777
391.13	51.204
391.49	50.876
391.85	50.100
392.20	51.683
392.56	49.443
392.92	49.969
393.28	49.551
393.64	50.728
393.99	50.779
394.35	50.162
394.71	49.205
395.07	48.674
395.42	48.317
395.78	48.925
396.14	49.500
396.50	48.577
396.85	48.645
397.21	47.801
397.57	48.980
397.92	48.219
398.28	49.221
398.64	47.048
399.00	49.275
399.35	48.066
399.71	47.904
400.07	47.251
400.42	48.718
400.78	47.729
401.14	47.854
401.49	47.783
401.85	48.190
402.21	47.145
402.57	45.654
402.92	48.539
403.28	47.269
403.63	45.449
403.99	47.292
404.35	47.197
404.70	46.738
405.06	45.691
405.42	45.608
405.77	45.838
406.13	45.400
406.49	45.615
406.84	46.389
407.20	44.857
407.55	45.625
407.91	43.846
408.27	45.146
408.62	43.923
408.98	45.431
409.34	43.790
409.69	44.147
410.05	43.847
410.40	43.353
410.76	44.147
411.11	43.374
411.47	42.857
411.83	42.563
412.18	43.652
412.54	42.950
412.89	43.264
413.25	43.135
413.60	42.602
413.96	42.071
414.31	40.727
414.67	43.011
415.03	42.254
415.38	43.036
415.74	41.370
416.09	40.868
416.45	41.401
416.80	40.682
417.16	41.467
417.51	40.944
417.87	42.613
418.22	41.444
418.58	39.806
418.93	41.328
419.29	41.180
419.64	40.728
420.00	39.555
420.35	40.804
420.71	39.501
421.06	39.714
421.42	40.025
421.77	40.256
422.12	39.220
422.48	39.235
422.83	39.271
423.19	39.294
423.54	38.302
423.90	39.493
424.25	38.852
424.61	39.355
424.96	38.882
425.31	38.829
425.67	38.061
426.02	38.944
426.38	38.288
426.73	38.380
427.09	38.411
427.44	38.086
427.79	37.624
428.15	37.603
428.50	38.442
428.85	36.947
429.21	38.255
429.56	37.293
429.92	37.101
430.27	35.253
430.62	36.831
430.98	35.895
431.33	38.209
431.68	37.199
432.04	36.364
432.39	34.938
432.74	36.053
433.10	36.446
433.45	36.162
433.80	36.190
434.16	35.673
434.51	35.842
434.86	35.710
435.22	35.739
435.57	36.939
435.92	34.861
436.28	34.371
436.63	35.897
436.98	34.938
437.34	35.829
437.69	35.864
438.04	34.736
438.39	34.661
438.75	34.400
439.10	35.179
439.45	36.585
439.81	33.651
440.16	35.312
440.51	34.201
440.86	34.217
441.22	34.366
441.57	34.188
441.92	34.953
442.27	34.514
442.63	34.989
442.98	34.108
443.33	33.843
443.68	33.943
444.03	33.814
444.39	34.461
444.74	33.257
445.09	34.238
445.44	32.770
445.79	34.844
446.15	34.344
446.50	34.471
446.85	34.048
447.20	34.300
447.55	32.635
447.91	33.510
448.26	33.056
448.61	34.139
448.96	31.815
449.31	33.876
449.66	32.324
450.02	33.314
450.37	33.536
450.72	32.436
451.07	33.289
451.42	33.663
451.77	32.409
452.12	33.584
452.47	32.927
452.83	32.877
453.18	33.828
453.53	33.508
453.88	32.546
454.23	32.971
454.58	33.943
454.93	33.106
455.28	33.062
455.63	32.878
455.98	33.249
456.34	32.217
456.69	32.701
457.04	32.480
457.39	31.898
457.74	32.427
458.09	31.487
458.44	32.741
458.79	32.214
459.14	32.677
459.49	32.739
459.84	31.986
460.19	32.083
460.54	31.187
460.89	32.059
461.24	32.338
461.59	32.177
461.94	32.150
462.29	32.832
462.64	32.591
462.99	32.415
463.34	30.842
463.69	32.099
464.04	32.713
464.39	32.733
464.74	31.733
465.09	31.576
465.44	31.794
465.79	31.408
466.14	31.146
466.49	31.707
466.84	31.265
467.19	31.124
467.54	31.034
467.89	31.940
468.24	31.566
468.59	31.348
468.94	31.876
469.29	32.526
469.64	31.510
469.99	31.507
470.34	30.905
470.68	30.923
471.03	30.730
471.38	31.414
471.73	30.959
472.08	31.886
472.43	31.466
472.78	30.457
473.13	31.158
473.48	31.466
473.83	31.506
474.17	30.821
474.52	30.476
474.87	31.313
475.22	30.940
475.57	30.964
475.92	30.756
476.27	30.621
476.61	32.151
476.96	30.943
477.31	31.393
477.66	31.551
478.01	30.547
478.36	30.544
478.70	31.380
479.05	30.354
479.40	30.735
479.75	32.025
480.10	31.006
480.45	31.937
480.79	31.240
481.14	31.049
481.49	30.694
481.84	31.818
482.19	30.780
482.53	30.833
482.88	31.418
483.23	32.111
483.58	30.545
483.92	30.804
484.27	30.397
484.62	31.730
484.97	30.404
485.31	30.240
485.66	28.521
486.01	28.777
486.36	29.260
486.70	29.969
487.05	30.654
487.40	30.154
487.75	30.060
488.09	29.135
488.44	29.703
488.79	30.008
489.13	29.925
489.48	30.080
489.83	29.820
490.17	30.614
490.52	30.019
490.87	31.454
491.22	30.868
491.56	31.176
491.91	29.418
492.26	32.075
492.60	30.816
492.95	30.801
493.30	31.103
493.64	31.136
493.99	30.955
494.34	31.374
494.68	30.030
495.03	29.919
495.37	31.171
495.72	31.065
496.07	30.274
496.41	29.348
496.76	30.516
497.11	30.034
497.45	30.789
497.80	30.841
498.14	30.517
498.49	30.806
498.84	29.612
499.18	30.306
499.53	30.530
499.87	30.159
500.22	30.545
500.56	31.502
500.91	30.991
501.26	30.919
501.60	30.377
501.95	31.013
502.29	30.221
502.64	29.467
502.98	29.278
503.33	30.404
503.67	30.271
504.02	30.490
504.36	29.944
504.71	29.734
505.06	30.262
505.40	30.188
505.75	30.700
506.09	30.607
506.44	30.955
506.78	30.782
507.13	30.185
507.47	31.247
507.82	31.250
508.16	31.292
508.51	30.908
508.85	30.604
509.19	30.993
509.54	30.878
509.88	30.783
510.23	31.180
510.57	30.494
510.92	31.406
511.26	29.925
511.61	30.251
511.95	31.001
512.30	30.957
512.64	30.850
512.98	30.951
513.33	30.950
513.67	30.539
514.02	31.490
514.36	30.724
514.70	31.573
515.05	31.220
515.39	31.179
515.74	30.890
516.08	31.011
516.42	31.200
516.77	31.677
517.11	31.498
517.46	32.230
517.80	31.972
518.14	31.120
518.49	31.436
518.83	31.453
519.17	32.005
519.52	31.793
519.86	31.666
520.20	30.764
520.55	31.593
520.89	31.916
521.23	31.263
521.58	30.754
521.92	30.641
522.26	31.821
522.61	32.628
522.95	33.219
523.29	32.254
523.64	32.429
523.98	31.586
524.32	31.717
524.66	32.087
525.01	31.546
525.35	31.943
525.69	31.521
526.04	32.840
526.38	30.637
526.72	34.236
527.06	32.982
527.41	31.680
527.75	31.874
528.09	31.683
528.43	31.609
528.78	31.726
529.12	31.575
529.46	31.827
529.80	31.110
530.15	31.897
530.49	32.148
530.83	32.466
531.17	31.427
531.51	32.334
531.86	32.143
532.20	31.241
532.54	30.863
532.88	31.636
533.22	31.537
533.57	31.103
533.91	30.970
534.25	31.025
534.59	31.981
534.93	30.759
535.27	31.044
535.62	30.182
535.96	31.333
536.30	30.689
536.64	31.116
536.98	32.006
537.32	31.548
537.66	31.232
538.01	30.044
538.35	31.055
538.69	30.149
539.03	30.786
539.37	30.940
539.71	31.232
540.05	32.200
540.39	31.082
540.73	31.282
541.07	31.324
541.42	30.720
541.76	30.576
542.10	31.492
542.44	30.564
542.78	30.205
543.12	29.964
543.46	31.744
543.80	31.951
544.14	31.111
544.48	31.439
544.82	30.660
545.16	31.522
545.50	31.805
545.84	30.358
546.18	30.936
546.52	31.207
546.86	30.987
547.20	31.515
547.54	30.629
547.88	29.986
548.22	29.395
548.56	31.078
548.90	30.737
549.24	30.775
549.58	31.222
549.92	30.827
550.26	29.884
550.60	31.007
550.94	31.587
551.28	31.707
551.62	32.678
551.96	30.990
552.30	30.853
552.64	30.203
552.98	30.906
553.32	30.909
553.66	30.653
554.00	31.120
554.34	31.484
554.68	31.260
555.02	31.270
555.36	30.898
555.69	30.592
556.03	30.303
556.37	31.283
556.71	30.995
557.05	29.922
557.39	31.566
557.73	29.953
558.07	30.203
558.41	30.088
558.75	32.116
559.08	30.894
559.42	31.438
559.76	30.329
560.10	31.785
560.44	30.958
560.78	30.579
561.12	30.353
561.45	31.176
561.79	29.956
562.13	30.615
562.47	30.963
562.81	30.402
563.15	29.354
563.48	30.487
563.82	30.131
564.16	29.753
564.50	30.229
564.84	29.979
565.17	31.116
565.51	30.823
565.85	29.789
566.19	30.689
566.52	30.036
566.86	29.850
567.20	29.142
567.54	29.355
567.88	29.187
568.21	30.188
568.55	28.636
568.89	29.231
569.23	28.665
569.56	28.966
569.90	29.422
570.24	28.723
570.57	28.856
570.91	28.311
571.25	28.685
571.59	28.098
571.92	27.225
572.26	27.276
572.60	27.710
572.93	27.145
573.27	27.547
573.61	27.329
573.95	27.242
574.28	26.786
574.62	26.395
574.96	26.519
575.29	26.407
575.63	26.661
575.97	26.665
576.30	26.778
576.64	26.709
576.98	26.887
577.31	26.873
577.65	26.719
577.98	26.402
578.32	26.389
578.66	26.703
578.99	26.727
579.33	26.387
579.67	26.474
580.00	26.324
580.34	26.843
580.67	26.246
581.01	26.426
581.35	26.032
581.68	26.132
582.02	26.061
582.35	26.644
582.69	26.996
583.02	26.176
583.36	26.060
583.70	27.223
584.03	26.210
584.37	26.720
584.70	26.326
585.04	25.976
585.37	26.450
585.71	26.007
586.04	26.774
586.38	26.750
586.72	26.023
587.05	26.324
587.39	26.672
587.72	26.452
588.06	26.857
588.39	26.731
588.73	26.577
589.06	26.359
589.40	27.068
589.73	26.402
590.07	26.326
590.40	27.284
590.73	27.405
591.07	27.662
591.40	28.049
591.74	27.425
592.07	27.507
592.41	28.022
592.74	27.524
593.08	27.010
593.41	27.083
593.75	27.334
594.08	27.887
594.41	26.488
594.75	27.134
595.08	27.074
595.42	26.587
595.75	27.235
596.09	27.302
596.42	27.146
596.75	27.955
597.09	27.099
597.42	26.748
597.75	27.345
598.09	26.919
598.42	26.929
598.76	27.823
599.09	26.176
599.42	25.688
599.76	27.109
600.09	26.809
600.42	25.781
600.76	26.059
601.09	26.196
601.42	25.966
601.76	26.948
602.09	26.519
602.42	26.921
602.76	26.920
603.09	26.849
603.42	26.959
603.76	27.402
604.09	26.441
604.42	27.651
604.76	26.426
605.09	26.169
605.42	27.393
605.75	26.587
606.09	27.556
606.42	26.247
606.75	26.687
607.09	28.498
607.42	27.811
607.75	26.860
608.08	26.848
608.42	27.207
608.75	26.613
609.08	26.401
609.41	27.164
609.75	26.751
610.08	26.718
610.41	26.667
610.74	27.604
611.07	27.922
611.41	26.552
611.74	27.312
612.07	26.395
612.40	27.855
612.73	27.373
613.07	27.422
613.40	26.912
613.73	26.460
614.06	27.166
614.39	27.592
614.72	26.919
615.06	27.210
615.39	27.598
615.72	26.148
616.05	26.899
616.38	26.394
616.71	27.425
617.05	27.136
617.38	28.194
617.71	27.956
618.04	28.055
618.37	28.450
618.70	28.125
619.03	28.499
619.36	29.676
619.69	27.294
620.03	28.452
620.36	27.362
620.69	28.086
621.02	28.266
621.35	28.681
621.68	28.263
622.01	28.520
622.34	28.559
622.67	28.162
623.00	28.256
623.33	28.346
623.66	28.207
623.99	27.831
624.32	28.197
624.65	27.500
624.99	28.438
625.32	27.883
625.65	28.022
625.98	29.583
626.31	28.052
626.64	29.730
626.97	29.044
627.30	29.907
627.63	29.209
627.96	28.678
628.29	29.541
628.62	27.423
628.95	28.828
629.28	30.475
629.61	28.840
629.94	29.876
630.26	29.707
630.59	30.681
630.92	27.819
