SpectraSuite Data File
++++++++++++++++++++++++++++++++++++
Date: Wed May 13 19:10:28 PDT 2015
User: schluterlab
Dark Spectrum Present: Yes
Reference Spectrum Present: Yes
Number of Sampled Component Spectra: 1
Spectrometers: USB2E3373
Integration Time (usec): 3000 (USB2E3373)
Spectra Averaged: 3 (USB2E3373)
Boxcar Smoothing: 0 (USB2E3373)
Correct for Electrical Dark: No (USB2E3373)
Strobe/Lamp Enabled: No (USB2E3373)
Correct for Detector Non-linearity: No (USB2E3373)
Correct for Stray Light: No (USB2E3373)
Number of Pixels in Processed Spectrum: 2048
>>>>>Begin Processed Spectral Data<<<<<
178.53	0.000
178.91	-1425.000
179.29	-1525.000
179.67	-277.778
180.04	-1525.000
180.42	2900.000
180.80	1280.000
181.18	-1200.000
181.56	657.143
181.94	0.000
182.31	-771.429
182.69	1833.333
183.07	-612.500
183.45	-544.444
183.83	527.273
184.20	-450.000
184.58	2950.000
184.96	6100.000
185.34	-1100.000
185.72	-662.500
186.09	-3050.000
186.47	3050.000
186.85	3050.000
187.23	5000.000
187.61	-1900.000
187.98	1475.000
188.36	654.545
188.74	600.000
189.12	-940.000
189.49	680.000
189.87	-4700.000
190.25	-1450.000
190.63	457.143
191.00	430.769
191.38	933.333
191.76	-1375.000
192.14	1400.000
192.51	700.000
192.89	1066.667
193.27	675.000
193.65	-1475.000
194.02	630.000
194.40	1160.000
194.78	570.000
195.15	550.000
195.53	740.000
195.91	-2650.000
196.29	468.750
196.66	368.421
197.04	-420.000
197.42	0.000
197.79	630.000
198.17	-5000.000
198.55	771.429
198.92	675.000
199.30	1120.000
199.68	0.000
200.05	355.556
200.43	957.143
200.81	4400.000
201.18	1933.333
201.56	-1566.667
201.94	677.778
202.31	700.000
202.69	508.333
203.07	600.000
203.44	0.000
203.82	1475.000
204.19	871.429
204.57	478.571
204.95	650.000
205.32	1733.333
205.70	581.818
206.08	400.000
206.45	3100.000
206.83	456.250
207.20	1033.333
207.58	980.000
207.96	327.778
208.33	850.000
208.71	-950.000
209.08	1028.571
209.46	811.111
209.84	518.182
210.21	-1700.000
210.59	1800.000
210.96	-687.500
211.34	2700.000
211.71	680.000
212.09	983.333
212.46	0.000
212.84	1933.333
213.22	1500.000
213.59	-5200.000
213.97	816.667
214.34	928.571
214.72	681.818
215.09	1140.000
215.47	-2850.000
215.84	-3000.000
216.22	1766.667
216.59	471.429
216.97	1775.000
217.34	509.091
217.72	-933.333
218.09	0.000
218.47	-4800.000
218.84	711.111
219.22	871.429
219.59	2133.333
219.97	-714.286
220.34	1060.000
220.72	-2100.000
221.09	421.429
221.47	1775.000
221.84	-1016.667
222.22	0.000
222.59	1450.000
222.97	-3250.000
223.34	1240.000
223.72	446.154
224.09	1260.000
224.46	2600.000
224.84	-4900.000
225.21	-1080.000
225.59	-5100.000
225.96	680.000
226.34	345.000
226.71	3200.000
227.08	725.000
227.46	580.000
227.83	-1225.000
228.21	-2900.000
228.58	688.889
228.95	-2550.000
229.33	-2250.000
229.70	1766.667
230.08	800.000
230.45	-1080.000
230.82	516.667
231.20	1000.000
231.57	771.429
231.95	575.000
232.32	309.091
232.69	518.182
233.07	785.714
233.44	384.615
233.81	-2133.333
234.19	336.842
234.56	508.333
234.93	341.667
235.31	536.364
235.68	407.692
236.05	414.286
236.43	163.636
236.80	310.526
237.17	4400.000
237.55	261.905
237.92	207.143
238.29	276.190
238.67	174.194
239.04	203.448
239.41	175.000
239.79	123.913
240.16	152.381
240.53	140.909
240.91	125.490
241.28	120.000
241.65	106.000
242.02	113.043
242.40	104.839
242.77	106.667
243.14	82.796
243.51	76.404
243.89	80.000
244.26	68.889
244.63	63.441
245.00	73.404
245.38	58.416
245.75	57.944
246.12	57.798
246.49	52.555
246.87	56.800
247.24	63.846
247.61	38.571
247.98	49.020
248.36	43.919
248.73	49.682
249.10	47.134
249.47	40.678
249.84	42.781
250.22	39.572
250.59	40.828
250.96	37.879
251.33	38.389
251.70	41.089
252.08	39.524
252.45	27.803
252.82	30.870
253.19	34.894
253.56	35.294
253.94	33.610
254.31	33.984
254.68	35.769
255.05	32.472
255.42	34.959
255.79	27.941
256.16	35.018
256.54	25.795
256.91	32.028
257.28	25.540
257.65	30.033
258.02	29.503
258.39	29.968
258.76	27.090
259.14	24.702
259.51	28.571
259.88	27.329
260.25	29.607
260.62	28.324
260.99	23.602
261.36	27.327
261.73	26.361
262.10	23.837
262.47	27.324
262.85	22.284
263.22	23.647
263.59	27.920
263.96	23.352
264.33	23.238
264.70	22.895
265.07	24.041
265.44	25.758
265.81	23.844
266.18	23.869
266.55	23.659
266.92	24.570
267.29	22.917
267.66	21.330
268.03	22.955
268.40	24.299
268.77	21.480
269.14	21.847
269.51	23.702
269.88	24.009
270.25	19.639
270.62	21.124
270.99	22.366
271.36	23.391
271.73	20.794
272.10	19.783
272.47	24.086
272.84	20.346
273.21	22.432
273.58	20.306
273.95	17.610
274.32	19.421
274.69	22.912
275.06	21.654
275.43	20.851
275.80	19.439
276.17	20.978
276.54	20.582
276.91	18.775
277.28	18.164
277.65	18.956
278.02	20.497
278.39	20.703
278.76	20.364
279.13	20.189
279.50	20.112
279.87	21.315
280.23	18.762
280.60	19.729
280.97	17.745
281.34	21.416
281.71	18.000
282.08	18.426
282.45	17.455
282.82	17.229
283.19	16.221
283.56	19.825
283.92	19.459
284.29	16.402
284.66	18.693
285.03	16.456
285.40	17.430
285.77	16.667
286.14	17.789
286.51	17.667
286.87	18.462
287.24	17.101
287.61	17.335
287.98	18.182
288.35	18.225
288.72	15.732
289.08	16.901
289.45	15.980
289.82	17.236
290.19	15.228
290.56	15.773
290.93	16.314
291.29	16.718
291.66	17.109
292.03	17.297
292.40	18.649
292.77	15.680
293.13	15.522
293.50	15.598
293.87	16.000
294.24	15.556
294.60	13.974
294.97	16.570
295.34	15.374
295.71	14.915
296.08	14.530
296.44	15.818
296.81	15.192
297.18	15.854
297.55	12.533
297.91	13.588
298.28	15.395
298.65	15.013
299.02	15.020
299.38	14.343
299.75	13.477
300.12	13.410
300.48	13.375
300.85	12.577
301.22	13.631
301.59	12.121
301.95	13.980
302.32	14.377
302.69	14.098
303.05	12.242
303.42	12.963
303.79	13.250
304.15	11.538
304.52	12.283
304.89	11.731
305.25	12.761
305.62	13.024
305.99	12.869
306.35	12.304
306.72	13.789
307.09	13.762
307.45	13.739
307.82	11.830
308.19	13.907
308.55	13.700
308.92	12.352
309.29	12.038
309.65	11.453
310.02	12.579
310.38	12.796
310.75	11.721
311.12	12.590
311.48	12.226
311.85	12.474
312.22	12.175
312.58	11.642
312.95	12.883
313.31	11.748
313.68	12.890
314.05	13.215
314.41	12.563
314.78	12.085
315.14	11.718
315.51	12.152
315.87	12.376
316.24	11.917
316.61	11.404
316.97	12.329
317.34	10.372
317.70	11.759
318.07	12.223
318.43	12.427
318.80	11.903
319.16	11.676
319.53	11.914
319.89	11.619
320.26	12.300
320.62	11.905
320.99	12.424
321.35	11.818
321.72	11.602
322.08	12.734
322.45	15.124
322.81	12.016
323.18	12.717
323.54	12.709
323.91	12.358
324.27	13.098
324.64	11.836
325.00	11.812
325.37	13.012
325.73	13.106
326.10	13.063
326.46	12.634
326.83	14.582
327.19	14.261
327.56	13.850
327.92	14.611
328.29	14.463
328.65	15.746
329.01	15.975
329.38	15.541
329.74	15.697
330.11	15.740
330.47	16.621
330.84	17.463
331.20	16.302
331.56	17.064
331.93	17.130
332.29	18.190
332.66	18.319
333.02	17.642
333.38	19.603
333.75	20.143
334.11	19.662
334.48	18.811
334.84	19.393
335.20	19.000
335.57	19.402
335.93	18.125
336.29	19.505
336.66	20.018
337.02	18.824
337.38	21.296
337.75	20.588
338.11	21.128
338.47	20.718
338.84	21.265
339.20	20.550
339.56	22.080
339.93	20.364
340.29	21.558
340.65	20.410
341.02	22.251
341.38	22.598
341.74	20.088
342.11	21.572
342.47	21.322
342.83	20.805
343.20	22.165
343.56	21.061
343.92	20.789
344.28	22.024
344.65	21.582
345.01	21.465
345.37	20.583
345.73	22.420
346.10	21.824
346.46	21.186
346.82	21.911
347.19	21.220
347.55	21.593
347.91	22.249
348.27	22.925
348.63	22.742
349.00	21.602
349.36	21.757
349.72	22.133
350.08	22.042
350.45	23.190
350.81	22.177
351.17	22.609
351.53	22.113
351.89	21.452
352.26	22.968
352.62	22.614
352.98	22.123
353.34	23.336
353.70	20.949
354.07	22.823
354.43	21.190
354.79	21.480
355.15	22.586
355.51	23.901
355.87	22.122
356.24	22.638
356.60	21.652
356.96	23.009
357.32	23.385
357.68	22.598
358.04	22.644
358.40	23.990
358.77	23.005
359.13	22.178
359.49	22.118
359.85	21.825
360.21	22.408
360.57	23.891
360.93	23.231
361.29	23.280
361.66	21.672
362.02	23.060
362.38	23.498
362.74	23.661
363.10	21.392
363.46	23.331
363.82	22.525
364.18	22.614
364.54	25.111
364.90	23.725
365.26	23.309
365.62	23.448
365.98	22.133
366.35	23.066
366.71	23.789
367.07	23.598
367.43	23.657
367.79	24.411
368.15	24.497
368.51	22.602
368.87	24.268
369.23	23.628
369.59	24.837
369.95	24.118
370.31	23.718
370.67	23.478
371.03	24.644
371.39	23.834
371.75	23.897
372.11	23.542
372.47	24.707
372.83	25.432
373.19	24.277
373.55	24.612
373.91	25.626
374.27	24.261
374.63	24.509
374.99	25.494
375.35	23.657
375.71	23.646
376.07	24.829
376.42	24.347
376.78	25.116
377.14	24.491
377.50	25.166
377.86	25.066
378.22	25.284
378.58	23.997
378.94	24.639
379.30	25.000
379.66	25.254
380.02	25.369
380.38	23.619
380.74	25.270
381.09	25.061
381.45	26.060
381.81	25.184
382.17	24.713
382.53	25.535
382.89	26.296
383.25	25.829
383.61	26.456
383.97	24.765
384.32	25.140
384.68	24.349
385.04	24.892
385.40	25.449
385.76	25.430
386.12	25.259
386.48	25.425
386.83	26.042
387.19	26.840
387.55	26.036
387.91	26.119
388.27	26.119
388.62	26.183
388.98	25.491
389.34	26.158
389.70	25.996
390.06	26.236
390.42	25.357
390.77	26.463
391.13	26.356
391.49	26.459
391.85	26.162
392.20	25.174
392.56	26.263
392.92	25.662
393.28	25.799
393.64	25.899
393.99	27.062
394.35	26.799
394.71	26.223
395.07	25.794
395.42	26.823
395.78	25.700
396.14	26.257
396.50	27.130
396.85	26.637
397.21	25.524
397.57	25.294
397.92	25.421
398.28	25.448
398.64	25.866
399.00	25.518
399.35	25.606
399.71	26.794
400.07	27.144
400.42	25.767
400.78	26.357
401.14	25.915
401.49	26.090
401.85	25.650
402.21	25.868
402.57	26.033
402.92	26.482
403.28	26.421
403.63	25.619
403.99	27.134
404.35	25.879
404.70	27.098
405.06	25.218
405.42	26.138
405.77	26.571
406.13	25.169
406.49	25.488
406.84	26.108
407.20	25.827
407.55	26.420
407.91	25.600
408.27	26.165
408.62	25.888
408.98	25.980
409.34	26.384
409.69	26.129
410.05	26.270
410.40	26.361
410.76	25.448
411.11	25.332
411.47	24.920
411.83	26.084
412.18	25.108
412.54	25.965
412.89	26.506
413.25	25.797
413.60	26.313
413.96	25.440
414.31	25.456
414.67	26.109
415.03	25.497
415.38	26.353
415.74	25.402
416.09	26.388
416.45	25.837
416.80	26.371
417.16	27.078
417.51	27.339
417.87	26.590
418.22	27.066
418.58	27.631
418.93	26.904
419.29	26.989
419.64	27.267
420.00	26.829
420.35	26.203
420.71	26.061
421.06	26.134
421.42	26.667
421.77	26.457
422.12	26.727
422.48	27.145
422.83	27.548
423.19	27.845
423.54	26.524
423.90	28.000
424.25	27.471
424.61	27.381
424.96	28.163
425.31	27.519
425.67	27.360
426.02	27.029
426.38	27.534
426.73	27.384
427.09	28.571
427.44	28.350
427.79	28.177
428.15	27.917
428.50	28.613
428.85	29.201
429.21	27.609
429.56	27.890
429.92	28.133
430.27	27.607
430.62	27.752
430.98	28.853
431.33	28.557
431.68	29.215
432.04	28.754
432.39	29.012
432.74	28.965
433.10	29.485
433.45	29.913
433.80	29.213
434.16	29.274
434.51	29.105
434.86	30.046
435.22	29.238
435.57	30.334
435.92	29.725
436.28	30.902
436.63	30.905
436.98	31.139
437.34	31.544
437.69	31.855
438.04	31.366
438.39	31.821
438.75	32.597
439.10	32.179
439.45	31.995
439.81	32.326
440.16	31.903
440.51	32.982
440.86	32.774
441.22	33.760
441.57	32.909
441.92	33.470
442.27	33.369
442.63	32.649
442.98	34.986
443.33	33.641
443.68	34.538
444.03	34.895
444.39	35.005
444.74	35.281
445.09	35.310
445.44	35.210
445.79	35.527
446.15	35.045
446.50	35.703
446.85	36.331
447.20	36.308
447.55	35.678
447.91	36.845
448.26	36.450
448.61	37.535
448.96	38.317
449.31	37.739
449.66	36.916
450.02	36.936
450.37	37.698
450.72	37.902
451.07	37.538
451.42	37.021
451.77	38.520
452.12	38.741
452.47	38.682
452.83	38.869
453.18	38.570
453.53	39.641
453.88	38.512
454.23	39.211
454.58	40.642
454.93	40.114
455.28	40.150
455.63	40.655
455.98	40.714
456.34	39.636
456.69	40.701
457.04	40.805
457.39	38.983
457.74	40.279
458.09	39.218
458.44	39.567
458.79	37.961
459.14	39.729
459.49	40.981
459.84	40.166
460.19	39.717
460.54	39.005
460.89	39.879
461.24	40.437
461.59	41.371
461.94	39.704
462.29	39.347
462.64	41.353
462.99	40.664
463.34	42.267
463.69	40.588
464.04	40.986
464.39	39.884
464.74	39.869
465.09	41.616
465.44	40.831
465.79	39.877
466.14	40.558
466.49	39.433
466.84	40.222
467.19	41.943
467.54	41.187
467.89	41.297
468.24	40.605
468.59	42.002
468.94	41.845
469.29	42.416
469.64	42.169
469.99	42.152
470.34	42.734
470.68	42.241
471.03	41.224
471.38	42.391
471.73	41.173
472.08	42.697
472.43	41.709
472.78	41.475
473.13	42.811
473.48	41.511
473.83	42.195
474.17	41.693
474.52	42.866
474.87	42.323
475.22	41.613
475.57	40.677
475.92	40.945
476.27	41.657
476.61	41.864
476.96	42.056
477.31	41.758
477.66	41.138
478.01	41.871
478.36	41.883
478.70	41.848
479.05	42.119
479.40	41.505
479.75	42.298
480.10	41.054
480.45	40.409
480.79	40.325
481.14	41.145
481.49	41.671
481.84	40.786
482.19	41.981
482.53	40.596
482.88	41.787
483.23	42.477
483.58	40.946
483.92	41.237
484.27	40.218
484.62	41.078
484.97	39.732
485.31	40.822
485.66	39.135
486.01	37.380
486.36	36.126
486.70	36.201
487.05	36.536
487.40	37.768
487.75	38.226
488.09	39.430
488.44	39.526
488.79	41.049
489.13	40.947
489.48	41.150
489.83	41.044
490.17	41.692
490.52	40.788
490.87	41.610
491.22	40.064
491.56	40.364
491.91	40.856
492.26	40.101
492.60	40.000
492.95	40.599
493.30	40.047
493.64	40.784
493.99	40.529
494.34	40.657
494.68	41.667
495.03	40.085
495.37	40.484
495.72	41.618
496.07	41.439
496.41	39.779
496.76	39.842
497.11	40.837
497.45	41.779
497.80	40.643
498.14	40.435
498.49	40.488
498.84	41.275
499.18	41.810
499.53	40.693
499.87	40.634
500.22	41.498
500.56	41.165
500.91	41.731
501.26	40.588
501.60	41.386
501.95	41.155
502.29	41.893
502.64	41.434
502.98	41.795
503.33	40.814
503.67	40.603
504.02	41.066
504.36	40.758
504.71	41.671
505.06	41.205
505.40	40.544
505.75	40.598
506.09	41.205
506.44	42.131
506.78	41.159
507.13	41.646
507.47	41.919
507.82	42.047
508.16	42.097
508.51	42.415
508.85	41.758
509.19	41.684
509.54	43.214
509.88	41.989
510.23	42.211
510.57	42.260
510.92	42.361
511.26	42.806
511.61	42.790
511.95	42.745
512.30	42.524
512.64	42.397
512.98	44.266
513.33	44.004
513.67	42.636
514.02	43.290
514.36	43.583
514.70	44.051
515.05	42.945
515.39	45.429
515.74	43.131
516.08	43.991
516.42	43.840
516.77	44.036
517.11	43.341
517.46	45.316
517.80	45.064
518.14	43.775
518.49	45.333
518.83	43.977
519.17	44.746
519.52	43.860
519.86	44.609
520.20	45.318
520.55	46.679
520.89	45.681
521.23	46.381
521.58	44.358
521.92	45.438
522.26	44.539
522.61	46.667
522.95	46.532
523.29	45.770
523.64	46.280
523.98	45.903
524.32	45.356
524.66	45.159
525.01	45.221
525.35	44.486
525.69	44.643
526.04	45.981
526.38	45.699
526.72	45.521
527.06	46.579
527.41	44.678
527.75	45.981
528.09	46.692
528.43	46.463
528.78	46.220
529.12	44.727
529.46	45.867
529.80	45.916
530.15	46.293
530.49	44.492
530.83	45.506
531.17	47.063
531.51	46.952
531.86	45.871
532.20	47.914
532.54	47.341
532.88	46.085
533.22	44.785
533.57	45.617
533.91	45.214
534.25	44.532
534.59	45.394
534.93	45.211
535.27	44.478
535.62	45.482
535.96	45.825
536.30	46.090
536.64	45.911
536.98	46.450
537.32	45.885
537.66	46.133
538.01	44.964
538.35	46.218
538.69	46.841
539.03	46.199
539.37	44.217
539.71	45.042
540.05	45.621
540.39	45.980
540.73	44.955
541.07	45.750
541.42	45.401
541.76	46.452
542.10	46.378
542.44	45.828
542.78	46.574
543.12	44.786
543.46	46.033
543.80	46.649
544.14	45.700
544.48	46.857
544.82	44.644
545.16	45.934
545.50	45.051
545.84	45.833
546.18	45.791
546.52	45.836
546.86	46.804
547.20	46.797
547.54	46.226
547.88	46.811
548.22	44.645
548.56	46.226
548.90	44.622
549.24	46.195
549.58	46.589
549.92	46.154
550.26	46.520
550.60	47.095
550.94	46.690
551.28	46.525
551.62	46.082
551.96	45.474
552.30	46.826
552.64	47.059
552.98	45.559
553.32	45.988
553.66	46.353
554.00	47.220
554.34	44.790
554.68	48.069
555.02	46.403
555.36	46.347
555.69	45.737
556.03	46.635
556.37	47.135
556.71	46.317
557.05	46.499
557.39	46.046
557.73	47.283
558.07	47.426
558.41	47.612
558.75	46.069
559.08	48.322
559.42	47.468
559.76	47.794
560.10	46.110
560.44	46.960
560.78	44.977
561.12	45.580
561.45	45.893
561.79	45.682
562.13	45.540
562.47	46.995
562.81	46.932
563.15	45.819
563.48	45.822
563.82	45.793
564.16	45.782
564.50	45.508
564.84	44.880
565.17	45.753
565.51	46.006
565.85	45.812
566.19	44.396
566.52	45.345
566.86	44.726
567.20	44.458
567.54	44.920
567.88	44.269
568.21	44.021
568.55	43.579
568.89	42.510
569.23	42.068
569.56	41.215
569.90	40.453
570.24	40.725
570.57	40.564
570.91	39.367
571.25	39.222
571.59	39.087
571.92	39.171
572.26	39.226
572.60	39.580
572.93	39.490
573.27	38.923
573.61	39.252
573.95	39.173
574.28	38.015
574.62	38.848
574.96	38.256
575.29	38.919
575.63	39.202
575.97	39.495
576.30	39.087
576.64	39.247
576.98	38.673
577.31	38.632
577.65	38.046
577.98	37.897
578.32	38.185
578.66	38.155
578.99	38.827
579.33	38.756
579.67	39.285
580.00	38.216
580.34	38.443
580.67	38.974
581.01	39.330
581.35	38.760
581.68	38.423
582.02	37.992
582.35	38.336
582.69	38.507
583.02	38.376
583.36	39.567
583.70	39.810
584.03	40.256
584.37	40.501
584.70	40.256
585.04	39.873
585.37	40.331
585.71	39.826
586.04	39.237
586.38	40.021
586.72	41.149
587.05	40.532
587.39	39.499
587.72	40.196
588.06	39.968
588.39	40.850
588.73	41.009
589.06	41.758
589.40	41.751
589.73	41.746
590.07	42.171
590.40	41.944
590.73	43.091
591.07	44.404
591.40	42.978
591.74	43.636
592.07	43.063
592.41	43.365
592.74	41.536
593.08	41.939
593.41	41.063
593.75	40.381
594.08	41.737
594.41	42.276
594.75	42.403
595.08	41.625
595.42	42.767
595.75	41.987
596.09	42.884
596.42	43.261
596.75	43.943
597.09	43.853
597.42	41.737
597.75	44.028
598.09	43.087
598.42	43.299
598.76	43.210
599.09	42.873
599.42	42.176
599.76	43.119
600.09	42.040
600.42	42.330
600.76	41.500
601.09	41.894
601.42	42.808
601.76	42.732
602.09	42.451
602.42	43.631
602.76	42.926
603.09	43.037
603.42	41.781
603.76	42.530
604.09	43.001
604.42	44.313
604.76	44.243
605.09	44.037
605.42	42.882
605.75	43.088
606.09	43.392
606.42	43.237
606.75	42.389
607.09	42.863
607.42	43.603
607.75	42.954
608.08	44.116
608.42	43.882
608.75	43.327
609.08	43.478
609.41	43.741
609.75	43.783
610.08	44.251
610.41	43.156
610.74	43.046
611.07	44.516
611.41	43.523
611.74	45.651
612.07	44.928
612.40	44.281
612.73	44.895
613.07	45.151
613.40	45.498
613.73	44.153
614.06	44.731
614.39	44.363
614.72	45.053
615.06	44.538
615.39	44.851
615.72	43.252
616.05	44.019
616.38	45.303
616.71	45.962
617.05	45.406
617.38	45.340
617.71	45.285
618.04	46.394
618.37	44.766
618.70	46.422
619.03	46.711
619.36	46.232
619.69	46.972
620.03	47.527
620.36	46.524
620.69	46.712
621.02	47.493
621.35	48.081
621.68	46.028
622.01	46.827
622.34	48.033
622.67	46.920
623.00	46.515
623.33	46.748
623.66	46.605
623.99	47.423
624.32	47.004
624.65	46.540
624.99	46.317
625.32	46.995
625.65	47.483
625.98	47.579
626.31	48.056
626.64	48.816
626.97	49.210
627.30	47.132
627.63	47.990
627.96	48.276
628.29	50.219
628.62	49.588
628.95	51.604
629.28	50.274
629.61	50.687
629.94	51.048
630.26	50.429
630.59	50.906
