SpectraSuite Data File
++++++++++++++++++++++++++++++++++++
Date: Wed May 13 19:49:15 PDT 2015
User: schluterlab
Dark Spectrum Present: Yes
Reference Spectrum Present: Yes
Number of Sampled Component Spectra: 1
Spectrometers: USB2E3373
Integration Time (usec): 3000 (USB2E3373)
Spectra Averaged: 3 (USB2E3373)
Boxcar Smoothing: 0 (USB2E3373)
Correct for Electrical Dark: No (USB2E3373)
Strobe/Lamp Enabled: No (USB2E3373)
Correct for Detector Non-linearity: No (USB2E3373)
Correct for Stray Light: No (USB2E3373)
Number of Pixels in Processed Spectrum: 2048
>>>>>Begin Processed Spectral Data<<<<<
178.53	0.000
178.91	-1350.000
179.29	-1325.000
179.67	-244.444
180.04	-1400.000
180.42	3200.000
180.80	1200.000
181.18	-1275.000
181.56	728.571
181.94	0.000
182.31	-585.714
182.69	1600.000
183.07	-625.000
183.45	-544.444
183.83	518.182
184.20	-370.000
184.58	2450.000
184.96	5400.000
185.34	-960.000
185.72	-712.500
186.09	-2250.000
186.47	2550.000
186.85	2250.000
187.23	5100.000
187.61	-1733.333
187.98	1250.000
188.36	609.091
188.74	509.091
189.12	-840.000
189.49	660.000
189.87	-5400.000
190.25	-1250.000
190.63	435.714
191.00	407.692
191.38	850.000
191.76	-1300.000
192.14	1275.000
192.51	662.500
192.89	1016.667
193.27	650.000
193.65	-1125.000
194.02	570.000
194.40	920.000
194.78	580.000
195.15	491.667
195.53	640.000
195.91	-2250.000
196.29	387.500
196.66	294.737
197.04	-370.000
197.42	0.000
197.79	680.000
198.17	-5600.000
198.55	685.714
198.92	712.500
199.30	960.000
199.68	0.000
200.05	366.667
200.43	728.571
200.81	5300.000
201.18	1700.000
201.56	-1533.333
201.94	477.778
202.31	566.667
202.69	416.667
203.07	530.000
203.44	0.000
203.82	1225.000
204.19	714.286
204.57	392.857
204.95	725.000
205.32	1533.333
205.70	536.364
206.08	421.429
206.45	2750.000
206.83	437.500
207.20	916.667
207.58	720.000
207.96	372.222
208.33	762.500
208.71	-850.000
209.08	857.143
209.46	633.333
209.84	554.545
210.21	-1600.000
210.59	1450.000
210.96	-525.000
211.34	2100.000
211.71	580.000
212.09	783.333
212.46	0.000
212.84	1633.333
213.22	1425.000
213.59	-5400.000
213.97	883.333
214.34	828.571
214.72	554.545
215.09	1200.000
215.47	-2250.000
215.84	-2850.000
216.22	1966.667
216.59	421.429
216.97	1375.000
217.34	509.091
217.72	-816.667
218.09	0.000
218.47	-4400.000
218.84	711.111
219.22	714.286
219.59	2100.000
219.97	-585.714
220.34	1060.000
220.72	-1566.667
221.09	414.286
221.47	1550.000
221.84	-966.667
222.22	0.000
222.59	1600.000
222.97	-2400.000
223.34	1340.000
223.72	492.308
224.09	1160.000
224.46	1900.000
224.84	-5200.000
225.21	-960.000
225.59	-6300.000
225.96	640.000
226.34	290.000
226.71	3000.000
227.08	712.500
227.46	580.000
227.83	-1075.000
228.21	-2350.000
228.58	522.222
228.95	-2800.000
229.33	-2500.000
229.70	1966.667
230.08	871.429
230.45	-920.000
230.82	533.333
231.20	750.000
231.57	628.571
231.95	533.333
232.32	250.000
232.69	409.091
233.07	742.857
233.44	323.077
233.81	-1600.000
234.19	305.263
234.56	408.333
234.93	366.667
235.31	536.364
235.68	453.846
236.05	450.000
236.43	169.697
236.80	336.842
237.17	5600.000
237.55	247.619
237.92	246.429
238.29	295.238
238.67	225.806
239.04	231.034
239.41	155.556
239.79	136.957
240.16	166.667
240.53	152.273
240.91	137.255
241.28	124.000
241.65	130.000
242.02	105.797
242.40	108.065
242.77	130.000
243.14	98.925
243.51	108.989
243.89	88.235
244.26	87.778
244.63	70.968
245.00	91.489
245.38	85.149
245.75	84.112
246.12	79.817
246.49	78.102
246.87	85.600
247.24	82.308
247.61	76.429
247.98	71.895
248.36	76.351
248.73	67.516
249.10	75.159
249.47	66.667
249.84	70.053
250.22	66.310
250.59	67.456
250.96	66.162
251.33	62.085
251.70	62.376
252.08	65.238
252.45	60.987
252.82	63.478
253.19	67.234
253.56	56.078
253.94	60.996
254.31	55.859
254.68	59.615
255.05	53.137
255.42	57.724
255.79	54.779
256.16	54.874
256.54	54.770
256.91	55.160
257.28	53.597
257.65	51.815
258.02	52.795
258.39	51.735
258.76	53.512
259.14	53.571
259.51	51.064
259.88	50.932
260.25	56.495
260.62	48.844
260.99	53.106
261.36	53.754
261.73	48.711
262.10	52.035
262.47	51.831
262.85	48.747
263.22	47.863
263.59	49.003
263.96	48.077
264.33	47.520
264.70	52.105
265.07	43.734
265.44	47.980
265.81	47.202
266.18	50.000
266.55	42.927
266.92	46.929
267.29	48.843
267.66	44.266
268.03	47.045
268.40	44.626
268.77	44.391
269.14	44.144
269.51	46.727
269.88	46.387
270.25	46.953
270.62	45.393
270.99	46.237
271.36	44.635
271.73	46.495
272.10	45.000
272.47	47.742
272.84	43.074
273.21	44.654
273.58	45.852
273.95	41.929
274.32	41.736
274.69	45.396
275.06	41.929
275.43	46.383
275.80	46.493
276.17	43.585
276.54	44.283
276.91	45.059
277.28	40.430
277.65	42.553
278.02	44.513
278.39	43.164
278.76	42.545
279.13	42.264
279.50	43.389
279.87	42.231
280.23	42.116
280.60	41.199
280.97	39.926
281.34	42.478
281.71	42.182
282.08	43.186
282.45	41.273
282.82	41.385
283.19	39.394
283.56	37.895
283.92	43.655
284.29	37.566
284.66	42.105
285.03	38.336
285.40	39.437
285.77	42.256
286.14	39.896
286.51	39.333
286.87	40.855
287.24	39.739
287.61	39.005
287.98	38.961
288.35	39.620
288.72	38.162
289.08	37.246
289.45	39.044
289.82	37.561
290.19	36.421
290.56	36.141
290.93	34.290
291.29	38.037
291.66	35.546
292.03	37.645
292.40	35.389
292.77	36.243
293.13	36.716
293.50	35.714
293.87	36.444
294.24	33.481
294.60	35.226
294.97	35.901
295.34	33.850
295.71	33.239
296.08	34.330
296.44	34.113
296.81	32.761
297.18	33.333
297.55	29.551
297.91	33.113
298.28	32.129
298.65	31.593
299.02	32.411
299.38	31.873
299.75	29.784
300.12	30.779
300.48	31.750
300.85	29.470
301.22	30.573
301.59	29.545
301.95	32.242
302.32	32.349
302.69	31.302
303.05	30.545
303.42	29.877
303.79	30.238
304.15	29.720
304.52	29.085
304.89	30.894
305.25	29.698
305.62	29.898
305.99	30.933
306.35	29.306
306.72	29.933
307.09	29.967
307.45	30.518
307.82	28.906
308.19	28.808
308.55	29.881
308.92	29.431
309.29	27.666
309.65	27.996
310.02	27.907
310.38	28.925
310.75	28.933
311.12	29.887
311.48	29.363
311.85	30.608
312.22	28.928
312.58	28.170
312.95	29.778
313.31	28.155
313.68	29.314
314.05	29.882
314.41	28.040
314.78	27.694
315.14	27.607
315.51	28.630
315.87	27.822
316.24	28.103
316.61	27.875
316.97	27.886
317.34	28.376
317.70	27.247
318.07	28.296
318.43	28.376
318.80	27.741
319.16	27.495
319.53	26.735
319.89	27.905
320.26	28.600
320.62	28.175
320.99	27.475
321.35	27.071
321.72	27.310
322.08	29.516
322.45	28.557
322.81	28.876
323.18	27.842
323.54	28.015
323.91	27.736
324.27	28.585
324.64	26.934
325.00	25.969
325.37	28.935
325.73	27.648
326.10	27.361
326.46	27.240
326.83	28.041
327.19	26.558
327.56	27.091
327.92	27.559
328.29	27.329
328.65	27.808
329.01	27.798
329.38	27.290
329.74	28.255
330.11	28.275
330.47	28.099
330.84	27.941
331.20	26.503
331.56	28.716
331.93	26.389
332.29	27.595
332.66	29.027
333.02	26.965
333.38	28.546
333.75	27.451
334.11	28.292
334.48	27.950
334.84	28.860
335.20	28.909
335.57	26.292
335.93	26.607
336.29	25.733
336.66	27.863
337.02	25.249
337.38	28.056
337.75	26.649
338.11	27.395
338.47	27.256
338.84	26.764
339.20	26.239
339.56	28.193
339.93	26.182
340.29	25.725
340.65	26.025
341.02	28.098
341.38	27.758
341.74	27.368
342.11	25.852
342.47	25.727
342.83	25.942
343.20	26.926
343.56	26.116
343.92	27.105
344.28	27.466
344.65	27.773
345.01	26.178
345.37	25.472
345.73	26.142
346.10	26.598
346.46	27.034
346.82	25.288
347.19	26.316
347.55	25.944
347.91	26.456
348.27	27.116
348.63	25.585
349.00	26.052
349.36	26.026
349.72	26.383
350.08	25.041
350.45	25.631
350.81	25.833
351.17	24.068
351.53	26.044
351.89	24.835
352.26	26.598
352.62	26.383
352.98	25.203
353.34	25.555
353.70	25.123
354.07	25.403
354.43	25.476
354.79	24.779
355.15	24.022
355.51	26.619
355.87	26.204
356.24	24.674
356.60	24.619
356.96	26.227
357.32	25.593
357.68	25.354
358.04	24.624
358.40	25.020
358.77	26.056
359.13	24.073
359.49	23.137
359.85	24.206
360.21	24.482
360.57	25.447
360.93	24.846
361.29	25.775
361.66	24.381
362.02	24.328
362.38	24.563
362.74	23.735
363.10	24.648
363.46	25.238
363.82	24.187
364.18	24.743
364.54	24.889
364.90	24.929
365.26	24.779
365.62	25.128
365.98	25.347
366.35	24.069
366.71	24.512
367.07	24.326
367.43	25.036
367.79	24.197
368.15	25.072
368.51	24.782
368.87	24.554
369.23	24.579
369.59	24.765
369.95	23.382
370.31	24.359
370.67	23.841
371.03	25.393
371.39	24.927
371.75	23.897
372.11	23.471
372.47	24.927
372.83	25.576
373.19	24.277
373.55	24.169
373.91	24.153
374.27	23.162
374.63	23.273
374.99	24.082
375.35	23.726
375.71	23.098
376.07	24.829
376.42	24.209
376.78	23.592
377.14	24.288
377.50	24.570
377.86	22.739
378.22	24.210
378.58	22.870
378.94	23.884
379.30	23.791
379.66	23.160
380.02	23.894
380.38	23.133
380.74	24.310
381.09	23.716
381.45	23.970
381.81	24.693
382.17	23.885
382.53	22.893
382.89	23.704
383.25	23.139
383.61	23.916
383.97	23.077
384.32	23.144
384.68	23.792
385.04	22.987
385.40	23.529
385.76	22.912
386.12	23.640
386.48	24.040
386.83	23.412
387.19	24.428
387.55	23.067
387.91	22.914
388.27	22.869
388.62	23.540
388.98	23.157
389.34	22.966
389.70	22.992
390.06	23.574
390.42	23.217
390.77	23.028
391.13	23.484
391.49	22.970
391.85	23.297
392.20	22.334
392.56	22.917
392.92	23.367
393.28	21.953
393.64	22.962
393.99	23.519
394.35	23.821
394.71	22.585
395.07	22.368
395.42	23.548
395.78	23.028
396.14	22.160
396.50	23.622
396.85	23.649
397.21	22.935
397.57	22.815
397.92	22.656
398.28	22.478
398.64	22.820
399.00	22.999
399.35	22.279
399.71	22.801
400.07	23.359
400.42	23.006
400.78	23.341
401.14	22.195
401.49	23.701
401.85	22.989
402.21	21.796
402.57	22.270
402.92	23.014
403.28	23.485
403.63	22.834
403.99	22.548
404.35	23.273
404.70	23.082
405.06	22.365
405.42	22.707
405.77	22.057
406.13	23.081
406.49	23.122
406.84	22.091
407.20	21.336
407.55	22.144
407.91	23.600
408.27	22.719
408.62	22.938
408.98	23.591
409.34	22.263
409.69	22.323
410.05	22.119
410.40	22.263
410.76	22.461
411.11	22.738
411.47	22.364
411.83	22.602
412.18	23.067
412.54	22.478
412.89	22.771
413.25	22.668
413.60	22.792
413.96	22.526
414.31	22.479
414.67	21.990
415.03	22.583
415.38	22.358
415.74	23.215
416.09	23.122
416.45	22.959
416.80	22.538
417.16	23.324
417.51	23.291
417.87	21.837
418.22	23.155
418.58	23.822
418.93	21.990
419.29	22.915
419.64	23.237
420.00	22.500
420.35	21.797
420.71	22.534
421.06	21.539
421.42	22.281
421.77	22.758
422.12	21.561
422.48	22.072
422.83	22.656
423.19	21.768
423.54	22.519
423.90	22.493
424.25	22.222
424.61	21.607
424.96	22.099
425.31	22.591
425.67	21.404
426.02	22.514
426.38	22.894
426.73	22.469
427.09	22.067
427.44	22.139
427.79	22.082
428.15	23.274
428.50	22.528
428.85	22.229
429.21	22.032
429.56	21.877
429.92	21.792
430.27	21.500
430.62	21.557
430.98	22.263
431.33	22.062
431.68	21.937
432.04	22.258
432.39	23.187
432.74	22.023
433.10	21.902
433.45	23.032
433.80	21.896
434.16	21.581
434.51	21.579
434.86	22.349
435.22	22.401
435.57	22.492
435.92	22.060
436.28	22.301
436.63	22.241
436.98	21.580
437.34	22.600
437.69	22.754
438.04	21.922
438.39	22.627
438.75	22.255
439.10	22.793
439.45	22.137
439.81	21.752
440.16	22.021
440.51	22.378
440.86	22.525
441.22	21.746
441.57	22.824
441.92	22.723
442.27	22.336
442.63	21.748
442.98	22.648
443.33	21.957
443.68	21.993
444.03	22.401
444.39	20.789
444.74	22.781
445.09	22.372
445.44	22.417
445.79	21.969
446.15	22.657
446.50	21.809
446.85	22.713
447.20	22.132
447.55	22.055
447.91	21.787
448.26	22.259
448.61	22.725
448.96	22.757
449.31	23.003
449.66	23.241
450.02	21.337
450.37	21.825
450.72	21.940
451.07	21.999
451.42	22.310
451.77	22.490
452.12	22.344
452.47	22.388
452.83	22.960
453.18	22.249
453.53	22.573
453.88	22.859
454.23	22.714
454.58	23.137
454.93	24.348
455.28	22.132
455.63	21.723
455.98	23.571
456.34	22.362
456.69	22.793
457.04	22.353
457.39	22.677
457.74	22.635
458.09	23.002
458.44	23.147
458.79	22.939
459.14	23.081
459.49	22.592
459.84	22.659
460.19	21.744
460.54	22.106
460.89	22.381
461.24	22.344
461.59	23.010
461.94	22.750
462.29	23.264
462.64	22.208
462.99	22.576
463.34	22.933
463.69	22.577
464.04	22.957
464.39	22.029
464.74	22.876
465.09	22.316
465.44	22.105
465.79	21.868
466.14	22.824
466.49	22.692
466.84	23.117
467.19	22.752
467.54	22.812
467.89	22.629
468.24	22.862
468.59	23.199
468.94	22.908
469.29	23.393
469.64	23.494
469.99	24.425
470.34	22.589
470.68	23.851
471.03	23.333
471.38	24.600
471.73	23.251
472.08	24.145
472.43	23.241
472.78	22.844
473.13	22.978
473.48	22.971
473.83	23.720
474.17	23.584
474.52	23.697
474.87	23.117
475.22	22.693
475.57	23.052
475.92	21.827
476.27	23.168
476.61	23.056
476.96	22.045
477.31	21.873
477.66	22.867
478.01	22.791
478.36	22.739
478.70	22.326
479.05	22.471
479.40	22.927
479.75	22.267
480.10	22.664
480.45	22.180
480.79	21.214
481.14	22.260
481.49	22.117
481.84	22.176
482.19	22.126
482.53	22.248
482.88	21.545
483.23	22.336
483.58	22.475
483.92	22.727
484.27	21.481
484.62	22.414
484.97	21.758
485.31	21.747
485.66	21.288
486.01	20.265
486.36	19.529
486.70	19.985
487.05	20.275
487.40	20.838
487.75	21.030
488.09	21.777
488.44	21.247
488.79	21.700
489.13	22.002
489.48	22.186
489.83	21.882
490.17	22.578
490.52	22.188
490.87	22.433
491.22	22.101
491.56	22.005
491.91	21.964
492.26	22.416
492.60	21.659
492.95	21.282
493.30	21.869
493.64	22.212
493.99	21.820
494.34	22.248
494.68	22.482
495.03	22.227
495.37	21.964
495.72	22.612
496.07	21.346
496.41	21.549
496.76	22.164
497.11	21.432
497.45	22.590
497.80	22.457
498.14	21.884
498.49	22.000
498.84	22.339
499.18	22.048
499.53	21.985
499.87	21.808
500.22	21.809
500.56	23.689
500.91	21.490
501.26	22.380
501.60	22.971
501.95	22.044
502.29	22.727
502.64	21.834
502.98	21.879
503.33	21.801
503.67	21.763
504.02	22.357
504.36	21.806
504.71	22.325
505.06	22.313
505.40	22.168
505.75	21.456
506.09	22.060
506.44	23.088
506.78	22.504
507.13	23.978
507.47	22.727
507.82	22.898
508.16	22.898
508.51	22.933
508.85	21.797
509.19	22.857
509.54	22.704
509.88	23.029
510.23	22.982
510.57	23.375
510.92	23.666
511.26	22.148
511.61	23.600
511.95	22.547
512.30	22.800
512.64	22.461
512.98	22.776
513.33	23.340
513.67	22.892
514.02	23.377
514.36	23.102
514.70	22.966
515.05	23.090
515.39	23.556
515.74	23.705
516.08	23.868
516.42	23.640
516.77	23.969
517.11	22.919
517.46	23.928
517.80	23.635
518.14	22.756
518.49	22.987
518.83	22.898
519.17	23.210
519.52	24.278
519.86	23.160
520.20	23.757
520.55	24.596
520.89	24.392
521.23	24.367
521.58	24.430
521.92	24.495
522.26	22.575
522.61	24.050
522.95	22.775
523.29	23.554
523.64	23.598
523.98	24.276
524.32	24.306
524.66	23.692
525.01	23.836
525.35	24.411
525.69	24.076
526.04	24.548
526.38	23.917
526.72	23.926
527.06	23.729
527.41	22.896
527.75	24.566
528.09	23.635
528.43	23.582
528.78	23.663
529.12	23.576
529.46	24.617
529.80	24.381
530.15	24.050
530.49	23.323
530.83	24.937
531.17	25.261
531.51	25.032
531.86	24.903
532.20	24.316
532.54	24.023
532.88	24.198
533.22	23.548
533.57	25.000
533.91	24.383
534.25	23.755
534.59	24.039
534.93	24.509
535.27	24.019
535.62	24.176
535.96	24.231
536.30	23.967
536.64	23.567
536.98	24.552
537.32	25.346
537.66	24.667
538.01	25.543
538.35	24.564
538.69	25.526
539.03	24.237
539.37	22.875
539.71	22.942
540.05	23.856
540.39	24.385
540.73	23.609
541.07	24.270
541.42	23.940
541.76	25.226
542.10	24.386
542.44	24.834
542.78	24.769
543.12	24.248
543.46	24.328
543.80	25.114
544.14	24.069
544.48	24.889
544.82	24.439
545.16	24.073
545.50	23.650
545.84	24.597
546.18	24.175
546.52	24.501
546.86	24.880
547.20	24.882
547.54	24.315
547.88	24.043
548.22	23.412
548.56	24.654
548.90	24.072
549.24	23.973
549.58	24.829
549.92	23.214
550.26	24.361
550.60	23.928
550.94	24.155
551.28	23.628
551.62	24.371
551.96	24.070
552.30	24.369
552.64	24.476
552.98	24.746
553.32	24.882
553.66	24.949
554.00	24.846
554.34	23.119
554.68	25.107
555.02	24.683
555.36	24.774
555.69	23.275
556.03	24.428
556.37	24.693
556.71	24.488
557.05	24.300
557.39	24.423
557.73	24.488
558.07	24.220
558.41	24.819
558.75	25.129
559.08	25.429
559.42	24.943
559.76	24.191
560.10	24.054
560.44	24.458
560.78	24.750
561.12	24.934
561.45	24.576
561.79	24.127
562.13	24.078
562.47	25.068
562.81	25.523
563.15	24.147
563.48	23.674
563.82	24.462
564.16	24.591
564.50	23.893
564.84	23.641
565.17	24.646
565.51	24.409
565.85	24.683
566.19	24.483
566.52	24.573
566.86	23.870
567.20	23.408
567.54	22.603
567.88	22.759
568.21	23.915
568.55	23.407
568.89	23.249
569.23	22.326
569.56	22.146
569.90	22.792
570.24	22.174
570.57	22.169
570.91	21.622
571.25	21.804
571.59	22.121
571.92	21.486
572.26	21.895
572.60	22.012
572.93	21.259
573.27	21.650
573.61	21.245
573.95	21.395
574.28	21.256
574.62	20.943
574.96	21.243
575.29	20.854
575.63	20.681
575.97	21.713
576.30	21.508
576.64	21.430
576.98	20.685
577.31	20.910
577.65	20.955
577.98	21.210
578.32	20.969
578.66	21.384
578.99	20.908
579.33	21.012
579.67	21.065
580.00	21.170
580.34	21.096
580.67	21.059
581.01	21.363
581.35	21.272
581.68	21.164
582.02	20.693
582.35	20.579
582.69	20.902
583.02	21.134
583.36	21.005
583.70	21.653
584.03	21.473
584.37	21.871
584.70	21.421
585.04	21.135
585.37	21.016
585.71	21.288
586.04	21.309
586.38	21.813
586.72	22.176
587.05	20.864
587.39	21.425
587.72	21.644
588.06	21.745
588.39	21.866
588.73	21.355
589.06	22.250
589.40	22.593
589.73	22.140
590.07	22.100
590.40	21.483
590.73	22.912
591.07	22.629
591.40	22.185
591.74	22.684
592.07	22.775
592.41	22.489
592.74	21.948
593.08	21.852
593.41	21.133
593.75	21.518
594.08	21.891
594.41	22.022
594.75	21.701
595.08	21.618
595.42	22.137
595.75	22.115
596.09	22.193
596.42	23.026
596.75	22.921
597.09	22.771
597.42	21.374
597.75	22.122
598.09	22.522
598.42	22.466
598.76	21.848
599.09	21.285
599.42	21.616
599.76	21.340
600.09	21.821
600.42	21.622
600.76	21.714
601.09	21.275
601.42	21.385
601.76	22.353
602.09	21.660
602.42	21.855
602.76	23.015
603.09	22.384
603.42	21.984
603.76	21.761
604.09	21.210
604.42	22.381
604.76	23.028
605.09	22.018
605.42	22.018
605.75	21.647
606.09	21.391
606.42	21.904
606.75	22.439
607.09	21.390
607.42	21.866
607.75	21.224
608.08	21.711
608.42	22.367
608.75	21.461
609.08	21.785
609.41	22.703
609.75	21.915
610.08	22.149
610.41	21.788
610.74	21.618
611.07	21.492
611.41	22.424
611.74	22.775
612.07	22.308
612.40	23.295
612.73	22.789
613.07	24.192
613.40	22.433
613.73	21.814
614.06	22.366
614.39	21.657
614.72	22.316
615.06	21.954
615.39	21.762
615.72	22.342
616.05	22.913
616.38	22.513
616.71	24.109
617.05	23.616
617.38	22.971
617.71	23.544
618.04	22.536
618.37	23.241
618.70	23.149
619.03	24.605
619.36	23.286
619.69	23.803
620.03	24.313
620.36	24.332
620.69	23.288
621.02	23.009
621.35	24.197
621.68	22.741
622.01	23.375
622.34	24.281
622.67	23.574
623.00	23.404
623.33	23.374
623.66	24.089
623.99	23.270
624.32	22.611
624.65	22.599
624.99	21.813
625.32	22.230
625.65	22.915
625.98	24.135
626.31	24.339
626.64	24.490
626.97	25.104
627.30	23.940
627.63	25.185
627.96	24.474
628.29	24.759
628.62	25.343
628.95	26.604
629.28	24.361
629.61	24.565
629.94	26.000
630.26	24.404
630.59	26.406
630.92	24.521
