SpectraSuite Data File
++++++++++++++++++++++++++++++++++++
Date: Wed May 13 19:53:11 PDT 2015
User: schluterlab
Dark Spectrum Present: Yes
Reference Spectrum Present: Yes
Number of Sampled Component Spectra: 1
Spectrometers: USB2E3373
Integration Time (usec): 3000 (USB2E3373)
Spectra Averaged: 3 (USB2E3373)
Boxcar Smoothing: 0 (USB2E3373)
Correct for Electrical Dark: No (USB2E3373)
Strobe/Lamp Enabled: No (USB2E3373)
Correct for Detector Non-linearity: No (USB2E3373)
Correct for Stray Light: No (USB2E3373)
Number of Pixels in Processed Spectrum: 2048
>>>>>Begin Processed Spectral Data<<<<<
178.53	0.000
178.91	-1400.000
179.29	-1225.000
179.67	-288.889
180.04	-1400.000
180.42	2750.000
180.80	1040.000
181.18	-1075.000
181.56	700.000
181.94	0.000
182.31	-585.714
182.69	1833.333
183.07	-612.500
183.45	-566.667
183.83	500.000
184.20	-500.000
184.58	2800.000
184.96	4800.000
185.34	-740.000
185.72	-562.500
186.09	-2150.000
186.47	2950.000
186.85	2750.000
187.23	5000.000
187.61	-1733.333
187.98	1625.000
188.36	554.545
188.74	536.364
189.12	-1000.000
189.49	530.000
189.87	-4400.000
190.25	-1225.000
190.63	407.143
191.00	423.077
191.38	900.000
191.76	-1100.000
192.14	1325.000
192.51	587.500
192.89	1133.333
193.27	675.000
193.65	-1250.000
194.02	570.000
194.40	900.000
194.78	600.000
195.15	508.333
195.53	710.000
195.91	-2400.000
196.29	400.000
196.66	326.316
197.04	-420.000
197.42	0.000
197.79	640.000
198.17	-5500.000
198.55	671.429
198.92	825.000
199.30	980.000
199.68	0.000
200.05	361.111
200.43	685.714
200.81	4800.000
201.18	1800.000
201.56	-1900.000
201.94	711.111
202.31	600.000
202.69	441.667
203.07	680.000
203.44	0.000
203.82	1425.000
204.19	857.143
204.57	478.571
204.95	737.500
205.32	1633.333
205.70	618.182
206.08	407.143
206.45	2600.000
206.83	412.500
207.20	850.000
207.58	820.000
207.96	400.000
208.33	700.000
208.71	-866.667
209.08	885.714
209.46	533.333
209.84	490.909
210.21	-1633.333
210.59	1500.000
210.96	-600.000
211.34	2400.000
211.71	650.000
212.09	900.000
212.46	0.000
212.84	1866.667
213.22	1425.000
213.59	-4700.000
213.97	750.000
214.34	785.714
214.72	563.636
215.09	920.000
215.47	-2400.000
215.84	-2400.000
216.22	1800.000
216.59	414.286
216.97	1450.000
217.34	481.818
217.72	-883.333
218.09	0.000
218.47	-4700.000
218.84	744.444
219.22	742.857
219.59	1833.333
219.97	-571.429
220.34	960.000
220.72	-2033.333
221.09	478.571
221.47	1625.000
221.84	-1000.000
222.22	0.000
222.59	1475.000
222.97	-2050.000
223.34	1200.000
223.72	492.308
224.09	1280.000
224.46	2150.000
224.84	-4100.000
225.21	-1060.000
225.59	-5500.000
225.96	520.000
226.34	355.000
226.71	2500.000
227.08	675.000
227.46	510.000
227.83	-1300.000
228.21	-2750.000
228.58	522.222
228.95	-2700.000
229.33	-2300.000
229.70	1733.333
230.08	685.714
230.45	-880.000
230.82	475.000
231.20	833.333
231.57	742.857
231.95	525.000
232.32	227.273
232.69	409.091
233.07	742.857
233.44	353.846
233.81	-1866.667
234.19	284.211
234.56	483.333
234.93	483.333
235.31	545.455
235.68	300.000
236.05	328.571
236.43	163.636
236.80	300.000
237.17	5100.000
237.55	266.667
237.92	210.714
238.29	295.238
238.67	183.871
239.04	189.655
239.41	155.556
239.79	132.609
240.16	142.857
240.53	125.000
240.91	101.961
241.28	102.000
241.65	114.000
242.02	91.304
242.40	90.323
242.77	93.333
243.14	66.667
243.51	65.169
243.89	61.176
244.26	62.222
244.63	65.591
245.00	58.511
245.38	54.455
245.75	55.140
246.12	54.128
246.49	59.854
246.87	57.600
247.24	53.846
247.61	45.000
247.98	43.791
248.36	39.189
248.73	38.217
249.10	43.312
249.47	35.593
249.84	40.107
250.22	36.364
250.59	37.870
250.96	37.879
251.33	35.071
251.70	36.634
252.08	32.857
252.45	28.251
252.82	30.000
253.19	31.064
253.56	31.765
253.94	33.610
254.31	30.469
254.68	31.154
255.05	29.151
255.42	27.236
255.79	27.206
256.16	29.603
256.54	27.915
256.91	29.893
257.28	21.583
257.65	27.393
258.02	23.292
258.39	25.552
258.76	25.418
259.14	25.298
259.51	24.316
259.88	19.876
260.25	27.795
260.62	23.988
260.99	26.087
261.36	23.724
261.73	21.203
262.10	19.186
262.47	24.789
262.85	27.019
263.22	19.658
263.59	23.932
263.96	23.352
264.33	24.804
264.70	21.316
265.07	24.297
265.44	21.970
265.81	22.384
266.18	20.603
266.55	19.268
266.92	20.885
267.29	23.843
267.66	20.413
268.03	18.864
268.40	21.495
268.77	18.377
269.14	19.595
269.51	23.025
269.88	21.212
270.25	21.896
270.62	19.551
270.99	23.011
271.36	21.674
271.73	18.925
272.10	16.739
272.47	20.430
272.84	21.645
273.21	22.013
273.58	17.031
273.95	17.400
274.32	18.802
274.69	19.914
275.06	20.669
275.43	18.511
275.80	19.238
276.17	19.756
276.54	20.374
276.91	19.368
277.28	18.750
277.65	17.215
278.02	19.048
278.39	18.359
278.76	18.909
279.13	18.113
279.50	19.181
279.87	15.737
280.23	18.164
280.60	18.569
280.97	16.821
281.34	18.053
281.71	19.636
282.08	19.002
282.45	17.455
282.82	15.453
283.19	13.725
283.56	18.070
283.92	17.259
284.29	17.284
284.66	16.697
285.03	15.552
285.40	17.430
285.77	16.667
286.14	16.580
286.51	16.833
286.87	17.778
287.24	15.309
287.61	16.212
287.98	16.234
288.35	16.482
288.72	16.199
289.08	16.275
289.45	16.145
289.82	15.935
290.19	14.129
290.56	15.773
290.93	13.897
291.29	14.417
291.66	15.634
292.03	15.843
292.40	15.712
292.77	14.053
293.13	14.627
293.50	16.327
293.87	14.519
294.24	14.667
294.60	14.265
294.97	13.081
295.34	14.669
295.71	13.778
296.08	12.536
296.44	13.343
296.81	12.814
297.18	14.634
297.55	10.818
297.91	14.248
298.28	14.726
298.65	12.402
299.02	14.361
299.38	11.952
299.75	10.916
300.12	11.111
300.48	12.250
300.85	12.700
301.22	12.866
301.59	11.237
301.95	11.461
302.32	10.398
302.69	13.978
303.05	13.455
303.42	11.481
303.79	11.778
304.15	10.256
304.52	11.356
304.89	10.453
305.25	10.673
305.62	12.458
305.99	12.869
306.35	11.745
306.72	12.220
307.09	12.542
307.45	12.613
307.82	10.826
308.19	12.362
308.55	12.945
308.92	10.849
309.29	11.088
309.65	11.771
310.02	11.945
310.38	10.753
310.75	12.038
311.12	12.282
311.48	11.076
311.85	12.159
312.22	12.487
312.58	11.123
312.95	12.566
313.31	10.874
313.68	11.331
314.05	12.327
314.41	12.462
314.78	12.085
315.14	12.413
315.51	11.740
315.87	12.376
316.24	12.016
316.61	13.060
316.97	12.622
317.34	11.252
317.70	13.384
318.07	13.859
318.43	13.503
318.80	15.276
319.16	14.972
319.53	13.602
319.89	16.762
320.26	16.600
320.62	14.782
320.99	15.657
321.35	16.465
321.72	17.248
322.08	16.881
322.45	18.010
322.81	18.217
323.18	19.653
323.54	19.295
323.91	18.679
324.27	18.929
324.64	19.571
325.00	18.846
325.37	21.110
325.73	22.352
326.10	20.741
326.46	20.878
326.83	21.829
327.19	21.605
327.56	21.603
327.92	22.310
328.29	23.070
328.65	22.652
329.01	24.368
329.38	24.514
329.74	24.100
330.11	25.071
330.47	24.518
330.84	25.000
331.20	24.135
331.56	24.954
331.93	25.185
332.29	25.821
332.66	27.168
333.02	25.411
333.38	26.920
333.75	27.451
334.11	27.046
334.48	25.909
334.84	26.471
335.20	27.909
335.57	26.655
335.93	27.232
336.29	26.465
336.66	27.502
337.02	26.063
337.38	28.704
337.75	26.471
338.11	27.753
338.47	27.993
338.84	29.056
339.20	28.073
339.56	28.285
339.93	28.364
340.29	27.808
340.65	29.323
341.02	27.661
341.38	29.715
341.74	27.807
342.11	28.559
342.47	28.282
342.83	29.195
343.20	29.177
343.56	29.318
343.92	28.860
344.28	29.677
344.65	30.095
345.01	29.545
345.37	29.674
345.73	28.596
346.10	29.838
346.46	29.746
346.82	29.654
347.19	29.156
347.55	29.392
347.91	30.421
348.27	30.813
348.63	30.100
349.00	30.178
349.36	30.049
349.72	30.152
350.08	30.389
350.45	31.164
350.81	31.032
351.17	30.794
351.53	30.631
351.89	30.363
352.26	31.176
352.62	31.596
352.98	31.361
353.34	31.060
353.70	31.015
354.07	30.726
354.43	30.635
354.79	31.617
355.15	31.604
355.51	32.294
355.87	32.000
356.24	31.433
356.60	30.794
356.96	32.341
357.32	31.398
357.68	32.913
358.04	31.591
358.40	32.462
358.77	31.690
359.13	30.939
359.49	32.078
359.85	31.429
360.21	31.659
360.57	31.284
360.93	33.923
361.29	30.234
361.66	30.573
362.02	33.209
362.38	31.939
362.74	32.143
363.10	31.828
363.46	32.135
363.82	31.897
364.18	32.452
364.54	32.764
364.90	32.295
365.26	32.353
365.62	32.725
365.98	32.140
366.35	31.519
366.71	32.249
367.07	32.702
367.43	33.237
367.79	33.191
368.15	32.687
368.51	30.814
368.87	31.834
369.23	32.480
369.59	32.947
369.95	32.794
370.31	32.479
370.67	31.739
371.03	32.809
371.39	33.163
371.75	32.941
372.11	32.006
372.47	32.845
372.83	32.997
373.19	32.009
373.55	34.442
373.91	34.094
374.27	32.440
374.63	33.673
374.99	33.616
375.35	32.729
375.71	33.173
376.07	33.333
376.42	33.356
376.78	33.797
377.14	32.904
377.50	34.040
377.86	32.380
378.22	33.249
378.58	32.080
378.94	32.621
379.30	33.270
379.66	34.327
380.02	33.845
380.38	32.240
380.74	33.613
381.09	33.313
381.45	34.419
381.81	34.398
382.17	34.331
382.53	32.390
382.89	32.778
383.25	34.146
383.61	34.139
383.97	33.396
384.32	33.687
384.68	33.643
385.04	33.374
385.40	32.817
385.76	33.354
386.12	33.938
386.48	35.242
386.83	34.381
387.19	34.261
387.55	33.890
387.91	34.039
388.27	33.415
388.62	33.927
388.98	32.555
389.34	34.168
389.70	33.906
390.06	33.714
390.42	33.593
390.77	33.206
391.13	35.354
391.49	34.137
391.85	32.782
392.20	33.060
392.56	34.470
392.92	33.961
393.28	32.071
393.64	33.633
393.99	33.048
394.35	32.878
394.71	33.312
395.07	32.461
395.42	33.684
395.78	32.761
396.14	32.713
396.50	32.895
396.85	33.948
397.21	32.491
397.57	32.920
397.92	32.632
398.28	31.390
398.64	31.959
399.00	31.673
399.35	31.698
399.71	30.961
400.07	32.348
400.42	32.270
400.78	31.665
401.14	31.220
401.49	32.179
401.85	30.792
402.21	31.557
402.57	31.277
402.92	31.526
403.28	31.230
403.63	31.621
403.99	30.510
404.35	30.667
404.70	30.755
405.06	29.994
405.42	30.318
405.77	30.057
406.13	29.740
406.49	31.579
406.84	30.951
407.20	30.496
407.55	31.142
407.91	30.400
408.27	29.738
408.62	30.223
408.98	29.596
409.34	29.274
409.69	29.742
410.05	30.235
410.40	29.908
410.76	29.032
411.11	28.951
411.47	28.498
411.83	29.383
412.18	29.375
412.54	28.518
412.89	27.952
413.25	28.394
413.60	28.721
413.96	27.140
414.31	28.554
414.67	28.644
415.03	28.675
415.38	28.544
415.74	27.781
416.09	28.739
416.45	28.246
416.80	27.429
417.16	28.552
417.51	27.405
417.87	27.232
418.22	27.697
418.58	27.243
418.93	27.150
419.29	28.453
419.64	28.904
420.00	27.378
420.35	27.768
420.71	27.974
421.06	27.029
421.42	26.608
421.77	26.513
422.12	26.109
422.48	25.958
422.83	26.267
423.19	26.409
423.54	26.582
423.90	26.783
424.25	26.354
424.61	26.429
424.96	27.172
425.31	27.021
425.67	25.787
426.02	25.600
426.38	27.534
426.73	25.863
427.09	25.957
427.44	25.992
427.79	25.992
428.15	26.250
428.50	25.278
428.85	25.745
429.21	25.842
429.56	24.987
429.92	25.617
430.27	24.330
430.62	24.782
430.98	25.169
431.33	25.052
431.68	25.654
432.04	24.760
432.39	25.471
432.74	25.913
433.10	25.523
433.45	25.364
433.80	25.388
434.16	25.962
434.51	25.053
434.86	25.713
435.22	26.014
435.57	25.167
435.92	25.453
436.28	25.445
436.63	26.600
436.98	25.587
437.34	26.893
437.69	26.721
438.04	25.689
438.39	26.209
438.75	26.380
439.10	26.927
439.45	26.505
439.81	25.861
440.16	25.861
440.51	26.889
440.86	26.867
441.22	25.806
441.57	27.229
441.92	27.687
442.27	27.933
442.63	26.435
442.98	28.225
443.33	27.609
443.68	28.085
444.03	28.160
444.39	27.118
444.74	28.409
445.09	28.248
445.44	28.321
445.79	28.303
446.15	28.745
446.50	29.456
446.85	28.469
447.20	29.628
447.55	28.811
447.91	28.737
448.26	28.937
448.61	29.395
448.96	30.288
449.31	29.978
449.66	30.163
450.02	29.582
450.37	29.705
450.72	29.780
451.07	29.616
451.42	29.970
451.77	30.945
452.12	29.965
452.47	30.162
452.83	30.245
453.18	30.501
453.53	31.045
453.88	29.592
454.23	30.245
454.58	31.012
454.93	31.024
455.28	30.424
455.63	30.400
455.98	29.702
456.34	30.716
456.69	31.371
457.04	30.650
457.39	30.450
457.74	29.541
458.09	30.362
458.44	30.046
458.79	29.555
459.14	30.361
459.49	30.473
459.84	30.305
460.19	30.171
460.54	28.646
460.89	30.280
461.24	29.447
461.59	29.750
461.94	29.655
462.29	30.504
462.64	30.504
462.99	29.408
463.34	30.000
463.69	29.518
464.04	28.870
464.39	29.623
464.74	29.234
465.09	28.770
465.44	28.476
465.79	28.635
466.14	28.243
466.49	28.198
466.84	28.021
467.19	28.727
467.54	28.250
467.89	27.791
468.24	27.923
468.59	28.083
468.94	28.345
469.29	28.985
469.64	29.317
469.99	28.958
470.34	27.807
470.68	28.017
471.03	28.639
471.38	28.214
471.73	28.115
472.08	28.487
472.43	27.575
472.78	27.321
473.13	27.599
473.48	27.840
473.83	28.171
474.17	26.198
474.52	28.350
474.87	27.204
475.22	26.988
475.57	27.405
475.92	25.757
476.27	27.001
476.61	26.475
476.96	26.608
477.31	25.536
477.66	27.024
478.01	27.078
478.36	26.653
478.70	25.649
479.05	25.879
479.40	25.896
479.75	25.369
480.10	25.249
480.45	25.036
480.79	24.988
481.14	25.587
481.49	25.771
481.84	24.463
482.19	25.170
482.53	25.183
482.88	24.058
483.23	24.159
483.58	25.114
483.92	24.555
484.27	23.660
484.62	23.879
484.97	23.886
485.31	23.630
485.66	22.542
486.01	21.426
486.36	21.173
486.70	20.736
487.05	21.110
487.40	21.425
487.75	21.632
488.09	22.657
488.44	22.215
488.79	22.821
489.13	23.186
489.48	23.369
489.83	23.004
490.17	23.718
490.52	22.941
490.87	22.840
491.22	23.374
491.56	23.508
491.91	23.406
492.26	22.141
492.60	22.673
492.95	22.357
493.30	22.617
493.64	22.818
493.99	21.959
494.34	22.294
494.68	23.443
495.03	23.167
495.37	22.569
495.72	22.271
496.07	22.274
496.41	22.257
496.76	22.383
497.11	22.062
497.45	22.683
497.80	22.601
498.14	22.077
498.49	22.244
498.84	23.202
499.18	21.952
499.53	22.317
499.87	22.414
500.22	21.809
500.56	22.670
500.91	22.115
501.26	22.143
501.60	21.927
501.95	21.357
502.29	21.884
502.64	21.322
502.98	21.318
503.33	21.252
503.67	20.928
504.02	21.796
504.36	22.087
504.71	20.664
505.06	21.205
505.40	21.439
505.75	21.119
506.09	20.991
506.44	21.510
506.78	21.237
507.13	21.151
507.47	21.919
507.82	21.682
508.16	21.277
508.51	21.208
508.85	21.500
509.19	21.633
509.54	20.918
509.88	21.226
510.23	21.131
510.57	21.775
510.92	21.388
511.26	21.274
511.61	21.421
511.95	20.564
512.30	20.732
512.64	20.903
512.98	20.632
513.33	20.931
513.67	20.704
514.02	20.996
514.36	21.191
514.70	21.251
515.05	21.361
515.39	21.144
515.74	20.214
516.08	21.409
516.42	21.365
516.77	22.018
517.11	19.922
517.46	21.727
517.80	21.196
518.14	19.919
518.49	21.704
518.83	21.307
519.17	20.439
519.52	20.713
519.86	20.479
520.20	21.561
520.55	20.886
520.89	21.898
521.23	22.135
521.58	21.609
521.92	21.249
522.26	20.073
522.61	20.748
522.95	20.258
523.29	20.390
523.64	21.098
523.98	21.010
524.32	20.869
524.66	20.084
525.01	20.833
525.35	20.818
525.69	20.628
526.04	21.371
526.38	19.951
526.72	19.448
527.06	21.030
527.41	18.936
527.75	20.900
528.09	20.617
528.43	21.160
528.78	20.344
529.12	19.939
529.46	20.514
529.80	19.616
530.15	20.685
530.49	19.631
530.83	21.139
531.17	21.018
531.51	21.920
531.86	20.258
532.20	20.860
532.54	20.500
532.88	20.603
533.22	19.550
533.57	20.185
533.91	19.747
534.25	19.684
534.59	19.890
534.93	20.048
535.27	19.372
535.62	19.597
535.96	18.895
536.30	19.580
536.64	20.734
536.98	19.708
537.32	19.487
537.66	19.867
538.01	19.223
538.35	20.621
538.69	20.485
539.03	19.753
539.37	18.530
539.71	18.795
540.05	19.673
540.39	19.269
540.73	19.405
541.07	20.831
541.42	20.091
541.76	19.097
542.10	19.793
542.44	19.139
542.78	20.487
543.12	18.874
543.46	20.328
543.80	19.193
544.14	18.806
544.48	19.238
544.82	18.987
545.16	19.063
545.50	18.959
545.84	18.952
546.18	18.990
546.52	19.546
546.86	19.244
547.20	19.622
547.54	19.172
547.88	19.133
548.22	18.929
548.56	18.994
548.90	18.566
549.24	18.788
549.58	19.031
549.92	18.956
550.26	19.247
550.60	18.603
550.94	18.169
551.28	18.215
551.62	18.979
551.96	18.316
552.30	19.795
552.64	18.120
552.98	18.780
553.32	19.083
553.66	19.427
554.00	18.463
554.34	18.841
554.68	19.385
555.02	19.535
555.36	18.789
555.69	18.674
556.03	18.977
556.37	18.008
556.71	18.554
557.05	19.048
557.39	18.684
557.73	18.490
558.07	18.927
558.41	19.175
558.75	19.544
559.08	19.761
559.42	18.745
559.76	19.118
560.10	18.415
560.44	18.309
560.78	17.432
561.12	18.404
561.45	18.383
561.79	18.260
562.13	17.505
562.47	18.443
562.81	18.828
563.15	18.127
563.48	18.700
563.82	18.134
564.16	18.443
564.50	16.602
564.84	18.394
565.17	17.310
565.51	17.572
565.85	18.718
566.19	17.783
566.52	17.923
566.86	17.420
567.20	17.748
567.54	17.580
567.88	16.078
568.21	17.090
568.55	16.835
568.89	16.051
569.23	15.686
569.56	15.547
569.90	15.132
570.24	14.891
570.57	15.301
570.91	14.512
571.25	15.102
571.59	14.610
571.92	14.343
572.26	14.009
572.60	14.535
572.93	14.183
573.27	14.522
573.61	13.791
573.95	14.367
574.28	14.171
574.62	14.116
574.96	13.931
575.29	13.652
575.63	14.380
575.97	13.903
576.30	13.834
576.64	13.546
576.98	13.491
577.31	13.470
577.65	13.312
577.98	13.370
578.32	13.185
578.66	13.606
578.99	13.810
579.33	13.387
579.67	13.257
580.00	13.378
580.34	14.025
580.67	13.543
581.01	14.234
581.35	13.152
581.68	13.111
582.02	12.786
582.35	13.526
582.69	13.170
583.02	13.308
583.36	13.581
583.70	13.986
584.03	14.080
584.37	14.150
584.70	13.976
585.04	13.699
585.37	13.863
585.71	13.651
586.04	13.989
586.38	14.107
586.72	13.974
587.05	13.719
587.39	13.826
587.72	13.476
588.06	13.794
588.39	13.909
588.73	13.963
589.06	14.428
589.40	14.613
589.73	14.819
590.07	14.982
590.40	14.322
590.73	15.340
591.07	15.181
591.40	15.521
591.74	15.887
592.07	15.969
592.41	14.965
592.74	14.532
593.08	14.257
593.41	14.141
593.75	14.272
594.08	14.281
594.41	14.493
594.75	14.677
595.08	14.710
595.42	15.026
595.75	14.850
596.09	15.321
596.42	15.363
596.75	15.027
597.09	15.411
597.42	14.629
597.75	15.481
598.09	15.304
598.42	14.905
598.76	14.471
599.09	14.101
599.42	13.937
599.76	15.190
600.09	14.317
600.42	14.134
600.76	14.321
601.09	14.754
601.42	14.840
601.76	14.649
602.09	14.783
602.42	14.769
602.76	16.082
603.09	15.106
603.42	14.955
603.76	14.405
604.09	14.463
604.42	15.450
604.76	15.183
605.09	15.465
605.42	14.793
605.75	15.066
606.09	14.396
606.42	14.426
606.75	14.724
607.09	14.902
607.42	14.848
607.75	14.304
608.08	14.850
608.42	15.195
608.75	15.464
609.08	15.217
609.41	15.564
609.75	15.102
610.08	15.693
610.41	14.804
610.74	14.664
611.07	15.613
611.41	15.604
611.74	15.887
612.07	15.787
612.40	15.845
612.73	15.842
613.07	16.756
613.40	16.430
613.73	15.364
614.06	15.914
614.39	15.784
614.72	15.421
615.06	15.389
615.39	15.340
615.72	15.286
616.05	15.736
616.38	15.564
616.71	16.390
617.05	16.961
617.38	15.875
617.71	15.736
618.04	16.346
618.37	15.908
618.70	16.241
619.03	16.513
619.36	16.768
619.69	16.761
620.03	16.552
620.36	16.110
620.69	17.603
621.02	17.625
621.35	16.836
621.68	16.978
622.01	17.570
622.34	18.154
622.67	16.882
623.00	16.508
623.33	15.940
623.66	17.084
623.99	17.673
624.32	16.833
624.65	17.090
624.99	16.076
625.32	16.944
625.65	17.205
625.98	17.141
626.31	17.729
626.64	19.020
626.97	17.872
627.30	17.789
627.63	18.294
627.96	18.587
628.29	17.498
628.62	19.396
628.95	19.528
629.28	18.157
629.61	19.340
629.94	18.000
630.26	18.494
630.59	19.066
630.92	18.582
