SpectraSuite Data File
++++++++++++++++++++++++++++++++++++
Date: Tue May 12 20:00:17 PDT 2015
User: schluterlab
Dark Spectrum Present: Yes
Reference Spectrum Present: Yes
Number of Sampled Component Spectra: 1
Spectrometers: USB2E3373
Integration Time (usec): 3000 (USB2E3373)
Spectra Averaged: 3 (USB2E3373)
Boxcar Smoothing: 0 (USB2E3373)
Correct for Electrical Dark: No (USB2E3373)
Strobe/Lamp Enabled: No (USB2E3373)
Correct for Detector Non-linearity: No (USB2E3373)
Correct for Stray Light: No (USB2E3373)
Number of Pixels in Processed Spectrum: 2048
>>>>>Begin Processed Spectral Data<<<<<
178.53	0.000
178.91	-150.000
179.29	-183.333
179.67	600.000
180.04	0.000
180.42	-480.000
180.80	-400.000
181.18	1400.000
181.56	-1000.000
181.94	233.333
182.31	2100.000
182.69	-314.286
183.07	0.000
183.45	283.333
183.83	460.000
184.20	433.333
184.58	1450.000
184.96	466.667
185.34	-666.667
185.72	-85.714
186.09	-200.000
186.47	-2200.000
186.85	-100.000
187.23	266.667
187.61	-228.571
187.98	-380.000
188.36	1350.000
188.74	-450.000
189.12	-188.889
189.49	-100.000
189.87	700.000
190.25	177.778
190.63	833.333
191.00	380.000
191.38	-800.000
191.76	640.000
192.14	-228.571
192.51	-180.000
192.89	-300.000
193.27	-280.000
193.65	-466.667
194.02	-216.667
194.40	1900.000
194.78	-50.000
195.15	-342.857
195.53	600.000
195.91	400.000
196.29	-625.000
196.66	-633.333
197.04	-414.286
197.42	180.000
197.79	-200.000
198.17	-141.667
198.55	-800.000
198.92	-166.667
199.30	1150.000
199.68	-275.000
200.05	-1100.000
200.43	-105.556
200.81	-133.333
201.18	366.667
201.56	-950.000
201.94	-3000.000
202.31	-50.000
202.69	-122.222
203.07	-100.000
203.44	-825.000
203.82	0.000
204.19	287.500
204.57	-500.000
204.95	218.182
205.32	440.000
205.70	650.000
206.08	-1700.000
206.45	-360.000
206.83	2200.000
207.20	-166.667
207.58	-61.538
207.96	500.000
208.33	1000.000
208.71	700.000
209.08	900.000
209.46	-200.000
209.84	666.667
210.21	-866.667
210.59	450.000
210.96	277.778
211.34	-575.000
211.71	1100.000
212.09	-340.000
212.46	-262.500
212.84	-312.500
213.22	242.857
213.59	-25.000
213.97	0.000
214.34	-1000.000
214.72	-1900.000
215.09	1150.000
215.47	-20.000
215.84	-175.000
216.22	-2500.000
216.59	2500.000
216.97	-125.000
217.34	-216.667
217.72	-33.333
218.09	500.000
218.47	-126.316
218.84	-225.000
219.22	-85.714
219.59	-250.000
219.97	-130.000
220.34	400.000
220.72	190.909
221.09	-1200.000
221.47	0.000
221.84	900.000
222.22	-625.000
222.59	-450.000
222.97	-47.826
223.34	233.333
223.72	371.429
224.09	-350.000
224.46	223.077
224.84	-126.667
225.21	-650.000
225.59	-550.000
225.96	-30.000
226.34	533.333
226.71	300.000
227.08	-153.846
227.46	-142.857
227.83	-116.667
228.21	-1300.000
228.58	316.667
228.95	-47.368
229.33	-81.250
229.70	-133.333
230.08	-266.667
230.45	-566.667
230.82	-1600.000
231.20	-28.571
231.57	-400.000
231.95	-500.000
232.32	177.778
232.69	-1050.000
233.07	-37.500
233.44	-237.500
233.81	-9.677
234.19	-520.000
234.56	-100.000
234.93	-316.667
235.31	-18.519
235.68	-37.037
236.05	-46.154
236.43	-63.158
236.80	-72.727
237.17	-142.857
237.55	-135.000
237.92	4.651
238.29	-22.581
238.67	-39.286
239.04	2.857
239.41	7.843
239.79	-12.000
240.16	-10.000
240.53	-24.138
240.91	-2.740
241.28	14.085
241.65	15.625
242.02	-1.754
242.40	6.667
242.77	10.526
243.14	29.412
243.51	24.731
243.89	5.714
244.26	12.037
244.63	12.245
245.00	15.179
245.38	9.244
245.75	13.559
246.12	25.000
246.49	12.800
246.87	16.393
247.24	7.746
247.61	23.841
247.98	16.854
248.36	22.013
248.73	21.591
249.10	20.556
249.47	23.958
249.84	22.843
250.22	22.396
250.59	17.416
250.96	27.727
251.33	22.170
251.70	23.853
252.08	29.004
252.45	21.633
252.82	21.097
253.19	27.237
253.56	25.490
253.94	24.390
254.31	26.978
254.68	26.389
255.05	29.470
255.42	29.455
255.79	31.457
256.16	28.819
256.54	23.636
256.91	28.205
257.28	31.494
257.65	23.934
258.02	24.324
258.39	31.118
258.76	24.465
259.14	25.294
259.51	27.606
259.88	33.141
260.25	27.557
260.62	25.562
260.99	27.577
261.36	23.276
261.73	28.000
262.10	27.793
262.47	27.824
262.85	29.563
263.22	27.957
263.59	28.150
263.96	27.937
264.33	26.954
264.70	27.764
265.07	26.847
265.44	29.274
265.81	31.084
266.18	27.166
266.55	29.762
266.92	29.464
267.29	30.000
267.66	27.955
268.03	29.677
268.40	29.291
268.77	30.735
269.14	24.370
269.51	28.054
269.88	27.137
270.25	28.270
270.62	30.672
270.99	27.579
271.36	26.711
271.73	28.333
272.10	28.631
272.47	26.400
272.84	25.902
273.21	25.887
273.58	26.939
273.95	26.295
274.32	28.627
274.69	28.767
275.06	27.392
275.43	26.600
275.80	27.725
276.17	28.656
276.54	27.376
276.91	31.670
277.28	29.400
277.65	27.032
278.02	28.409
278.39	30.490
278.76	29.423
279.13	30.233
279.50	28.339
279.87	29.623
280.23	28.962
280.60	25.088
280.97	28.647
281.34	26.271
281.71	24.689
282.08	28.265
282.45	26.279
282.82	25.758
283.19	27.441
283.56	28.328
283.92	27.804
284.29	27.750
284.66	27.965
285.03	23.499
285.40	28.000
285.77	28.736
286.14	25.832
286.51	27.170
286.87	27.715
287.24	27.404
287.61	26.698
287.98	28.638
288.35	26.357
288.72	25.688
289.08	25.000
289.45	26.989
289.82	23.913
290.19	26.212
290.56	26.049
290.93	24.225
291.29	24.965
291.66	26.545
292.03	26.399
292.40	27.338
292.77	24.490
293.13	24.082
293.50	23.967
293.87	23.856
294.24	25.843
294.60	23.634
294.97	23.130
295.34	23.699
295.71	22.191
296.08	23.087
296.44	23.847
296.81	21.604
297.18	23.674
297.55	24.246
297.91	21.447
298.28	21.611
298.65	21.345
299.02	21.208
299.38	22.832
299.75	23.166
300.12	21.463
300.48	22.535
300.85	20.782
301.22	21.394
301.59	22.749
301.95	23.049
302.32	21.507
302.69	21.998
303.05	21.251
303.42	22.464
303.79	19.326
304.15	21.404
304.52	20.894
304.89	20.180
305.25	21.789
305.62	22.045
305.99	21.165
306.35	20.470
306.72	20.806
307.09	21.328
307.45	21.575
307.82	21.345
308.19	20.682
308.55	20.253
308.92	21.504
309.29	22.176
309.65	21.259
310.02	22.327
310.38	20.043
310.75	21.619
311.12	21.160
311.48	21.274
311.85	19.250
312.22	20.971
312.58	21.047
312.95	22.074
313.31	23.107
313.68	21.152
314.05	22.939
314.41	22.200
314.78	22.312
315.14	21.058
315.51	22.244
315.87	24.121
316.24	22.651
316.61	23.981
316.97	22.843
317.34	24.402
317.70	24.743
318.07	23.626
318.43	25.520
318.80	24.954
319.16	24.138
319.53	25.943
319.89	26.231
320.26	27.729
320.62	28.101
320.99	28.061
321.35	28.557
321.72	28.081
322.08	29.505
322.45	30.178
322.81	31.626
323.18	29.147
323.54	31.469
323.91	33.207
324.27	31.823
324.64	33.271
325.00	35.578
325.37	35.342
325.73	34.672
326.10	35.464
326.46	38.078
326.83	36.939
327.19	39.825
327.56	41.026
327.92	38.455
328.29	41.398
328.65	41.525
329.01	41.835
329.38	43.251
329.74	43.825
330.11	43.057
330.47	44.507
330.84	43.233
331.20	44.824
331.56	44.057
331.93	44.373
332.29	45.791
332.66	46.745
333.02	46.797
333.38	48.529
333.75	48.307
334.11	47.830
334.48	47.317
334.84	47.418
335.20	46.374
335.57	49.864
335.93	49.581
336.29	48.812
336.66	48.907
337.02	48.685
337.38	49.623
337.75	49.909
338.11	51.595
338.47	50.511
338.84	50.552
339.20	50.962
339.56	49.301
339.93	50.541
340.29	51.677
340.65	51.142
341.02	49.513
341.38	50.750
341.74	51.423
342.11	52.166
342.47	50.874
342.83	52.472
343.20	51.636
343.56	51.661
343.92	52.581
344.28	50.943
344.65	51.199
345.01	52.787
345.37	51.197
345.73	51.938
346.10	53.068
346.46	51.510
346.82	54.121
347.19	52.733
347.55	53.571
347.91	53.808
348.27	53.580
348.63	54.624
349.00	55.008
349.36	53.421
349.72	53.284
350.08	53.110
350.45	52.726
350.81	53.097
351.17	52.554
351.53	52.093
351.89	54.750
352.26	53.089
352.62	54.374
352.98	54.728
353.34	56.224
353.70	54.403
354.07	55.931
354.43	54.090
354.79	55.492
355.15	54.722
355.51	54.605
355.87	54.455
356.24	56.699
356.60	56.928
356.96	55.371
357.32	57.366
357.68	55.847
358.04	57.050
358.40	55.810
358.77	55.984
359.13	57.831
359.49	55.600
359.85	56.675
360.21	56.463
360.57	58.453
360.93	57.403
361.29	58.022
361.66	56.861
362.02	58.477
362.38	57.110
362.74	58.263
363.10	58.446
363.46	58.691
363.82	58.040
364.18	57.835
364.54	57.863
364.90	58.296
365.26	58.942
365.62	58.668
365.98	59.895
366.35	59.304
366.71	59.671
367.07	60.000
367.43	58.773
367.79	58.430
368.15	59.896
368.51	60.974
368.87	60.499
369.23	59.727
369.59	59.926
369.95	59.165
370.31	60.455
370.67	60.150
371.03	60.681
371.39	61.480
371.75	58.990
372.11	60.074
372.47	59.020
372.83	60.409
373.19	61.672
373.55	60.629
373.91	60.833
374.27	62.399
374.63	59.794
374.99	60.542
375.35	60.958
375.71	63.343
376.07	61.413
376.42	59.959
376.78	61.254
377.14	61.802
377.50	61.560
377.86	62.883
378.22	62.285
378.58	62.368
378.94	61.690
379.30	60.940
379.66	61.716
380.02	61.538
380.38	61.768
380.74	61.840
381.09	61.182
381.45	62.857
381.81	62.883
382.17	62.280
382.53	62.656
382.89	61.514
383.25	61.636
383.61	62.492
383.97	62.898
384.32	62.710
384.68	62.324
385.04	62.444
385.40	62.173
385.76	63.188
386.12	62.442
386.48	63.601
386.83	63.331
387.19	63.282
387.55	63.536
387.91	61.558
388.27	64.363
388.62	63.731
388.98	61.896
389.34	62.394
389.70	63.590
390.06	64.488
390.42	64.841
390.77	63.313
391.13	63.110
391.49	63.814
391.85	63.606
392.20	64.224
392.56	62.344
392.92	64.069
393.28	62.118
393.64	64.408
393.99	63.571
394.35	64.568
394.71	63.179
395.07	63.528
395.42	62.413
395.78	62.702
396.14	63.691
396.50	62.743
396.85	63.714
397.21	61.966
397.57	64.319
397.92	63.868
398.28	63.789
398.64	62.794
399.00	61.927
399.35	62.954
399.71	63.293
400.07	63.002
400.42	63.846
400.78	64.299
401.14	62.058
401.49	63.960
401.85	63.619
402.21	63.579
402.57	62.717
402.92	63.811
403.28	62.744
403.63	62.436
403.99	63.078
404.35	62.611
404.70	61.621
405.06	63.298
405.42	64.151
405.77	62.366
406.13	61.768
406.49	62.271
406.84	62.765
407.20	62.020
407.55	62.993
407.91	62.587
408.27	62.633
408.62	62.379
408.98	63.192
409.34	62.420
409.69	61.405
410.05	62.241
410.40	61.785
410.76	62.453
411.11	63.348
411.47	62.789
411.83	60.979
412.18	63.547
412.54	61.190
412.89	61.982
413.25	63.448
413.60	62.245
413.96	62.718
414.31	62.906
414.67	63.471
415.03	63.416
415.38	63.440
415.74	62.660
416.09	62.922
416.45	61.076
416.80	62.309
417.16	62.553
417.51	61.554
417.87	64.295
418.22	61.965
418.58	61.437
418.93	62.798
419.29	63.840
419.64	65.110
420.00	62.279
420.35	62.524
420.71	61.588
421.06	62.816
421.42	63.864
421.77	63.764
422.12	61.134
422.48	63.621
422.83	61.581
423.19	61.176
423.54	61.698
423.90	61.557
424.25	63.746
424.61	63.355
424.96	62.469
425.31	62.923
425.67	63.091
426.02	63.789
426.38	63.192
426.73	61.620
427.09	62.114
427.44	62.346
427.79	62.995
428.15	62.016
428.50	63.442
428.85	63.117
429.21	63.539
429.56	62.707
429.92	62.412
430.27	61.920
430.62	62.791
430.98	61.257
431.33	62.736
431.68	63.457
432.04	63.234
432.39	61.141
432.74	62.682
433.10	62.765
433.45	63.331
433.80	62.024
434.16	63.003
434.51	62.207
434.86	62.961
435.22	61.932
435.57	64.710
435.92	62.229
436.28	62.516
436.63	62.552
436.98	63.704
437.34	63.532
437.69	62.963
438.04	62.500
438.39	63.251
438.75	61.785
439.10	64.762
439.45	64.442
439.81	63.619
440.16	63.884
440.51	61.834
440.86	64.078
441.22	61.584
441.57	61.595
441.92	64.274
442.27	65.029
442.63	63.375
442.98	65.220
443.33	63.278
443.68	62.396
444.03	62.474
444.39	62.311
444.74	63.137
445.09	63.518
445.44	62.915
445.79	63.754
446.15	64.257
446.50	63.216
446.85	62.706
447.20	63.348
447.55	63.409
447.91	63.374
448.26	63.976
448.61	63.807
448.96	63.394
449.31	62.869
449.66	62.651
450.02	62.189
450.37	63.487
450.72	63.435
451.07	64.601
451.42	62.912
451.77	61.980
452.12	62.845
452.47	63.076
452.83	64.446
453.18	64.416
453.53	63.684
453.88	63.050
454.23	62.812
454.58	64.883
454.93	63.147
455.28	65.173
455.63	64.263
455.98	63.388
456.34	62.827
456.69	62.424
457.04	63.386
457.39	62.984
457.74	63.338
458.09	63.908
458.44	63.826
458.79	63.251
459.14	63.148
459.49	64.331
459.84	63.674
460.19	63.415
460.54	63.131
460.89	62.353
461.24	63.052
461.59	63.091
461.94	62.788
462.29	62.093
462.64	62.117
462.99	63.669
463.34	63.370
463.69	63.855
464.04	63.117
464.39	64.566
464.74	61.518
465.09	61.801
465.44	62.148
465.79	62.094
466.14	61.695
466.49	61.095
466.84	61.364
467.19	61.533
467.54	60.544
467.89	62.116
468.24	62.942
468.59	61.453
468.94	62.811
469.29	63.460
469.64	62.801
469.99	62.581
470.34	62.306
470.68	61.769
471.03	61.314
471.38	62.827
471.73	61.773
472.08	63.559
472.43	62.932
472.78	62.509
473.13	61.193
473.48	63.278
473.83	63.276
474.17	60.907
474.52	63.094
474.87	60.669
475.22	62.389
475.57	61.340
475.92	61.285
476.27	60.940
476.61	61.525
476.96	61.707
477.31	61.929
477.66	60.081
478.01	61.566
478.36	61.375
478.70	62.479
479.05	62.391
479.40	61.415
479.75	61.694
480.10	61.418
480.45	62.094
480.79	60.509
481.14	61.887
481.49	60.514
481.84	61.313
482.19	60.488
482.53	60.931
482.88	60.803
483.23	61.910
483.58	60.594
483.92	60.553
484.27	60.939
484.62	60.302
484.97	59.095
485.31	58.043
485.66	56.213
486.01	55.599
486.36	56.066
486.70	57.003
487.05	57.743
487.40	58.108
487.75	56.084
488.09	56.234
488.44	57.178
488.79	58.410
489.13	58.146
489.48	58.878
489.83	58.807
490.17	59.962
490.52	59.417
490.87	60.534
491.22	59.763
491.56	59.190
491.91	59.388
492.26	60.530
492.60	61.020
492.95	60.524
493.30	60.272
493.64	61.207
493.99	61.704
494.34	60.112
494.68	59.217
495.03	58.874
495.37	59.503
495.72	60.232
496.07	58.722
496.41	58.696
496.76	58.835
497.11	59.872
497.45	59.417
497.80	59.761
498.14	60.454
498.49	60.545
498.84	58.910
499.18	59.211
499.53	58.723
499.87	58.013
500.22	59.584
500.56	59.864
500.91	60.199
501.26	59.213
501.60	58.461
501.95	58.649
502.29	58.748
502.64	58.437
502.98	57.143
503.33	57.664
503.67	58.244
504.02	58.325
504.36	57.422
504.71	57.979
505.06	59.400
505.40	58.016
505.75	58.820
506.09	58.180
506.44	59.227
506.78	57.173
507.13	57.220
507.47	59.003
507.82	57.589
508.16	57.405
508.51	59.409
508.85	59.066
509.19	58.365
509.54	58.187
509.88	58.918
510.23	57.640
510.57	57.978
510.92	58.163
511.26	58.415
511.61	57.534
511.95	58.300
512.30	57.971
512.64	56.716
512.98	58.240
513.33	56.506
513.67	55.808
514.02	56.851
514.36	58.126
514.70	59.138
515.05	58.232
515.39	59.661
515.74	58.647
516.08	58.569
516.42	59.105
516.77	58.447
517.11	57.798
517.46	59.213
517.80	60.625
518.14	58.571
518.49	59.767
518.83	58.820
519.17	58.933
519.52	58.463
519.86	58.835
520.20	57.707
520.55	59.726
520.89	60.121
521.23	58.717
521.58	59.259
521.92	57.477
522.26	59.588
522.61	59.727
522.95	58.014
523.29	58.165
523.64	58.345
523.98	58.333
524.32	58.788
524.66	59.551
525.01	57.526
525.35	58.618
525.69	57.536
526.04	59.690
526.38	59.356
526.72	59.653
527.06	60.549
527.41	58.611
527.75	60.158
528.09	58.487
528.43	58.469
528.78	57.792
529.12	57.055
529.46	55.083
529.80	56.841
530.15	57.540
530.49	57.252
530.83	57.411
531.17	58.263
531.51	57.602
531.86	57.633
532.20	56.421
532.54	57.482
532.88	57.018
533.22	56.825
533.57	56.276
533.91	57.261
534.25	55.669
534.59	57.703
534.93	55.272
535.27	54.613
535.62	56.043
535.96	57.223
536.30	55.463
536.64	55.508
536.98	55.457
537.32	56.324
537.66	55.865
538.01	55.376
538.35	55.782
538.69	54.140
539.03	55.588
539.37	53.553
539.71	56.159
540.05	54.993
540.39	56.064
540.73	55.531
541.07	55.368
541.42	54.170
541.76	54.317
542.10	54.591
542.44	56.936
542.78	55.499
543.12	53.863
543.46	54.769
543.80	54.253
544.14	54.552
544.48	53.895
544.82	52.661
545.16	55.145
545.50	55.604
545.84	53.841
546.18	54.607
546.52	53.497
546.86	54.093
547.20	54.318
547.54	53.525
547.88	52.564
548.22	51.617
548.56	52.925
548.90	53.614
549.24	54.605
549.58	54.844
549.92	52.632
550.26	52.741
550.60	53.767
550.94	55.000
551.28	53.659
551.62	54.791
551.96	53.674
552.30	53.643
552.64	52.592
552.98	53.863
553.32	50.985
553.66	52.580
554.00	53.205
554.34	53.125
554.68	53.190
555.02	53.651
555.36	52.661
555.69	51.422
556.03	50.850
556.37	51.988
556.71	51.735
557.05	52.266
557.39	54.217
557.73	51.258
558.07	52.739
558.41	52.354
558.75	52.448
559.08	53.362
559.42	52.843
559.76	52.822
560.10	53.708
560.44	51.544
560.78	50.939
561.12	51.540
561.45	51.042
561.79	49.927
562.13	52.261
562.47	52.982
562.81	52.161
563.15	51.103
563.48	51.236
563.82	51.019
564.16	50.871
564.50	50.358
564.84	50.602
565.17	50.715
565.51	50.387
565.85	50.493
566.19	51.009
566.52	50.538
566.86	49.454
567.20	50.366
567.54	49.521
567.88	48.847
568.21	48.886
568.55	46.972
568.89	48.077
569.23	46.436
569.56	46.299
569.90	46.210
570.24	44.996
570.57	44.056
570.91	45.087
571.25	44.559
571.59	44.131
571.92	42.109
572.26	43.011
572.60	43.746
572.93	43.157
573.27	42.375
573.61	42.278
573.95	42.065
574.28	42.014
574.62	41.706
574.96	40.756
575.29	40.475
575.63	40.592
575.97	40.481
576.30	41.643
576.64	41.152
576.98	41.718
577.31	41.554
577.65	41.193
577.98	40.279
578.32	40.678
578.66	40.331
578.99	41.579
579.33	40.987
579.67	40.897
580.00	40.239
580.34	40.442
580.67	40.310
581.01	40.548
581.35	39.856
581.68	39.486
582.02	39.072
582.35	40.023
582.69	39.941
583.02	40.138
583.36	39.727
583.70	40.350
584.03	40.623
584.37	40.451
584.70	39.546
585.04	39.677
585.37	40.097
585.71	39.577
586.04	40.808
586.38	39.935
586.72	39.918
587.05	40.373
587.39	40.396
587.72	39.872
588.06	40.566
588.39	40.199
588.73	39.694
589.06	40.560
589.40	40.760
589.73	41.174
590.07	40.921
590.40	41.518
590.73	41.691
591.07	41.688
591.40	41.389
591.74	43.097
592.07	41.929
592.41	42.455
592.74	41.116
593.08	40.458
593.41	39.938
593.75	40.074
594.08	40.794
594.41	40.505
594.75	40.486
595.08	41.293
595.42	39.992
595.75	40.530
596.09	40.673
596.42	40.761
596.75	41.409
597.09	40.578
597.42	41.342
597.75	42.026
598.09	41.105
598.42	40.748
598.76	41.712
599.09	40.504
599.42	39.103
599.76	40.133
600.09	40.332
600.42	39.297
600.76	39.415
601.09	39.333
601.42	39.654
601.76	39.692
602.09	39.422
602.42	40.556
602.76	40.576
603.09	41.166
603.42	40.843
603.76	40.285
604.09	40.100
604.42	40.404
604.76	40.164
605.09	40.860
605.42	40.521
605.75	39.379
606.09	40.178
606.42	38.933
606.75	39.298
607.09	41.371
607.42	39.789
607.75	39.118
608.08	40.365
608.42	41.610
608.75	40.320
609.08	40.586
609.41	40.487
609.75	40.969
610.08	40.568
610.41	40.509
610.74	40.394
611.07	41.195
611.41	40.846
611.74	40.207
612.07	40.960
612.40	42.117
612.73	41.319
613.07	41.339
613.40	40.771
613.73	40.951
614.06	41.393
614.39	42.121
614.72	40.614
615.06	41.963
615.39	39.896
615.72	40.314
616.05	41.449
616.38	41.103
616.71	40.796
617.05	40.829
617.38	40.387
617.71	41.150
618.04	42.904
618.37	41.792
618.70	42.391
619.03	42.785
619.36	43.225
619.69	42.302
620.03	42.334
620.36	43.235
620.69	42.572
621.02	43.389
621.35	42.298
621.68	46.355
622.01	42.959
622.34	42.714
622.67	43.170
623.00	43.243
623.33	41.969
623.66	42.948
623.99	43.541
624.32	41.700
624.65	41.719
624.99	42.266
625.32	42.338
625.65	42.354
625.98	44.583
626.31	43.723
626.64	44.505
626.97	44.945
627.30	43.611
627.63	42.977
627.96	43.948
628.29	44.168
628.62	44.227
628.95	43.928
629.28	44.628
629.61	45.559
629.94	45.332
630.26	45.816
630.59	47.120
630.92	43.414
