SpectraSuite Data File
++++++++++++++++++++++++++++++++++++
Date: Wed May 13 19:17:23 PDT 2015
User: schluterlab
Dark Spectrum Present: Yes
Reference Spectrum Present: Yes
Number of Sampled Component Spectra: 1
Spectrometers: USB2E3373
Integration Time (usec): 3000 (USB2E3373)
Spectra Averaged: 3 (USB2E3373)
Boxcar Smoothing: 0 (USB2E3373)
Correct for Electrical Dark: No (USB2E3373)
Strobe/Lamp Enabled: No (USB2E3373)
Correct for Detector Non-linearity: No (USB2E3373)
Correct for Stray Light: No (USB2E3373)
Number of Pixels in Processed Spectrum: 2048
>>>>>Begin Processed Spectral Data<<<<<
178.53	0.000
178.91	-1425.000
179.29	-1600.000
179.67	-266.667
180.04	-1475.000
180.42	2600.000
180.80	1340.000
181.18	-1475.000
181.56	742.857
181.94	0.000
182.31	-728.571
182.69	1966.667
183.07	-675.000
183.45	-544.444
183.83	700.000
184.20	-520.000
184.58	2800.000
184.96	6700.000
185.34	-1060.000
185.72	-737.500
186.09	-2500.000
186.47	3000.000
186.85	2800.000
187.23	5200.000
187.61	-2100.000
187.98	1600.000
188.36	654.545
188.74	627.273
189.12	-1000.000
189.49	750.000
189.87	-5000.000
190.25	-1300.000
190.63	407.143
191.00	484.615
191.38	933.333
191.76	-1400.000
192.14	1400.000
192.51	812.500
192.89	1100.000
193.27	687.500
193.65	-1225.000
194.02	680.000
194.40	1120.000
194.78	620.000
195.15	616.667
195.53	600.000
195.91	-2400.000
196.29	431.250
196.66	378.947
197.04	-570.000
197.42	0.000
197.79	630.000
198.17	-5200.000
198.55	814.286
198.92	750.000
199.30	980.000
199.68	0.000
200.05	366.667
200.43	1000.000
200.81	4900.000
201.18	1666.667
201.56	-1633.333
201.94	577.778
202.31	655.556
202.69	491.667
203.07	570.000
203.44	0.000
203.82	1475.000
204.19	857.143
204.57	492.857
204.95	775.000
205.32	1866.667
205.70	554.545
206.08	435.714
206.45	2700.000
206.83	437.500
207.20	950.000
207.58	1000.000
207.96	377.778
208.33	900.000
208.71	-816.667
209.08	914.286
209.46	733.333
209.84	500.000
210.21	-1833.333
210.59	1400.000
210.96	-600.000
211.34	2650.000
211.71	800.000
212.09	966.667
212.46	0.000
212.84	1966.667
213.22	1600.000
213.59	-5000.000
213.97	1050.000
214.34	914.286
214.72	645.455
215.09	1020.000
215.47	-2750.000
215.84	-3050.000
216.22	1700.000
216.59	492.857
216.97	1750.000
217.34	545.455
217.72	-766.667
218.09	0.000
218.47	-5100.000
218.84	722.222
219.22	857.143
219.59	2100.000
219.97	-757.143
220.34	1140.000
220.72	-1900.000
221.09	435.714
221.47	1750.000
221.84	-1000.000
222.22	0.000
222.59	1600.000
222.97	-2950.000
223.34	1380.000
223.72	438.462
224.09	1080.000
224.46	2300.000
224.84	-5500.000
225.21	-1180.000
225.59	-5400.000
225.96	730.000
226.34	355.000
226.71	2950.000
227.08	850.000
227.46	630.000
227.83	-1350.000
228.21	-2650.000
228.58	744.444
228.95	-2500.000
229.33	-2650.000
229.70	1900.000
230.08	928.571
230.45	-900.000
230.82	533.333
231.20	1050.000
231.57	800.000
231.95	475.000
232.32	250.000
232.69	463.636
233.07	871.429
233.44	315.385
233.81	-1733.333
234.19	342.105
234.56	475.000
234.93	441.667
235.31	618.182
235.68	430.769
236.05	392.857
236.43	184.848
236.80	294.737
237.17	6200.000
237.55	223.810
237.92	264.286
238.29	328.571
238.67	180.645
239.04	189.655
239.41	180.556
239.79	134.783
240.16	171.429
240.53	140.909
240.91	125.490
241.28	116.000
241.65	146.000
242.02	107.246
242.40	101.613
242.77	91.667
243.14	82.796
243.51	80.899
243.89	82.353
244.26	85.556
244.63	80.645
245.00	82.979
245.38	82.178
245.75	73.832
246.12	64.220
246.49	76.642
246.87	70.400
247.24	70.769
247.61	61.429
247.98	60.784
248.36	54.730
248.73	57.962
249.10	57.325
249.47	52.542
249.84	49.198
250.22	52.941
250.59	52.663
250.96	50.505
251.33	54.502
251.70	50.990
252.08	50.000
252.45	43.498
252.82	50.870
253.19	44.681
253.56	42.353
253.94	44.398
254.31	42.969
254.68	47.692
255.05	43.173
255.42	42.683
255.79	47.426
256.16	45.848
256.54	39.576
256.91	42.349
257.28	37.770
257.65	43.564
258.02	44.410
258.39	41.009
258.76	38.462
259.14	40.774
259.51	34.650
259.88	38.820
260.25	39.275
260.62	39.595
260.99	40.683
261.36	41.141
261.73	38.682
262.10	37.791
262.47	38.028
262.85	34.540
263.22	37.037
263.59	37.892
263.96	36.813
264.33	36.031
264.70	36.579
265.07	39.130
265.44	33.081
265.81	34.063
266.18	34.673
266.55	33.171
266.92	35.135
267.29	31.713
267.66	34.633
268.03	33.636
268.40	32.710
268.77	34.606
269.14	32.432
269.51	34.537
269.88	33.333
270.25	32.957
270.62	33.933
270.99	32.903
271.36	29.828
271.73	32.944
272.10	31.739
272.47	32.688
272.84	31.602
273.21	33.124
273.58	31.659
273.95	32.285
274.32	30.579
274.69	33.405
275.06	29.921
275.43	30.000
275.80	31.062
276.17	32.179
276.54	31.809
276.91	33.202
277.28	33.203
277.65	31.335
278.02	28.986
278.39	31.641
278.76	30.182
279.13	31.132
279.50	30.726
279.87	31.275
280.23	30.938
280.60	32.302
280.97	29.575
281.34	29.381
281.71	30.000
282.08	32.821
282.45	26.545
282.82	28.064
283.19	27.629
283.56	29.474
283.92	29.611
284.29	29.277
284.66	29.401
285.03	27.306
285.40	28.345
285.77	28.283
286.14	27.116
286.51	27.000
286.87	30.427
287.24	27.524
287.61	27.448
287.98	26.461
288.35	26.149
288.72	26.168
289.08	27.543
289.45	26.689
289.82	26.829
290.19	26.845
290.56	25.727
290.93	24.773
291.29	24.847
291.66	24.926
292.03	28.488
292.40	25.991
292.77	25.148
293.13	24.179
293.50	24.052
293.87	23.407
294.24	23.704
294.60	22.271
294.97	23.547
295.34	24.683
295.71	23.295
296.08	23.789
296.44	22.971
296.81	22.721
297.18	23.577
297.55	21.372
297.91	21.504
298.28	23.159
298.65	22.846
299.02	22.266
299.38	23.108
299.75	19.811
300.12	21.967
300.48	21.125
300.85	21.455
301.22	22.675
301.59	21.086
301.95	22.922
302.32	21.694
302.69	20.550
303.05	20.727
303.42	20.000
303.79	20.951
304.15	20.746
304.52	18.772
304.89	20.674
305.25	19.490
305.62	20.612
305.99	19.362
306.35	20.470
306.72	21.413
307.09	19.534
307.45	20.270
307.82	18.973
308.19	19.205
308.55	19.094
308.92	20.086
309.29	17.951
309.65	18.664
310.02	20.190
310.38	20.753
310.75	19.535
311.12	18.117
311.48	20.272
311.85	21.698
312.22	19.355
312.58	19.231
312.95	19.430
313.31	18.835
313.68	18.919
314.05	19.231
314.41	19.497
314.78	20.040
315.14	19.563
315.51	19.464
315.87	19.901
316.24	20.357
316.61	19.981
316.97	19.472
317.34	20.450
317.70	20.650
318.07	20.597
318.43	20.450
318.80	21.275
319.16	20.527
319.53	19.231
319.89	22.095
320.26	23.500
320.62	21.726
320.99	22.323
321.35	21.919
321.72	24.743
322.08	23.100
322.45	24.179
322.81	23.837
323.18	24.855
323.54	23.469
323.91	23.774
324.27	25.143
324.64	24.231
325.00	24.977
325.37	26.024
325.73	27.379
326.10	27.538
326.46	27.509
326.83	27.955
327.19	27.412
327.56	27.526
327.92	30.446
328.29	29.991
328.65	29.926
329.01	30.325
329.38	30.897
329.74	31.025
330.11	32.422
330.47	29.936
330.84	32.445
331.20	31.785
331.56	31.743
331.93	32.037
332.29	32.653
332.66	33.009
333.02	32.450
333.38	33.333
333.75	33.957
334.11	34.075
334.48	33.363
334.84	33.824
335.20	33.000
335.57	33.454
335.93	33.929
336.29	33.425
336.66	34.806
337.02	33.937
337.38	35.926
337.75	33.601
338.11	33.662
338.47	34.162
338.84	33.639
339.20	34.771
339.56	36.131
339.93	36.455
340.29	36.594
340.65	34.848
341.02	35.515
341.38	34.075
341.74	35.965
342.11	35.983
342.47	36.388
342.83	35.445
343.20	35.671
343.56	35.299
343.92	35.526
344.28	35.034
344.65	36.715
345.01	35.943
345.37	33.448
345.73	36.294
346.10	36.488
346.46	36.949
346.82	35.338
347.19	35.589
347.55	36.289
347.91	36.327
348.27	36.483
348.63	36.538
349.00	35.680
349.36	35.550
349.72	35.926
350.08	36.143
350.45	36.534
350.81	35.418
351.17	36.629
351.53	35.954
351.89	35.561
352.26	36.148
352.62	36.167
352.98	36.548
353.34	37.223
353.70	35.516
354.07	36.048
354.43	36.667
354.79	35.237
355.15	35.754
355.51	37.330
355.87	37.551
356.24	36.482
356.60	36.488
356.96	36.525
357.32	36.222
357.68	36.929
358.04	36.500
358.40	36.975
358.77	36.698
359.13	37.174
359.49	36.863
359.85	36.111
360.21	36.842
360.57	36.887
360.93	36.692
361.29	36.886
361.66	37.848
362.02	37.239
362.38	37.414
362.74	37.946
363.10	38.046
363.46	38.298
363.82	36.961
364.18	36.784
364.54	38.410
364.90	37.748
365.26	38.529
365.62	37.911
365.98	37.765
366.35	37.106
366.71	38.901
367.07	38.310
367.43	40.058
367.79	40.542
368.15	39.296
368.51	39.971
368.87	38.544
369.23	39.503
369.59	40.116
369.95	38.603
370.31	39.459
370.67	38.986
371.03	39.476
371.39	37.901
371.75	39.853
372.11	39.687
372.47	40.249
372.83	40.562
373.19	40.173
373.55	40.650
373.91	41.679
374.27	40.069
374.63	40.509
374.99	41.172
375.35	39.846
375.71	40.439
376.07	41.289
376.42	42.297
376.78	41.683
377.14	40.299
377.50	41.921
377.86	41.223
378.22	42.099
378.58	41.103
378.94	42.426
379.30	42.303
379.66	43.211
380.02	43.120
380.38	42.259
380.74	43.217
381.09	43.154
381.45	44.315
381.81	44.287
382.17	44.395
382.53	43.774
382.89	44.815
383.25	44.841
383.61	44.300
383.97	44.715
384.32	45.290
384.68	44.300
385.04	44.069
385.40	44.334
385.76	45.393
386.12	45.402
386.48	46.633
386.83	46.889
387.19	46.444
387.55	47.866
387.91	46.252
388.27	47.517
388.62	48.248
388.98	45.823
389.34	47.247
389.70	47.394
390.06	47.909
390.42	47.406
390.77	47.074
391.13	49.202
391.49	48.604
391.85	47.804
392.20	47.760
392.56	49.558
392.92	48.852
393.28	47.515
393.64	49.341
393.99	48.687
394.35	49.876
394.71	49.435
395.07	49.657
395.42	50.247
395.78	50.127
396.14	51.707
396.50	51.817
396.85	51.494
397.21	50.863
397.57	51.519
397.92	51.743
398.28	50.617
398.64	51.912
399.00	51.819
399.35	50.197
399.71	51.157
400.07	51.271
400.42	52.393
400.78	51.568
401.14	53.110
401.49	52.597
401.85	52.632
402.21	52.754
402.57	52.807
402.92	54.035
403.28	54.216
403.63	55.446
403.99	54.968
404.35	54.485
404.70	54.916
405.06	53.931
405.42	54.835
405.77	53.429
406.13	52.878
406.49	53.578
406.84	54.519
407.20	54.846
407.55	54.627
407.91	56.933
408.27	56.286
408.62	55.689
408.98	54.963
409.34	56.458
409.69	55.419
410.05	57.001
410.40	57.064
410.76	55.615
411.11	55.006
411.47	57.444
411.83	56.139
412.18	56.153
412.54	57.846
412.89	56.145
413.25	57.025
413.60	57.381
413.96	57.559
414.31	57.412
414.67	57.795
415.03	58.079
415.38	58.892
415.74	57.878
416.09	59.569
416.45	59.237
416.80	58.757
417.16	59.182
417.51	58.593
417.87	58.253
418.22	58.170
418.58	59.651
418.93	59.275
419.29	59.453
419.64	60.327
420.00	59.146
420.35	58.609
420.71	59.115
421.06	59.785
421.42	58.363
421.77	60.650
422.12	59.349
422.48	59.255
422.83	61.794
423.19	59.890
423.54	60.708
423.90	60.638
424.25	60.302
424.61	59.821
424.96	62.391
425.31	59.635
425.67	59.101
426.02	59.943
426.38	62.332
426.73	59.684
427.09	61.763
427.44	60.955
427.79	61.875
428.15	61.964
428.50	60.913
428.85	61.502
429.21	62.010
429.56	61.172
429.92	60.795
430.27	61.917
430.62	61.342
430.98	61.183
431.33	59.897
431.68	61.204
432.04	61.502
432.39	62.479
432.74	63.315
433.10	63.724
433.45	63.207
433.80	62.694
434.16	62.981
434.51	61.474
434.86	62.771
435.22	63.202
435.57	64.012
435.92	62.727
436.28	63.998
436.63	62.969
436.98	61.878
437.34	64.460
437.69	64.761
438.04	63.800
438.39	63.642
438.75	64.962
439.10	63.966
439.45	63.695
439.81	64.048
440.16	63.467
440.51	64.675
440.86	64.563
441.22	64.461
441.57	64.544
441.92	64.585
442.27	64.747
442.63	63.138
442.98	65.014
443.33	63.478
443.68	64.533
444.03	64.373
444.39	62.561
444.74	64.340
445.09	63.504
445.44	63.040
445.79	63.038
446.15	63.737
446.50	64.620
446.85	64.029
447.20	64.457
447.55	64.824
447.91	64.093
448.26	63.439
448.61	63.765
448.96	63.843
449.31	65.917
449.66	63.590
450.02	64.624
450.37	64.796
450.72	64.185
451.07	64.107
451.42	63.830
451.77	65.825
452.12	63.395
452.47	63.868
452.83	65.618
453.18	64.914
453.53	66.481
453.88	64.146
454.23	64.256
454.58	64.082
454.93	66.116
455.28	64.090
455.63	64.320
455.98	67.143
456.34	64.950
456.69	64.245
457.04	65.511
457.39	64.115
457.74	65.293
458.09	64.462
458.44	66.990
458.79	63.774
459.14	65.463
459.49	64.390
459.84	63.878
460.19	64.113
460.54	63.310
460.89	63.961
461.24	64.906
461.59	64.207
461.94	64.797
462.29	64.332
462.64	63.497
462.99	62.394
463.34	64.667
463.69	64.916
464.04	64.464
464.39	62.841
464.74	63.458
465.09	64.294
465.44	62.659
465.79	64.262
466.14	62.507
466.49	62.403
466.84	63.923
467.19	62.462
467.54	64.000
467.89	62.845
468.24	63.409
468.59	64.591
468.94	62.431
469.29	64.332
469.64	64.592
469.99	66.171
470.34	65.456
470.68	65.517
471.03	63.878
471.38	64.767
471.73	63.957
472.08	63.355
472.43	64.384
472.78	64.121
473.13	63.992
473.48	63.421
473.83	64.756
474.17	62.601
474.52	64.516
474.87	63.865
475.22	63.726
475.57	61.956
475.92	62.613
476.27	62.852
476.61	63.265
476.96	62.122
477.31	62.219
477.66	62.801
478.01	61.422
478.36	63.088
478.70	62.409
479.05	63.419
479.40	62.027
479.75	63.345
480.10	62.525
480.45	61.114
480.79	62.016
481.14	62.476
481.49	62.696
481.84	62.323
482.19	62.335
482.53	61.284
482.88	61.936
483.23	62.383
483.58	62.147
483.92	62.277
484.27	59.826
484.62	61.897
484.97	61.017
485.31	62.260
485.66	59.612
486.01	57.480
486.36	55.076
486.70	54.411
487.05	57.194
487.40	57.048
487.75	58.625
488.09	59.721
488.44	60.040
488.79	60.796
489.13	61.192
489.48	60.726
489.83	61.416
490.17	61.903
490.52	60.275
490.87	61.601
491.22	60.027
491.56	60.319
491.91	60.354
492.26	60.358
492.60	60.645
492.95	60.290
493.30	60.140
493.64	60.663
493.99	59.610
494.34	61.240
494.68	60.394
495.03	60.714
495.37	59.981
495.72	61.062
496.07	60.789
496.41	58.805
496.76	60.422
497.11	60.198
497.45	60.037
497.80	59.645
498.14	61.159
498.49	60.976
498.84	60.067
499.18	60.857
499.53	60.636
499.87	60.671
500.22	59.538
500.56	61.165
500.91	60.913
501.26	59.412
501.60	61.035
501.95	59.166
502.29	60.450
502.64	60.335
502.98	60.496
503.33	58.592
503.67	59.954
504.02	59.261
504.36	59.429
504.71	60.039
505.06	58.602
505.40	60.039
505.75	58.004
506.09	60.350
506.44	59.645
506.78	59.182
507.13	61.434
507.47	60.051
507.82	60.841
508.16	60.740
508.51	60.731
508.85	60.129
509.19	60.969
509.54	59.235
509.88	60.124
510.23	60.566
510.57	60.888
510.92	59.658
511.26	59.918
511.61	60.944
511.95	59.603
512.30	60.604
512.64	60.935
512.98	60.129
513.33	59.261
513.67	59.819
514.02	60.660
514.36	60.896
514.70	61.704
515.05	61.461
515.39	62.030
515.74	61.768
516.08	61.487
516.42	61.099
516.77	61.538
517.11	60.433
517.46	61.061
517.80	62.776
518.14	60.625
518.49	62.777
518.83	61.761
519.17	60.681
519.52	62.366
519.86	61.495
520.20	61.503
520.55	64.034
520.89	63.017
521.23	62.726
521.58	62.545
521.92	62.890
522.26	61.623
522.61	63.614
522.95	62.799
523.29	63.299
523.64	64.451
523.98	63.401
524.32	62.425
524.66	61.575
525.01	62.255
525.35	60.657
525.69	62.007
526.04	62.305
526.38	61.867
526.72	62.025
527.06	62.837
527.41	59.777
527.75	62.122
528.09	63.198
528.43	64.436
528.78	61.770
529.12	61.091
529.46	63.503
529.80	62.314
530.15	62.305
530.49	61.292
530.83	61.582
531.17	63.969
531.51	63.619
531.86	63.032
532.20	63.233
532.54	61.435
532.88	63.864
533.22	61.711
533.57	60.494
533.91	60.446
534.25	60.814
534.59	62.050
534.93	60.797
535.27	59.203
535.62	61.966
535.96	61.770
536.30	60.648
536.64	63.619
536.98	61.845
537.32	61.093
537.66	62.200
538.01	61.619
538.35	62.314
538.69	61.902
539.03	61.598
539.37	60.895
539.71	58.522
540.05	60.719
540.39	61.395
540.73	61.125
541.07	61.648
541.42	61.840
541.76	61.742
542.10	60.608
542.44	61.457
542.78	61.858
543.12	59.501
543.46	61.770
543.80	60.507
544.14	58.793
544.48	61.524
544.82	60.552
545.16	61.288
545.50	60.090
545.84	60.349
546.18	61.818
546.52	60.771
546.86	61.375
547.20	60.890
547.54	60.655
547.88	60.523
548.22	58.468
548.56	59.182
548.90	59.411
549.24	59.596
549.58	61.323
549.92	61.332
550.26	61.648
550.60	61.757
550.94	60.845
551.28	60.863
551.62	60.244
551.96	59.509
552.30	60.341
552.64	60.514
552.98	59.797
553.32	59.339
553.66	60.191
554.00	59.094
554.34	59.558
554.68	60.944
555.02	60.085
555.36	58.316
555.69	59.066
556.03	58.816
556.37	59.072
556.71	60.368
557.05	58.613
557.39	58.572
557.73	58.433
558.07	60.189
558.41	58.755
558.75	59.515
559.08	60.104
559.42	59.788
559.76	60.221
560.10	59.386
560.44	60.098
560.78	58.017
561.12	58.707
561.45	58.018
561.79	58.339
562.13	58.484
562.47	58.743
562.81	59.623
563.15	57.926
563.48	58.223
563.82	59.165
564.16	57.946
564.50	57.227
564.84	56.764
565.17	57.529
565.51	57.444
565.85	56.155
566.19	56.982
566.52	57.188
566.86	55.515
567.20	57.488
567.54	56.221
567.88	55.133
568.21	54.921
568.55	54.044
568.89	54.621
569.23	53.699
569.56	52.834
569.90	51.887
570.24	51.884
570.57	51.173
570.91	50.388
571.25	50.649
571.59	50.280
571.92	49.280
572.26	49.913
572.60	50.511
572.93	49.445
573.27	50.251
573.61	50.084
573.95	49.380
574.28	49.397
574.62	48.615
574.96	48.315
575.29	48.375
575.63	48.476
575.97	49.102
576.30	49.150
576.64	48.421
576.98	48.104
577.31	48.221
577.65	47.948
577.98	48.231
578.32	47.518
578.66	46.897
578.99	47.980
579.33	47.979
579.67	46.947
580.00	47.758
580.34	48.315
580.67	47.956
581.01	47.583
581.35	47.924
581.68	47.368
582.02	46.598
582.35	47.016
582.69	46.996
583.02	46.830
583.36	47.222
583.70	48.052
584.03	47.675
584.37	48.432
584.70	48.224
585.04	47.627
585.37	47.181
585.71	47.768
586.04	47.572
586.38	48.354
586.72	47.722
587.05	48.112
587.39	47.757
587.72	47.204
588.06	47.785
588.39	48.011
588.73	47.609
589.06	48.769
589.40	48.215
589.73	48.891
590.07	48.897
590.40	48.265
590.73	50.117
591.07	50.102
591.40	48.798
591.74	49.784
592.07	49.520
592.41	49.235
592.74	48.127
593.08	47.568
593.41	47.358
593.75	46.752
594.08	47.536
594.41	48.215
594.75	47.948
595.08	48.210
595.42	48.091
595.75	47.899
596.09	48.029
596.42	48.055
596.75	47.995
597.09	48.442
597.42	47.049
597.75	49.030
598.09	48.435
598.42	47.509
598.76	47.629
599.09	47.510
599.42	46.725
599.76	46.962
600.09	46.230
600.42	46.494
600.76	46.750
601.09	46.995
601.42	47.451
601.76	47.400
602.09	46.996
602.42	47.532
602.76	47.481
603.09	47.325
603.42	47.130
603.76	46.075
604.09	47.228
604.42	48.471
604.76	47.364
605.09	47.401
605.42	46.558
605.75	47.103
606.09	46.157
606.42	46.996
606.75	47.200
607.09	46.798
607.42	47.240
607.75	45.443
608.08	46.678
608.42	46.974
608.75	46.844
609.08	47.132
609.41	47.168
609.75	47.404
610.08	47.078
610.41	47.672
610.74	46.689
611.07	48.123
611.41	47.645
611.74	48.165
612.07	47.723
612.40	48.216
612.73	47.053
613.07	48.491
613.40	48.552
613.73	47.457
614.06	48.871
614.39	47.352
614.72	46.632
615.06	46.901
615.39	47.452
615.72	46.166
616.05	46.411
616.38	47.804
616.71	48.812
617.05	48.351
617.38	47.384
617.71	49.009
618.04	47.957
618.37	47.605
618.70	47.915
619.03	49.474
619.36	48.676
619.69	48.873
620.03	48.764
620.36	48.329
620.69	48.288
621.02	50.664
621.35	49.726
621.68	49.299
622.01	50.155
622.34	48.941
622.67	48.745
623.00	48.496
623.33	48.749
623.66	49.535
623.99	49.926
624.32	48.502
624.65	48.446
624.99	47.309
625.32	48.081
625.65	49.211
625.98	50.653
626.31	49.844
626.64	50.939
626.97	49.709
627.30	49.460
627.63	49.631
627.96	50.126
628.29	51.094
628.62	52.242
628.95	53.491
629.28	51.551
629.61	51.146
629.94	51.524
630.26	50.334
630.59	48.713
