SpectraSuite Data File
++++++++++++++++++++++++++++++++++++
Date: Wed May 13 19:28:01 PDT 2015
User: schluterlab
Dark Spectrum Present: Yes
Reference Spectrum Present: Yes
Number of Sampled Component Spectra: 1
Spectrometers: USB2E3373
Integration Time (usec): 3000 (USB2E3373)
Spectra Averaged: 3 (USB2E3373)
Boxcar Smoothing: 0 (USB2E3373)
Correct for Electrical Dark: No (USB2E3373)
Strobe/Lamp Enabled: No (USB2E3373)
Correct for Detector Non-linearity: No (USB2E3373)
Correct for Stray Light: No (USB2E3373)
Number of Pixels in Processed Spectrum: 2048
>>>>>Begin Processed Spectral Data<<<<<
178.53	0.000
178.91	-1425.000
179.29	-1450.000
179.67	-205.556
180.04	-1200.000
180.42	3100.000
180.80	1200.000
181.18	-975.000
181.56	714.286
181.94	0.000
182.31	-685.714
182.69	1966.667
183.07	-575.000
183.45	-588.889
183.83	500.000
184.20	-380.000
184.58	2650.000
184.96	5700.000
185.34	-960.000
185.72	-637.500
186.09	-2250.000
186.47	2800.000
186.85	2700.000
187.23	4900.000
187.61	-1800.000
187.98	1500.000
188.36	590.909
188.74	481.818
189.12	-940.000
189.49	610.000
189.87	-4500.000
190.25	-1450.000
190.63	485.714
191.00	476.923
191.38	966.667
191.76	-1275.000
192.14	1675.000
192.51	650.000
192.89	1016.667
193.27	625.000
193.65	-1125.000
194.02	540.000
194.40	1100.000
194.78	620.000
195.15	516.667
195.53	670.000
195.91	-2350.000
196.29	393.750
196.66	336.842
197.04	-260.000
197.42	0.000
197.79	650.000
198.17	-5200.000
198.55	785.714
198.92	750.000
199.30	940.000
199.68	0.000
200.05	350.000
200.43	828.571
200.81	5600.000
201.18	1566.667
201.56	-1800.000
201.94	633.333
202.31	744.444
202.69	408.333
203.07	610.000
203.44	0.000
203.82	1475.000
204.19	771.429
204.57	464.286
204.95	575.000
205.32	1800.000
205.70	536.364
206.08	300.000
206.45	3350.000
206.83	393.750
207.20	900.000
207.58	880.000
207.96	350.000
208.33	737.500
208.71	-800.000
209.08	885.714
209.46	633.333
209.84	563.636
210.21	-1233.333
210.59	1475.000
210.96	-537.500
211.34	2500.000
211.71	570.000
212.09	666.667
212.46	0.000
212.84	2233.333
213.22	1100.000
213.59	-5100.000
213.97	833.333
214.34	757.143
214.72	590.909
215.09	980.000
215.47	-2500.000
215.84	-2650.000
216.22	1566.667
216.59	357.143
216.97	1300.000
217.34	409.091
217.72	-850.000
218.09	0.000
218.47	-5200.000
218.84	644.444
219.22	785.714
219.59	1933.333
219.97	-557.143
220.34	1140.000
220.72	-1866.667
221.09	450.000
221.47	1575.000
221.84	-933.333
222.22	0.000
222.59	1575.000
222.97	-2800.000
223.34	1120.000
223.72	446.154
224.09	1240.000
224.46	2600.000
224.84	-4800.000
225.21	-1160.000
225.59	-5000.000
225.96	610.000
226.34	250.000
226.71	3050.000
227.08	687.500
227.46	730.000
227.83	-1050.000
228.21	-2350.000
228.58	555.556
228.95	-3000.000
229.33	-2500.000
229.70	1700.000
230.08	1000.000
230.45	-820.000
230.82	483.333
231.20	916.667
231.57	685.714
231.95	550.000
232.32	254.545
232.69	418.182
233.07	728.571
233.44	453.846
233.81	-1900.000
234.19	321.053
234.56	475.000
234.93	400.000
235.31	472.727
235.68	353.846
236.05	378.571
236.43	209.091
236.80	263.158
237.17	5500.000
237.55	266.667
237.92	221.429
238.29	280.952
238.67	174.194
239.04	227.586
239.41	150.000
239.79	123.913
240.16	147.619
240.53	143.182
240.91	129.412
241.28	150.000
241.65	128.000
242.02	98.551
242.40	96.774
242.77	105.000
243.14	79.570
243.51	87.640
243.89	83.529
244.26	68.889
244.63	72.043
245.00	75.532
245.38	82.178
245.75	69.159
246.12	61.468
246.49	71.533
246.87	80.000
247.24	66.923
247.61	58.571
247.98	57.516
248.36	53.378
248.73	54.140
249.10	58.599
249.47	56.497
249.84	56.150
250.22	49.733
250.59	46.154
250.96	52.525
251.33	52.133
251.70	50.000
252.08	48.571
252.45	41.704
252.82	43.913
253.19	48.085
253.56	42.353
253.94	48.548
254.31	42.187
254.68	48.077
255.05	42.804
255.42	44.715
255.79	43.382
256.16	44.043
256.54	42.403
256.91	41.637
257.28	39.568
257.65	38.614
258.02	36.957
258.39	39.432
258.76	40.803
259.14	38.393
259.51	35.562
259.88	36.646
260.25	40.483
260.62	36.705
260.99	38.509
261.36	39.339
261.73	36.963
262.10	38.663
262.47	35.493
262.85	36.490
263.22	33.048
263.59	39.886
263.96	34.341
264.33	36.292
264.70	37.368
265.07	36.573
265.44	38.384
265.81	32.847
266.18	35.427
266.55	36.341
266.92	35.872
267.29	35.417
267.66	33.257
268.03	33.409
268.40	32.710
268.77	33.413
269.14	29.730
269.51	34.989
269.88	33.333
270.25	32.957
270.62	32.584
270.99	35.699
271.36	33.047
271.73	33.411
272.10	33.696
272.47	34.624
272.84	30.303
273.21	32.285
273.58	32.969
273.95	29.769
274.32	31.198
274.69	34.047
275.06	32.874
275.43	32.979
275.80	32.665
276.17	30.143
276.54	33.264
276.91	31.225
277.28	31.445
277.65	31.528
278.02	31.884
278.39	31.055
278.76	30.364
279.13	31.509
279.50	29.795
279.87	32.271
280.23	29.541
280.60	31.335
280.97	30.129
281.34	30.619
281.71	31.455
282.08	33.205
282.45	27.636
282.82	29.485
283.19	27.094
283.56	29.825
283.92	28.426
284.29	27.513
284.66	28.312
285.03	29.295
285.40	27.993
285.77	29.966
286.14	29.188
286.51	29.167
286.87	28.547
287.24	27.850
287.61	29.695
287.98	27.760
288.35	27.258
288.72	25.234
289.08	27.230
289.45	26.689
289.82	27.967
290.19	25.589
290.56	27.718
290.93	24.018
291.29	27.761
291.66	25.664
292.03	27.907
292.40	26.579
292.77	26.036
293.13	26.418
293.50	26.822
293.87	24.444
294.24	24.593
294.60	23.726
294.97	23.401
295.34	25.952
295.71	24.148
296.08	24.929
296.44	23.521
296.81	23.118
297.18	24.932
297.55	20.317
297.91	22.559
298.28	24.498
298.65	23.107
299.02	22.530
299.38	21.780
299.75	20.081
300.12	22.095
300.48	22.250
300.85	21.825
301.22	23.057
301.59	21.086
301.95	21.914
302.32	22.465
302.69	20.789
303.05	21.212
303.42	20.617
303.79	20.838
304.15	20.396
304.52	21.437
304.89	19.628
305.25	20.998
305.62	19.932
305.99	22.078
306.35	21.141
306.72	20.740
307.09	19.756
307.45	20.946
307.82	19.978
308.19	21.192
308.55	21.251
308.92	19.334
309.29	19.430
309.65	19.406
310.02	19.662
310.38	20.753
310.75	22.070
311.12	20.573
311.48	20.794
311.85	20.650
312.22	21.436
312.58	20.790
312.95	20.380
313.31	20.874
313.68	21.206
314.05	22.880
314.41	21.709
314.78	21.450
315.14	21.648
315.51	22.554
315.87	22.673
316.24	20.258
316.61	23.782
316.97	22.407
317.34	23.483
317.70	23.423
318.07	24.543
318.43	24.755
318.80	26.148
319.16	25.235
319.53	24.765
319.89	26.952
320.26	28.200
320.62	28.175
320.99	28.182
321.35	29.495
321.72	30.287
322.08	30.898
322.45	33.134
322.81	32.074
323.18	33.622
323.54	32.746
323.91	34.623
324.27	35.468
324.64	36.719
325.00	36.249
325.37	39.399
325.73	39.497
326.10	39.541
326.46	40.771
326.83	43.486
327.19	43.809
327.56	46.341
327.92	45.144
328.29	47.116
328.65	48.435
329.01	49.549
329.38	51.064
329.74	49.769
330.11	51.838
330.47	51.240
330.84	52.941
331.20	53.552
331.56	54.220
331.93	55.926
332.29	55.368
332.66	55.752
333.02	56.856
333.38	57.543
333.75	56.952
334.11	58.007
334.48	59.272
334.84	59.467
335.20	59.000
335.57	58.658
335.93	58.750
336.29	61.447
336.66	61.407
337.02	61.538
337.38	61.667
337.75	60.339
338.11	62.041
338.47	63.076
338.84	64.436
339.20	61.927
339.56	63.686
339.93	63.273
340.29	64.221
340.65	64.171
341.02	64.398
341.38	64.769
341.74	63.158
342.11	64.105
342.47	64.846
342.83	64.640
343.20	65.801
343.56	62.679
343.92	65.088
344.28	64.541
344.65	65.520
345.01	63.552
345.37	65.609
345.73	65.736
346.10	64.535
346.46	67.203
346.82	66.639
347.19	64.662
347.55	66.502
347.91	65.453
348.27	65.653
348.63	66.388
349.00	66.262
349.36	65.928
349.72	64.395
350.08	65.235
350.45	67.697
350.81	65.232
351.17	66.613
351.53	67.977
351.89	67.079
352.26	65.272
352.62	67.362
352.98	66.856
353.34	66.804
353.70	66.939
354.07	67.097
354.43	66.905
354.79	68.142
355.15	65.443
355.51	68.345
355.87	67.429
356.24	66.612
356.60	65.838
356.96	68.222
357.32	69.583
357.68	68.740
358.04	67.617
358.40	68.567
358.77	68.232
359.13	67.403
359.49	68.549
359.85	68.651
360.21	68.820
360.57	69.416
360.93	69.692
361.29	67.876
361.66	67.415
362.02	68.806
362.38	68.365
362.74	68.973
363.10	68.468
363.46	68.525
363.82	69.388
364.18	67.181
364.54	70.059
364.90	69.547
365.26	70.000
365.62	69.978
365.98	69.248
366.35	67.479
366.71	69.993
367.07	70.284
367.43	70.174
367.79	71.163
368.15	70.115
368.51	69.913
368.87	70.236
369.23	70.446
369.59	70.167
369.95	71.250
370.31	70.370
370.67	68.623
371.03	70.412
371.39	70.627
371.75	71.618
372.11	69.559
372.47	70.235
372.83	71.758
373.19	69.075
373.55	71.766
373.91	72.533
374.27	69.003
374.63	70.836
374.99	70.268
375.35	69.574
375.71	70.322
376.07	69.959
376.42	71.389
376.78	70.046
377.14	71.303
377.50	70.993
377.86	69.149
378.22	71.934
378.58	70.113
378.94	69.390
379.30	72.265
379.66	72.208
380.02	71.253
380.38	70.795
380.74	70.288
381.09	71.149
381.45	72.403
381.81	72.359
382.17	71.083
382.53	70.503
382.89	71.728
383.25	71.420
383.61	73.110
383.97	71.482
384.32	70.680
384.68	72.119
385.04	70.252
385.40	71.455
385.76	71.560
386.12	71.762
386.48	71.303
386.83	73.509
387.19	73.284
387.55	71.861
387.91	71.282
388.27	71.490
388.62	71.112
388.98	71.192
389.34	71.339
389.70	71.306
390.06	71.103
390.42	71.725
390.77	69.975
391.13	72.495
391.49	71.003
391.85	70.847
392.20	71.230
392.56	71.402
392.92	72.572
393.28	71.006
393.64	70.624
393.99	69.823
394.35	70.471
394.71	69.887
395.07	71.589
395.42	71.941
395.78	72.519
396.14	69.957
396.50	71.617
396.85	71.964
397.21	69.482
397.57	70.800
397.92	71.094
398.28	71.357
398.64	70.191
399.00	70.509
399.35	69.430
399.71	70.255
400.07	69.131
400.42	69.387
400.78	72.075
401.14	69.756
401.49	71.284
401.85	71.930
402.21	70.479
402.57	70.204
402.92	71.753
403.28	70.456
403.63	71.349
403.99	71.274
404.35	69.879
404.70	69.844
405.06	69.598
405.42	70.805
405.77	68.457
406.13	68.341
406.49	69.072
406.84	68.754
407.20	67.849
407.55	70.581
407.91	70.333
408.27	70.772
408.62	69.115
408.98	69.853
409.34	69.803
409.69	68.258
410.05	68.649
410.40	69.174
410.76	67.921
411.11	68.456
411.47	68.179
411.83	68.907
412.18	68.769
412.54	69.240
412.89	67.169
413.25	68.831
413.60	69.055
413.96	67.335
414.31	68.104
414.67	69.138
415.03	69.139
415.38	69.330
415.74	69.582
416.09	69.170
416.45	68.206
416.80	68.804
417.16	70.375
417.51	70.670
417.87	68.658
418.22	67.445
418.58	68.948
418.93	68.550
419.29	68.300
419.64	68.703
420.00	67.927
420.35	68.870
420.71	68.978
421.06	68.317
421.42	67.953
421.77	67.825
422.12	67.266
422.48	66.163
422.83	68.725
423.19	67.238
423.54	69.704
423.90	67.768
424.25	66.667
424.61	68.512
424.96	69.271
425.31	67.719
425.67	66.573
426.02	67.714
426.38	70.452
426.73	68.227
427.09	67.903
427.44	67.453
427.79	68.143
428.15	68.929
428.50	67.817
428.85	67.819
429.21	68.360
429.56	67.289
429.92	67.438
430.27	67.031
430.62	66.974
430.98	67.878
431.33	67.577
431.68	68.325
432.04	68.371
432.39	67.619
432.74	69.001
433.10	68.364
433.45	69.271
433.80	67.905
434.16	67.415
434.51	66.842
434.86	67.674
435.22	67.593
435.57	68.511
435.92	67.466
436.28	69.632
436.63	67.660
436.98	67.086
437.34	69.767
437.69	68.728
438.04	68.746
438.39	68.239
438.75	69.146
439.10	68.380
439.45	68.949
439.81	69.970
440.16	67.645
440.51	69.303
440.86	69.311
441.22	69.577
441.57	69.055
441.92	68.782
442.27	69.806
442.63	68.510
442.98	69.972
443.33	68.207
443.68	69.024
444.03	69.302
444.39	68.647
444.74	68.777
445.09	68.787
445.44	68.015
445.79	69.025
446.15	69.137
446.50	69.467
446.85	69.938
447.20	69.148
447.55	70.631
447.91	68.726
448.26	68.781
448.61	69.927
448.96	69.380
449.31	70.079
449.66	69.443
450.02	69.025
450.37	68.764
450.72	70.502
451.07	70.140
451.42	69.970
451.77	71.169
452.12	68.938
452.47	69.838
452.83	70.280
453.18	69.499
453.53	70.625
453.88	69.699
454.23	71.070
454.58	71.290
454.93	71.265
455.28	70.449
455.63	70.085
455.98	71.667
456.34	70.917
456.69	71.196
457.04	69.659
457.39	69.842
457.74	69.820
458.09	70.615
458.44	70.239
458.79	67.733
459.14	69.695
459.49	68.943
459.84	69.640
460.19	68.886
460.54	68.056
460.89	69.117
461.24	69.824
461.59	69.494
461.94	69.482
462.29	69.021
462.64	69.432
462.99	68.640
463.34	69.867
463.69	69.356
464.04	69.101
464.39	67.710
464.74	68.390
465.09	68.577
465.44	66.925
465.79	67.562
466.14	66.940
466.49	66.685
466.84	68.009
467.19	69.040
467.54	68.375
467.89	66.867
468.24	68.005
468.59	68.193
468.94	68.296
469.29	68.702
469.64	70.214
469.99	69.012
470.34	70.013
470.68	69.612
471.03	69.048
471.38	70.952
471.73	69.021
472.08	69.803
472.43	68.342
472.78	70.046
473.13	67.394
473.48	67.603
473.83	67.805
474.17	67.890
474.52	69.603
474.87	68.301
475.22	67.673
475.57	66.792
475.92	66.861
476.27	66.460
476.61	66.409
476.96	68.114
477.31	66.876
477.66	67.396
478.01	66.127
478.36	66.949
478.70	66.822
479.05	66.507
479.40	67.093
479.75	66.853
480.10	66.004
480.45	65.826
480.79	65.695
481.14	66.732
481.49	66.065
481.84	64.975
482.19	65.925
482.53	64.450
482.88	65.938
483.23	66.168
483.58	65.878
483.92	66.589
484.27	63.965
484.62	65.129
484.97	63.855
485.31	64.110
485.66	60.939
486.01	59.175
486.36	57.380
486.70	57.851
487.05	58.863
487.40	60.061
487.75	61.008
488.09	62.329
488.44	62.842
488.79	64.629
489.13	64.133
489.48	64.682
489.83	64.178
490.17	64.796
490.52	64.260
490.87	65.084
491.22	64.302
491.56	63.827
491.91	64.542
492.26	64.309
492.60	63.226
492.95	64.453
493.30	63.318
493.64	63.136
493.99	63.185
494.34	64.477
494.68	63.874
495.03	63.581
495.37	62.820
495.72	64.376
496.07	64.640
496.41	62.478
496.76	64.116
497.11	63.125
497.45	63.018
497.80	63.388
498.14	62.947
498.49	64.244
498.84	64.142
499.18	63.429
499.53	62.678
499.87	62.675
500.22	62.553
500.56	63.981
500.91	62.308
501.26	62.541
501.60	63.692
501.95	61.045
502.29	63.261
502.64	62.570
502.98	62.646
503.33	61.106
503.67	61.485
504.02	61.553
504.36	61.816
504.71	62.140
505.06	62.169
505.40	62.227
505.75	61.379
506.09	62.391
506.44	62.753
506.78	61.520
507.13	63.352
507.47	62.172
507.82	62.715
508.16	62.563
508.51	62.608
508.85	61.668
509.19	62.296
509.54	61.531
509.88	61.618
510.23	62.211
510.57	63.467
510.92	62.714
511.26	62.230
511.61	62.033
511.95	61.848
512.30	63.309
512.64	61.848
512.98	62.058
513.33	62.152
513.67	61.580
514.02	61.580
514.36	62.753
514.70	62.258
515.05	62.744
515.39	62.591
515.74	62.838
516.08	62.605
516.42	63.041
516.77	61.538
517.11	61.210
517.46	62.077
517.80	63.240
518.14	60.857
518.49	61.844
518.83	63.125
519.17	62.702
519.52	62.252
519.86	62.236
520.20	63.642
520.55	62.418
520.89	63.321
521.23	63.269
521.58	63.025
521.92	63.013
522.26	61.623
522.61	63.364
522.95	62.001
523.29	63.725
523.64	63.720
523.98	62.847
524.32	62.183
524.66	63.019
525.01	61.458
525.35	63.507
525.69	60.961
526.04	63.302
526.38	61.318
526.72	60.920
527.06	62.335
527.41	60.149
527.75	62.122
528.09	62.877
528.43	61.759
528.78	62.016
529.12	60.606
529.46	60.686
529.80	61.572
530.15	61.807
530.49	59.877
530.83	61.709
531.17	61.684
531.51	63.359
531.86	61.032
532.20	62.190
532.54	60.987
532.88	62.901
533.22	59.213
533.57	59.815
533.91	58.700
534.25	60.753
534.59	59.426
534.93	57.644
535.27	60.048
535.62	59.096
535.96	60.578
536.30	60.267
536.64	60.013
536.98	60.451
537.32	60.105
537.66	60.467
538.01	60.895
538.35	58.500
538.69	60.434
539.03	58.804
539.37	57.572
539.71	57.680
540.05	60.065
540.39	59.601
540.73	57.891
541.07	58.404
541.42	59.165
541.76	59.871
542.10	58.732
542.44	58.543
542.78	58.959
543.12	56.174
543.46	59.082
543.80	58.491
544.14	58.729
544.48	58.921
544.82	58.691
545.16	59.206
545.50	58.033
545.84	59.005
546.18	60.673
546.52	59.257
546.86	59.175
547.20	59.609
547.54	57.916
547.88	58.036
548.22	56.040
548.56	57.673
548.90	57.170
549.24	58.384
549.58	58.663
549.92	58.516
550.26	60.440
550.60	56.846
550.94	61.197
551.28	58.376
551.62	59.382
551.96	59.228
552.30	58.294
552.64	58.012
552.98	57.763
553.32	56.575
553.66	57.941
554.00	58.408
554.34	56.867
554.68	59.657
555.02	57.052
555.36	57.063
555.69	57.172
556.03	56.528
556.37	57.094
556.71	56.821
557.05	58.403
557.39	56.823
557.73	56.175
558.07	58.013
558.41	57.815
558.75	59.368
559.08	58.091
559.42	58.503
559.76	59.191
560.10	58.530
560.44	55.765
560.78	56.088
561.12	55.607
561.45	55.932
561.79	55.900
562.13	56.405
562.47	57.719
562.81	58.020
563.15	56.187
563.48	56.897
563.82	56.230
564.16	56.115
564.50	54.753
564.84	54.298
565.17	56.435
565.51	54.760
565.85	53.871
566.19	54.039
566.52	55.668
566.86	54.250
567.20	55.012
567.54	54.852
567.88	51.548
568.21	53.386
568.55	51.820
568.89	51.702
569.23	49.643
569.56	48.988
569.90	49.660
570.24	49.229
570.57	48.113
570.91	46.606
571.25	47.344
571.59	46.068
571.92	46.745
572.26	47.025
572.60	46.396
572.93	46.987
573.27	46.140
573.61	46.594
573.95	46.176
574.28	45.151
574.62	45.141
574.96	45.018
575.29	44.908
575.63	44.893
575.97	44.858
576.30	45.725
576.64	44.503
576.98	44.652
577.31	45.079
577.65	44.582
577.98	43.808
578.32	43.348
578.66	44.088
578.99	44.054
579.33	44.372
579.67	44.417
580.00	44.282
580.34	45.301
580.67	44.458
581.01	44.479
581.35	43.465
581.68	43.240
582.02	42.925
582.35	42.929
582.69	43.055
583.02	43.859
583.36	44.777
583.70	45.080
584.03	44.697
584.37	45.481
584.70	45.376
585.04	44.496
585.37	44.222
585.71	44.361
586.04	43.972
586.38	44.749
586.72	45.568
587.05	44.091
587.39	44.011
587.72	44.473
588.06	44.584
588.39	45.295
588.73	44.617
589.06	45.809
589.40	46.465
589.73	46.744
590.07	46.121
590.40	45.890
590.73	47.385
591.07	47.456
591.40	48.334
591.74	48.268
592.07	48.211
592.41	47.582
592.74	46.404
593.08	45.636
593.41	44.986
593.75	43.941
594.08	44.452
594.41	45.493
594.75	45.878
595.08	45.132
595.42	45.499
595.75	45.726
596.09	46.339
596.42	46.483
596.75	46.982
597.09	47.446
597.42	45.152
597.75	47.003
598.09	47.043
598.42	46.778
598.76	45.561
599.09	45.116
599.42	45.051
599.76	45.388
600.09	44.117
600.42	44.704
600.76	43.750
601.09	44.699
601.42	44.635
601.76	45.655
602.09	45.455
602.42	45.382
602.76	45.828
603.09	45.633
603.42	46.232
603.76	45.694
604.09	45.366
604.42	45.577
604.76	45.761
605.09	46.745
605.42	45.917
605.75	45.778
606.09	45.100
606.42	46.342
606.75	45.873
607.09	45.375
607.42	45.614
607.75	45.148
608.08	45.028
608.42	46.526
608.75	46.078
609.08	46.115
609.41	46.597
609.75	46.689
610.08	45.617
610.41	46.462
610.74	46.783
611.07	47.233
611.41	46.467
611.74	48.416
612.07	48.085
612.40	48.478
612.73	47.316
613.07	47.791
613.40	49.026
613.73	47.614
614.06	47.957
614.39	47.562
614.72	45.947
615.06	46.639
615.39	46.656
615.72	46.626
616.05	46.571
616.38	47.082
616.71	50.356
617.05	49.647
617.38	47.805
617.71	48.709
618.04	48.558
618.37	48.315
618.70	49.907
619.03	50.132
619.36	50.034
619.69	50.775
620.03	50.893
620.36	50.000
620.69	49.932
621.02	51.475
621.35	51.919
621.68	53.037
622.01	52.322
622.34	51.815
622.67	51.635
623.00	49.743
623.33	50.250
623.66	50.893
623.99	51.031
624.32	50.999
624.65	50.565
624.99	48.867
625.32	50.109
625.65	51.615
625.98	52.114
626.31	51.244
626.64	51.918
626.97	52.951
627.30	52.037
627.63	52.010
627.96	53.911
628.29	52.493
628.62	54.986
628.95	57.736
629.28	54.471
629.61	53.804
629.94	54.095
630.26	54.528
630.59	54.909
630.92	53.831
