SpectraSuite Data File
++++++++++++++++++++++++++++++++++++
Date: Tue May 12 19:56:06 PDT 2015
User: schluterlab
Dark Spectrum Present: Yes
Reference Spectrum Present: Yes
Number of Sampled Component Spectra: 1
Spectrometers: USB2E3373
Integration Time (usec): 3000 (USB2E3373)
Spectra Averaged: 3 (USB2E3373)
Boxcar Smoothing: 0 (USB2E3373)
Correct for Electrical Dark: No (USB2E3373)
Strobe/Lamp Enabled: No (USB2E3373)
Correct for Detector Non-linearity: No (USB2E3373)
Correct for Stray Light: No (USB2E3373)
Number of Pixels in Processed Spectrum: 2048
>>>>>Begin Processed Spectral Data<<<<<
178.53	0.000
178.91	-120.000
179.29	-283.333
179.67	733.333
180.04	0.000
180.42	-360.000
180.80	-600.000
181.18	1200.000
181.56	-400.000
181.94	366.667
182.31	2300.000
182.69	-157.143
183.07	0.000
183.45	250.000
183.83	660.000
184.20	266.667
184.58	1100.000
184.96	416.667
185.34	-666.667
185.72	-107.143
186.09	-400.000
186.47	-1300.000
186.85	-200.000
187.23	108.333
187.61	-242.857
187.98	-340.000
188.36	1300.000
188.74	-250.000
189.12	-188.889
189.49	-120.000
189.87	425.000
190.25	211.111
190.63	633.333
191.00	560.000
191.38	-766.667
191.76	480.000
192.14	-71.429
192.51	-80.000
192.89	-320.000
193.27	-280.000
193.65	-433.333
194.02	-466.667
194.40	1300.000
194.78	-162.500
195.15	-328.571
195.53	633.333
195.91	340.000
196.29	-525.000
196.66	-600.000
197.04	-371.429
197.42	260.000
197.79	-237.500
198.17	-91.667
198.55	-1000.000
198.92	-255.556
199.30	900.000
199.68	-500.000
200.05	-1750.000
200.43	-100.000
200.81	-133.333
201.18	483.333
201.56	-800.000
201.94	-2600.000
202.31	-133.333
202.69	-88.889
203.07	-116.667
203.44	-625.000
203.82	0.000
204.19	300.000
204.57	-600.000
204.95	190.909
205.32	420.000
205.70	500.000
206.08	-1000.000
206.45	-160.000
206.83	2700.000
207.20	-233.333
207.58	-107.692
207.96	600.000
208.33	1166.667
208.71	966.667
209.08	1150.000
209.46	-222.222
209.84	833.333
210.21	-566.667
210.59	750.000
210.96	233.333
211.34	-250.000
211.71	1850.000
212.09	-180.000
212.46	-337.500
212.84	-200.000
213.22	271.429
213.59	-62.500
213.97	0.000
214.34	-850.000
214.72	-2000.000
215.09	950.000
215.47	-60.000
215.84	-62.500
216.22	-2500.000
216.59	2200.000
216.97	-125.000
217.34	-250.000
217.72	5.556
218.09	550.000
218.47	-89.474
218.84	-175.000
219.22	-35.714
219.59	-230.000
219.97	-220.000
220.34	400.000
220.72	154.545
221.09	-950.000
221.47	0.000
221.84	950.000
222.22	-325.000
222.59	-425.000
222.97	-47.826
223.34	173.333
223.72	314.286
224.09	-183.333
224.46	238.462
224.84	-73.333
225.21	-900.000
225.59	-475.000
225.96	-15.000
226.34	500.000
226.71	250.000
227.08	-146.154
227.46	-214.286
227.83	-133.333
228.21	-1350.000
228.58	400.000
228.95	-42.105
229.33	-37.500
229.70	-266.667
230.08	-200.000
230.45	-800.000
230.82	-2700.000
231.20	-23.810
231.57	-460.000
231.95	-600.000
232.32	333.333
232.69	-1050.000
233.07	-12.500
233.44	-275.000
233.81	0.000
234.19	-500.000
234.56	-122.222
234.93	-350.000
235.31	-37.037
235.68	7.407
236.05	-69.231
236.43	-115.789
236.80	-59.091
237.17	-121.429
237.55	-135.000
237.92	-4.651
238.29	-45.161
238.67	-21.429
239.04	8.571
239.41	-23.529
239.79	-12.000
240.16	-17.500
240.53	-37.931
240.91	-16.438
241.28	-2.817
241.65	-12.500
242.02	-12.281
242.40	-17.333
242.77	9.474
243.14	-9.412
243.51	6.452
243.89	-6.667
244.26	-1.852
244.63	7.143
245.00	-4.464
245.38	-8.403
245.75	-5.085
246.12	3.125
246.49	-3.200
246.87	-6.557
247.24	-7.042
247.61	2.649
247.98	0.562
248.36	-0.629
248.73	1.136
249.10	1.111
249.47	3.125
249.84	-2.538
250.22	-1.562
250.59	2.809
250.96	-1.364
251.33	8.491
251.70	-0.917
252.08	5.628
252.45	1.224
252.82	2.954
253.19	5.058
253.56	5.490
253.94	1.626
254.31	6.835
254.68	4.514
255.05	7.616
255.42	6.182
255.79	9.272
256.16	3.472
256.54	8.788
256.91	8.654
257.28	4.545
257.65	4.590
258.02	8.408
258.39	6.042
258.76	5.199
259.14	0.294
259.51	6.197
259.88	7.493
260.25	4.830
260.62	5.337
260.99	6.964
261.36	8.621
261.73	7.733
262.10	9.809
262.47	8.264
262.85	8.483
263.22	6.989
263.59	6.166
263.96	7.833
264.33	2.965
264.70	6.880
265.07	5.419
265.44	9.133
265.81	11.566
266.18	10.304
266.55	6.905
266.92	9.375
267.29	9.778
267.66	7.273
268.03	8.172
268.40	4.348
268.77	5.568
269.14	7.773
269.51	7.692
269.88	5.556
270.25	8.439
270.62	7.563
270.99	4.632
271.36	7.285
271.73	7.917
272.10	7.261
272.47	9.000
272.84	4.034
273.21	8.977
273.58	6.735
273.95	8.167
274.32	8.897
274.69	8.806
275.06	6.942
275.43	6.200
275.80	7.839
276.17	6.522
276.54	11.027
276.91	9.405
277.28	9.478
277.65	8.318
278.02	6.629
278.39	9.800
278.76	10.242
279.13	11.807
279.50	8.664
279.87	9.434
280.23	10.018
280.60	6.890
280.97	8.612
281.34	7.458
281.71	6.750
282.08	6.261
282.45	7.584
282.82	7.912
283.19	8.754
283.56	9.898
283.92	8.057
284.29	8.968
284.66	6.549
285.03	4.974
285.40	9.000
285.77	7.718
286.14	7.765
286.51	6.431
286.87	9.562
287.24	6.731
287.61	7.253
287.98	11.581
288.35	7.132
288.72	9.786
289.08	4.403
289.45	7.020
289.82	6.522
290.19	8.333
290.56	8.104
290.93	7.976
291.29	7.092
291.66	9.129
292.03	8.178
292.40	6.906
292.77	5.685
293.13	7.195
293.50	7.576
293.87	6.241
294.24	8.006
294.60	9.153
294.97	4.709
295.34	5.616
295.71	4.854
296.08	6.284
296.44	7.378
296.81	5.821
297.18	8.797
297.55	6.658
297.91	7.107
298.28	7.033
298.65	6.080
299.02	7.152
299.38	4.719
299.75	7.722
300.12	7.314
300.48	6.338
300.85	4.156
301.22	7.091
301.59	6.934
301.95	7.317
302.32	4.739
302.69	5.113
303.05	6.257
303.42	5.918
303.79	5.730
304.15	7.588
304.52	6.257
304.89	4.510
305.25	6.537
305.62	6.364
305.99	4.927
306.35	6.823
306.72	6.427
307.09	5.876
307.45	6.796
307.82	6.083
308.19	8.251
308.55	6.224
308.92	6.462
309.29	7.636
309.65	7.224
310.02	7.023
310.38	7.143
310.75	6.455
311.12	6.612
311.48	6.886
311.85	5.674
312.22	6.302
312.58	7.150
312.95	8.008
313.31	6.981
313.68	6.951
314.05	8.342
314.41	7.367
314.78	6.332
315.14	7.346
315.51	7.746
315.87	8.594
316.24	8.803
316.61	9.320
316.97	8.922
317.34	8.325
317.70	9.057
318.07	8.390
318.43	9.924
318.80	9.927
319.16	8.667
319.53	10.755
319.89	10.133
320.26	12.094
320.62	12.112
320.99	11.531
321.35	13.142
321.72	12.525
322.08	14.554
322.45	13.609
322.81	13.793
323.18	14.286
323.54	14.597
323.91	13.852
324.27	14.465
324.64	14.995
325.00	16.652
325.37	16.277
325.73	16.788
326.10	16.813
326.46	17.860
326.83	18.206
327.19	19.214
327.56	19.805
327.92	20.226
328.29	19.176
328.65	21.469
329.01	19.817
329.38	19.927
329.74	22.098
330.11	21.435
330.47	21.881
330.84	20.677
331.20	22.643
331.56	21.038
331.93	21.409
332.29	21.832
332.66	23.418
333.02	23.955
333.38	24.632
333.75	23.879
334.11	22.242
334.48	23.882
334.84	22.911
335.20	23.277
335.57	23.978
335.93	22.884
336.29	25.229
336.66	23.679
337.02	25.113
337.38	23.208
337.75	25.273
338.11	26.162
338.47	24.141
338.84	23.665
339.20	24.565
339.56	24.231
339.93	24.414
340.29	24.116
340.65	25.571
341.02	24.889
341.38	24.360
341.74	25.267
342.11	24.403
342.47	25.175
342.83	24.545
343.20	23.784
343.56	24.213
343.92	23.972
344.28	22.985
344.65	24.315
345.01	24.042
345.37	23.932
345.73	24.031
346.10	24.028
346.46	23.555
346.82	24.384
347.19	23.886
347.55	25.595
347.91	24.079
348.27	23.757
348.63	24.892
349.00	25.125
349.36	23.578
349.72	24.795
350.08	24.877
350.45	25.142
350.81	23.617
351.17	23.806
351.53	22.383
351.89	23.748
352.26	24.797
352.62	23.303
352.98	23.515
353.34	23.308
353.70	23.292
354.07	23.723
354.43	23.456
354.79	22.869
355.15	23.325
355.51	24.042
355.87	24.147
356.24	24.101
356.60	23.205
356.96	22.354
357.32	25.021
357.68	24.264
358.04	24.635
358.40	24.632
358.77	23.936
359.13	23.534
359.49	24.320
359.85	22.942
360.21	23.632
360.57	22.488
360.93	23.674
361.29	23.832
361.66	23.265
362.02	23.155
362.38	24.087
362.74	23.597
363.10	22.549
363.46	23.025
363.82	22.971
364.18	22.483
364.54	22.519
364.90	23.185
365.26	23.547
365.62	23.694
365.98	23.088
366.35	23.298
366.71	23.226
367.07	23.026
367.43	22.455
367.79	23.256
368.15	22.609
368.51	23.071
368.87	23.054
369.23	23.013
369.59	22.647
369.95	22.131
370.31	24.091
370.67	23.308
371.03	22.678
371.39	22.659
371.75	22.437
372.11	21.926
372.47	22.346
372.83	22.790
373.19	22.741
373.55	22.156
373.91	22.273
374.27	23.620
374.63	22.312
374.99	21.889
375.35	22.061
375.71	22.382
376.07	23.604
376.42	23.029
376.78	22.857
377.14	22.765
377.50	22.572
377.86	23.050
378.22	22.061
378.58	23.092
378.94	21.938
379.30	23.552
379.66	21.447
380.02	21.996
380.38	22.964
380.74	22.561
381.09	22.808
381.45	22.476
381.81	22.895
382.17	22.736
382.53	23.340
382.89	22.130
383.25	21.497
383.61	21.996
383.97	21.507
384.32	21.806
384.68	22.350
385.04	21.515
385.40	21.725
385.76	21.758
386.12	22.310
386.48	22.374
386.83	22.054
387.19	21.711
387.55	20.984
387.91	21.184
388.27	21.625
388.62	20.531
388.98	22.201
389.34	20.950
389.70	21.474
390.06	22.046
390.42	21.095
390.77	21.797
391.13	21.861
391.49	22.911
391.85	21.291
392.20	21.452
392.56	20.563
392.92	21.521
393.28	21.544
393.64	21.406
393.99	20.195
394.35	21.415
394.71	20.993
395.07	21.684
395.42	20.127
395.78	20.766
396.14	20.986
396.50	21.022
396.85	20.026
397.21	20.893
397.57	20.540
397.92	20.165
398.28	20.384
398.64	20.889
399.00	20.371
399.35	19.988
399.71	19.820
400.07	21.309
400.42	20.897
400.78	20.793
401.14	21.275
401.49	21.362
401.85	20.254
402.21	20.368
402.57	19.446
402.92	20.850
403.28	20.286
403.63	20.321
403.99	20.277
404.35	20.000
404.70	20.393
405.06	20.149
405.42	20.820
405.77	19.857
406.13	19.176
406.49	19.811
406.84	20.672
407.20	20.136
407.55	19.305
407.91	19.650
408.27	20.013
408.62	19.100
408.98	19.755
409.34	19.462
409.69	19.532
410.05	19.365
410.40	19.139
410.76	19.676
411.11	18.811
411.47	19.388
411.83	18.802
412.18	19.634
412.54	18.758
412.89	18.847
413.25	19.060
413.60	19.388
413.96	19.417
414.31	19.630
414.67	18.974
415.03	18.949
415.38	18.524
415.74	19.342
416.09	18.263
416.45	18.684
416.80	18.915
417.16	18.618
417.51	19.917
417.87	20.041
418.22	18.382
418.58	18.867
418.93	19.342
419.29	18.046
419.64	19.849
420.00	18.991
420.35	19.146
420.71	20.038
421.06	18.430
421.42	19.072
421.77	19.062
422.12	18.370
422.48	19.018
422.83	18.845
423.19	18.941
423.54	18.143
423.90	18.109
424.25	19.275
424.61	18.710
424.96	18.980
425.31	19.203
425.67	18.970
426.02	19.130
426.38	18.533
426.73	18.255
427.09	18.319
427.44	18.519
427.79	19.431
428.15	18.643
428.50	18.530
428.85	18.666
429.21	19.605
429.56	18.398
429.92	18.388
430.27	17.440
430.62	18.821
430.98	18.109
431.33	18.409
431.68	18.107
432.04	18.642
432.39	18.360
432.74	17.774
433.10	18.375
433.45	18.746
433.80	18.214
434.16	17.952
434.51	18.004
434.86	18.127
435.22	18.393
435.57	18.799
435.92	16.842
436.28	17.684
436.63	17.949
436.98	17.716
437.34	18.234
437.69	18.086
438.04	18.630
438.39	18.603
438.75	17.846
439.10	18.810
439.45	18.036
439.81	18.095
440.16	18.244
440.51	18.463
440.86	18.182
441.22	18.463
441.57	18.803
441.92	18.498
442.27	18.514
442.63	19.413
442.98	18.643
443.33	19.154
443.68	17.915
444.03	17.577
444.39	17.491
444.74	17.859
445.09	17.710
445.44	18.076
445.79	18.716
446.15	17.843
446.50	18.219
446.85	18.317
447.20	18.545
447.55	18.150
447.91	18.754
448.26	18.872
448.61	18.127
448.96	18.569
449.31	18.505
449.66	18.160
450.02	18.521
450.37	18.712
450.72	17.654
451.07	17.732
451.42	18.972
451.77	17.844
452.12	17.356
452.47	17.954
452.83	18.555
453.18	18.028
453.53	19.268
453.88	18.507
454.23	18.658
454.58	19.125
454.93	18.392
455.28	18.534
455.63	18.973
455.98	18.528
456.34	17.883
456.69	17.806
457.04	18.766
457.39	18.414
457.74	18.205
458.09	17.859
458.44	18.884
458.79	17.550
459.14	17.472
459.49	18.662
459.84	19.144
460.19	18.136
460.54	18.245
460.89	18.647
461.24	19.221
461.59	18.297
461.94	17.686
462.29	17.982
462.64	18.245
462.99	18.637
463.34	18.095
463.69	19.136
464.04	19.051
464.39	18.135
464.74	17.456
465.09	18.264
465.44	18.296
465.79	17.569
466.14	17.363
466.49	18.144
466.84	16.646
467.19	17.804
467.54	16.910
467.89	17.962
468.24	17.740
468.59	17.343
468.94	17.956
469.29	17.716
469.64	18.818
469.99	18.457
470.34	17.115
470.68	18.231
471.03	17.372
471.38	16.530
471.73	18.169
472.08	17.722
472.43	18.465
472.78	17.404
473.13	18.596
473.48	18.257
473.83	17.768
474.17	17.612
474.52	17.816
474.87	17.866
475.22	18.488
475.57	18.155
475.92	17.567
476.27	18.324
476.61	18.262
476.96	17.605
477.31	17.523
477.66	18.187
478.01	17.304
478.36	17.765
478.70	18.648
479.05	16.657
479.40	17.358
479.75	18.340
480.10	17.478
480.45	16.859
480.79	17.488
481.14	17.607
481.49	17.326
481.84	17.980
482.19	16.488
482.53	17.059
482.88	17.590
483.23	18.090
483.58	16.584
483.92	17.236
484.27	17.570
484.62	17.869
484.97	17.311
485.31	16.628
485.66	16.538
486.01	16.159
486.36	16.397
486.70	16.165
487.05	16.667
487.40	16.985
487.75	16.519
488.09	16.573
488.44	16.655
488.79	17.278
489.13	17.041
489.48	16.652
489.83	16.412
490.17	17.018
490.52	17.017
490.87	17.705
491.22	17.554
491.56	17.540
491.91	17.369
492.26	18.307
492.60	17.755
492.95	17.402
493.30	18.087
493.64	16.988
493.99	18.018
494.34	17.739
494.68	16.749
495.03	16.126
495.37	17.587
495.72	17.774
496.07	17.394
496.41	16.601
496.76	17.001
497.11	17.085
497.45	17.579
497.80	17.497
498.14	17.846
498.49	17.619
498.84	17.034
499.18	17.229
499.53	17.809
499.87	17.204
500.22	17.195
500.56	17.896
500.91	17.986
501.26	17.585
501.60	17.176
501.95	17.400
502.29	17.240
502.64	16.426
502.98	16.608
503.33	16.975
503.67	17.101
504.02	17.620
504.36	16.744
504.71	17.128
505.06	16.926
505.40	18.177
505.75	16.693
506.09	17.064
506.44	17.597
506.78	17.773
507.13	17.047
507.47	17.119
507.82	17.243
508.16	17.038
508.51	18.381
508.85	16.923
509.19	17.499
509.54	17.394
509.88	16.571
510.23	17.303
510.57	17.888
510.92	16.950
511.26	16.657
511.61	17.637
511.95	16.715
512.30	18.377
512.64	17.830
512.98	17.366
513.33	16.530
513.67	16.707
514.02	17.067
514.36	17.616
514.70	18.336
515.05	18.415
515.39	19.072
515.74	17.732
516.08	18.079
516.42	17.961
516.77	17.764
517.11	17.676
517.46	18.051
517.80	18.571
518.14	18.596
518.49	18.305
518.83	17.899
519.17	18.702
519.52	17.801
519.86	17.669
520.20	17.898
520.55	18.277
520.89	19.163
521.23	18.370
521.58	17.659
521.92	18.959
522.26	18.213
522.61	18.362
522.95	18.151
523.29	18.354
523.64	17.639
523.98	17.137
524.32	18.653
524.66	18.967
525.01	19.313
525.35	18.605
525.69	17.550
526.04	18.887
526.38	18.369
526.72	18.958
527.06	18.073
527.41	17.434
527.75	18.090
528.09	17.680
528.43	18.498
528.78	18.099
529.12	17.260
529.46	17.940
529.80	17.699
530.15	18.138
530.49	18.828
530.83	17.498
531.17	17.938
531.51	18.701
531.86	18.067
532.20	16.883
532.54	18.129
532.88	17.818
533.22	17.170
533.57	17.103
533.91	18.169
534.25	17.244
534.59	17.950
534.93	17.529
535.27	17.172
535.62	16.880
535.96	16.888
536.30	17.189
536.64	18.026
536.98	16.740
537.32	17.708
537.66	17.449
538.01	17.894
538.35	17.455
538.69	17.764
539.03	17.736
539.37	17.588
539.71	18.478
540.05	17.366
540.39	17.647
540.73	17.582
541.07	17.574
541.42	17.819
541.76	17.122
542.10	17.647
542.44	17.919
542.78	16.496
543.12	16.606
543.46	17.437
543.80	17.798
544.14	18.781
544.48	17.263
544.82	16.820
545.16	18.188
545.50	18.632
545.84	17.849
546.18	17.453
546.52	17.525
546.86	17.215
547.20	18.106
547.54	16.983
547.88	16.880
548.22	17.792
548.56	18.252
548.90	18.526
549.24	18.348
549.58	17.139
549.92	17.068
550.26	17.838
550.60	17.684
550.94	17.619
551.28	17.398
551.62	18.100
551.96	17.812
552.30	15.814
552.64	17.656
552.98	17.162
553.32	16.364
553.66	17.299
554.00	17.529
554.34	18.438
554.68	16.986
555.02	17.302
555.36	16.918
555.69	16.295
556.03	17.812
556.37	16.504
556.71	16.893
557.05	16.719
557.39	16.787
557.73	16.745
558.07	16.823
558.41	16.201
558.75	17.427
559.08	17.702
559.42	17.977
559.76	17.776
560.10	18.093
560.44	16.548
560.78	16.454
561.12	16.304
561.45	17.113
561.79	16.814
562.13	16.531
562.47	17.737
562.81	18.044
563.15	16.502
563.48	16.779
563.82	17.103
564.16	16.981
564.50	17.550
564.84	16.230
565.17	16.309
565.51	17.382
565.85	16.831
566.19	16.910
566.52	16.129
566.86	17.828
567.20	16.101
567.54	15.954
567.88	15.655
568.21	15.709
568.55	15.846
568.89	15.330
569.23	15.964
569.56	15.402
569.90	15.032
570.24	15.839
570.57	14.710
570.91	14.847
571.25	15.014
571.59	14.721
571.92	14.264
572.26	14.347
572.60	13.919
572.93	14.800
573.27	13.952
573.61	14.330
573.95	14.484
574.28	13.931
574.62	13.667
574.96	13.638
575.29	13.526
575.63	13.931
575.97	14.092
576.30	14.315
576.64	14.085
576.98	13.710
577.31	14.046
577.65	13.923
577.98	14.008
578.32	13.624
578.66	13.583
578.99	14.299
579.33	13.245
579.67	14.085
580.00	13.941
580.34	14.337
580.67	13.810
581.01	14.097
581.35	13.600
581.68	13.704
582.02	13.409
582.35	13.454
582.69	13.439
583.02	14.070
583.36	13.666
583.70	13.938
584.03	13.634
584.37	14.074
584.70	13.901
585.04	13.459
585.37	13.723
585.71	13.570
586.04	13.698
586.38	14.138
586.72	13.541
587.05	14.167
587.39	14.040
587.72	13.921
588.06	14.017
588.39	14.023
588.73	14.085
589.06	14.201
589.40	14.713
589.73	14.435
590.07	13.550
590.40	14.749
590.73	15.035
591.07	14.026
591.40	14.801
591.74	14.412
592.07	14.565
592.41	14.246
592.74	14.231
593.08	14.350
593.41	13.336
593.75	14.729
594.08	14.265
594.41	14.657
594.75	14.213
595.08	14.180
595.42	13.969
595.75	13.977
596.09	14.131
596.42	13.953
596.75	15.545
597.09	14.086
597.42	13.937
597.75	14.962
598.09	14.700
598.42	14.860
598.76	13.889
599.09	14.664
599.42	14.005
599.76	13.692
600.09	14.314
600.42	13.359
600.76	14.088
601.09	13.922
601.42	14.372
601.76	13.839
602.09	14.370
602.42	14.590
602.76	14.267
603.09	14.099
603.42	14.267
603.76	13.764
604.09	13.534
604.42	13.568
604.76	13.875
605.09	13.888
605.42	14.123
605.75	14.527
606.09	14.267
606.42	14.523
606.75	14.343
607.09	14.692
607.42	14.181
607.75	13.774
608.08	14.125
608.42	14.452
608.75	14.007
609.08	13.226
609.41	15.189
609.75	14.639
610.08	14.367
610.41	14.402
610.74	14.510
611.07	15.019
611.41	14.293
611.74	14.635
612.07	14.565
612.40	14.485
612.73	14.699
613.07	14.797
613.40	14.779
613.73	14.891
614.06	14.461
614.39	14.997
614.72	15.289
615.06	15.270
615.39	14.492
615.72	13.830
616.05	14.841
616.38	14.472
616.71	14.552
617.05	15.327
617.38	14.710
617.71	15.545
618.04	15.112
618.37	14.846
618.70	15.625
619.03	15.446
619.36	16.421
619.69	14.852
620.03	16.018
620.36	16.100
620.69	14.708
621.02	15.123
621.35	15.319
621.68	15.662
622.01	16.399
622.34	15.410
622.67	15.430
623.00	15.070
623.33	15.197
623.66	16.414
623.99	15.550
624.32	15.250
624.65	15.312
624.99	14.453
625.32	14.218
625.65	15.052
625.98	15.583
626.31	15.498
626.64	15.766
626.97	15.717
627.30	16.389
627.63	15.814
627.96	15.456
628.29	16.444
628.62	16.082
628.95	17.212
629.28	17.149
629.61	16.928
629.94	18.257
630.26	15.586
630.59	16.859
630.92	14.752
631.25	16.760
631.58	16.512
631.91	16.287
632.24	18.817
632.57	17.479
632.90	17.712
633.23	17.548
633.56	17.484
633.89	17.546
634.22	18.077
634.55	17.214
634.88	18.608
635.20	18.082
