SpectraSuite Data File
++++++++++++++++++++++++++++++++++++
Date: Wed May 13 19:26:16 PDT 2015
User: schluterlab
Dark Spectrum Present: Yes
Reference Spectrum Present: Yes
Number of Sampled Component Spectra: 1
Spectrometers: USB2E3373
Integration Time (usec): 3000 (USB2E3373)
Spectra Averaged: 3 (USB2E3373)
Boxcar Smoothing: 0 (USB2E3373)
Correct for Electrical Dark: No (USB2E3373)
Strobe/Lamp Enabled: No (USB2E3373)
Correct for Detector Non-linearity: No (USB2E3373)
Correct for Stray Light: No (USB2E3373)
Number of Pixels in Processed Spectrum: 2048
>>>>>Begin Processed Spectral Data<<<<<
178.53	0.000
178.91	-1250.000
179.29	-1300.000
179.67	-183.333
180.04	-1275.000
180.42	3350.000
180.80	1240.000
181.18	-1050.000
181.56	671.429
181.94	0.000
182.31	-600.000
182.69	1533.333
183.07	-550.000
183.45	-544.444
183.83	581.818
184.20	-400.000
184.58	2700.000
184.96	5200.000
185.34	-980.000
185.72	-725.000
186.09	-2750.000
186.47	3250.000
186.85	3250.000
187.23	4900.000
187.61	-2100.000
187.98	1400.000
188.36	554.545
188.74	581.818
189.12	-980.000
189.49	550.000
189.87	-5500.000
190.25	-1350.000
190.63	428.571
191.00	430.769
191.38	800.000
191.76	-1375.000
192.14	1275.000
192.51	687.500
192.89	950.000
193.27	625.000
193.65	-1550.000
194.02	610.000
194.40	940.000
194.78	580.000
195.15	525.000
195.53	640.000
195.91	-2100.000
196.29	387.500
196.66	289.474
197.04	-340.000
197.42	0.000
197.79	680.000
198.17	-5400.000
198.55	757.143
198.92	662.500
199.30	1040.000
199.68	0.000
200.05	344.444
200.43	657.143
200.81	4300.000
201.18	1766.667
201.56	-1500.000
201.94	500.000
202.31	555.556
202.69	491.667
203.07	580.000
203.44	0.000
203.82	1350.000
204.19	814.286
204.57	457.143
204.95	712.500
205.32	2066.667
205.70	554.545
206.08	378.571
206.45	2750.000
206.83	318.750
207.20	1066.667
207.58	780.000
207.96	316.667
208.33	825.000
208.71	-866.667
209.08	828.571
209.46	666.667
209.84	536.364
210.21	-1933.333
210.59	1575.000
210.96	-575.000
211.34	2850.000
211.71	710.000
212.09	883.333
212.46	0.000
212.84	1733.333
213.22	1350.000
213.59	-5200.000
213.97	866.667
214.34	885.714
214.72	609.091
215.09	1180.000
215.47	-2200.000
215.84	-2400.000
216.22	1600.000
216.59	485.714
216.97	1150.000
217.34	500.000
217.72	-816.667
218.09	0.000
218.47	-4800.000
218.84	722.222
219.22	771.429
219.59	1933.333
219.97	-614.286
220.34	1040.000
220.72	-2166.667
221.09	400.000
221.47	1450.000
221.84	-1050.000
222.22	0.000
222.59	1675.000
222.97	-2400.000
223.34	1160.000
223.72	469.231
224.09	1160.000
224.46	2550.000
224.84	-5300.000
225.21	-1120.000
225.59	-5900.000
225.96	620.000
226.34	290.000
226.71	2750.000
227.08	662.500
227.46	520.000
227.83	-1225.000
228.21	-2200.000
228.58	666.667
228.95	-2550.000
229.33	-2600.000
229.70	1833.333
230.08	800.000
230.45	-860.000
230.82	491.667
231.20	916.667
231.57	614.286
231.95	475.000
232.32	272.727
232.69	472.727
233.07	571.429
233.44	353.846
233.81	-1866.667
234.19	268.421
234.56	458.333
234.93	458.333
235.31	500.000
235.68	400.000
236.05	457.143
236.43	200.000
236.80	300.000
237.17	5800.000
237.55	304.762
237.92	232.143
238.29	304.762
238.67	209.677
239.04	227.586
239.41	191.667
239.79	132.609
240.16	192.857
240.53	156.818
240.91	127.451
241.28	144.000
241.65	154.000
242.02	110.145
242.40	119.355
242.77	121.667
243.14	104.301
243.51	107.865
243.89	112.941
244.26	87.778
244.63	90.323
245.00	87.234
245.38	92.079
245.75	81.308
246.12	88.073
246.49	83.212
246.87	89.600
247.24	84.615
247.61	76.429
247.98	75.163
248.36	66.892
248.73	73.248
249.10	70.064
249.47	71.186
249.84	64.171
250.22	70.053
250.59	67.456
250.96	71.212
251.33	63.981
251.70	70.792
252.08	66.190
252.45	56.951
252.82	64.783
253.19	67.234
253.56	60.784
253.94	62.656
254.31	61.719
254.68	60.000
255.05	60.886
255.42	62.602
255.79	62.868
256.16	60.650
256.54	56.184
256.91	58.363
257.28	57.194
257.65	55.776
258.02	58.075
258.39	57.098
258.76	53.512
259.14	51.190
259.51	56.535
259.88	54.969
260.25	56.193
260.62	55.202
260.99	58.075
261.36	56.456
261.73	51.576
262.10	53.779
262.47	54.930
262.85	55.153
263.22	52.991
263.59	56.695
263.96	51.099
264.33	53.264
264.70	52.368
265.07	54.220
265.44	55.051
265.81	50.608
266.18	53.266
266.55	50.000
266.92	51.597
267.29	54.398
267.66	52.064
268.03	51.364
268.40	50.935
268.77	52.506
269.14	50.225
269.51	52.370
269.88	52.914
270.25	48.533
270.62	50.787
270.99	53.978
271.36	50.215
271.73	50.935
272.10	53.261
272.47	50.538
272.84	47.619
273.21	48.847
273.58	47.162
273.95	48.008
274.32	46.901
274.69	50.535
275.06	46.654
275.43	47.234
275.80	48.898
276.17	48.676
276.54	48.441
276.91	47.036
277.28	46.875
277.65	48.162
278.02	48.033
278.39	50.195
278.76	47.273
279.13	46.604
279.50	47.300
279.87	50.398
280.23	47.705
280.60	48.356
280.97	48.799
281.34	48.496
281.71	47.818
282.08	49.136
282.45	46.727
282.82	45.826
283.19	45.989
283.56	47.018
283.92	46.024
284.29	44.974
284.66	45.735
285.03	43.580
285.40	43.486
285.77	45.960
286.14	44.905
286.51	46.333
286.87	45.299
287.24	45.603
287.61	43.018
287.98	46.104
288.35	44.374
288.72	40.810
289.08	41.315
289.45	42.998
289.82	44.390
290.19	39.560
290.56	42.573
290.93	40.483
291.29	41.718
291.66	42.625
292.03	39.971
292.40	41.850
292.77	38.609
293.13	40.000
293.50	41.108
293.87	40.593
294.24	38.963
294.60	38.574
294.97	36.919
295.34	39.351
295.71	36.932
296.08	36.182
296.44	38.377
296.81	35.403
297.18	38.753
297.55	33.905
297.91	36.148
298.28	37.483
298.65	36.815
299.02	37.286
299.38	35.325
299.75	34.501
300.12	34.355
300.48	35.125
300.85	32.676
301.22	36.051
301.59	33.333
301.95	36.650
302.32	35.687
302.69	34.409
303.05	34.061
303.42	33.580
303.79	34.655
304.15	33.566
304.52	31.634
304.89	33.333
305.25	33.643
305.62	32.843
305.99	33.058
306.35	32.103
306.72	31.614
307.09	34.739
307.45	32.432
307.82	30.246
308.19	33.444
308.55	30.960
308.92	31.472
309.29	31.257
309.65	30.965
310.02	30.867
310.38	31.075
310.75	30.306
311.12	30.911
311.48	31.766
311.85	31.761
312.22	30.489
312.58	30.977
312.95	31.045
313.31	30.097
313.68	31.809
314.05	31.953
314.41	32.060
314.78	31.923
315.14	30.685
315.51	32.338
315.87	30.495
316.24	30.785
316.61	30.019
316.97	30.528
317.34	31.409
317.70	31.262
318.07	30.606
318.43	30.431
318.80	30.459
319.16	30.038
319.53	30.019
319.89	29.714
320.26	29.500
320.62	30.159
320.99	29.798
321.35	30.303
321.72	31.417
322.08	30.503
322.45	30.448
322.81	30.814
323.18	29.383
323.54	30.519
323.91	30.755
324.27	30.402
324.64	30.382
325.00	29.396
325.37	30.937
325.73	30.341
326.10	29.303
326.46	29.928
326.83	30.544
327.19	29.035
327.56	28.659
327.92	29.221
328.29	29.015
328.65	30.571
329.01	30.235
329.38	28.862
329.74	29.271
330.11	30.160
330.47	30.487
330.84	30.882
331.20	28.506
331.56	29.450
331.93	29.630
332.29	30.169
332.66	29.204
333.02	28.428
333.38	29.539
333.75	28.877
334.11	28.203
334.48	28.571
334.84	30.423
335.20	29.545
335.57	28.196
335.93	28.304
336.29	29.212
336.66	28.674
337.02	27.873
337.38	30.093
337.75	28.164
338.11	28.559
338.47	28.821
338.84	28.781
339.20	27.248
339.56	29.197
339.93	27.000
340.29	29.167
340.65	27.451
341.02	28.883
341.38	28.114
341.74	28.596
342.11	28.035
342.47	28.106
342.83	28.168
343.20	28.831
343.56	26.959
343.92	28.070
344.28	27.466
344.65	27.601
345.01	26.599
345.37	26.672
345.73	28.003
346.10	28.303
346.46	27.373
346.82	26.936
347.19	26.399
347.55	27.750
347.91	27.508
348.27	29.088
348.63	28.094
349.00	27.184
349.36	27.504
349.72	27.025
350.08	26.418
350.45	26.932
350.81	26.401
351.17	27.066
351.53	26.454
351.89	25.825
352.26	27.466
352.62	27.747
352.98	27.066
353.34	26.705
353.70	26.841
354.07	25.645
354.43	26.587
354.79	26.468
355.15	25.698
355.51	27.258
355.87	26.367
356.24	26.629
356.60	26.063
356.96	26.227
357.32	26.574
357.68	26.850
358.04	25.970
358.40	27.316
358.77	25.900
359.13	25.809
359.49	25.725
359.85	24.683
360.21	25.598
360.57	27.237
360.93	26.231
361.29	25.170
361.66	25.619
362.02	26.493
362.38	26.540
362.74	25.893
363.10	25.389
363.46	24.505
363.82	25.699
364.18	26.065
364.54	27.117
364.90	25.425
365.26	25.441
365.62	26.077
365.98	24.543
366.35	24.713
366.71	25.018
367.07	24.763
367.43	25.907
367.79	25.696
368.15	26.580
368.51	24.782
368.87	25.054
369.23	25.165
369.59	25.344
369.95	24.559
370.31	25.071
370.67	25.290
371.03	25.693
371.39	26.093
371.75	25.147
372.11	24.182
372.47	25.440
372.83	25.000
373.19	24.205
373.55	24.982
373.91	25.405
374.27	24.192
374.63	24.436
374.99	24.576
375.35	24.215
375.71	24.743
376.07	25.720
376.42	24.622
376.78	24.917
377.14	24.627
377.50	24.768
377.86	23.737
378.22	24.652
378.58	24.060
378.94	23.507
379.30	23.855
379.66	23.794
380.02	24.201
380.38	23.012
380.74	23.770
381.09	24.633
381.45	24.647
381.81	24.386
382.17	25.032
382.53	24.465
382.89	23.642
383.25	23.765
383.61	24.659
383.97	24.640
384.32	24.641
384.68	23.668
385.04	22.434
385.40	22.724
385.76	23.710
386.12	23.381
386.48	23.726
386.83	24.310
387.19	24.799
387.55	23.624
387.91	22.793
388.27	23.544
388.62	23.725
388.98	22.666
389.34	24.468
389.70	23.544
390.06	24.398
390.42	23.541
390.77	23.728
391.13	23.612
391.49	23.477
391.85	23.234
392.20	22.271
392.56	24.369
392.92	23.426
393.28	23.077
393.64	23.441
393.99	23.335
394.35	24.256
394.71	23.400
395.07	22.368
395.42	23.424
395.78	24.046
396.14	23.153
396.50	24.561
396.85	23.649
397.21	22.626
397.57	23.807
397.92	23.257
398.28	22.646
398.64	23.297
399.00	23.055
399.35	22.335
399.71	23.090
400.07	23.241
400.42	23.497
400.78	23.764
401.14	22.073
401.49	24.299
401.85	22.868
402.21	22.455
402.57	22.332
402.92	24.275
403.28	23.423
403.63	21.844
403.99	22.803
404.35	22.485
404.70	23.261
405.06	22.947
405.42	23.518
405.77	22.343
406.13	22.235
406.49	23.182
406.84	22.800
407.20	22.813
407.55	23.165
407.91	24.600
408.27	23.548
408.62	23.239
408.98	21.998
409.34	22.509
409.69	23.613
410.05	22.553
410.40	23.364
410.76	22.700
411.11	23.160
411.47	22.939
411.83	22.908
412.18	22.325
412.54	22.790
412.89	22.771
413.25	22.373
413.60	23.595
413.96	22.404
414.31	22.418
414.67	23.004
415.03	22.914
415.38	23.840
415.74	23.215
416.09	23.710
416.45	23.025
416.80	23.133
417.16	23.391
417.51	22.628
417.87	22.351
418.22	24.038
418.58	23.434
418.93	22.727
419.29	23.425
419.64	23.048
420.00	23.171
420.35	23.246
420.71	22.893
421.06	22.673
421.42	23.216
421.77	23.262
422.12	22.347
422.48	22.504
422.83	22.598
423.19	22.597
423.54	22.577
423.90	22.725
424.25	22.501
424.61	22.976
424.96	22.274
425.31	21.872
425.67	21.742
426.02	22.229
426.38	23.077
426.73	22.762
427.09	22.918
427.44	22.484
427.79	22.599
428.15	23.036
428.50	22.528
428.85	22.825
429.21	22.363
429.56	22.551
429.92	22.496
430.27	22.244
430.62	22.273
430.98	21.796
431.33	22.474
431.68	22.513
432.04	22.364
432.39	22.616
432.74	23.100
433.10	22.807
433.45	22.799
433.80	22.007
434.16	22.436
434.51	22.158
434.86	22.976
435.22	23.402
435.57	22.979
435.92	21.767
436.28	22.420
436.63	23.731
436.98	23.297
437.34	23.077
437.69	22.812
438.04	22.709
438.39	23.104
438.75	23.184
439.10	23.296
439.45	23.849
439.81	22.719
440.16	21.909
440.51	22.378
440.86	23.625
441.22	22.247
441.57	22.718
441.92	23.081
442.27	23.251
442.63	22.959
442.98	23.606
443.33	22.120
443.68	22.044
444.03	22.743
444.39	21.957
444.74	22.403
445.09	22.588
445.44	22.635
445.79	22.909
446.15	23.557
446.50	22.994
446.85	23.124
447.20	22.540
447.55	23.060
447.91	23.001
448.26	22.593
448.61	23.347
448.96	23.145
449.31	23.003
449.66	23.016
450.02	22.340
450.37	22.789
450.72	22.617
451.07	22.730
451.42	22.067
451.77	23.429
452.12	22.691
452.47	24.067
452.83	23.252
453.18	22.677
453.53	23.871
453.88	22.800
454.23	23.132
454.58	23.440
454.93	23.140
455.28	23.379
455.63	22.330
455.98	23.690
456.34	22.676
456.69	22.918
457.04	23.901
457.39	22.151
457.74	23.564
458.09	24.152
458.44	22.862
458.79	21.692
459.14	22.573
459.49	23.468
459.84	22.992
460.19	22.805
460.54	23.032
460.89	22.710
461.24	23.376
461.59	23.707
461.94	22.688
462.29	23.917
462.64	22.719
462.99	21.861
463.34	24.000
463.69	23.577
464.04	23.884
464.39	23.594
464.74	23.411
465.09	23.100
465.44	22.936
465.79	22.539
466.14	23.043
466.49	22.581
466.84	23.584
467.19	22.993
467.54	24.563
467.89	23.289
468.24	23.153
468.59	23.871
468.94	22.786
469.29	22.879
469.64	24.632
469.99	24.087
470.34	23.382
470.68	23.851
471.03	22.585
471.38	25.087
471.73	24.051
472.08	23.816
472.43	23.744
472.78	23.831
473.13	24.134
473.48	24.157
473.83	23.476
474.17	22.215
474.52	23.883
474.87	24.110
475.22	23.506
475.57	22.676
475.92	22.146
476.27	23.281
476.61	23.552
476.96	23.145
477.31	22.606
477.66	23.304
478.01	22.269
478.36	23.480
478.70	22.586
479.05	23.536
479.40	22.569
479.75	22.318
480.10	22.565
480.45	21.942
480.79	22.456
481.14	22.407
481.49	22.591
481.84	22.542
482.19	22.263
482.53	22.248
482.88	22.662
483.23	23.364
483.58	22.930
483.92	22.306
484.27	21.786
484.62	22.500
484.97	21.758
485.31	21.781
485.66	21.436
486.01	21.279
486.36	20.110
486.70	20.187
487.05	20.591
487.40	20.633
487.75	20.235
488.09	21.140
488.44	21.014
488.79	21.700
489.13	22.002
489.48	21.860
489.83	21.580
490.17	22.490
490.52	22.453
490.87	22.207
491.22	21.919
491.56	21.595
491.91	22.336
492.26	21.681
492.60	22.166
492.95	21.749
493.30	22.757
493.64	22.352
493.99	22.563
494.34	22.988
494.68	22.756
495.03	22.885
495.37	22.476
495.72	22.515
496.07	22.970
496.41	22.301
496.76	22.339
497.11	22.017
497.45	22.776
497.80	22.169
498.14	22.126
498.49	22.244
498.84	22.627
499.18	21.238
499.53	23.029
499.87	22.134
500.22	22.515
500.56	23.107
500.91	22.548
501.26	22.570
501.60	23.303
501.95	22.227
502.29	22.774
502.64	21.881
502.98	22.627
503.33	22.349
503.67	23.202
504.02	22.357
504.36	22.555
504.71	22.032
505.06	22.169
505.40	22.654
505.75	21.745
506.09	22.109
506.44	22.743
506.78	22.747
507.13	22.514
507.47	23.232
507.82	24.265
508.16	22.239
508.51	22.425
508.85	22.443
509.19	22.653
509.54	22.551
509.88	22.411
510.23	22.057
510.57	23.220
510.92	22.424
511.26	22.919
511.61	23.133
511.95	22.704
512.30	22.906
512.64	23.267
512.98	23.098
513.33	23.073
513.67	22.946
514.02	22.403
514.36	23.157
514.70	22.690
515.05	22.811
515.39	23.500
515.74	23.367
516.08	23.533
516.42	23.640
516.77	23.802
517.11	23.141
517.46	23.251
517.80	23.635
518.14	22.988
518.49	23.512
518.83	23.239
519.17	23.152
519.52	22.411
519.86	23.217
520.20	24.046
520.55	23.459
520.89	23.966
521.23	24.186
521.58	23.529
521.92	24.434
522.26	22.819
522.61	23.988
522.95	23.511
523.29	24.163
523.64	23.598
523.98	23.598
524.32	24.186
524.66	23.211
525.01	24.449
525.35	23.730
525.69	23.953
526.04	23.738
526.38	24.588
526.72	23.988
527.06	23.792
527.41	22.772
527.75	24.373
528.09	24.149
528.43	24.028
528.78	24.770
529.12	23.152
529.46	24.127
529.80	24.567
530.15	24.798
530.49	23.077
530.83	24.810
531.17	24.543
531.51	25.681
531.86	24.129
532.20	25.098
532.54	23.447
532.88	24.069
533.22	24.110
533.57	24.198
533.91	23.721
534.25	23.998
534.59	23.978
534.93	23.914
535.27	23.838
535.62	23.260
535.96	24.231
536.30	24.158
536.64	24.147
536.98	25.083
537.32	23.963
537.66	23.867
538.01	25.082
538.35	24.499
538.69	24.825
539.03	23.587
539.37	22.875
539.71	22.683
540.05	24.379
540.39	24.319
540.73	23.415
541.07	24.465
541.42	24.853
541.76	24.710
542.10	24.062
542.44	24.570
542.78	24.506
543.12	23.544
543.46	24.066
543.80	23.813
544.14	23.363
544.48	23.746
544.82	23.990
545.16	24.593
545.50	23.586
545.84	24.462
546.18	23.434
546.52	23.813
546.86	23.643
547.20	24.815
547.54	24.850
547.88	25.446
548.22	24.097
548.56	23.774
548.90	23.752
549.24	24.310
549.58	24.557
549.92	24.794
550.26	24.645
550.60	23.790
550.94	23.662
551.28	24.726
551.62	24.515
551.96	24.000
552.30	25.392
552.64	24.003
552.98	24.000
553.32	24.140
553.66	25.085
554.00	24.640
554.34	24.017
554.68	24.177
555.02	24.330
555.36	24.356
555.69	24.019
556.03	23.957
556.37	23.329
556.71	23.397
557.05	23.810
557.39	23.863
557.73	23.712
558.07	24.583
558.41	24.313
558.75	25.055
559.08	24.907
559.42	24.339
559.76	24.191
560.10	23.840
560.44	24.528
560.78	24.085
561.12	24.340
561.45	24.967
561.79	24.522
562.13	24.547
562.47	24.454
562.81	23.640
563.15	23.478
563.48	25.066
563.82	23.288
564.16	24.591
564.50	23.242
564.84	24.020
565.17	24.260
565.51	23.514
565.85	24.048
566.19	23.544
566.52	24.509
566.86	23.086
567.20	24.764
567.54	24.030
567.88	22.759
568.21	24.021
568.55	23.104
568.89	23.492
569.23	22.326
569.56	21.862
569.90	22.491
570.24	22.318
570.57	21.557
570.91	21.816
571.25	21.124
571.59	21.090
571.92	21.544
572.26	21.635
572.60	21.592
572.93	20.930
573.27	22.124
573.61	21.580
573.95	21.525
574.28	21.106
574.62	20.675
574.96	21.075
575.29	20.757
575.63	20.224
575.97	20.880
576.30	21.243
576.64	21.178
576.98	20.588
577.31	20.864
577.65	21.129
577.98	21.029
578.32	20.353
578.66	20.755
578.99	20.475
579.33	20.770
579.67	20.603
580.00	20.882
580.34	20.859
580.67	20.728
581.01	20.778
581.35	20.761
581.68	20.606
582.02	20.343
582.35	20.524
582.69	20.277
583.02	20.088
583.36	20.590
583.70	20.904
584.03	20.350
584.37	21.001
584.70	21.369
585.04	20.499
585.37	20.596
585.71	21.264
586.04	20.633
586.38	21.290
586.72	21.403
587.05	21.108
587.39	20.976
587.72	21.026
588.06	20.811
588.39	20.960
588.73	21.150
589.06	21.377
589.40	20.943
589.73	22.246
590.07	21.388
590.40	21.410
590.73	21.741
591.07	22.100
591.40	22.058
591.74	22.727
592.07	21.728
592.41	22.406
592.74	22.135
593.08	21.552
593.41	22.082
593.75	21.049
594.08	21.053
594.41	21.456
594.75	21.590
595.08	21.546
595.42	21.996
595.75	21.083
596.09	21.667
596.42	21.611
596.75	21.655
597.09	22.294
597.42	22.049
597.75	21.906
598.09	22.000
598.42	21.521
598.76	21.727
599.09	21.551
599.42	21.725
599.76	21.376
600.09	21.712
600.42	21.439
600.76	20.857
601.09	21.603
601.42	21.385
601.76	21.784
602.09	21.739
602.42	21.736
602.76	22.289
603.09	22.109
603.42	22.023
603.76	21.151
604.09	21.287
604.42	22.258
604.76	22.353
605.09	21.669
605.42	22.061
605.75	21.647
606.09	21.797
606.42	21.210
606.75	22.066
607.09	21.641
607.42	21.481
607.75	21.561
608.08	21.407
608.42	22.411
608.75	21.731
609.08	22.109
609.41	22.751
609.75	22.058
610.08	22.149
610.41	21.788
610.74	21.854
611.07	22.579
611.41	22.620
611.74	23.127
612.07	23.188
612.40	23.033
612.73	22.421
613.07	22.468
613.40	21.854
613.73	21.500
614.06	23.118
614.39	22.968
614.72	22.789
615.06	22.847
615.39	22.718
615.72	22.955
616.05	22.063
616.38	23.180
616.71	23.219
617.05	23.263
617.38	23.391
617.71	23.423
618.04	23.377
618.37	23.004
618.70	23.398
619.03	24.342
619.36	23.218
619.69	23.521
620.03	22.253
620.36	23.262
620.69	23.904
621.02	23.894
621.35	24.197
621.68	23.364
622.01	24.303
622.34	24.206
622.67	24.563
623.00	23.331
623.33	23.374
623.66	24.232
623.99	24.153
624.32	23.538
624.65	23.870
624.99	23.725
625.32	24.113
625.65	23.666
625.98	24.827
626.31	24.572
626.64	25.469
626.97	25.187
627.30	24.190
627.63	25.841
627.96	24.643
628.29	25.634
628.62	26.624
628.95	25.849
629.28	25.912
629.61	25.115
629.94	25.619
630.26	25.643
630.59	25.834
