SpectraSuite Data File
++++++++++++++++++++++++++++++++++++
Date: Wed May 13 19:40:27 PDT 2015
User: schluterlab
Dark Spectrum Present: Yes
Reference Spectrum Present: Yes
Number of Sampled Component Spectra: 1
Spectrometers: USB2E3373
Integration Time (usec): 3000 (USB2E3373)
Spectra Averaged: 3 (USB2E3373)
Boxcar Smoothing: 0 (USB2E3373)
Correct for Electrical Dark: No (USB2E3373)
Strobe/Lamp Enabled: No (USB2E3373)
Correct for Detector Non-linearity: No (USB2E3373)
Correct for Stray Light: No (USB2E3373)
Number of Pixels in Processed Spectrum: 2048
>>>>>Begin Processed Spectral Data<<<<<
178.53	0.000
178.91	-1500.000
179.29	-1300.000
179.67	-250.000
180.04	-1400.000
180.42	2750.000
180.80	1020.000
181.18	-1125.000
181.56	700.000
181.94	0.000
182.31	-671.429
182.69	2000.000
183.07	-512.500
183.45	-522.222
183.83	490.909
184.20	-310.000
184.58	2900.000
184.96	5700.000
185.34	-1000.000
185.72	-562.500
186.09	-2300.000
186.47	2850.000
186.85	2200.000
187.23	5100.000
187.61	-1766.667
187.98	1450.000
188.36	581.818
188.74	618.182
189.12	-1000.000
189.49	580.000
189.87	-4900.000
190.25	-1200.000
190.63	364.286
191.00	461.538
191.38	866.667
191.76	-975.000
192.14	1375.000
192.51	725.000
192.89	850.000
193.27	512.500
193.65	-1025.000
194.02	570.000
194.40	840.000
194.78	530.000
195.15	541.667
195.53	620.000
195.91	-1700.000
196.29	368.750
196.66	284.211
197.04	-410.000
197.42	0.000
197.79	590.000
198.17	-4800.000
198.55	614.286
198.92	762.500
199.30	880.000
199.68	0.000
200.05	383.333
200.43	842.857
200.81	4800.000
201.18	1600.000
201.56	-1566.667
201.94	522.222
202.31	655.556
202.69	508.333
203.07	490.000
203.44	0.000
203.82	1200.000
204.19	771.429
204.57	464.286
204.95	662.500
205.32	1533.333
205.70	527.273
206.08	428.571
206.45	2700.000
206.83	400.000
207.20	900.000
207.58	760.000
207.96	400.000
208.33	812.500
208.71	-1000.000
209.08	800.000
209.46	644.444
209.84	509.091
210.21	-1466.667
210.59	1425.000
210.96	-675.000
211.34	2300.000
211.71	530.000
212.09	966.667
212.46	0.000
212.84	1900.000
213.22	1400.000
213.59	-5100.000
213.97	900.000
214.34	771.429
214.72	627.273
215.09	980.000
215.47	-2450.000
215.84	-2700.000
216.22	1466.667
216.59	400.000
216.97	1475.000
217.34	472.727
217.72	-733.333
218.09	0.000
218.47	-5400.000
218.84	666.667
219.22	800.000
219.59	1466.667
219.97	-600.000
220.34	1080.000
220.72	-1933.333
221.09	421.429
221.47	1475.000
221.84	-1033.333
222.22	0.000
222.59	1700.000
222.97	-2850.000
223.34	1140.000
223.72	469.231
224.09	880.000
224.46	2500.000
224.84	-5400.000
225.21	-820.000
225.59	-5900.000
225.96	620.000
226.34	270.000
226.71	2950.000
227.08	762.500
227.46	580.000
227.83	-1325.000
228.21	-2300.000
228.58	711.111
228.95	-2950.000
229.33	-2750.000
229.70	1533.333
230.08	828.571
230.45	-920.000
230.82	558.333
231.20	933.333
231.57	671.429
231.95	500.000
232.32	259.091
232.69	400.000
233.07	757.143
233.44	323.077
233.81	-2100.000
234.19	315.789
234.56	433.333
234.93	316.667
235.31	427.273
235.68	361.538
236.05	357.143
236.43	181.818
236.80	236.842
237.17	4100.000
237.55	238.095
237.92	192.857
238.29	247.619
238.67	177.419
239.04	220.690
239.41	130.556
239.79	108.696
240.16	150.000
240.53	143.182
240.91	105.882
241.28	112.000
241.65	110.000
242.02	101.449
242.40	88.710
242.77	100.000
243.14	66.667
243.51	74.157
243.89	70.588
244.26	56.667
244.63	61.290
245.00	48.936
245.38	67.327
245.75	52.336
246.12	51.376
246.49	55.474
246.87	60.000
247.24	52.308
247.61	44.286
247.98	48.366
248.36	43.919
248.73	35.669
249.10	38.854
249.47	40.113
249.84	41.176
250.22	42.781
250.59	39.645
250.96	38.889
251.33	36.019
251.70	31.188
252.08	30.952
252.45	27.354
252.82	26.522
253.19	31.489
253.56	30.588
253.94	31.535
254.31	32.031
254.68	27.692
255.05	29.151
255.42	27.642
255.79	30.147
256.16	26.715
256.54	25.795
256.91	25.979
257.28	21.942
257.65	29.043
258.02	25.776
258.39	23.659
258.76	25.084
259.14	23.810
259.51	20.973
259.88	24.224
260.25	27.492
260.62	21.676
260.99	22.671
261.36	25.225
261.73	22.350
262.10	22.093
262.47	23.099
262.85	22.284
263.22	20.798
263.59	21.652
263.96	23.626
264.33	21.671
264.70	20.789
265.07	19.949
265.44	19.697
265.81	19.465
266.18	21.859
266.55	17.805
266.92	22.359
267.29	21.991
267.66	20.642
268.03	20.227
268.40	19.159
268.77	19.809
269.14	17.568
269.51	19.639
269.88	20.513
270.25	16.930
270.62	19.551
270.99	23.226
271.36	19.313
271.73	20.561
272.10	19.348
272.47	19.785
272.84	17.100
273.21	21.384
273.58	18.341
273.95	17.191
274.32	16.116
274.69	16.488
275.06	18.110
275.43	18.936
275.80	17.234
276.17	17.923
276.54	17.879
276.91	18.972
277.28	16.602
277.65	19.923
278.02	15.528
278.39	18.359
278.76	18.909
279.13	18.113
279.50	15.084
279.87	15.936
280.23	15.170
280.60	17.021
280.97	14.787
281.34	16.460
281.71	17.455
282.08	18.234
282.45	15.455
282.82	16.696
283.19	13.725
283.56	17.193
283.92	15.736
284.29	15.873
284.66	17.241
285.03	15.009
285.40	16.197
285.77	16.162
286.14	14.335
286.51	17.000
286.87	18.291
287.24	16.287
287.61	16.372
287.98	16.721
288.35	15.531
288.72	13.863
289.08	14.710
289.45	15.157
289.82	16.098
290.19	13.030
290.56	14.701
290.93	11.631
291.29	13.957
291.66	14.897
292.03	14.680
292.40	15.272
292.77	15.385
293.13	15.373
293.50	14.869
293.87	15.259
294.24	12.889
294.60	12.955
294.97	12.645
295.34	14.669
295.71	13.352
296.08	13.818
296.44	13.343
296.81	11.625
297.18	15.041
297.55	13.456
297.91	13.061
298.28	13.655
298.65	13.708
299.02	13.175
299.38	11.819
299.75	11.321
300.12	11.877
300.48	11.625
300.85	12.577
301.22	11.338
301.59	12.753
301.95	12.343
302.32	12.067
302.69	12.903
303.05	11.879
303.42	10.741
303.79	11.438
304.15	10.606
304.52	11.008
304.89	10.918
305.25	11.601
305.62	10.193
305.99	12.043
306.35	11.633
306.72	11.659
307.09	13.208
307.45	12.162
307.82	10.603
308.19	12.472
308.55	12.513
308.92	12.352
309.29	13.200
309.65	10.923
310.02	10.994
310.38	11.828
310.75	11.932
311.12	12.794
311.48	12.121
311.85	14.151
312.22	12.591
312.58	12.058
312.95	13.939
313.31	12.039
313.68	11.850
314.05	14.793
314.41	13.467
314.78	12.890
315.14	13.406
315.51	12.770
315.87	13.069
316.24	14.101
316.61	12.573
316.97	13.601
317.34	12.916
317.70	13.958
318.07	14.822
318.43	14.286
318.80	16.963
319.16	15.537
319.53	15.760
319.89	16.476
320.26	16.600
320.62	16.766
320.99	16.162
321.35	17.172
321.72	16.222
322.08	19.151
322.45	18.308
322.81	18.508
323.18	19.364
323.54	19.202
323.91	19.151
324.27	19.694
324.64	19.758
325.00	21.100
325.37	20.564
325.73	21.634
326.10	22.330
326.46	21.864
326.83	22.865
327.19	22.886
327.56	24.477
327.92	22.747
328.29	23.957
328.65	23.573
329.01	24.729
329.38	25.532
329.74	24.838
330.11	25.636
330.47	25.344
330.84	27.298
331.20	26.685
331.56	26.055
331.93	28.333
332.29	27.507
332.66	28.053
333.02	27.514
333.38	27.552
333.75	27.986
334.11	27.669
334.48	25.821
334.84	27.757
335.20	28.545
335.57	26.111
335.93	27.768
336.29	28.297
336.66	28.674
337.02	27.692
337.38	28.148
337.75	27.451
338.11	27.753
338.47	26.980
338.84	29.514
339.20	27.523
339.56	28.741
339.93	27.091
340.29	25.996
340.65	27.986
341.02	28.185
341.38	27.936
341.74	27.895
342.11	28.646
342.47	27.930
342.83	28.682
343.20	26.667
343.56	26.959
343.92	26.930
344.28	27.976
344.65	28.117
345.01	26.515
345.37	27.787
345.73	28.342
346.10	28.559
346.46	27.203
346.82	27.924
347.19	26.065
347.55	26.929
347.91	28.317
348.27	28.102
348.63	28.679
349.00	25.971
349.36	25.698
349.72	27.666
350.08	25.770
350.45	27.095
350.81	26.401
351.17	27.553
351.53	27.109
351.89	26.568
352.26	27.861
352.62	27.346
352.98	26.904
353.34	27.116
353.70	26.268
354.07	26.935
354.43	25.714
354.79	26.951
355.15	28.013
355.51	27.418
355.87	27.020
356.24	27.117
356.60	25.742
356.96	27.353
357.32	27.146
357.68	26.772
358.04	26.445
358.40	26.524
358.77	27.152
359.13	25.335
359.49	25.882
359.85	25.873
360.21	26.954
360.57	26.148
360.93	26.308
361.29	25.926
361.66	25.542
362.02	26.791
362.38	26.540
362.74	24.777
363.10	25.833
363.46	24.872
363.82	25.926
364.18	26.872
364.54	27.340
364.90	25.708
365.26	25.441
365.62	26.881
365.98	26.589
366.35	26.433
366.71	25.452
367.07	25.419
367.43	25.762
367.79	27.266
368.15	27.011
368.51	25.000
368.87	26.053
369.23	26.262
369.59	25.272
369.95	25.515
370.31	25.926
370.67	24.855
371.03	26.292
371.39	25.583
371.75	25.662
372.11	24.609
372.47	26.466
372.83	26.369
373.19	24.928
373.55	25.129
373.91	25.994
374.27	25.430
374.63	25.309
374.99	26.342
375.35	25.052
375.71	25.703
376.07	25.789
376.42	26.135
376.78	25.050
377.14	25.102
377.50	25.762
377.86	25.332
378.22	25.727
378.58	24.185
378.94	24.953
379.30	25.636
379.66	25.381
380.02	25.737
380.38	24.044
380.74	25.690
381.09	25.000
381.45	25.261
381.81	25.307
382.17	24.841
382.53	24.780
382.89	25.802
383.25	26.016
383.61	26.022
383.97	25.203
384.32	24.704
384.68	25.279
385.04	25.630
385.40	24.706
385.76	25.430
386.12	25.583
386.48	25.928
386.83	25.080
387.19	25.541
387.55	25.046
387.91	24.788
388.27	25.015
388.62	25.138
388.98	23.956
389.34	24.280
389.70	25.138
390.06	24.842
390.42	24.773
390.77	25.064
391.13	26.037
391.49	24.239
391.85	24.507
392.20	23.596
392.56	24.495
392.92	24.426
393.28	23.550
393.64	24.760
393.99	24.679
394.35	24.566
394.71	24.969
395.07	24.984
395.42	25.340
395.78	25.254
396.14	24.395
396.50	25.063
396.85	24.603
397.21	24.291
397.57	24.055
397.92	23.858
398.28	23.543
398.64	24.074
399.00	24.398
399.35	23.519
399.71	24.595
400.07	24.423
400.42	24.417
400.78	24.849
401.14	23.720
401.49	24.776
401.85	23.654
402.21	23.533
402.57	23.072
402.92	23.581
403.28	23.985
403.63	24.381
403.99	23.949
404.35	23.030
404.70	23.381
405.06	23.180
405.42	23.706
405.77	23.314
406.13	23.476
406.49	23.241
406.84	24.158
407.20	23.168
407.55	23.293
407.91	24.733
408.27	23.357
408.62	23.781
408.98	23.591
409.34	24.231
409.69	23.806
410.05	23.544
410.40	22.875
410.76	23.417
411.11	22.859
411.47	22.875
411.83	23.335
412.18	23.810
412.54	23.724
412.89	23.313
413.25	23.200
413.60	23.286
413.96	22.769
414.31	22.600
414.67	22.940
415.03	23.113
415.38	23.389
415.74	23.151
416.09	24.298
416.45	23.226
416.80	23.662
417.16	24.397
417.51	23.424
417.87	22.543
418.22	23.533
418.58	23.757
418.93	23.894
419.29	23.361
419.64	23.866
420.00	23.902
420.35	23.130
420.71	23.491
421.06	22.792
421.42	23.509
421.77	23.206
422.12	22.628
422.48	22.720
422.83	23.238
423.19	23.867
423.54	22.809
423.90	22.899
424.25	23.506
424.61	23.274
424.96	23.790
425.31	22.979
425.67	22.022
426.02	22.457
426.38	23.626
426.73	22.235
427.09	22.614
427.44	22.427
427.79	22.772
428.15	23.393
428.50	22.586
428.85	22.586
429.21	22.087
429.56	22.447
429.92	22.043
430.27	21.748
430.62	21.864
430.98	22.211
431.33	22.371
431.68	23.246
432.04	22.684
432.39	23.472
432.74	22.980
433.10	22.864
433.45	22.099
433.80	22.450
434.16	23.024
434.51	21.421
434.86	22.463
435.22	22.290
435.57	22.675
435.92	22.294
436.28	22.598
436.63	22.958
436.98	21.637
437.34	22.838
437.69	22.404
438.04	22.316
438.39	23.224
438.75	22.545
439.10	22.514
439.45	22.668
439.81	23.021
440.16	22.530
440.51	23.316
440.86	22.988
441.22	22.581
441.57	22.399
441.92	22.671
442.27	22.605
442.63	22.012
442.98	22.423
443.33	22.826
443.68	22.354
444.03	21.669
444.39	22.103
444.74	22.727
445.09	23.073
445.44	22.198
445.79	21.771
446.15	22.446
446.50	22.186
446.85	23.022
447.20	21.877
447.55	22.948
447.91	22.449
448.26	21.925
448.61	21.707
448.96	23.367
449.31	23.116
449.66	22.679
450.02	21.671
450.37	22.166
450.72	22.448
451.07	21.877
451.42	22.249
451.77	22.725
452.12	22.055
452.47	22.201
452.83	22.669
453.18	22.372
453.53	22.511
453.88	22.327
454.23	22.594
454.58	22.471
454.93	23.077
455.28	22.880
455.63	23.422
455.98	23.869
456.34	21.922
456.69	23.482
457.04	22.229
457.39	22.385
457.74	22.345
458.09	22.369
458.44	22.178
458.79	21.150
459.14	22.291
459.49	22.475
459.84	22.271
460.19	22.687
460.54	21.470
460.89	22.106
461.24	22.465
461.59	22.196
461.94	21.763
462.29	22.255
462.64	22.336
462.99	22.576
463.34	22.933
463.69	22.326
464.04	23.130
464.39	21.971
464.74	21.687
465.09	22.497
465.44	21.773
465.79	21.812
466.14	21.182
466.49	21.580
466.84	22.300
467.19	21.605
467.54	22.875
467.89	22.749
468.24	22.280
468.59	22.100
468.94	21.381
469.29	22.172
469.64	23.494
469.99	23.004
470.34	21.995
470.68	23.204
471.03	21.633
471.38	23.072
471.73	22.652
472.08	23.158
472.43	21.231
472.78	22.449
473.13	22.721
473.48	22.285
473.83	22.134
474.17	21.157
474.52	23.139
474.87	22.534
475.22	21.184
475.57	21.762
475.92	20.818
476.27	21.984
476.61	21.291
476.96	21.660
477.31	21.141
477.66	21.116
478.01	20.335
478.36	21.100
478.70	20.457
479.05	20.714
479.40	20.931
479.75	21.047
480.10	20.179
480.45	19.943
480.79	20.354
481.14	20.450
481.49	20.456
481.84	20.850
482.19	19.855
482.53	20.046
482.88	20.428
483.23	20.280
483.58	20.746
483.92	20.103
484.27	18.911
484.62	20.000
484.97	19.472
485.31	19.521
485.66	18.215
486.01	17.262
486.36	17.129
486.70	16.856
487.05	17.479
487.40	18.335
487.75	18.319
488.09	18.835
488.44	18.946
488.79	19.349
489.13	19.786
489.48	19.861
489.83	19.422
490.17	20.167
490.52	19.663
490.87	19.674
491.22	19.873
491.56	19.408
491.91	19.497
492.26	18.925
492.60	19.724
492.95	19.738
493.30	19.486
493.64	19.879
493.99	19.406
494.34	19.426
494.68	19.780
495.03	20.019
495.37	19.730
495.72	19.883
496.07	19.814
496.41	18.186
496.76	19.921
497.11	19.721
497.45	19.795
497.80	19.530
498.14	19.324
498.49	19.268
498.84	19.415
499.18	19.000
499.53	19.658
499.87	19.758
500.22	19.642
500.56	20.097
500.91	19.087
501.26	18.872
501.60	19.317
501.95	19.157
502.29	19.119
502.64	19.367
502.98	19.495
503.33	18.967
503.67	19.443
504.02	19.270
504.36	19.139
504.71	19.003
505.06	19.518
505.40	19.008
505.75	18.756
506.09	18.999
506.44	19.240
506.78	19.435
507.13	19.687
507.47	19.848
507.82	19.301
508.16	19.149
508.51	19.077
508.85	18.818
509.19	19.133
509.54	18.980
509.88	18.032
510.23	19.434
510.57	20.072
510.92	19.575
511.26	18.448
511.61	19.554
511.95	18.111
512.30	18.717
512.64	18.915
512.98	18.810
513.33	20.128
513.67	18.570
514.02	18.831
514.36	19.443
514.70	19.480
515.05	19.353
515.39	19.686
515.74	19.257
516.08	19.620
516.42	19.478
516.77	19.732
517.11	18.479
517.46	19.865
517.80	19.744
518.14	18.819
518.49	19.428
518.83	19.489
519.17	18.995
519.52	18.732
519.86	20.023
520.20	20.000
520.55	19.689
520.89	19.891
521.23	20.205
521.58	19.568
521.92	19.657
522.26	18.914
522.61	19.315
522.95	19.276
523.29	19.416
523.64	19.573
523.98	19.655
524.32	18.697
524.66	19.182
525.01	19.669
525.35	19.207
525.69	19.089
526.04	19.128
526.38	19.402
526.72	18.712
527.06	19.774
527.41	19.121
527.75	19.871
528.09	19.268
528.43	19.822
528.78	19.730
529.12	18.848
529.46	18.739
529.80	18.688
530.15	19.751
530.49	18.892
530.83	19.241
531.17	20.104
531.51	19.780
531.86	19.097
532.20	20.339
532.54	19.539
532.88	19.705
533.22	18.613
533.57	18.704
533.91	19.807
534.25	18.773
534.59	19.097
534.93	18.798
535.27	18.346
535.62	18.254
535.96	19.021
536.30	18.436
536.64	19.124
536.98	19.310
537.32	19.289
537.66	19.267
538.01	19.355
538.35	18.875
538.69	20.102
539.03	19.038
539.37	18.275
539.71	17.628
540.05	18.170
540.39	18.140
540.73	17.853
541.07	19.338
541.42	18.461
541.76	19.548
542.10	18.693
542.44	18.477
542.78	19.499
543.12	17.850
543.46	18.492
543.80	18.738
544.14	17.330
544.48	18.413
544.82	17.704
545.16	18.998
545.50	17.802
545.84	18.481
546.18	17.508
546.52	18.858
546.86	18.763
547.20	18.881
547.54	18.771
547.88	18.622
548.22	18.120
548.56	18.239
548.90	18.566
549.24	17.710
549.58	19.100
549.92	18.338
550.26	18.182
550.60	19.018
550.94	18.803
551.28	17.484
551.62	18.476
551.96	18.035
552.30	19.113
552.64	18.120
552.98	18.102
553.32	19.150
553.66	18.269
554.00	18.257
554.34	17.115
554.68	18.240
555.02	17.772
555.36	17.537
555.69	17.862
556.03	17.833
556.37	17.462
556.71	17.462
557.05	17.717
557.39	17.495
557.73	18.631
558.07	18.927
558.41	18.017
558.75	18.516
559.08	19.090
559.42	18.519
559.76	17.941
560.10	17.273
560.44	17.121
560.78	17.365
561.12	17.942
561.45	18.905
561.79	17.732
562.13	17.907
562.47	18.238
562.81	17.503
563.15	17.926
563.48	17.308
563.82	16.373
564.16	17.005
564.50	17.057
564.84	18.078
565.17	16.795
565.51	17.572
565.85	17.576
566.19	16.155
566.52	17.163
566.86	16.094
567.20	16.686
567.54	16.895
567.88	16.567
568.21	17.407
568.55	16.127
568.89	15.467
569.23	15.285
569.56	15.223
569.90	14.566
570.24	14.532
570.57	14.757
570.91	14.189
571.25	13.743
571.59	13.726
571.92	14.026
572.26	13.980
572.60	14.414
572.93	14.093
573.27	14.345
573.61	14.238
573.95	13.385
574.28	13.543
574.62	13.970
574.96	13.548
575.29	13.628
575.63	13.618
575.97	13.564
576.30	14.259
576.64	13.217
576.98	13.345
577.31	13.124
577.65	13.008
577.98	12.907
578.32	12.808
578.66	13.061
578.99	13.102
579.33	13.241
579.67	13.111
580.00	13.354
580.34	13.289
580.67	13.259
581.01	13.380
581.35	13.132
581.68	12.739
582.02	12.594
582.35	12.875
582.69	12.905
583.02	13.099
583.36	13.304
583.70	13.412
584.03	13.924
584.37	13.834
584.70	13.088
585.04	13.478
585.37	13.304
585.71	13.346
586.04	13.457
586.38	13.480
586.72	13.919
587.05	13.692
587.39	12.797
587.72	13.244
588.06	13.074
588.39	13.306
588.73	13.728
589.06	13.836
589.40	14.175
589.73	14.608
590.07	14.128
590.40	14.213
590.73	14.442
591.07	14.408
591.40	15.268
591.74	15.411
592.07	15.227
592.41	14.675
592.74	14.270
593.08	13.857
593.41	13.856
593.75	12.711
594.08	13.443
594.41	13.856
594.75	13.900
595.08	13.708
595.42	14.186
595.75	13.960
596.09	14.420
596.42	14.381
596.75	14.648
597.09	14.892
597.42	14.334
597.75	14.187
598.09	14.565
598.42	14.433
598.76	14.390
599.09	13.759
599.42	13.937
599.76	14.092
600.09	12.787
600.42	13.769
600.76	13.250
601.09	13.151
601.42	13.584
601.76	13.814
602.09	13.874
602.42	14.530
602.76	14.389
603.09	14.398
603.42	13.862
603.76	13.834
604.09	13.959
604.42	14.472
604.76	14.846
605.09	14.504
605.42	13.767
605.75	14.031
606.09	13.827
606.42	13.690
606.75	14.226
607.09	13.939
607.42	14.292
607.75	13.502
608.08	13.634
608.42	14.074
608.75	14.157
609.08	14.339
609.41	14.755
609.75	14.721
610.08	14.703
610.41	13.734
610.74	14.144
611.07	14.921
611.41	14.475
611.74	14.832
612.07	15.010
612.40	15.058
612.73	14.211
613.07	14.817
613.40	15.061
613.73	14.316
614.06	14.946
614.39	14.473
614.72	14.895
615.06	14.548
615.39	13.907
615.72	14.775
616.05	14.407
616.38	15.286
616.71	15.083
617.05	15.548
617.38	14.612
617.71	14.535
618.04	15.986
618.37	15.198
618.70	15.930
619.03	16.053
619.36	16.022
619.69	15.845
620.03	15.797
620.36	16.845
620.69	16.301
621.02	16.814
621.35	16.601
621.68	16.199
622.01	16.254
622.34	16.868
622.67	16.502
623.00	15.627
623.33	15.726
623.66	16.154
623.99	16.348
624.32	15.549
624.65	15.819
624.99	15.156
625.32	15.713
625.65	15.327
625.98	16.449
626.31	16.796
626.64	16.898
626.97	16.043
627.30	15.046
627.63	17.555
627.96	17.914
628.29	17.148
628.62	18.024
628.95	18.396
629.28	16.515
629.61	19.523
629.94	17.238
630.26	17.636
630.59	17.731
630.92	17.529
