SpectraSuite Data File
++++++++++++++++++++++++++++++++++++
Date: Wed May 13 19:23:16 PDT 2015
User: schluterlab
Dark Spectrum Present: Yes
Reference Spectrum Present: Yes
Number of Sampled Component Spectra: 1
Spectrometers: USB2E3373
Integration Time (usec): 3000 (USB2E3373)
Spectra Averaged: 3 (USB2E3373)
Boxcar Smoothing: 0 (USB2E3373)
Correct for Electrical Dark: No (USB2E3373)
Strobe/Lamp Enabled: No (USB2E3373)
Correct for Detector Non-linearity: No (USB2E3373)
Correct for Stray Light: No (USB2E3373)
Number of Pixels in Processed Spectrum: 2048
>>>>>Begin Processed Spectral Data<<<<<
178.53	0.000
178.91	-1350.000
179.29	-1300.000
179.67	-238.889
180.04	-1300.000
180.42	3200.000
180.80	1100.000
181.18	-1150.000
181.56	728.571
181.94	0.000
182.31	-771.429
182.69	1766.667
183.07	-650.000
183.45	-644.444
183.83	545.455
184.20	-400.000
184.58	2200.000
184.96	6200.000
185.34	-1120.000
185.72	-600.000
186.09	-2600.000
186.47	3250.000
186.85	2950.000
187.23	6400.000
187.61	-1866.667
187.98	1350.000
188.36	618.182
188.74	590.909
189.12	-1020.000
189.49	540.000
189.87	-4200.000
190.25	-1550.000
190.63	500.000
191.00	446.154
191.38	933.333
191.76	-1400.000
192.14	1300.000
192.51	787.500
192.89	1100.000
193.27	600.000
193.65	-1375.000
194.02	590.000
194.40	1140.000
194.78	630.000
195.15	516.667
195.53	600.000
195.91	-2350.000
196.29	425.000
196.66	331.579
197.04	-370.000
197.42	0.000
197.79	770.000
198.17	-5000.000
198.55	685.714
198.92	737.500
199.30	920.000
199.68	0.000
200.05	366.667
200.43	828.571
200.81	4200.000
201.18	2066.667
201.56	-1733.333
201.94	555.556
202.31	777.778
202.69	525.000
203.07	550.000
203.44	0.000
203.82	1075.000
204.19	800.000
204.57	500.000
204.95	737.500
205.32	1933.333
205.70	609.091
206.08	407.143
206.45	3000.000
206.83	412.500
207.20	1033.333
207.58	920.000
207.96	394.444
208.33	737.500
208.71	-966.667
209.08	957.143
209.46	666.667
209.84	509.091
210.21	-1833.333
210.59	1500.000
210.96	-650.000
211.34	2700.000
211.71	640.000
212.09	750.000
212.46	0.000
212.84	2200.000
213.22	1375.000
213.59	-5400.000
213.97	716.667
214.34	842.857
214.72	581.818
215.09	1140.000
215.47	-2450.000
215.84	-2600.000
216.22	1866.667
216.59	435.714
216.97	1550.000
217.34	572.727
217.72	-900.000
218.09	0.000
218.47	-5500.000
218.84	600.000
219.22	785.714
219.59	2033.333
219.97	-685.714
220.34	1040.000
220.72	-2066.667
221.09	478.571
221.47	1425.000
221.84	-866.667
222.22	0.000
222.59	1475.000
222.97	-2900.000
223.34	1180.000
223.72	384.615
224.09	1140.000
224.46	2350.000
224.84	-5600.000
225.21	-980.000
225.59	-5400.000
225.96	570.000
226.34	315.000
226.71	3000.000
227.08	725.000
227.46	650.000
227.83	-1175.000
228.21	-2700.000
228.58	655.556
228.95	-2550.000
229.33	-2500.000
229.70	1866.667
230.08	885.714
230.45	-960.000
230.82	533.333
231.20	966.667
231.57	771.429
231.95	491.667
232.32	295.455
232.69	363.636
233.07	742.857
233.44	361.538
233.81	-1966.667
234.19	257.895
234.56	466.667
234.93	400.000
235.31	563.636
235.68	315.385
236.05	414.286
236.43	187.879
236.80	289.474
237.17	5700.000
237.55	295.238
237.92	210.714
238.29	280.952
238.67	200.000
239.04	182.759
239.41	158.333
239.79	132.609
240.16	171.429
240.53	136.364
240.91	113.725
241.28	136.000
241.65	130.000
242.02	100.000
242.40	100.000
242.77	111.667
243.14	76.344
243.51	96.629
243.89	85.882
244.26	92.222
244.63	66.667
245.00	63.830
245.38	77.228
245.75	73.832
246.12	75.229
246.49	62.774
246.87	74.400
247.24	70.769
247.61	61.429
247.98	51.634
248.36	52.027
248.73	55.414
249.10	62.420
249.47	60.452
249.84	57.219
250.22	48.663
250.59	53.254
250.96	55.051
251.33	50.711
251.70	50.990
252.08	47.143
252.45	50.673
252.82	44.348
253.19	49.787
253.56	44.706
253.94	47.718
254.31	44.922
254.68	46.923
255.05	47.232
255.42	47.154
255.79	40.074
256.16	41.516
256.54	39.576
256.91	47.331
257.28	38.489
257.65	40.924
258.02	44.099
258.39	38.801
258.76	38.127
259.14	41.964
259.51	35.258
259.88	36.957
260.25	40.785
260.62	41.040
260.99	36.957
261.36	38.138
261.73	36.103
262.10	34.884
262.47	37.746
262.85	35.933
263.22	36.182
263.59	38.177
263.96	33.791
264.33	32.637
264.70	35.526
265.07	35.550
265.44	33.838
265.81	33.820
266.18	35.930
266.55	35.610
266.92	33.170
267.29	34.259
267.66	34.633
268.03	34.091
268.40	33.645
268.77	32.458
269.14	32.432
269.51	32.280
269.88	35.198
270.25	32.280
270.62	32.809
270.99	36.344
271.36	33.476
271.73	31.308
272.10	32.174
272.47	32.473
272.84	31.385
273.21	34.382
273.58	27.948
273.95	30.818
274.32	30.372
274.69	32.334
275.06	30.315
275.43	33.617
275.80	31.864
276.17	31.976
276.54	31.809
276.91	30.040
277.28	30.664
277.65	31.335
278.02	29.814
278.39	32.617
278.76	29.273
279.13	31.321
279.50	31.471
279.87	31.673
280.23	32.535
280.60	29.787
280.97	30.869
281.34	29.204
281.71	31.818
282.08	31.478
282.45	29.273
282.82	29.840
283.19	28.520
283.56	30.175
283.92	29.949
284.29	29.982
284.66	29.946
285.03	28.210
285.40	26.937
285.77	30.471
286.14	27.979
286.51	29.167
286.87	27.521
287.24	30.293
287.61	27.448
287.98	26.786
288.35	27.258
288.72	26.168
289.08	27.543
289.45	26.853
289.82	28.130
290.19	26.374
290.56	26.646
290.93	24.018
291.29	24.540
291.66	24.484
292.03	28.488
292.40	27.313
292.77	25.000
293.13	25.522
293.50	25.948
293.87	24.148
294.24	24.148
294.60	23.872
294.97	24.709
295.34	25.388
295.71	24.148
296.08	22.650
296.44	24.209
296.81	22.193
297.18	23.984
297.55	19.921
297.91	22.032
298.28	24.632
298.65	24.151
299.02	23.979
299.38	21.647
299.75	21.429
300.12	22.095
300.48	20.750
300.85	21.578
301.22	21.401
301.59	22.096
301.95	23.174
302.32	21.438
302.69	22.222
303.05	20.970
303.42	19.877
303.79	21.744
304.15	20.163
304.52	20.510
304.89	19.164
305.25	20.766
305.62	20.385
305.99	22.432
306.35	20.917
306.72	20.852
307.09	20.533
307.45	22.185
307.82	18.973
308.19	20.088
308.55	19.741
308.92	20.408
309.29	17.951
309.65	20.361
310.02	19.027
310.38	20.000
310.75	19.007
311.12	20.368
311.48	19.854
311.85	20.755
312.22	20.708
312.58	19.439
312.95	18.902
313.31	18.350
313.68	19.647
314.05	20.710
314.41	20.000
314.78	20.242
315.14	20.258
315.51	19.876
315.87	20.594
316.24	19.364
316.61	18.908
316.97	19.765
317.34	18.493
317.70	20.268
318.07	20.500
318.43	20.059
318.80	19.963
319.16	19.021
319.53	20.169
319.89	20.571
320.26	21.100
320.62	19.841
320.99	21.111
321.35	19.394
321.72	22.074
322.08	21.520
322.45	22.090
322.81	22.771
323.18	22.062
323.54	22.820
323.91	22.453
324.27	22.180
324.64	21.622
325.00	21.010
325.37	22.748
325.73	22.711
326.10	22.330
326.46	21.057
326.83	22.174
327.19	21.776
327.56	22.125
327.92	22.485
328.29	22.981
328.65	22.744
329.01	22.653
329.38	22.664
329.74	22.715
330.11	21.960
330.47	22.957
330.84	23.529
331.20	21.767
331.56	22.294
331.93	22.315
332.29	23.159
332.66	23.274
333.02	22.486
333.38	24.481
333.75	24.064
334.11	22.687
334.48	22.893
334.84	21.783
335.20	23.455
335.57	22.665
335.93	21.250
336.29	22.527
336.66	23.084
337.02	20.814
337.38	23.704
337.75	22.727
338.11	21.934
338.47	22.836
338.84	23.648
339.20	20.092
339.56	23.540
339.93	22.818
340.29	22.373
340.65	22.549
341.02	22.600
341.38	23.843
341.74	21.667
342.11	23.144
342.47	21.498
342.83	22.089
343.20	23.723
343.56	22.662
343.92	21.930
344.28	22.874
344.65	23.216
345.01	21.296
345.37	21.612
345.73	21.743
346.10	21.995
346.46	21.780
346.82	22.076
347.19	21.053
347.55	20.279
347.91	21.602
348.27	22.432
348.63	21.572
349.00	22.573
349.36	21.264
349.72	20.609
350.08	20.259
350.45	22.457
350.81	21.771
351.17	22.853
351.53	21.704
351.89	20.957
352.26	22.178
352.62	21.732
352.98	21.637
353.34	22.350
353.70	19.722
354.07	22.016
354.43	21.746
354.79	20.676
355.15	20.351
355.51	21.823
355.87	21.633
356.24	21.498
356.60	21.973
356.96	21.802
357.32	20.196
357.68	21.890
358.04	21.615
358.40	21.774
358.77	21.518
359.13	20.837
359.49	21.412
359.85	19.365
360.21	20.813
360.57	20.934
360.93	22.231
361.29	20.484
361.66	21.440
362.02	21.716
362.38	21.901
362.74	21.801
363.10	21.021
363.46	21.570
363.82	21.466
364.18	20.925
364.54	21.842
364.90	20.680
365.26	20.809
365.62	21.402
365.98	21.256
366.35	20.201
366.71	21.547
367.07	19.811
367.43	21.553
367.79	20.842
368.15	22.342
368.51	19.767
368.87	20.914
369.23	21.287
369.59	20.420
369.95	20.735
370.31	20.726
370.67	21.304
371.03	21.873
371.39	20.554
371.75	21.544
372.11	21.408
372.47	21.848
372.83	21.974
373.19	22.110
373.55	21.877
373.91	22.459
374.27	21.649
374.63	21.455
374.99	21.328
375.35	21.214
375.71	21.179
376.07	22.497
376.42	21.045
376.78	22.200
377.14	21.777
377.50	21.523
377.86	21.210
378.22	21.492
378.58	20.802
378.94	21.245
379.30	21.438
379.66	21.891
380.02	21.990
380.38	21.615
380.74	21.128
381.09	22.127
381.45	21.758
381.81	22.850
382.17	22.420
382.53	22.138
382.89	22.284
383.25	21.326
383.61	23.172
383.97	21.576
384.32	22.396
384.68	22.243
385.04	22.495
385.40	21.981
385.76	22.236
386.12	22.927
386.48	22.530
386.83	23.092
387.19	23.871
387.55	23.191
387.91	22.733
388.27	22.134
388.62	23.356
388.98	22.482
389.34	23.091
389.70	22.256
390.06	24.018
390.42	23.995
390.77	23.282
391.13	23.803
391.49	23.731
391.85	23.361
392.20	22.650
392.56	23.548
392.92	23.543
393.28	23.136
393.64	24.221
393.99	24.191
394.35	23.263
394.71	23.087
395.07	23.053
395.42	23.733
395.78	23.982
396.14	23.340
396.50	25.063
396.85	24.666
397.21	24.538
397.57	24.923
397.92	25.300
398.28	23.767
398.64	24.492
399.00	24.622
399.35	24.083
399.71	24.132
400.07	24.837
400.42	25.337
400.78	24.668
401.14	24.207
401.49	25.493
401.85	24.985
402.21	25.030
402.57	24.923
402.92	25.599
403.28	25.671
403.63	26.052
403.99	25.414
404.35	25.576
404.70	25.899
405.06	26.325
405.42	26.326
405.77	25.086
406.13	25.903
406.49	27.025
406.84	26.698
407.20	26.596
407.55	26.994
407.91	27.200
408.27	26.994
408.62	27.213
408.98	27.206
409.34	27.737
409.69	28.516
410.05	28.315
410.40	27.645
410.76	27.360
411.11	28.528
411.47	27.284
411.83	28.406
412.18	27.829
412.54	28.082
412.89	28.494
413.25	28.217
413.60	29.277
413.96	27.565
414.31	28.190
414.67	29.341
415.03	28.808
415.38	28.995
415.74	29.646
416.09	30.568
416.45	29.585
416.80	29.941
417.16	30.697
417.51	30.591
417.87	30.122
418.22	30.599
418.58	30.665
418.93	30.651
419.29	31.190
419.64	30.542
420.00	31.037
420.35	31.130
420.71	30.663
421.06	31.026
421.42	30.936
421.77	31.166
422.12	31.106
422.48	29.628
422.83	31.450
423.19	30.994
423.54	30.992
423.90	32.116
424.25	31.212
424.61	30.298
424.96	32.070
425.31	31.340
425.67	31.573
426.02	32.743
426.38	33.394
426.73	31.188
427.09	32.401
427.44	31.512
427.79	32.490
428.15	32.500
428.50	31.773
428.85	33.790
429.21	31.916
429.56	30.845
429.92	32.310
430.27	31.778
430.62	31.439
430.98	32.849
431.33	32.629
431.68	32.775
432.04	32.907
432.39	33.238
432.74	33.393
433.10	34.352
433.45	34.344
433.80	32.262
434.16	33.120
434.51	33.158
434.86	33.409
435.22	33.797
435.57	33.982
435.92	33.645
436.28	33.926
436.63	34.547
436.98	34.230
437.34	33.631
437.69	34.364
438.04	34.008
438.39	33.970
438.75	34.224
439.10	35.307
439.45	36.364
439.81	34.199
440.16	33.936
440.51	34.856
440.86	35.727
441.22	34.872
441.57	33.864
441.92	34.954
442.27	35.737
442.63	35.018
442.98	35.324
443.33	34.130
443.68	35.106
444.03	34.797
444.39	34.031
444.74	34.740
445.09	34.933
445.44	35.046
445.79	34.092
446.15	35.151
446.50	35.110
446.85	34.635
447.20	35.033
447.55	35.232
447.91	35.576
448.26	35.726
448.61	35.726
448.96	35.604
449.31	35.714
449.66	35.622
450.02	35.432
450.37	36.508
450.72	35.533
451.07	35.710
451.42	35.137
451.77	35.937
452.12	35.450
452.47	36.194
452.83	36.014
453.18	36.064
453.53	36.425
453.88	35.854
454.23	36.461
454.58	36.523
454.93	37.254
455.28	35.536
455.63	35.922
455.98	36.548
456.34	36.621
456.69	37.070
457.04	36.842
457.39	36.178
457.74	36.158
458.09	36.285
458.44	36.089
458.79	35.033
459.14	37.190
459.49	36.836
459.84	35.900
460.19	36.299
460.54	34.722
460.89	35.710
461.24	36.430
461.59	37.304
461.94	35.943
462.29	36.380
462.64	35.673
462.99	35.849
463.34	37.267
463.69	37.086
464.04	36.638
464.39	35.710
464.74	36.126
465.09	36.490
465.44	36.066
465.79	35.850
466.14	35.523
466.49	35.929
466.84	35.902
467.19	36.210
467.54	36.188
467.89	36.194
468.24	35.428
468.59	35.958
468.94	35.370
469.29	36.440
469.64	37.885
469.99	38.092
470.34	37.054
470.68	37.787
471.03	36.327
471.38	37.804
471.73	36.975
472.08	37.434
472.43	36.244
472.78	37.459
473.13	36.136
473.48	37.391
473.83	37.256
474.17	34.972
474.52	37.345
474.87	35.960
475.22	36.042
475.57	35.411
475.92	36.006
476.27	35.569
476.61	36.459
476.96	35.844
477.31	35.636
477.66	35.722
478.01	35.964
478.36	35.695
478.70	35.774
479.05	35.570
479.40	35.773
479.75	35.435
480.10	35.139
480.45	35.126
480.79	34.400
481.14	35.763
481.49	35.263
481.84	35.620
482.19	35.257
482.53	35.413
482.88	35.924
483.23	35.514
483.58	35.168
483.92	35.192
484.27	33.943
484.62	35.259
484.97	33.938
485.31	34.247
485.66	32.965
486.01	30.969
486.36	30.293
486.70	29.923
487.05	31.236
487.40	31.997
487.75	32.475
488.09	33.212
488.44	34.423
488.79	34.033
489.13	34.836
489.48	35.522
489.83	35.002
490.17	35.730
490.52	34.677
490.87	34.374
491.22	34.334
491.56	34.579
491.91	35.179
492.26	34.497
492.60	34.101
492.95	34.612
493.30	35.000
493.64	35.371
493.99	34.308
494.34	34.320
494.68	34.936
495.03	34.680
495.37	34.435
495.72	34.162
496.07	34.942
496.41	34.646
496.76	34.785
497.11	34.354
497.45	34.793
497.80	34.837
498.14	34.444
498.49	35.268
498.84	34.803
499.18	35.286
499.53	35.470
499.87	34.203
500.22	34.244
500.56	35.437
500.91	34.135
501.26	34.519
501.60	35.311
501.95	34.235
502.29	34.677
502.64	34.823
502.98	35.110
503.33	33.821
503.67	34.246
504.02	34.471
504.36	34.441
504.71	33.415
505.06	34.410
505.40	34.516
505.75	34.233
506.09	35.180
506.44	34.731
506.78	34.827
507.13	34.629
507.47	35.404
507.82	34.752
508.16	34.701
508.51	35.261
508.85	34.707
509.19	35.000
509.54	35.000
509.88	34.570
510.23	34.242
510.57	35.913
510.92	34.179
511.26	34.943
511.61	34.751
511.95	34.395
512.30	34.995
512.64	34.874
512.98	35.584
513.33	35.921
513.67	34.098
514.02	34.903
514.36	35.882
514.70	35.639
515.05	34.579
515.39	36.231
515.74	35.980
516.08	35.048
516.42	35.017
516.77	35.730
517.11	35.128
517.46	35.158
517.80	36.063
518.14	35.090
518.49	36.348
518.83	35.966
519.17	35.912
519.52	35.314
519.86	35.596
520.20	36.185
520.55	36.146
520.89	36.253
521.23	36.248
521.58	36.014
521.92	36.252
522.26	35.082
522.61	36.636
522.95	35.543
523.29	36.032
523.64	35.732
523.98	36.845
524.32	36.429
524.66	35.177
525.01	35.049
525.35	36.059
525.69	35.530
526.04	36.324
526.38	36.791
526.72	35.706
527.06	35.907
527.41	35.396
527.75	36.399
528.09	36.737
528.43	35.437
528.78	35.464
529.12	35.455
529.46	36.069
529.80	36.510
530.15	36.636
530.49	34.954
530.83	36.266
531.17	37.272
531.51	37.873
531.86	36.452
532.20	36.571
532.54	36.515
532.88	37.099
533.22	35.978
533.57	34.938
533.91	34.738
534.25	35.905
534.59	35.570
534.93	34.741
535.27	36.270
535.62	35.653
535.96	35.970
536.30	34.774
536.64	36.832
536.98	36.496
537.32	34.760
537.66	35.400
538.01	35.550
538.35	34.971
538.69	37.205
539.03	34.893
539.37	34.505
539.71	34.154
540.05	35.425
540.39	35.216
540.73	34.799
541.07	36.145
541.42	35.160
541.76	35.935
542.10	35.317
542.44	36.159
542.78	36.561
543.12	33.909
543.46	35.672
543.80	36.239
544.14	34.339
544.48	35.492
544.82	34.766
545.16	35.849
545.50	34.447
545.84	35.417
546.18	35.690
546.52	35.375
546.86	34.708
547.20	35.469
547.54	34.937
547.88	35.268
548.22	34.745
548.56	33.711
548.90	34.571
549.24	33.603
549.58	35.812
549.92	34.890
550.26	35.653
550.60	35.408
550.94	34.718
551.28	33.870
551.62	34.867
551.96	33.474
552.30	34.471
552.64	34.483
552.98	35.525
553.32	33.311
553.66	35.719
554.00	35.553
554.34	35.956
554.68	37.053
555.02	34.344
555.36	35.003
555.69	33.965
556.03	33.984
556.37	34.447
556.71	34.379
557.05	34.944
557.39	34.990
557.73	34.651
558.07	34.445
558.41	34.226
558.75	35.195
559.08	34.899
559.42	34.769
559.76	34.853
560.10	34.547
560.44	34.242
560.78	33.134
561.12	33.905
561.45	34.159
561.79	33.949
562.13	32.864
562.47	34.426
562.81	34.798
563.15	32.709
563.48	33.223
563.82	32.485
564.16	33.944
564.50	32.812
564.84	32.933
565.17	31.982
565.51	33.419
565.85	32.868
566.19	32.436
566.52	32.552
566.86	31.284
567.20	32.783
567.54	32.705
567.88	31.450
568.21	31.693
568.55	30.435
568.89	31.615
569.23	29.545
569.56	28.947
569.90	29.057
570.24	29.207
570.57	28.256
570.91	27.214
571.25	28.042
571.59	28.012
571.92	27.736
572.26	27.181
572.60	28.468
572.93	28.126
573.27	27.655
573.61	26.940
573.95	27.468
574.28	26.709
574.62	26.725
574.96	26.476
575.29	26.334
575.63	26.626
575.97	26.972
576.30	27.191
576.64	26.940
576.98	25.936
577.31	26.109
577.65	26.080
577.98	26.196
578.32	25.417
578.66	25.702
578.99	25.999
579.33	26.144
579.67	26.295
580.00	26.253
580.34	26.507
580.67	26.329
581.01	26.265
581.35	26.038
581.68	25.126
582.02	24.733
582.35	25.407
582.69	25.393
583.02	25.277
583.36	26.332
583.70	26.523
584.03	26.907
584.37	26.509
584.70	26.515
585.04	25.416
585.37	25.839
585.71	26.010
586.04	25.683
586.38	26.411
586.72	26.181
587.05	25.808
587.39	25.858
587.72	25.921
588.06	25.934
588.39	26.337
588.73	26.195
589.06	26.706
589.40	27.508
589.73	26.646
590.07	26.868
590.40	26.525
590.73	26.581
591.07	28.449
591.40	27.541
591.74	28.485
592.07	27.618
592.41	27.036
592.74	26.966
593.08	26.382
593.41	25.498
593.75	25.234
594.08	25.779
594.41	26.158
594.75	25.545
595.08	26.485
595.42	26.130
595.75	26.425
596.09	26.812
596.42	27.230
596.75	27.438
597.09	27.662
597.42	26.644
597.75	26.865
598.09	26.348
598.42	26.933
598.76	25.415
599.09	24.857
599.42	25.291
599.76	25.403
600.09	25.428
600.42	25.274
600.76	25.179
601.09	25.355
601.42	26.065
601.76	25.503
602.09	26.008
602.42	26.234
602.76	26.038
603.09	25.413
603.42	26.318
603.76	25.915
604.09	25.591
604.42	25.846
604.76	26.023
605.09	25.775
605.42	25.737
605.75	25.331
606.09	25.498
606.42	25.337
606.75	25.674
607.09	26.036
607.42	25.931
607.75	25.696
608.08	25.662
608.42	26.132
608.75	25.609
609.08	25.578
609.41	25.512
609.75	25.345
610.08	26.107
610.41	25.000
610.74	25.922
611.07	26.383
611.41	26.104
611.74	25.842
612.07	26.398
612.40	26.915
612.73	26.158
613.07	27.640
613.40	26.224
613.73	25.380
614.06	25.914
614.39	26.691
614.72	25.947
615.06	26.576
615.39	26.168
615.72	26.176
616.05	26.528
616.38	25.069
616.71	26.722
617.05	27.385
617.38	26.458
617.71	26.366
618.04	27.103
618.37	26.020
618.70	27.131
619.03	27.697
619.36	28.377
619.69	27.958
620.03	27.816
620.36	27.340
620.69	27.671
621.02	28.392
621.35	27.330
621.68	27.414
622.01	28.251
622.34	27.156
622.67	27.300
623.00	27.073
623.33	26.948
623.66	27.377
623.99	27.099
624.32	27.461
624.65	27.119
624.99	25.567
625.32	26.503
625.65	28.550
625.98	27.825
626.31	28.227
626.64	28.653
626.97	28.678
627.30	27.847
627.63	27.646
627.96	28.091
628.29	29.221
628.62	29.186
628.95	30.849
629.28	29.380
629.61	31.256
629.94	29.143
630.26	28.313
630.59	29.266
