SpectraSuite Data File
++++++++++++++++++++++++++++++++++++
Date: Tue May 12 19:38:21 PDT 2015
User: schluterlab
Dark Spectrum Present: Yes
Reference Spectrum Present: Yes
Number of Sampled Component Spectra: 1
Spectrometers: USB2E3373
Integration Time (usec): 3000 (USB2E3373)
Spectra Averaged: 3 (USB2E3373)
Boxcar Smoothing: 0 (USB2E3373)
Correct for Electrical Dark: No (USB2E3373)
Strobe/Lamp Enabled: No (USB2E3373)
Correct for Detector Non-linearity: No (USB2E3373)
Correct for Stray Light: No (USB2E3373)
Number of Pixels in Processed Spectrum: 2048
>>>>>Begin Processed Spectral Data<<<<<
178.53	0.000
178.91	-80.000
179.29	-83.333
179.67	100.000
180.04	0.000
180.42	100.000
180.80	-500.000
181.18	700.000
181.56	-250.000
181.94	216.667
182.31	1100.000
182.69	85.714
183.07	0.000
183.45	150.000
183.83	120.000
184.20	350.000
184.58	500.000
184.96	300.000
185.34	-200.000
185.72	-7.143
186.09	-133.333
186.47	-400.000
186.85	-140.000
187.23	58.333
187.61	-42.857
187.98	-100.000
188.36	400.000
188.74	-150.000
189.12	-77.778
189.49	-80.000
189.87	275.000
190.25	144.444
190.63	433.333
191.00	380.000
191.38	-366.667
191.76	100.000
192.14	42.857
192.51	-70.000
192.89	40.000
193.27	-180.000
193.65	233.333
194.02	-50.000
194.40	600.000
194.78	-50.000
195.15	-142.857
195.53	300.000
195.91	220.000
196.29	-475.000
196.66	133.333
197.04	-100.000
197.42	-100.000
197.79	-175.000
198.17	-8.333
198.55	300.000
198.92	-122.222
199.30	750.000
199.68	300.000
200.05	-350.000
200.43	-38.889
200.81	-25.000
201.18	150.000
201.56	-500.000
201.94	-1400.000
202.31	50.000
202.69	44.444
203.07	-25.000
203.44	-400.000
203.82	0.000
204.19	200.000
204.57	-400.000
204.95	136.364
205.32	140.000
205.70	175.000
206.08	-100.000
206.45	0.000
206.83	1500.000
207.20	-77.778
207.58	30.769
207.96	100.000
208.33	400.000
208.71	233.333
209.08	350.000
209.46	111.111
209.84	300.000
210.21	100.000
210.59	150.000
210.96	122.222
211.34	-275.000
211.71	300.000
212.09	180.000
212.46	-75.000
212.84	-125.000
213.22	114.286
213.59	0.000
213.97	0.000
214.34	-50.000
214.72	-400.000
215.09	300.000
215.47	-13.333
215.84	12.500
216.22	-1000.000
216.59	1500.000
216.97	66.667
217.34	-33.333
217.72	66.667
218.09	275.000
218.47	-36.842
218.84	-137.500
219.22	7.143
219.59	-160.000
219.97	-30.000
220.34	233.333
220.72	72.727
221.09	-400.000
221.47	0.000
221.84	-0.000
222.22	-175.000
222.59	-175.000
222.97	0.000
223.34	100.000
223.72	200.000
224.09	0.000
224.46	100.000
224.84	6.667
225.21	150.000
225.59	-375.000
225.96	30.000
226.34	133.333
226.71	210.000
227.08	-69.231
227.46	71.429
227.83	-25.000
228.21	-450.000
228.58	183.333
228.95	31.579
229.33	6.250
229.70	-166.667
230.08	-100.000
230.45	-266.667
230.82	-1200.000
231.20	28.571
231.57	140.000
231.95	-266.667
232.32	77.778
232.69	-250.000
233.07	87.500
233.44	-12.500
233.81	32.258
234.19	-240.000
234.56	-38.889
234.93	-233.333
235.31	3.704
235.68	33.333
236.05	26.923
236.43	-15.789
236.80	-13.636
237.17	-57.143
237.55	-85.000
237.92	55.814
238.29	12.903
238.67	17.857
239.04	31.429
239.41	23.529
239.79	18.000
240.16	22.500
240.53	18.966
240.91	39.726
241.28	15.493
241.65	23.437
242.02	35.088
242.40	29.333
242.77	27.368
243.14	27.059
243.51	23.656
243.89	17.143
244.26	34.259
244.63	29.592
245.00	17.857
245.38	13.445
245.75	31.356
246.12	35.156
246.49	26.400
246.87	29.508
247.24	22.535
247.61	29.801
247.98	31.461
248.36	28.302
248.73	30.682
249.10	27.222
249.47	31.250
249.84	27.411
250.22	26.562
250.59	26.404
250.96	28.636
251.33	33.962
251.70	30.734
252.08	37.662
252.45	29.796
252.82	28.270
253.19	31.128
253.56	30.980
253.94	31.301
254.31	35.252
254.68	30.903
255.05	29.470
255.42	35.636
255.79	33.775
256.16	33.333
256.54	33.030
256.91	30.769
257.28	33.442
257.65	28.197
258.02	32.132
258.39	30.514
258.76	32.110
259.14	29.412
259.51	31.268
259.88	33.718
260.25	28.409
260.62	29.213
260.99	30.641
261.36	28.448
261.73	31.200
262.10	32.698
262.47	32.231
262.85	32.391
263.22	33.065
263.59	32.172
263.96	32.637
264.33	30.458
264.70	34.398
265.07	29.310
265.44	31.850
265.81	33.735
266.18	33.724
266.55	33.333
266.92	32.589
267.29	32.000
267.66	31.364
268.03	32.043
268.40	33.410
268.77	28.731
269.14	30.882
269.51	30.769
269.88	32.051
270.25	31.224
270.62	34.454
270.99	29.895
271.36	29.360
271.73	33.750
272.10	31.950
272.47	28.600
272.84	31.635
273.21	29.436
273.58	30.408
273.95	29.283
274.32	32.302
274.69	31.703
275.06	31.895
275.43	31.800
275.80	30.975
276.17	28.854
276.54	35.361
276.91	32.438
277.28	31.528
277.65	30.057
278.02	32.008
278.39	32.123
278.76	32.588
279.13	31.664
279.50	33.755
279.87	29.811
280.23	31.330
280.60	28.799
280.97	33.040
281.34	31.695
281.71	28.952
282.08	29.517
282.45	32.451
282.82	30.640
283.19	29.966
283.56	31.058
283.92	32.070
284.29	33.164
284.66	29.204
285.03	28.816
285.40	31.167
285.77	31.199
286.14	30.428
286.51	31.350
286.87	26.580
287.24	32.051
287.61	31.019
287.98	32.864
288.35	30.388
288.72	29.969
289.08	30.346
289.45	29.017
289.82	27.174
290.19	28.636
290.56	29.233
290.93	27.917
291.29	29.078
291.66	26.124
292.03	27.977
292.40	28.058
292.77	27.114
293.13	27.166
293.50	26.997
293.87	26.907
294.24	28.230
294.60	26.776
294.97	26.039
295.34	26.575
295.71	24.827
296.08	23.907
296.44	26.746
296.81	24.062
297.18	25.356
297.55	25.126
297.91	26.396
298.28	24.552
298.65	24.968
299.02	25.031
299.38	23.342
299.75	24.710
300.12	26.859
300.48	25.117
300.85	24.572
301.22	24.760
301.59	23.479
301.95	25.244
302.32	23.815
302.69	22.473
303.05	24.439
303.42	24.275
303.79	22.697
304.15	23.443
304.52	25.140
304.89	22.886
305.25	23.394
305.62	21.705
305.99	21.725
306.35	22.931
306.72	25.163
307.09	22.742
307.45	23.517
307.82	23.586
308.19	24.752
308.55	24.684
308.92	23.623
309.29	23.536
309.65	23.323
310.02	24.109
310.38	24.094
310.75	23.258
311.12	22.889
311.48	23.535
311.85	23.404
312.22	24.277
312.58	25.176
312.95	25.667
313.31	26.155
313.68	24.032
314.05	26.117
314.41	25.737
314.78	25.327
315.14	26.738
315.51	26.018
315.87	27.246
316.24	27.498
316.61	26.019
316.97	28.039
317.34	28.995
317.70	26.891
318.07	29.026
318.43	28.733
318.80	29.690
319.16	31.314
319.53	31.038
319.89	31.439
320.26	33.235
320.62	34.109
320.99	33.367
321.35	34.486
321.72	35.960
322.08	36.832
322.45	38.264
322.81	39.606
323.18	40.077
323.54	40.948
323.91	40.702
324.27	42.623
324.64	43.299
325.00	44.313
325.37	47.032
325.73	45.347
326.10	48.599
326.46	50.136
326.83	51.539
327.19	53.712
327.56	56.233
327.92	54.948
328.29	57.527
328.65	60.640
329.01	59.266
329.38	60.514
329.74	60.260
330.11	60.578
330.47	62.384
330.84	61.936
331.20	64.325
331.56	65.755
331.93	64.044
332.29	67.530
332.66	65.732
333.02	66.760
333.38	68.290
333.75	67.521
334.11	68.807
334.48	68.426
334.84	68.732
335.20	65.712
335.57	70.663
335.93	70.884
336.29	69.835
336.66	71.403
337.02	69.628
337.38	72.736
337.75	71.455
338.11	73.108
338.47	73.630
338.84	70.994
339.20	70.761
339.56	72.787
339.93	71.802
340.29	72.076
340.65	73.425
341.02	71.302
341.38	73.875
341.74	72.776
342.11	72.237
342.47	70.892
342.83	72.333
343.20	72.679
343.56	74.476
343.92	72.616
344.28	72.985
344.65	73.801
345.01	72.997
345.37	72.137
345.73	74.074
346.10	74.417
346.46	74.374
346.82	74.851
347.19	74.432
347.55	75.255
347.91	73.055
348.27	74.726
348.63	74.935
349.00	75.209
349.36	74.031
349.72	72.989
350.08	73.241
350.45	73.474
350.81	74.319
351.17	72.735
351.53	71.739
351.89	75.907
352.26	74.959
352.62	75.552
352.98	75.900
353.34	74.436
353.70	74.486
354.07	76.277
354.43	74.541
354.79	75.164
355.15	74.576
355.51	76.365
355.87	76.520
356.24	75.000
356.60	76.878
356.96	73.618
357.32	75.802
357.68	75.736
358.04	76.256
358.40	77.005
358.77	76.145
359.13	77.671
359.49	76.080
359.85	77.138
360.21	76.130
360.57	76.794
360.93	76.643
361.29	77.336
361.66	76.814
362.02	78.571
362.38	77.078
362.74	78.248
363.10	78.130
363.46	77.878
363.82	78.637
364.18	78.123
364.54	77.786
364.90	77.852
365.26	78.987
365.62	81.378
365.98	79.460
366.35	80.560
366.71	80.358
367.07	78.081
367.43	77.617
367.79	78.997
368.15	80.949
368.51	79.625
368.87	80.470
369.23	80.848
369.59	80.074
369.95	78.689
370.31	80.985
370.67	80.000
371.03	82.276
371.39	81.269
371.75	79.866
372.11	78.741
372.47	79.733
372.83	78.817
373.19	79.895
373.55	80.015
373.91	82.348
374.27	82.340
374.63	79.602
374.99	80.015
375.35	80.697
375.71	81.636
376.07	79.717
376.42	80.014
376.78	79.930
377.14	80.028
377.50	81.943
377.86	81.407
378.22	82.497
378.58	82.895
378.94	82.842
379.30	80.631
379.66	80.538
380.02	82.645
380.38	82.952
380.74	81.417
381.09	82.338
381.45	81.143
381.81	80.676
382.17	81.824
382.53	82.906
382.89	79.987
383.25	80.977
383.61	81.437
383.97	82.456
384.32	81.355
384.68	81.865
385.04	80.777
385.40	81.214
385.76	81.467
386.12	80.990
386.48	80.170
386.83	80.382
387.19	81.481
387.55	81.218
387.91	79.688
388.27	82.214
388.62	81.606
388.98	81.489
389.34	80.612
389.70	81.859
390.06	81.716
390.42	81.880
390.77	82.696
391.13	80.937
391.49	82.008
391.85	79.707
392.20	81.122
392.56	80.157
392.92	82.622
393.28	79.593
393.64	81.951
393.99	81.169
394.35	80.597
394.71	81.060
395.07	80.106
395.42	79.492
395.78	81.855
396.14	80.813
396.50	80.272
396.85	80.106
397.21	79.107
397.57	80.118
397.92	80.153
398.28	79.976
398.64	77.968
399.00	78.584
399.35	79.074
399.71	80.060
400.07	78.629
400.42	79.808
400.78	79.974
401.14	77.778
401.49	78.264
401.85	79.429
402.21	78.617
402.57	78.493
402.92	78.420
403.28	78.999
403.63	77.051
403.99	78.798
404.35	77.516
404.70	77.454
405.06	77.619
405.42	78.009
405.77	77.051
406.13	75.568
406.49	77.350
406.84	76.837
407.20	77.200
407.55	76.687
407.91	76.573
408.27	76.596
408.62	76.785
408.98	76.705
409.34	76.376
409.69	75.184
410.05	76.101
410.40	75.337
410.76	75.716
411.11	75.695
411.47	75.646
411.83	75.338
412.18	75.458
412.54	75.291
412.89	75.583
413.25	74.734
413.60	75.191
413.96	76.246
414.31	75.590
414.67	76.300
415.03	76.279
415.38	76.532
415.74	74.077
416.09	76.568
416.45	76.433
416.80	75.869
417.16	76.869
417.51	74.740
417.87	76.607
418.22	75.201
418.58	77.816
418.93	75.693
419.29	76.323
419.64	77.473
420.00	76.621
420.35	77.652
420.71	76.569
421.06	78.196
421.42	76.286
421.77	78.989
422.12	76.373
422.48	77.384
422.83	76.292
423.19	75.294
423.54	77.214
423.90	76.885
424.25	77.221
424.61	77.484
424.96	78.010
425.31	78.623
425.67	78.909
426.02	79.006
426.38	77.477
426.73	76.449
427.09	78.267
427.44	77.840
427.79	79.765
428.15	77.552
428.50	78.392
428.85	77.293
429.21	79.976
429.56	77.514
429.92	77.393
430.27	77.653
430.62	78.313
430.98	76.518
431.33	78.921
431.68	79.158
432.04	78.366
432.39	77.659
432.74	77.989
433.10	80.049
433.45	78.847
433.80	78.274
434.16	78.193
434.51	78.205
434.86	78.248
435.22	80.559
435.57	81.135
435.92	77.895
436.28	77.771
436.63	79.487
436.98	81.111
437.34	81.254
437.69	80.741
438.04	79.748
438.39	80.418
438.75	79.877
439.10	80.536
439.45	82.157
439.81	80.889
440.16	81.447
440.51	78.501
440.86	81.124
441.22	79.095
441.57	80.228
441.92	82.993
442.27	82.343
442.63	80.982
442.98	82.824
443.33	79.495
443.68	81.531
444.03	79.845
444.39	82.197
444.74	80.996
445.09	82.468
445.44	80.816
445.79	83.657
446.15	83.732
446.50	82.128
446.85	82.343
447.20	82.221
447.55	81.326
447.91	82.069
448.26	83.086
448.61	81.813
448.96	81.963
449.31	82.942
449.66	82.748
450.02	82.130
450.37	83.961
450.72	81.807
451.07	82.861
451.42	83.729
451.77	81.463
452.12	81.328
452.47	80.623
452.83	84.620
453.18	84.335
453.53	83.148
453.88	83.153
454.23	83.323
454.58	83.551
454.93	83.583
455.28	83.707
455.63	83.756
455.98	83.439
456.34	82.853
456.69	83.886
457.04	83.202
457.39	84.270
457.74	83.439
458.09	83.199
458.44	83.507
458.79	83.039
459.14	82.111
459.49	82.166
459.84	82.937
460.19	81.739
460.54	81.439
460.89	81.765
461.24	82.532
461.59	82.461
461.94	81.986
462.29	82.206
462.64	83.426
462.99	85.569
463.34	84.322
463.69	83.196
464.04	83.130
464.39	83.537
464.74	82.479
465.09	82.958
465.44	81.164
465.79	81.949
466.14	82.637
466.49	83.046
466.84	80.651
467.19	81.546
467.54	81.366
467.89	81.581
468.24	83.081
468.59	81.806
468.94	84.465
469.29	83.322
469.64	83.953
469.99	83.129
470.34	82.885
470.68	84.462
471.03	82.701
471.38	83.919
471.73	83.794
472.08	84.484
472.43	84.786
472.78	84.554
473.13	82.807
473.48	84.647
473.83	83.223
474.17	81.921
474.52	82.786
474.87	82.323
475.22	83.100
475.57	82.726
475.92	81.922
476.27	82.399
476.61	84.279
476.96	82.454
477.31	83.676
477.66	83.091
478.01	83.520
478.36	82.808
478.70	83.324
479.05	84.446
479.40	82.919
479.75	85.137
480.10	82.251
480.45	83.298
480.79	83.446
481.14	84.133
481.49	83.445
481.84	84.141
482.19	81.805
482.53	82.157
482.88	85.562
483.23	84.271
483.58	81.881
483.92	82.663
484.27	82.623
484.62	83.970
484.97	82.337
485.31	80.626
485.66	81.538
486.01	78.613
486.36	78.225
486.70	79.000
487.05	79.541
487.40	78.749
487.75	78.614
488.09	78.164
488.44	80.552
488.79	81.346
489.13	81.380
489.48	81.625
489.83	81.553
490.17	82.091
490.52	83.556
490.87	83.976
491.22	82.544
491.56	81.275
491.91	83.082
492.26	83.988
492.60	83.418
492.95	83.060
493.30	84.945
493.64	83.874
493.99	84.702
494.34	83.832
494.68	81.715
495.03	82.150
495.37	82.818
495.72	84.177
496.07	83.215
496.41	82.510
496.76	81.710
497.11	82.078
497.45	84.179
497.80	82.970
498.14	83.316
498.49	85.104
498.84	81.918
499.18	84.120
499.53	83.074
499.87	83.666
500.22	83.532
500.56	84.720
500.91	83.325
501.26	83.517
501.60	81.855
501.95	83.982
502.29	83.427
502.64	81.583
502.98	82.635
503.33	81.228
503.67	83.206
504.02	83.299
504.36	81.715
504.71	82.979
505.06	83.985
505.40	84.397
505.75	82.412
506.09	83.911
506.44	84.657
506.78	84.208
507.13	82.302
507.47	85.263
507.82	84.375
508.16	85.245
508.51	83.862
508.85	83.791
509.19	83.818
509.54	83.683
509.88	84.810
510.23	85.843
510.57	85.065
510.92	85.884
511.26	84.319
511.61	83.619
511.95	85.541
512.30	85.217
512.64	84.516
512.98	84.347
513.33	83.177
513.67	85.329
514.02	85.156
514.36	84.757
514.70	84.821
515.05	85.488
515.39	87.829
515.74	86.529
516.08	86.692
516.42	86.700
516.77	84.969
517.11	86.483
517.46	86.196
517.80	88.449
518.14	87.097
518.49	88.163
518.83	86.965
519.17	87.918
519.52	87.445
519.86	86.954
520.20	85.605
520.55	88.642
520.89	90.486
521.23	87.442
521.58	86.310
521.92	86.048
522.26	87.698
522.61	87.850
522.95	88.425
523.29	88.529
523.64	86.431
523.98	89.315
524.32	88.215
524.66	89.735
525.01	87.560
525.35	88.509
525.69	86.992
526.04	89.993
526.38	90.062
526.72	88.750
527.06	89.873
527.41	87.668
527.75	88.514
528.09	88.826
528.43	87.810
528.78	89.588
529.12	88.356
529.46	87.641
529.80	87.338
530.15	89.298
530.49	88.563
530.83	90.094
531.17	87.571
531.51	88.437
531.86	88.165
532.20	87.879
532.54	88.705
532.88	89.745
533.22	88.649
533.57	86.966
533.91	88.369
534.25	87.644
534.59	89.546
534.93	86.367
535.27	87.071
535.62	85.955
535.96	89.393
536.30	85.734
536.64	87.268
536.98	88.274
537.32	88.839
537.66	87.170
538.01	87.850
538.35	87.855
538.69	85.280
539.03	88.176
539.37	88.370
539.71	89.710
540.05	88.278
540.39	88.381
540.73	88.352
541.07	88.162
541.42	86.671
541.76	87.770
542.10	86.872
542.44	87.139
542.78	86.804
543.12	85.848
543.46	88.003
543.80	85.061
544.14	87.742
544.48	85.754
544.82	86.799
545.16	86.884
545.50	87.991
545.84	87.418
546.18	89.064
546.52	88.701
546.86	87.223
547.20	87.121
547.54	86.429
547.88	84.829
548.22	86.357
548.56	85.130
548.90	85.895
549.24	86.184
549.58	86.289
549.92	86.692
550.26	87.568
550.60	87.867
550.94	88.810
551.28	87.967
551.62	89.926
551.96	87.460
552.30	88.062
552.64	87.453
552.98	86.330
553.32	85.000
553.66	88.695
554.00	87.568
554.34	89.063
554.68	87.480
555.02	87.222
555.36	87.053
555.69	83.935
556.03	84.775
556.37	85.521
556.71	84.163
557.05	87.422
557.39	88.755
557.73	85.770
558.07	86.385
558.41	87.550
558.75	90.539
559.08	89.106
559.42	87.960
559.76	86.689
560.10	87.694
560.44	86.065
560.78	83.772
561.12	85.500
561.45	85.938
561.79	85.609
562.13	84.729
562.47	87.309
562.81	85.898
563.15	85.171
563.48	83.521
563.82	86.463
564.16	83.817
564.50	84.241
564.84	86.251
565.17	84.478
565.51	86.066
565.85	84.085
566.19	85.108
566.52	84.946
566.86	83.811
567.20	83.433
567.54	83.089
567.88	82.646
568.21	81.946
568.55	81.890
568.89	83.626
569.23	79.367
569.56	79.448
569.90	80.685
570.24	78.211
570.57	79.270
570.91	77.802
571.25	77.583
571.59	77.115
571.92	75.442
572.26	75.594
572.60	75.337
572.93	75.999
573.27	75.406
573.61	74.497
573.95	74.484
574.28	74.841
574.62	72.535
574.96	73.638
575.29	73.516
575.63	72.992
575.97	73.390
576.30	74.002
576.64	72.988
576.98	73.780
577.31	73.355
577.65	73.424
577.98	72.573
578.32	72.452
578.66	72.613
578.99	73.800
579.33	72.258
579.67	73.083
580.00	72.092
580.34	72.293
580.67	72.457
581.01	73.001
581.35	71.724
581.68	72.037
582.02	71.894
582.35	72.373
582.69	72.391
583.02	72.292
583.36	72.408
583.70	72.673
584.03	72.732
584.37	73.280
584.70	72.539
585.04	71.898
585.37	72.962
585.71	71.803
586.04	72.760
586.38	73.413
586.72	73.123
587.05	72.523
587.39	73.241
587.72	73.326
588.06	72.946
588.39	72.948
588.73	73.079
589.06	73.509
589.40	73.495
589.73	73.037
590.07	73.751
590.40	73.586
590.73	75.927
591.07	74.589
591.40	75.468
591.74	75.326
592.07	75.692
592.41	76.195
592.74	76.055
593.08	73.779
593.41	73.329
593.75	73.003
594.08	74.008
594.41	73.474
594.75	73.375
595.08	73.471
595.42	73.113
595.75	73.409
596.09	74.780
596.42	75.560
596.75	74.000
597.09	74.021
597.42	74.754
597.75	73.874
598.09	74.017
598.42	74.917
598.76	74.454
599.09	73.277
599.42	71.125
599.76	73.205
600.09	73.586
600.42	71.484
600.76	71.709
601.09	72.000
601.42	72.101
601.76	71.753
602.09	72.895
602.42	73.035
602.76	72.949
603.09	73.673
603.42	74.063
603.76	74.234
604.09	73.099
604.42	72.435
604.76	72.798
605.09	73.689
605.42	74.313
605.75	72.133
606.09	73.733
606.42	72.135
606.75	72.425
607.09	74.207
607.42	72.327
607.75	73.049
608.08	72.825
608.42	72.114
608.75	73.337
609.08	71.530
609.41	73.199
609.75	72.933
610.08	72.920
610.41	72.417
610.74	73.812
611.07	75.198
611.41	72.805
611.74	73.449
612.07	73.772
612.40	72.423
612.73	73.900
613.07	74.457
613.40	73.606
613.73	72.623
614.06	73.946
614.39	73.345
614.72	73.200
615.06	74.397
615.39	72.633
615.72	70.325
616.05	72.290
616.38	72.301
616.71	72.264
617.05	73.116
617.38	72.387
617.71	74.004
618.04	74.967
618.37	73.120
618.70	73.370
619.03	75.707
619.36	75.994
619.69	74.417
620.03	76.583
620.36	76.115
620.69	75.610
621.02	75.297
621.35	75.830
621.68	78.488
622.01	77.094
622.34	73.786
622.67	75.970
623.00	76.577
623.33	73.386
623.66	75.777
623.99	75.120
624.32	74.662
624.65	72.500
624.99	73.594
625.32	74.408
625.65	74.139
625.98	77.583
626.31	74.199
626.64	77.568
626.97	77.574
627.30	78.796
627.63	76.837
627.96	76.350
628.29	77.247
628.62	78.351
628.95	79.831
629.28	78.202
629.61	78.161
629.94	78.734
630.26	76.464
630.59	77.592
630.92	75.975
631.25	79.553
631.58	80.233
631.91	78.132
632.24	78.698
632.57	79.667
632.90	81.427
633.23	82.065
