SpectraSuite Data File
++++++++++++++++++++++++++++++++++++
Date: Tue May 12 19:37:33 PDT 2015
User: schluterlab
Dark Spectrum Present: Yes
Reference Spectrum Present: Yes
Number of Sampled Component Spectra: 1
Spectrometers: USB2E3373
Integration Time (usec): 3000 (USB2E3373)
Spectra Averaged: 3 (USB2E3373)
Boxcar Smoothing: 0 (USB2E3373)
Correct for Electrical Dark: No (USB2E3373)
Strobe/Lamp Enabled: No (USB2E3373)
Correct for Detector Non-linearity: No (USB2E3373)
Correct for Stray Light: No (USB2E3373)
Number of Pixels in Processed Spectrum: 2048
>>>>>Begin Processed Spectral Data<<<<<
178.53	0.000
178.91	-10.000
179.29	-266.667
179.67	300.000
180.04	0.000
180.42	-240.000
180.80	-333.333
181.18	400.000
181.56	-50.000
181.94	16.667
182.31	800.000
182.69	-57.143
183.07	0.000
183.45	158.333
183.83	160.000
184.20	283.333
184.58	600.000
184.96	316.667
185.34	-166.667
185.72	-21.429
186.09	-116.667
186.47	-900.000
186.85	40.000
187.23	141.667
187.61	0.000
187.98	-140.000
188.36	500.000
188.74	125.000
189.12	-88.889
189.49	-30.000
189.87	400.000
190.25	77.778
190.63	466.667
191.00	140.000
191.38	-400.000
191.76	300.000
192.14	0.000
192.51	-40.000
192.89	-120.000
193.27	-160.000
193.65	-366.667
194.02	-33.333
194.40	200.000
194.78	-62.500
195.15	-128.571
195.53	600.000
195.91	240.000
196.29	-525.000
196.66	-200.000
197.04	-57.143
197.42	220.000
197.79	-137.500
198.17	-8.333
198.55	-200.000
198.92	11.111
199.30	650.000
199.68	-175.000
200.05	-600.000
200.43	-33.333
200.81	-100.000
201.18	250.000
201.56	-50.000
201.94	-600.000
202.31	-25.000
202.69	-11.111
203.07	-41.667
203.44	-375.000
203.82	0.000
204.19	112.500
204.57	-266.667
204.95	190.909
205.32	100.000
205.70	25.000
206.08	-300.000
206.45	-80.000
206.83	1900.000
207.20	-100.000
207.58	-15.385
207.96	200.000
208.33	700.000
208.71	500.000
209.08	450.000
209.46	-55.556
209.84	266.667
210.21	-233.333
210.59	-0.000
210.96	211.111
211.34	-75.000
211.71	1000.000
212.09	-20.000
212.46	-162.500
212.84	-100.000
213.22	57.143
213.59	62.500
213.97	0.000
214.34	-600.000
214.72	-1400.000
215.09	400.000
215.47	-6.667
215.84	-37.500
216.22	-1200.000
216.59	2000.000
216.97	-16.667
217.34	-150.000
217.72	100.000
218.09	250.000
218.47	-10.526
218.84	-62.500
219.22	-14.286
219.59	-40.000
219.97	-120.000
220.34	133.333
220.72	81.818
221.09	-450.000
221.47	0.000
221.84	1050.000
222.22	-275.000
222.59	-350.000
222.97	-17.391
223.34	93.333
223.72	342.857
224.09	-316.667
224.46	153.846
224.84	-6.667
225.21	-550.000
225.59	-175.000
225.96	45.000
226.34	200.000
226.71	160.000
227.08	23.077
227.46	-85.714
227.83	-50.000
228.21	-500.000
228.58	100.000
228.95	-42.105
229.33	6.250
229.70	116.667
230.08	-33.333
230.45	-300.000
230.82	-1300.000
231.20	14.286
231.57	-340.000
231.95	-800.000
232.32	200.000
232.69	-500.000
233.07	50.000
233.44	-62.500
233.81	12.903
234.19	-280.000
234.56	-22.222
234.93	-400.000
235.31	-14.815
235.68	11.111
236.05	-42.308
236.43	-68.421
236.80	-45.455
237.17	-100.000
237.55	-65.000
237.92	0.000
238.29	-38.710
238.67	-25.000
239.04	0.000
239.41	-5.882
239.79	-4.000
240.16	-20.000
240.53	0.000
240.91	-1.370
241.28	-9.859
241.65	-4.687
242.02	-3.509
242.40	-21.333
242.77	-9.474
243.14	1.176
243.51	-5.376
243.89	-14.286
244.26	-11.111
244.63	-3.061
245.00	-14.286
245.38	-13.445
245.75	-12.712
246.12	0.000
246.49	-10.400
246.87	-8.197
247.24	-14.085
247.61	-3.311
247.98	1.685
248.36	-5.660
248.73	-7.955
249.10	-2.222
249.47	0.521
249.84	-2.538
250.22	-7.292
250.59	-6.742
250.96	-1.364
251.33	2.830
251.70	-2.294
252.08	-2.165
252.45	-0.816
252.82	-7.173
253.19	-2.335
253.56	0.392
253.94	-1.220
254.31	4.317
254.68	-1.042
255.05	-0.993
255.42	-1.455
255.79	2.318
256.16	-1.736
256.54	0.909
256.91	0.962
257.28	-1.948
257.65	-3.934
258.02	-0.901
258.39	1.813
258.76	-2.141
259.14	-1.765
259.51	1.127
259.88	2.017
260.25	-4.261
260.62	-2.247
260.99	1.393
261.36	-2.299
261.73	1.333
262.10	-0.545
262.47	-1.928
262.85	2.571
263.22	-2.151
263.59	-1.072
263.96	-1.567
264.33	-3.774
264.70	-0.491
265.07	-1.478
265.44	2.576
265.81	2.169
266.18	-0.468
266.55	0.476
266.92	0.000
267.29	-0.889
267.66	-2.045
268.03	3.441
268.40	-1.602
268.77	-0.223
269.14	-1.261
269.51	-1.810
269.88	0.641
270.25	-0.211
270.62	0.840
270.99	1.684
271.36	-2.870
271.73	-2.292
272.10	-0.622
272.47	-0.800
272.84	-2.123
273.21	0.209
273.58	-0.408
273.95	0.996
274.32	2.515
274.69	0.391
275.06	0.750
275.43	-1.000
275.80	0.574
276.17	-3.162
276.54	1.331
276.91	0.768
277.28	1.354
277.65	-1.134
278.02	0.758
278.39	2.359
278.76	1.490
279.13	1.789
279.50	-0.181
279.87	0.377
280.23	0.000
280.60	-1.413
280.97	-1.054
281.34	1.356
281.71	-0.710
282.08	-0.537
282.45	0.000
282.82	1.010
283.19	1.347
283.56	1.536
283.92	0.474
284.29	0.338
284.66	0.000
285.03	-0.686
285.40	1.333
285.77	-0.164
286.14	2.377
286.51	0.322
286.87	2.431
287.24	-1.282
287.61	-0.463
287.98	3.443
288.35	0.620
288.72	1.682
289.08	-1.887
289.45	-0.156
289.82	0.155
290.19	-0.152
290.56	1.737
290.93	0.591
291.29	0.284
291.66	0.843
292.03	1.722
292.40	1.439
292.77	1.312
293.13	1.175
293.50	0.826
293.87	0.971
294.24	0.843
294.60	1.503
294.97	-0.416
295.34	-0.411
295.71	-0.139
296.08	-0.137
296.44	1.449
296.81	0.129
297.18	0.776
297.55	0.628
297.91	0.635
298.28	-0.512
298.65	0.388
299.02	0.863
299.38	-0.128
299.75	0.644
300.12	0.240
300.48	1.056
300.85	-0.489
301.22	1.082
301.59	0.365
301.95	1.463
302.32	0.122
302.69	-0.713
303.05	-0.590
303.42	-0.242
303.79	-0.787
304.15	0.000
304.52	0.447
304.89	-0.451
305.25	1.491
305.62	0.341
305.99	-0.336
306.35	0.336
306.72	0.000
307.09	-0.435
307.45	-0.539
307.82	0.640
308.19	0.000
308.55	0.527
308.92	0.318
309.29	-0.209
309.65	0.826
310.02	-0.419
310.38	0.107
310.75	0.820
311.12	0.509
311.48	1.233
311.85	-0.101
312.22	0.000
312.58	0.403
312.95	1.027
313.31	-1.180
313.68	0.298
314.05	2.185
314.41	0.196
314.78	-0.101
315.14	0.196
315.51	0.695
315.87	1.660
316.24	0.495
316.61	0.485
316.97	0.294
317.34	0.766
317.70	-0.373
318.07	-0.289
318.43	0.662
318.80	0.455
319.16	0.000
319.53	1.038
319.89	0.284
320.26	1.475
320.62	0.678
320.99	1.633
321.35	0.395
321.72	2.020
322.08	1.881
322.45	1.677
322.81	1.379
323.18	0.384
323.54	2.180
323.91	1.233
324.27	0.868
324.64	0.375
325.00	1.456
325.37	1.439
325.73	1.004
326.10	1.664
326.46	0.635
326.83	1.759
327.19	2.009
327.56	2.034
327.92	0.955
328.29	3.226
328.65	2.448
329.01	1.376
329.38	1.837
329.74	2.228
330.11	0.932
330.47	1.955
330.84	1.880
331.20	1.201
331.56	0.472
331.93	1.555
332.29	1.203
332.66	2.170
333.02	2.600
333.38	2.206
333.75	2.928
334.11	1.808
334.48	2.236
334.84	0.376
335.20	1.880
335.57	2.725
335.93	2.233
336.29	2.102
336.66	2.459
337.02	1.904
337.38	1.509
337.75	2.182
338.11	2.005
338.47	1.857
338.84	2.947
339.20	1.558
339.56	1.584
339.93	1.351
340.29	1.904
340.65	1.735
341.02	1.771
341.38	2.118
341.74	2.402
342.11	2.653
342.47	1.661
342.83	1.648
343.20	2.034
343.56	1.224
343.92	1.750
344.28	1.201
344.65	1.113
345.01	1.568
345.37	2.051
345.73	1.206
346.10	2.074
346.46	0.863
346.82	1.784
347.19	1.682
347.55	2.721
347.91	1.310
348.27	2.780
348.63	2.334
349.00	3.172
349.36	2.308
349.72	2.709
350.08	3.273
350.45	1.871
350.81	2.560
351.17	1.730
351.53	1.127
351.89	0.691
352.26	0.650
352.62	2.044
352.98	1.674
353.34	1.838
353.70	1.646
354.07	2.554
354.43	0.835
354.79	2.787
355.15	2.663
355.51	2.119
355.87	0.916
356.24	2.941
356.60	1.753
356.96	1.896
357.32	3.128
357.68	2.546
358.04	2.269
358.40	2.537
358.77	1.928
359.13	1.767
359.49	1.280
359.85	2.158
360.21	0.952
360.57	1.356
360.93	2.217
361.29	1.324
361.66	0.946
362.02	1.020
362.38	2.720
362.74	1.537
363.10	1.131
363.46	1.806
363.82	2.067
364.18	1.817
364.54	1.221
364.90	0.963
365.26	1.416
365.62	1.665
365.98	1.799
366.35	1.437
366.71	1.270
367.07	1.697
367.43	2.022
367.79	1.308
368.15	1.408
368.51	1.648
368.87	2.496
369.23	2.498
369.59	2.279
369.95	1.341
370.31	0.152
370.67	1.504
371.03	1.238
371.39	1.813
371.75	1.783
372.11	2.000
372.47	1.485
372.83	2.484
373.19	1.732
373.55	2.470
373.91	1.439
374.27	2.502
374.63	1.473
374.99	1.025
375.35	1.306
375.71	1.722
376.07	2.473
376.42	2.282
376.78	1.324
377.14	1.606
377.50	1.505
377.86	2.159
378.22	1.057
378.58	2.039
378.94	1.572
379.30	2.252
379.66	1.472
380.02	1.589
380.38	1.527
380.74	2.113
381.09	1.525
381.45	1.460
381.81	1.467
382.17	2.280
382.53	1.578
382.89	1.796
383.25	1.776
383.61	1.271
383.97	1.624
384.32	1.742
384.68	2.554
385.04	1.464
385.40	1.789
385.76	1.961
386.12	2.244
386.48	1.957
386.83	1.317
387.19	1.788
387.55	0.842
387.91	1.807
388.27	1.344
388.62	2.202
388.98	2.290
389.34	1.236
389.70	1.474
390.06	1.650
390.42	1.961
390.77	1.341
391.13	1.627
391.49	1.887
391.85	1.730
392.20	1.320
392.56	0.720
392.92	1.979
393.28	1.616
393.64	1.140
393.99	0.974
394.35	1.817
394.71	1.523
395.07	1.326
395.42	1.714
395.78	1.613
396.14	1.399
396.50	2.329
396.85	1.454
397.21	1.100
397.57	1.448
397.92	1.336
398.28	1.978
398.64	1.016
399.00	2.089
399.35	1.817
399.71	1.737
400.07	2.224
400.42	2.372
400.78	1.472
401.14	1.705
401.49	1.811
401.85	1.905
402.21	1.840
402.57	0.515
402.92	2.258
403.28	1.821
403.63	2.051
403.99	1.585
404.35	1.338
404.70	1.457
405.06	1.426
405.42	1.496
405.77	1.902
406.13	1.195
406.49	1.514
406.84	2.366
407.20	1.673
407.55	1.603
407.91	0.769
408.27	1.330
408.62	1.479
408.98	1.866
409.34	1.857
409.69	1.672
410.05	1.684
410.40	1.798
410.76	1.743
411.11	1.422
411.47	2.313
411.83	2.576
412.18	2.356
412.54	2.199
412.89	1.425
413.25	1.630
413.60	1.722
413.96	1.553
414.31	1.211
414.67	2.363
415.03	2.351
415.38	1.880
415.74	1.948
416.09	1.378
416.45	2.194
416.80	1.182
417.16	1.551
417.51	1.735
417.87	2.736
418.22	1.738
418.58	1.589
418.93	2.192
419.29	1.425
419.64	2.060
420.00	2.489
420.35	2.197
420.71	2.113
421.06	1.752
421.42	2.258
421.77	2.680
422.12	2.008
422.48	1.599
422.83	1.884
423.19	2.765
423.54	2.077
423.90	2.163
424.25	2.477
424.61	2.065
424.96	1.720
425.31	1.510
425.67	1.758
426.02	1.739
426.38	1.931
426.73	1.807
427.09	1.838
427.44	2.284
427.79	2.599
428.15	1.585
428.50	2.136
428.85	2.822
429.21	2.331
429.56	1.768
429.92	2.866
430.27	1.387
430.62	1.893
430.98	2.687
431.33	2.392
431.68	2.133
432.04	1.841
432.39	2.377
432.74	2.151
433.10	1.880
433.45	2.217
433.80	2.560
434.16	2.014
434.51	2.564
434.86	1.752
435.22	2.328
435.57	2.375
435.92	1.486
436.28	1.993
436.63	2.206
436.98	2.160
437.34	2.047
437.69	2.099
438.04	2.344
438.39	1.828
438.75	3.262
439.10	2.440
439.45	2.503
439.81	1.905
440.16	2.165
440.51	1.425
440.86	1.957
441.22	2.799
441.57	2.507
441.92	1.712
442.27	2.857
442.63	2.709
442.98	2.139
443.33	2.409
443.68	2.884
444.03	2.526
444.39	2.603
444.74	2.118
445.09	1.889
445.44	2.391
445.79	1.888
446.15	1.924
446.50	3.008
446.85	2.750
447.20	2.352
447.55	1.862
447.91	2.116
448.26	2.671
448.61	2.477
448.96	2.188
449.31	2.230
449.66	2.906
450.02	2.604
450.37	2.126
450.72	2.573
451.07	1.912
451.42	2.108
451.77	2.585
452.12	2.757
452.47	1.965
452.83	2.366
453.18	2.903
453.53	2.939
453.88	2.808
454.23	3.003
454.58	2.546
454.93	1.635
455.28	1.969
455.63	2.404
455.98	2.792
456.34	2.210
456.69	1.490
457.04	2.231
457.39	2.497
457.74	1.327
458.09	1.991
458.44	2.943
458.79	2.179
459.14	2.743
459.49	1.911
459.84	3.270
460.19	3.064
460.54	2.210
460.89	2.118
461.24	3.247
461.59	2.965
461.94	2.761
462.29	2.381
462.64	2.298
462.99	2.175
463.34	2.564
463.69	2.606
464.04	2.630
464.39	2.572
464.74	2.596
465.09	3.344
465.44	2.400
465.79	2.888
466.14	1.969
466.49	3.569
466.84	2.764
467.19	2.989
467.54	1.194
467.89	2.547
468.24	3.093
468.59	3.272
468.94	2.555
469.29	2.284
469.64	3.939
469.99	2.451
470.34	1.839
470.68	2.692
471.03	2.117
471.38	1.945
471.73	3.343
472.08	2.918
472.43	2.766
472.78	1.523
473.13	4.000
473.48	2.628
473.83	2.312
474.17	2.935
474.52	2.813
474.87	2.146
475.22	3.177
475.57	3.760
475.92	2.274
476.27	2.471
476.61	2.778
476.96	2.608
477.31	2.283
477.66	3.370
478.01	1.883
478.36	2.923
478.70	3.211
479.05	1.683
479.40	2.930
479.75	2.524
480.10	3.084
480.45	2.880
480.79	2.906
481.14	3.216
481.49	3.188
481.84	2.626
482.19	2.341
482.53	3.088
482.88	2.186
483.23	3.166
483.58	3.069
483.92	3.015
484.27	2.469
484.62	3.253
484.97	2.768
485.31	2.862
485.66	2.899
486.01	2.861
486.36	2.837
486.70	2.786
487.05	2.975
487.40	2.729
487.75	2.720
488.09	2.224
488.44	2.652
488.79	3.402
489.13	2.618
489.48	2.783
489.83	2.774
490.17	3.188
490.52	2.677
490.87	2.918
491.22	2.860
491.56	2.964
491.91	2.309
492.26	3.315
492.60	3.265
492.95	2.977
493.30	2.666
493.64	3.144
493.99	2.567
494.34	3.548
494.68	2.279
495.03	2.282
495.37	3.345
495.72	3.217
496.07	2.789
496.41	2.273
496.76	3.152
497.11	1.969
497.45	4.169
497.80	3.427
498.14	3.273
498.49	2.830
498.84	2.830
499.18	3.373
499.53	3.634
499.87	3.226
500.22	3.221
500.56	4.186
500.91	3.828
501.26	2.940
501.60	3.721
501.95	3.224
502.29	2.925
502.64	3.036
502.98	3.079
503.33	2.646
503.67	3.012
504.02	3.524
504.36	2.465
504.71	3.883
505.06	2.571
505.40	3.432
505.75	3.318
506.09	2.871
506.44	3.165
506.78	2.623
507.13	2.986
507.47	3.823
507.82	2.511
508.16	2.506
508.51	3.993
508.85	3.626
509.19	3.401
509.54	3.229
509.88	2.934
510.23	2.584
510.57	2.953
510.92	3.458
511.26	3.504
511.61	3.482
511.95	3.355
512.30	3.420
512.64	3.284
512.98	4.194
513.33	2.755
513.67	2.635
514.02	2.825
514.36	3.737
514.70	3.886
515.05	3.780
515.39	3.262
515.74	3.759
516.08	3.955
516.42	3.667
516.77	3.789
517.11	2.875
517.46	4.122
517.80	4.340
518.14	4.934
518.49	3.364
518.83	3.437
519.17	3.792
519.52	3.373
519.86	3.293
520.20	3.503
520.55	3.721
520.89	3.711
521.23	3.808
521.58	3.175
521.92	3.204
522.26	3.436
522.61	4.642
522.95	3.836
523.29	3.779
523.64	3.189
523.98	3.965
524.32	3.434
524.66	3.875
525.01	4.124
525.35	3.830
525.69	4.955
526.04	4.510
526.38	3.633
526.72	4.444
527.06	4.149
527.41	3.260
527.75	3.015
528.09	3.607
528.43	4.040
528.78	3.075
529.12	3.836
529.46	3.854
529.80	3.880
530.15	3.544
530.49	4.742
530.83	3.398
531.17	4.096
531.51	4.996
531.86	4.132
532.20	3.102
532.54	3.957
532.88	4.073
533.22	4.454
533.57	3.172
533.91	3.992
534.25	3.938
534.59	3.989
534.93	3.962
535.27	4.040
535.62	3.646
535.96	4.466
536.30	3.967
536.64	4.506
536.98	4.425
537.32	4.167
537.66	3.372
538.01	4.345
538.35	3.927
538.69	4.105
539.03	4.037
539.37	3.733
539.71	3.768
540.05	3.763
540.39	4.793
540.73	4.835
541.07	3.088
541.42	4.633
541.76	4.317
542.10	5.524
542.44	5.275
542.78	3.886
543.12	3.538
543.46	2.906
543.80	4.718
544.14	4.229
544.48	4.140
544.82	4.187
545.16	4.710
545.50	5.240
545.84	5.048
546.18	4.270
546.52	4.612
546.86	3.366
547.20	4.621
547.54	4.170
547.88	4.345
548.22	4.290
548.56	5.074
548.90	4.772
549.24	4.678
549.58	4.620
549.92	4.887
550.26	5.174
550.60	3.886
550.94	4.286
551.28	4.472
551.62	4.996
551.96	4.872
552.30	4.109
552.64	5.034
552.98	4.532
553.32	4.242
553.66	4.932
554.00	5.097
554.34	4.844
554.68	4.067
555.02	5.397
555.36	4.130
555.69	3.766
556.03	5.026
556.37	3.226
556.71	5.279
557.05	5.391
557.39	3.534
557.73	4.324
558.07	5.712
558.41	4.070
558.75	5.145
559.08	5.191
559.42	4.933
559.76	4.802
560.10	3.423
560.44	4.117
560.78	4.433
561.12	3.907
561.45	4.613
561.79	4.038
562.13	4.744
562.47	3.517
562.81	4.776
563.15	4.335
563.48	4.345
563.82	4.876
564.16	4.427
564.50	4.155
564.84	5.174
565.17	4.220
565.51	5.489
565.85	5.211
566.19	4.732
566.52	5.090
566.86	4.235
567.20	4.857
567.54	4.659
567.88	4.126
568.21	5.100
568.55	4.810
568.89	4.451
569.23	4.769
569.56	4.966
569.90	4.325
570.24	4.886
570.57	4.439
570.91	4.440
571.25	4.924
571.59	4.754
571.92	4.279
572.26	4.659
572.60	4.169
572.93	4.420
573.27	4.867
573.61	4.859
573.95	4.272
574.28	4.055
574.62	4.434
574.96	4.042
575.29	4.388
575.63	4.297
575.97	4.476
576.30	4.743
576.64	4.079
576.98	4.401
577.31	4.318
577.65	4.529
577.98	4.211
578.32	4.269
578.66	4.101
578.99	4.774
579.33	4.270
579.67	4.669
580.00	4.439
580.34	4.652
580.67	4.476
581.01	4.608
581.35	4.578
581.68	4.383
582.02	4.186
582.35	4.271
582.69	4.387
583.02	4.510
583.36	4.665
583.70	4.263
584.03	4.368
584.37	4.739
584.70	4.596
585.04	4.441
585.37	4.677
585.71	4.381
586.04	4.454
586.38	4.794
586.72	4.210
587.05	4.969
587.39	4.737
587.72	4.724
588.06	4.934
588.39	4.733
588.73	4.247
589.06	4.547
589.40	5.069
589.73	5.011
590.07	3.833
590.40	4.310
590.73	5.289
591.07	5.065
591.40	4.797
591.74	5.131
592.07	5.014
592.41	4.967
592.74	4.516
593.08	5.184
593.41	4.457
593.75	5.123
594.08	4.970
594.41	4.446
594.75	4.738
595.08	4.831
595.42	4.957
595.75	4.773
596.09	4.604
596.42	4.778
596.75	5.591
597.09	5.131
597.42	4.646
597.75	5.019
598.09	5.009
598.42	4.685
598.76	4.781
599.09	5.000
599.42	4.445
599.76	4.708
600.09	5.378
600.42	4.766
600.76	4.850
601.09	4.824
601.42	4.670
601.76	4.586
602.09	5.111
602.42	5.037
602.76	4.930
603.09	4.874
603.42	5.153
603.76	4.700
604.09	4.929
604.42	5.109
604.76	4.153
605.09	4.771
605.42	5.166
605.75	4.934
606.09	4.889
606.42	5.381
606.75	5.018
607.09	5.037
607.42	5.415
607.75	4.775
608.08	5.893
608.42	4.413
608.75	4.002
609.08	4.139
609.41	5.029
609.75	4.739
610.08	5.271
610.41	4.784
610.74	4.853
611.07	4.918
611.41	4.550
611.74	5.930
612.07	5.078
612.40	5.794
612.73	4.514
613.07	4.698
613.40	4.830
613.73	4.868
614.06	4.450
614.39	5.331
614.72	3.955
615.06	6.257
615.39	5.485
615.72	4.871
616.05	5.391
616.38	4.567
616.71	5.473
617.05	4.837
617.38	5.419
617.71	4.899
618.04	5.585
618.37	5.232
618.70	5.367
619.03	5.729
619.36	6.186
619.69	4.899
620.03	5.645
620.36	4.913
620.69	5.322
621.02	5.780
621.35	4.681
621.68	4.590
622.01	3.565
622.34	5.444
622.67	4.132
623.00	5.405
623.33	5.984
623.66	4.781
623.99	6.061
624.32	5.004
624.65	5.859
624.99	4.688
625.32	4.897
625.65	4.404
625.98	6.083
626.31	4.416
626.64	4.955
626.97	5.147
627.30	5.833
627.63	5.395
627.96	4.749
628.29	5.545
628.62	5.258
628.95	6.019
629.28	5.475
629.61	5.120
629.94	5.394
630.26	5.021
630.59	5.864
630.92	4.742
631.25	5.587
631.58	4.186
631.91	3.872
632.24	4.970
632.57	5.351
632.90	7.011
633.23	6.065
633.56	5.535
633.89	4.354
634.22	5.000
634.55	5.650
634.88	4.552
635.20	5.205
635.53	5.866
635.86	5.299
636.19	3.956
636.52	6.199
636.85	3.520
637.18	5.570
637.51	5.014
637.83	6.006
638.16	7.681
638.49	4.755
638.82	5.063
639.15	4.714
639.48	3.785
639.81	4.471
640.13	3.522
640.46	4.252
640.79	4.341
641.12	8.217
641.45	5.910
641.77	6.051
642.10	6.026
642.43	5.051
642.76	4.839
643.09	5.536
643.41	5.197
643.74	5.556
644.07	4.938
644.40	5.957
644.73	5.893
645.05	5.916
645.38	4.038
645.71	6.107
646.04	7.249
646.36	5.682
646.69	4.449
647.02	8.008
647.35	5.400
647.67	7.014
648.00	7.573
648.33	4.624
648.66	6.122
648.98	6.441
649.31	5.164
649.64	5.508
649.96	5.236
650.29	3.009
650.62	5.009
650.94	7.394
651.27	5.780
651.60	4.971
651.92	3.626
652.25	1.338
652.58	4.129
652.90	5.160
653.23	2.559
653.56	6.250
653.88	5.109
654.21	2.836
654.54	3.377
654.86	6.295
655.19	3.387
655.52	4.232
655.84	4.802
656.17	4.771
