SpectraSuite Data File
++++++++++++++++++++++++++++++++++++
Date: Tue May 12 19:44:39 PDT 2015
User: schluterlab
Dark Spectrum Present: Yes
Reference Spectrum Present: Yes
Number of Sampled Component Spectra: 1
Spectrometers: USB2E3373
Integration Time (usec): 3000 (USB2E3373)
Spectra Averaged: 3 (USB2E3373)
Boxcar Smoothing: 0 (USB2E3373)
Correct for Electrical Dark: No (USB2E3373)
Strobe/Lamp Enabled: No (USB2E3373)
Correct for Detector Non-linearity: No (USB2E3373)
Correct for Stray Light: No (USB2E3373)
Number of Pixels in Processed Spectrum: 2048
>>>>>Begin Processed Spectral Data<<<<<
178.53	0.000
178.91	-10.000
179.29	-200.000
179.67	500.000
180.04	0.000
180.42	-340.000
180.80	-200.000
181.18	1050.000
181.56	-100.000
181.94	316.667
182.31	400.000
182.69	-42.857
183.07	0.000
183.45	258.333
183.83	280.000
184.20	133.333
184.58	1000.000
184.96	283.333
185.34	-233.333
185.72	-50.000
186.09	-66.667
186.47	-600.000
186.85	60.000
187.23	141.667
187.61	-214.286
187.98	-60.000
188.36	650.000
188.74	-375.000
189.12	-133.333
189.49	-100.000
189.87	275.000
190.25	188.889
190.63	333.333
191.00	460.000
191.38	-500.000
191.76	420.000
192.14	114.286
192.51	-30.000
192.89	0.000
193.27	-120.000
193.65	-100.000
194.02	-266.667
194.40	1000.000
194.78	-100.000
195.15	-171.429
195.53	266.667
195.91	180.000
196.29	-275.000
196.66	-300.000
197.04	-242.857
197.42	80.000
197.79	-137.500
198.17	-66.667
198.55	-600.000
198.92	-55.556
199.30	350.000
199.68	-225.000
200.05	-850.000
200.43	-16.667
200.81	-91.667
201.18	283.333
201.56	-250.000
201.94	-700.000
202.31	-50.000
202.69	22.222
203.07	-58.333
203.44	-225.000
203.82	0.000
204.19	237.500
204.57	-166.667
204.95	181.818
205.32	240.000
205.70	375.000
206.08	-200.000
206.45	-140.000
206.83	1600.000
207.20	-66.667
207.58	-15.385
207.96	233.333
208.33	666.667
208.71	466.667
209.08	100.000
209.46	-22.222
209.84	300.000
210.21	-766.667
210.59	-0.000
210.96	144.444
211.34	50.000
211.71	950.000
212.09	-120.000
212.46	-87.500
212.84	-87.500
213.22	57.143
213.59	-125.000
213.97	0.000
214.34	0.000
214.72	-100.000
215.09	700.000
215.47	-33.333
215.84	12.500
216.22	-200.000
216.59	800.000
216.97	0.000
217.34	-83.333
217.72	44.444
218.09	525.000
218.47	-89.474
218.84	-137.500
219.22	-21.429
219.59	-30.000
219.97	-60.000
220.34	250.000
220.72	118.182
221.09	-750.000
221.47	0.000
221.84	250.000
222.22	-350.000
222.59	-275.000
222.97	4.348
223.34	166.667
223.72	228.571
224.09	-133.333
224.46	153.846
224.84	-33.333
225.21	-200.000
225.59	-300.000
225.96	-5.000
226.34	283.333
226.71	260.000
227.08	-53.846
227.46	-100.000
227.83	8.333
228.21	-900.000
228.58	200.000
228.95	-26.316
229.33	18.750
229.70	-250.000
230.08	-122.222
230.45	-600.000
230.82	-1700.000
231.20	23.810
231.57	-120.000
231.95	-600.000
232.32	166.667
232.69	-1100.000
233.07	-6.250
233.44	-37.500
233.81	6.452
234.19	-280.000
234.56	-16.667
234.93	-133.333
235.31	-11.111
235.68	-37.037
236.05	-30.769
236.43	-57.895
236.80	-27.273
237.17	-107.143
237.55	-45.000
237.92	4.651
238.29	-45.161
238.67	-35.714
239.04	8.571
239.41	-11.765
239.79	-12.000
240.16	-17.500
240.53	-29.310
240.91	1.370
241.28	-7.042
241.65	-12.500
242.02	-22.807
242.40	-13.333
242.77	-5.263
243.14	0.000
243.51	-2.151
243.89	-9.524
244.26	-1.852
244.63	-3.061
245.00	-12.500
245.38	-15.966
245.75	2.542
246.12	-2.344
246.49	-15.200
246.87	-9.016
247.24	-11.268
247.61	-5.298
247.98	-0.562
248.36	-5.031
248.73	0.000
249.10	-3.333
249.47	-2.083
249.84	-3.046
250.22	-3.646
250.59	2.247
250.96	0.000
251.33	0.000
251.70	0.000
252.08	3.030
252.45	-3.265
252.82	1.266
253.19	-0.389
253.56	0.000
253.94	2.439
254.31	5.396
254.68	4.514
255.05	5.629
255.42	0.000
255.79	5.298
256.16	3.472
256.54	6.970
256.91	1.282
257.28	2.597
257.65	-1.639
258.02	2.703
258.39	4.532
258.76	0.000
259.14	0.000
259.51	5.634
259.88	4.899
260.25	2.557
260.62	1.966
260.99	2.228
261.36	0.575
261.73	0.267
262.10	1.907
262.47	1.102
262.85	5.141
263.22	-0.269
263.59	2.949
263.96	2.611
264.33	-0.270
264.70	2.948
265.07	0.493
265.44	4.450
265.81	4.337
266.18	1.171
266.55	0.952
266.92	5.134
267.29	1.778
267.66	-1.818
268.03	4.086
268.40	1.373
268.77	-0.668
269.14	2.941
269.51	0.452
269.88	2.991
270.25	0.422
270.62	4.202
270.99	2.947
271.36	-0.442
271.73	3.125
272.10	3.527
272.47	1.200
272.84	-1.486
273.21	1.670
273.58	-1.020
273.95	3.386
274.32	2.901
274.69	1.761
275.06	2.064
275.43	-0.200
275.80	3.633
276.17	0.000
276.54	3.612
276.91	2.303
277.28	1.934
277.65	0.945
278.02	2.083
278.39	1.815
278.76	2.421
279.13	2.504
279.50	2.347
279.87	3.774
280.23	2.550
280.60	2.650
280.97	2.109
281.34	2.881
281.71	1.066
282.08	1.968
282.45	1.764
282.82	2.694
283.19	3.367
283.56	2.560
283.92	2.844
284.29	4.230
284.66	0.708
285.03	-0.343
285.40	3.333
285.77	2.135
286.14	2.853
286.51	1.286
286.87	2.593
287.24	0.641
287.61	0.463
287.98	4.538
288.35	1.860
288.72	2.446
289.08	1.101
289.45	2.028
289.82	0.311
290.19	2.273
290.56	2.750
290.93	1.920
291.29	1.702
291.66	2.949
292.03	4.017
292.40	2.734
292.77	2.624
293.13	0.587
293.50	1.653
293.87	2.219
294.24	1.545
294.60	2.049
294.97	1.662
295.34	1.507
295.71	0.693
296.08	2.459
296.44	3.030
296.81	0.776
297.18	2.717
297.55	1.884
297.91	2.030
298.28	0.128
298.65	0.906
299.02	2.466
299.38	2.168
299.75	2.059
300.12	2.158
300.48	1.761
300.85	-0.611
301.22	3.245
301.59	2.311
301.95	1.951
302.32	1.701
302.69	-0.476
303.05	1.299
303.42	1.329
303.79	1.910
304.15	1.699
304.52	1.788
304.89	1.804
305.25	1.720
305.62	0.682
305.99	0.336
306.35	1.119
306.72	1.961
307.09	0.871
307.45	2.805
307.82	2.348
308.19	2.420
308.55	2.004
308.92	1.483
309.29	1.255
309.65	1.445
310.02	1.048
310.38	1.493
310.75	1.844
311.12	1.729
311.48	1.233
311.85	2.533
312.22	1.550
312.58	2.920
312.95	2.772
313.31	1.770
313.68	1.887
314.05	2.681
314.41	2.554
314.78	0.905
315.14	3.232
315.51	2.582
315.87	2.246
316.24	1.780
316.61	1.262
316.97	1.863
317.34	2.297
317.70	1.867
318.07	2.411
318.43	3.308
318.80	2.914
319.16	2.144
319.53	3.019
319.89	3.220
320.26	3.343
320.62	4.651
320.99	3.980
321.35	2.866
321.72	6.667
322.08	4.356
322.45	4.635
322.81	4.335
323.18	6.520
323.54	5.687
323.91	6.546
324.27	5.304
324.64	4.967
325.00	6.824
325.37	7.284
325.73	6.204
326.10	7.968
326.46	7.616
326.83	7.124
327.19	8.472
327.56	9.019
327.92	7.986
328.29	8.065
328.65	9.040
329.01	9.908
329.38	10.285
329.74	9.656
330.11	10.345
330.47	9.777
330.84	10.338
331.20	10.259
331.56	10.660
331.93	10.156
332.29	10.731
332.66	10.940
333.02	10.956
333.38	11.765
333.75	11.345
334.11	12.387
334.48	10.107
334.84	10.610
335.20	11.459
335.57	12.534
335.93	12.093
336.29	11.700
336.66	12.022
337.02	12.874
337.38	11.132
337.75	12.909
338.11	12.397
338.47	13.556
338.84	11.971
339.20	12.924
339.56	11.650
339.93	12.703
340.29	13.327
340.65	12.055
341.02	12.046
341.38	12.886
341.74	13.345
342.11	12.025
342.47	12.413
342.83	10.928
343.20	11.848
343.56	11.888
343.92	12.248
344.28	10.978
344.65	12.586
345.01	12.892
345.37	12.650
345.73	12.145
346.10	13.224
346.46	11.648
346.82	11.385
347.19	13.373
347.55	13.265
347.91	12.367
348.27	11.373
348.63	11.755
349.00	13.773
349.36	12.778
349.72	12.726
350.08	12.930
350.45	11.880
350.81	12.964
351.17	12.191
351.53	13.124
351.89	12.003
352.26	11.626
352.62	13.246
352.98	13.054
353.34	11.529
353.70	11.687
354.07	12.438
354.43	11.436
354.79	12.213
355.15	12.429
355.51	13.040
355.87	12.240
356.24	13.317
356.60	11.937
356.96	12.638
357.32	12.757
357.68	12.013
358.04	11.831
358.40	12.684
358.77	12.129
359.13	13.896
359.49	12.000
359.85	13.349
360.21	11.975
360.57	12.759
360.93	12.510
361.29	13.474
361.66	11.987
362.02	13.501
362.38	13.287
362.74	13.759
363.10	12.443
363.46	12.566
363.82	11.485
364.18	13.399
364.54	13.053
364.90	13.407
365.26	12.668
365.62	11.734
365.98	13.718
366.35	13.086
366.71	13.966
367.07	13.727
367.43	12.708
367.79	12.645
368.15	14.752
368.51	13.333
368.87	13.583
369.23	12.945
369.59	13.382
369.95	13.040
370.31	12.955
370.67	14.361
371.03	14.087
371.39	14.199
371.75	13.522
372.11	13.407
372.47	13.957
372.83	13.952
373.19	14.157
373.55	13.024
373.91	14.242
374.27	14.054
374.63	13.623
374.99	12.665
375.35	13.425
375.71	14.562
376.07	14.276
376.42	14.592
376.78	14.216
377.14	13.408
377.50	14.432
377.86	14.415
378.22	15.258
378.58	15.526
378.94	14.473
379.30	14.350
379.66	14.917
380.02	14.558
380.38	14.440
380.74	15.040
381.09	14.930
381.45	15.175
381.81	14.732
382.17	15.700
382.53	15.713
382.89	14.625
383.25	14.965
383.61	14.367
383.97	14.555
384.32	14.581
384.68	16.475
385.04	14.322
385.40	15.911
385.76	15.750
386.12	15.380
386.48	15.590
386.83	15.339
387.19	14.687
387.55	15.674
387.91	15.452
388.27	15.419
388.62	15.415
388.98	16.858
389.34	15.550
389.70	15.641
390.06	15.644
390.42	16.362
390.77	16.633
391.13	17.176
391.49	16.375
391.85	15.902
392.20	16.172
392.56	16.765
392.92	17.687
393.28	16.457
393.64	16.149
393.99	15.779
394.35	16.223
394.71	17.020
395.07	16.446
395.42	16.127
395.78	15.927
396.14	16.123
396.50	17.335
396.85	17.184
397.21	16.559
397.57	16.261
397.92	17.048
398.28	17.326
398.64	16.571
399.00	17.121
399.35	17.116
399.71	17.964
400.07	17.789
400.42	17.821
400.78	17.658
401.14	17.424
401.49	17.489
401.85	17.587
402.21	17.766
402.57	17.064
402.92	17.795
403.28	15.930
403.63	18.205
403.99	18.428
404.35	17.197
404.70	18.746
405.06	17.979
405.42	17.697
405.77	17.717
406.13	18.160
406.49	18.044
406.84	19.054
407.20	17.968
407.55	18.437
407.91	18.462
408.27	18.750
408.62	18.071
408.98	19.369
409.34	17.222
409.69	18.328
410.05	19.041
410.40	18.112
410.76	18.182
411.11	17.906
411.47	19.320
411.83	18.287
412.18	18.848
412.54	18.758
412.89	18.459
413.25	19.749
413.60	20.026
413.96	18.835
414.31	19.184
414.67	20.797
415.03	18.534
415.38	19.150
415.74	19.610
416.09	19.090
416.45	19.391
416.80	19.263
417.16	19.535
417.51	20.611
417.87	21.409
418.22	19.786
418.58	19.972
418.93	21.212
419.29	19.946
419.64	20.948
420.00	20.956
420.35	21.218
420.71	21.383
421.06	21.674
421.42	20.389
421.77	21.985
422.12	21.205
422.48	20.902
422.83	21.216
423.19	22.000
423.54	21.014
423.90	21.693
424.25	22.417
424.61	21.677
424.96	22.420
425.31	22.766
425.67	22.061
426.02	22.236
426.38	21.943
426.73	22.056
427.09	22.062
427.44	22.778
427.79	23.762
428.15	23.272
428.50	23.178
428.85	23.028
429.21	23.849
429.56	23.591
429.92	23.202
430.27	23.040
430.62	23.526
430.98	23.267
431.33	23.749
431.68	23.687
432.04	24.453
432.39	23.767
432.74	24.099
433.10	23.893
433.45	24.826
433.80	24.583
434.16	24.684
434.51	24.136
434.86	24.955
435.22	24.913
435.57	26.253
435.92	24.334
436.28	23.910
436.63	25.343
436.98	25.802
437.34	25.336
437.69	25.247
438.04	25.120
438.39	25.522
438.75	24.985
439.10	26.429
439.45	26.829
439.81	25.460
440.16	25.356
440.51	25.898
440.86	26.452
441.22	26.027
441.57	26.439
441.92	26.449
442.27	27.657
442.63	26.806
442.98	26.956
443.33	26.968
443.68	26.400
444.03	26.237
444.39	25.820
444.74	27.647
445.09	27.686
445.44	27.114
445.79	27.023
446.15	26.647
446.50	27.010
446.85	26.843
447.20	27.243
447.55	25.887
447.91	27.925
448.26	27.953
448.61	27.492
448.96	27.676
449.31	26.823
449.66	26.937
450.02	26.686
450.37	27.157
450.72	27.947
451.07	28.214
451.42	29.447
451.77	27.491
452.12	27.820
452.47	28.455
452.83	27.895
453.18	27.887
453.53	28.152
453.88	28.271
454.23	28.562
454.58	28.525
454.93	26.703
455.28	27.970
455.63	28.395
455.98	28.109
456.34	28.332
456.69	28.910
457.04	28.346
457.39	28.964
457.74	28.382
458.09	27.318
458.44	27.774
458.79	27.797
459.14	28.444
459.49	28.981
459.84	28.240
460.19	29.081
460.54	28.157
460.89	28.000
461.24	28.636
461.59	28.454
461.94	28.534
462.29	28.195
462.64	28.621
462.99	29.297
463.34	29.377
463.69	28.875
464.04	28.352
464.39	29.003
464.74	28.618
465.09	28.939
465.44	27.175
465.79	28.881
466.14	28.282
466.49	28.673
466.84	28.686
467.19	28.525
467.54	27.918
467.89	28.935
468.24	29.482
468.59	28.730
468.94	29.455
469.29	28.858
469.64	29.395
469.99	28.551
470.34	28.501
470.68	29.000
471.03	29.124
471.38	30.666
471.73	30.015
472.08	30.391
472.43	29.530
472.78	28.644
473.13	29.123
473.48	29.668
473.83	30.383
474.17	28.953
474.52	29.605
474.87	30.429
475.22	29.543
475.57	29.730
475.92	29.392
476.27	29.717
476.61	29.314
476.96	29.401
477.31	30.365
477.66	29.924
478.01	28.605
478.36	29.857
478.70	29.972
479.05	29.135
479.40	29.961
479.75	30.230
480.10	29.978
480.45	29.895
480.79	30.047
481.14	29.046
481.49	29.923
481.84	30.051
482.19	29.122
482.53	29.510
482.88	29.080
483.23	29.648
483.58	29.554
483.92	29.045
484.27	29.574
484.62	29.514
484.97	29.525
485.31	30.008
485.66	28.373
486.01	27.995
486.36	27.572
486.70	28.160
487.05	28.565
487.40	28.484
487.75	28.171
488.09	28.415
488.44	28.006
488.79	28.708
489.13	29.052
489.48	28.887
489.83	29.681
490.17	30.567
490.52	30.019
490.87	29.723
491.22	30.128
491.56	30.040
491.91	30.070
492.26	31.566
492.60	31.378
492.95	30.390
493.30	30.110
493.64	29.615
493.99	29.928
494.34	30.816
494.68	30.278
495.03	29.361
495.37	30.258
495.72	30.169
496.07	30.122
496.41	29.348
496.76	31.089
497.11	29.887
497.45	30.236
497.80	30.426
498.14	30.201
498.49	30.326
498.84	29.036
499.18	30.047
499.53	29.958
499.87	29.903
500.22	29.403
500.56	30.141
500.91	30.572
501.26	30.131
501.60	30.173
501.95	29.939
502.29	30.682
502.64	29.915
502.98	30.490
503.33	30.604
503.67	29.862
504.02	29.980
504.36	29.327
504.71	30.372
505.06	30.262
505.40	31.475
505.75	30.542
506.09	31.473
506.44	31.277
506.78	30.728
507.13	30.565
507.47	30.970
507.82	29.464
508.16	31.292
508.51	31.236
508.85	30.385
509.19	31.048
509.54	31.105
509.88	30.725
510.23	30.787
510.57	31.289
510.92	31.179
511.26	30.902
511.61	30.765
511.95	30.249
512.30	30.319
512.64	30.616
512.98	32.369
513.33	29.308
513.67	30.659
514.02	32.031
514.36	31.079
514.70	32.665
515.05	31.402
515.39	31.556
515.74	30.576
516.08	31.576
516.42	32.753
516.77	32.671
517.11	32.049
517.46	32.292
517.80	31.844
518.14	32.764
518.49	32.277
518.83	33.074
519.17	32.519
519.52	32.042
519.86	32.362
520.20	32.611
520.55	33.029
520.89	33.131
521.23	31.931
521.58	32.209
521.92	32.310
522.26	33.333
522.61	33.652
522.95	32.945
523.29	33.131
523.64	32.497
523.98	32.460
524.32	33.872
524.66	32.359
525.01	32.990
525.35	33.789
525.69	32.072
526.04	33.615
526.38	32.762
526.72	32.986
527.06	32.841
527.41	33.451
527.75	33.812
528.09	33.451
528.43	33.239
528.78	32.565
529.12	32.808
529.46	32.093
529.80	31.382
530.15	32.106
530.49	32.636
530.83	31.670
531.17	33.333
531.51	33.119
531.86	33.683
532.20	32.251
532.54	32.302
532.88	32.800
533.22	33.333
533.57	32.069
533.91	31.727
534.25	32.451
534.59	32.462
534.93	31.296
535.27	31.515
535.62	30.993
535.96	31.752
536.30	31.106
536.64	32.618
536.98	30.973
537.32	33.185
537.66	32.185
538.01	32.842
538.35	31.782
538.69	31.210
539.03	32.660
539.37	32.161
539.71	31.449
540.05	32.779
540.39	32.534
540.73	32.308
541.07	31.250
541.42	31.361
541.76	32.158
542.10	30.846
542.44	32.514
542.78	30.645
543.12	31.119
543.46	32.340
543.80	30.879
544.14	31.326
544.48	31.579
544.82	30.163
545.16	31.377
545.50	32.606
545.84	31.236
546.18	32.434
546.52	32.129
546.86	31.905
547.20	31.591
547.54	31.539
547.88	31.268
548.22	31.505
548.56	32.347
548.90	31.439
549.24	32.602
549.58	31.073
549.92	31.053
550.26	32.510
550.60	33.307
550.94	32.302
551.28	32.195
551.62	31.777
551.96	31.150
552.30	31.705
552.64	30.804
552.98	31.204
553.32	30.379
553.66	30.653
554.00	31.892
554.34	31.563
554.68	31.100
555.02	31.905
555.36	32.010
555.69	29.669
556.03	30.894
556.37	30.233
556.71	31.297
557.05	31.875
557.39	31.727
557.73	31.761
558.07	31.768
558.41	30.886
558.75	32.116
559.08	32.340
559.42	31.104
559.76	32.350
560.10	31.459
560.44	30.325
560.78	31.480
561.12	29.677
561.45	30.580
561.79	30.029
562.13	31.431
562.47	30.810
562.81	30.326
563.15	30.114
563.48	29.513
563.82	30.204
564.16	30.552
564.50	30.516
564.84	30.262
565.17	30.973
565.51	29.909
565.85	29.225
566.19	29.645
566.52	30.681
566.86	30.874
567.20	29.474
567.54	28.845
567.88	28.823
568.21	29.894
568.55	28.070
568.89	28.791
569.23	28.363
569.56	28.460
569.90	27.709
570.24	27.423
570.57	26.749
570.91	27.074
571.25	27.066
571.59	26.000
571.92	25.240
572.26	25.054
572.60	25.657
572.93	25.639
573.27	25.503
573.61	25.224
573.95	24.866
574.28	24.883
574.62	24.909
574.96	24.511
575.29	24.290
575.63	24.686
575.97	24.703
576.30	24.812
576.64	24.862
576.98	24.193
577.31	24.613
577.65	24.682
577.98	24.045
578.32	24.372
578.66	23.771
578.99	24.760
579.33	24.342
579.67	24.413
580.00	24.117
580.34	24.225
580.67	23.932
581.01	24.359
581.35	23.923
581.68	23.395
582.02	23.428
582.35	23.658
582.69	23.755
583.02	23.306
583.36	23.916
583.70	23.745
584.03	24.096
584.37	24.265
584.70	24.170
585.04	23.849
585.37	24.125
585.71	23.943
586.04	24.133
586.38	23.863
586.72	24.051
587.05	24.224
587.39	24.232
587.72	24.034
588.06	24.194
588.39	24.131
588.73	23.860
589.06	24.283
589.40	24.815
589.73	24.346
590.07	24.739
590.40	25.148
590.73	24.573
591.07	24.978
591.40	25.217
591.74	24.674
592.07	25.215
592.41	25.117
592.74	24.755
593.08	24.493
593.41	23.963
593.75	24.705
594.08	24.348
594.41	24.115
594.75	24.824
595.08	24.231
595.42	24.071
595.75	24.167
596.09	24.660
596.42	24.397
596.75	25.227
597.09	24.534
597.42	24.214
597.75	24.437
598.09	24.157
598.42	24.468
598.76	23.406
599.09	24.328
599.42	23.407
599.76	24.166
600.09	23.606
600.42	23.203
600.76	23.672
601.09	23.569
601.42	24.034
601.76	23.336
602.09	24.173
602.42	25.228
602.76	23.997
603.09	23.629
603.42	23.893
603.76	23.794
604.09	23.601
604.42	23.830
604.76	24.190
605.09	24.043
605.42	24.076
605.75	23.253
606.09	24.178
606.42	23.666
606.75	24.423
607.09	23.927
607.42	23.589
607.75	22.819
608.08	24.181
608.42	24.103
608.75	23.412
609.08	24.331
609.41	23.328
609.75	23.697
610.08	23.049
610.41	23.715
610.74	23.610
611.07	24.273
611.41	22.645
611.74	23.993
612.07	23.884
612.40	24.345
612.73	23.553
613.07	23.782
613.40	24.037
613.73	23.597
614.06	23.126
614.39	23.667
614.72	24.026
615.06	23.995
615.39	23.557
615.72	23.292
616.05	23.478
616.38	23.310
616.71	22.450
617.05	23.241
617.38	23.226
617.71	24.363
618.04	24.639
618.37	24.199
618.70	23.845
619.03	24.728
619.36	24.521
619.69	23.173
620.03	24.180
620.36	24.339
620.69	24.612
621.02	24.861
621.35	24.511
621.68	25.113
622.01	25.045
622.34	23.869
622.67	24.536
623.00	24.734
623.33	24.882
623.66	25.498
623.99	24.482
624.32	24.226
624.65	24.219
624.99	23.281
625.32	23.460
625.65	24.740
625.98	25.417
626.31	23.636
626.64	24.595
626.97	25.184
627.30	24.074
627.63	24.837
627.96	25.047
628.29	23.518
628.62	25.773
628.95	26.082
629.28	24.587
629.61	25.183
629.94	25.000
630.26	26.569
630.59	26.702
630.92	24.131
631.25	26.704
631.58	25.349
631.91	25.057
632.24	25.562
632.57	24.614
632.90	26.445
633.23	27.226
633.56	25.283
633.89	25.726
634.22	27.051
634.55	26.544
634.88	26.908
635.20	27.671
635.53	28.352
635.86	27.582
636.19	24.011
636.52	25.202
636.85	25.424
