SpectraSuite Data File
++++++++++++++++++++++++++++++++++++
Date: Tue May 12 19:42:15 PDT 2015
User: schluterlab
Dark Spectrum Present: Yes
Reference Spectrum Present: Yes
Number of Sampled Component Spectra: 1
Spectrometers: USB2E3373
Integration Time (usec): 3000 (USB2E3373)
Spectra Averaged: 3 (USB2E3373)
Boxcar Smoothing: 0 (USB2E3373)
Correct for Electrical Dark: No (USB2E3373)
Strobe/Lamp Enabled: No (USB2E3373)
Correct for Detector Non-linearity: No (USB2E3373)
Correct for Stray Light: No (USB2E3373)
Number of Pixels in Processed Spectrum: 2048
>>>>>Begin Processed Spectral Data<<<<<
178.53	0.000
178.91	-150.000
179.29	-116.667
179.67	300.000
180.04	0.000
180.42	-20.000
180.80	-33.333
181.18	850.000
181.56	-100.000
181.94	283.333
182.31	400.000
182.69	14.286
183.07	0.000
183.45	200.000
183.83	180.000
184.20	100.000
184.58	150.000
184.96	250.000
185.34	-200.000
185.72	28.571
186.09	-100.000
186.47	100.000
186.85	-120.000
187.23	158.333
187.61	-171.429
187.98	-160.000
188.36	150.000
188.74	-175.000
189.12	-44.444
189.49	0.000
189.87	100.000
190.25	33.333
190.63	566.667
191.00	300.000
191.38	-433.333
191.76	200.000
192.14	-114.286
192.51	-100.000
192.89	-20.000
193.27	-60.000
193.65	-166.667
194.02	33.333
194.40	900.000
194.78	-50.000
195.15	0.000
195.53	366.667
195.91	260.000
196.29	-125.000
196.66	-100.000
197.04	-114.286
197.42	140.000
197.79	-187.500
198.17	-116.667
198.55	500.000
198.92	-144.444
199.30	500.000
199.68	-300.000
200.05	-350.000
200.43	-16.667
200.81	-116.667
201.18	316.667
201.56	-450.000
201.94	-700.000
202.31	-41.667
202.69	-11.111
203.07	-91.667
203.44	-225.000
203.82	0.000
204.19	262.500
204.57	-533.333
204.95	145.455
205.32	160.000
205.70	175.000
206.08	-200.000
206.45	-380.000
206.83	1300.000
207.20	-111.111
207.58	23.077
207.96	333.333
208.33	466.667
208.71	300.000
209.08	600.000
209.46	-77.778
209.84	266.667
210.21	-200.000
210.59	200.000
210.96	244.444
211.34	-225.000
211.71	650.000
212.09	80.000
212.46	0.000
212.84	-25.000
213.22	142.857
213.59	-37.500
213.97	0.000
214.34	-300.000
214.72	-700.000
215.09	650.000
215.47	-40.000
215.84	-100.000
216.22	-1100.000
216.59	800.000
216.97	0.000
217.34	-83.333
217.72	-5.556
218.09	225.000
218.47	-68.421
218.84	0.000
219.22	-71.429
219.59	-130.000
219.97	-10.000
220.34	133.333
220.72	81.818
221.09	-550.000
221.47	0.000
221.84	-150.000
222.22	-175.000
222.59	-25.000
222.97	13.043
223.34	200.000
223.72	314.286
224.09	0.000
224.46	130.769
224.84	-20.000
225.21	-200.000
225.59	-75.000
225.96	35.000
226.34	300.000
226.71	280.000
227.08	-46.154
227.46	-85.714
227.83	83.333
228.21	-550.000
228.58	133.333
228.95	21.053
229.33	12.500
229.70	0.000
230.08	-155.556
230.45	-566.667
230.82	-600.000
231.20	-28.571
231.57	-220.000
231.95	-666.667
232.32	166.667
232.69	-750.000
233.07	6.250
233.44	0.000
233.81	12.903
234.19	-80.000
234.56	-38.889
234.93	-166.667
235.31	29.630
235.68	-18.519
236.05	-11.538
236.43	-84.211
236.80	-4.545
237.17	-71.429
237.55	-100.000
237.92	-18.605
238.29	-35.484
238.67	0.000
239.04	-14.286
239.41	-13.725
239.79	-16.000
240.16	-17.500
240.53	-1.724
240.91	-1.370
241.28	-1.408
241.65	9.375
242.02	-12.281
242.40	-4.000
242.77	-3.158
243.14	9.412
243.51	6.452
243.89	-0.952
244.26	6.481
244.63	10.204
245.00	0.893
245.38	0.000
245.75	0.847
246.12	6.250
246.49	0.800
246.87	13.115
247.24	-1.408
247.61	3.974
247.98	9.551
248.36	5.660
248.73	0.568
249.10	2.778
249.47	5.208
249.84	7.107
250.22	3.125
250.59	1.685
250.96	11.818
251.33	9.434
251.70	7.339
252.08	9.957
252.45	7.755
252.82	2.954
253.19	8.171
253.56	11.373
253.94	4.065
254.31	8.633
254.68	10.417
255.05	9.603
255.42	9.455
255.79	10.927
256.16	5.556
256.54	8.485
256.91	9.295
257.28	8.117
257.65	2.295
258.02	11.411
258.39	5.740
258.76	8.563
259.14	5.588
259.51	11.831
259.88	9.510
260.25	8.239
260.62	8.427
260.99	7.521
261.36	10.057
261.73	10.667
262.10	8.447
262.47	9.366
262.85	10.540
263.22	7.527
263.59	8.579
263.96	7.833
264.33	5.930
264.70	8.845
265.07	7.882
265.44	11.944
265.81	10.602
266.18	5.855
266.55	8.810
266.92	9.152
267.29	8.667
267.66	7.727
268.03	9.247
268.40	7.551
268.77	7.350
269.14	8.824
269.51	9.955
269.88	7.479
270.25	7.384
270.62	10.084
270.99	9.053
271.36	6.843
271.73	10.417
272.10	9.129
272.47	9.200
272.84	4.671
273.21	10.021
273.58	5.918
273.95	8.566
274.32	9.091
274.69	8.415
275.06	9.568
275.43	8.600
275.80	8.413
276.17	8.103
276.54	9.886
276.91	9.405
277.28	8.511
277.65	8.696
278.02	9.848
278.39	9.982
278.76	8.939
279.13	11.628
279.50	9.025
279.87	9.057
280.23	8.561
280.60	7.774
280.97	8.084
281.34	9.492
281.71	8.703
282.08	8.766
282.45	8.113
282.82	7.576
283.19	8.418
283.56	10.239
283.92	8.689
284.29	8.799
284.66	7.611
285.03	6.003
285.40	10.000
285.77	8.539
286.14	9.192
286.51	9.164
286.87	7.942
287.24	4.968
287.61	8.025
287.98	7.825
288.35	7.752
288.72	9.939
289.08	6.132
289.45	6.864
289.82	6.522
290.19	8.636
290.56	7.959
290.93	7.976
291.29	7.518
291.66	8.989
292.03	8.178
292.40	7.626
292.77	6.268
293.13	7.930
293.50	7.163
293.87	8.599
294.24	8.708
294.60	8.333
294.97	6.648
295.34	4.932
295.71	5.825
296.08	7.377
296.44	6.324
296.81	6.080
297.18	5.821
297.55	7.161
297.91	6.345
298.28	5.627
298.65	8.021
299.02	6.905
299.38	5.995
299.75	7.593
300.12	7.314
300.48	6.690
300.85	6.112
301.22	6.731
301.59	6.326
301.95	7.073
302.32	7.290
302.69	5.707
303.05	6.494
303.42	6.763
303.79	5.618
304.15	5.776
304.52	7.039
304.89	6.201
305.25	6.193
305.62	6.818
305.99	4.703
306.35	5.369
306.72	6.100
307.09	5.876
307.45	6.365
307.82	7.898
308.19	6.821
308.55	6.329
308.92	5.508
309.29	5.858
309.65	6.398
310.02	6.499
310.38	7.036
310.75	6.250
311.12	5.799
311.48	7.194
311.85	5.978
312.22	6.508
312.58	6.244
312.95	6.674
313.31	7.178
313.68	5.561
314.05	7.547
314.41	5.796
314.78	5.528
315.14	5.583
315.51	6.356
315.87	6.543
316.24	7.319
316.61	6.796
316.97	5.980
317.34	5.742
317.70	6.629
318.07	5.882
318.43	6.711
318.80	5.373
319.16	6.990
319.53	6.415
319.89	6.818
320.26	6.883
320.62	6.395
320.99	7.041
321.35	6.621
321.72	7.273
322.08	6.832
322.45	5.819
322.81	6.995
323.18	6.520
323.54	6.540
323.91	7.875
324.27	6.943
324.64	5.717
325.00	6.915
325.37	7.914
325.73	6.204
326.10	6.655
326.46	6.618
326.83	6.772
327.19	6.463
327.56	6.543
327.92	5.729
328.29	5.645
328.65	8.098
329.01	6.330
329.38	6.428
329.74	7.799
330.11	6.617
330.47	6.890
330.84	6.673
331.20	6.470
331.56	5.472
331.93	6.679
332.29	7.031
332.66	7.414
333.02	6.778
333.38	7.169
333.75	6.679
334.11	7.776
334.48	6.619
334.84	6.103
335.20	6.535
335.57	8.356
335.93	6.419
336.29	5.941
336.66	7.468
337.02	6.618
337.38	5.943
337.75	7.273
338.11	6.563
338.47	6.871
338.84	7.090
339.20	7.333
339.56	6.803
339.93	6.396
340.29	7.978
340.65	5.845
341.02	5.403
341.38	6.090
341.74	7.473
342.11	7.073
342.47	5.944
342.83	5.637
343.20	6.278
343.56	6.556
343.92	6.912
344.28	5.146
344.65	7.106
345.01	5.923
345.37	5.128
345.73	6.288
346.10	7.001
346.46	6.385
346.82	6.117
347.19	6.476
347.55	6.463
347.91	6.061
348.27	6.066
348.63	5.877
349.00	6.845
349.36	7.090
349.72	6.240
350.08	6.465
350.45	6.509
350.81	6.524
351.17	6.260
351.53	5.233
351.89	5.786
352.26	6.748
352.62	5.560
352.98	6.444
353.34	6.600
353.70	5.844
354.07	6.590
354.43	5.092
354.79	6.639
355.15	6.295
355.51	6.520
355.87	6.245
356.24	7.680
356.60	6.093
356.96	6.477
357.32	6.255
357.68	6.603
358.04	6.564
358.40	6.056
358.77	6.506
359.13	6.827
359.49	5.520
359.85	6.395
360.21	6.106
360.57	6.300
360.93	6.413
361.29	5.685
361.66	5.994
362.02	6.515
362.38	6.527
362.74	6.303
363.10	6.486
363.46	6.245
363.82	6.815
364.18	6.207
364.54	6.794
364.90	6.000
365.26	6.706
365.62	6.359
365.98	6.822
366.35	6.732
366.71	6.124
367.07	6.790
367.43	5.415
367.79	6.250
368.15	5.782
368.51	6.816
368.87	6.681
369.23	6.207
369.59	5.735
369.95	6.781
370.31	6.061
370.67	6.842
371.03	6.502
371.39	6.344
371.75	5.646
372.11	6.296
372.47	5.791
372.83	6.136
373.19	6.551
373.55	6.063
373.91	5.833
374.27	7.285
374.63	6.038
374.99	6.003
375.35	6.313
375.71	6.528
376.07	6.360
376.42	6.639
376.78	5.296
377.14	6.425
377.50	6.156
377.86	6.825
378.22	6.341
378.58	5.789
378.94	7.007
379.30	5.920
379.66	6.722
380.02	5.658
380.38	6.234
380.74	6.712
381.09	5.972
381.45	6.032
381.81	7.270
382.17	7.296
382.53	6.443
382.89	5.773
383.25	6.341
383.61	5.912
383.97	6.433
384.32	6.323
384.68	6.450
385.04	6.174
385.40	5.559
385.76	6.199
386.12	5.941
386.48	5.740
386.83	6.188
387.19	6.130
387.55	6.153
387.91	5.794
388.27	5.694
388.62	6.736
388.98	6.361
389.34	5.660
389.70	6.410
390.06	5.677
390.42	5.544
390.77	6.103
391.13	5.986
391.49	6.604
391.85	6.587
392.20	6.205
392.56	5.501
392.92	6.308
393.28	6.224
393.64	5.763
393.99	5.584
394.35	6.489
394.71	5.894
395.07	6.233
395.42	6.476
395.78	6.048
396.14	6.262
396.50	6.727
396.85	6.543
397.21	6.210
397.57	5.596
397.92	7.061
398.28	6.894
398.64	5.778
399.00	7.255
399.35	6.624
399.71	5.449
400.07	6.238
400.42	7.500
400.78	6.462
401.14	6.755
401.49	6.621
401.85	6.286
402.21	6.662
402.57	5.795
402.92	6.375
403.28	6.437
403.63	6.282
403.99	6.209
404.35	5.924
404.70	6.016
405.06	6.510
405.42	6.246
405.77	6.183
406.13	5.974
406.49	5.552
406.84	6.974
407.20	6.444
407.55	6.747
407.91	6.294
408.27	6.981
408.62	5.788
408.98	6.950
409.34	6.146
409.69	6.288
410.05	6.153
410.40	5.588
410.76	6.600
411.11	5.753
411.47	6.395
411.83	5.473
412.18	6.937
412.54	6.274
412.89	6.088
413.25	6.458
413.60	6.760
413.96	5.955
414.31	6.501
414.67	7.090
415.03	6.155
415.38	6.058
415.74	6.447
416.09	6.478
416.45	6.794
416.80	5.494
417.16	5.994
417.51	6.593
417.87	7.319
418.22	6.217
418.58	6.151
418.93	6.963
419.29	5.699
419.64	6.525
420.00	6.680
420.35	6.403
420.71	6.914
421.06	6.749
421.42	6.462
421.77	7.247
422.12	6.025
422.48	6.511
422.83	6.930
423.19	7.529
423.54	5.254
423.90	6.242
424.25	5.740
424.61	5.484
424.96	6.634
425.31	5.797
425.67	6.061
426.02	6.149
426.38	6.306
426.73	6.604
427.09	6.632
427.44	6.111
427.79	7.178
428.15	5.707
428.50	6.470
428.85	6.414
429.21	7.352
429.56	6.685
429.92	6.436
430.27	6.400
430.62	6.760
430.98	6.824
431.33	7.175
431.68	7.002
432.04	6.559
432.39	6.774
432.74	5.629
433.10	6.246
433.45	6.903
433.80	6.726
434.16	6.157
434.51	7.135
434.86	6.828
435.22	6.636
435.57	6.728
435.92	5.387
436.28	6.600
436.63	6.440
436.98	6.852
437.34	6.590
437.69	6.667
438.04	6.010
438.39	6.397
438.75	7.138
439.10	7.083
439.45	6.162
439.81	7.365
440.16	6.679
440.51	5.948
440.86	6.313
441.22	6.968
441.57	6.724
441.92	6.626
442.27	6.000
442.63	5.813
442.98	6.846
443.33	7.168
443.68	6.434
444.03	7.526
444.39	5.778
444.74	6.297
445.09	6.198
445.44	6.706
445.79	6.149
446.15	6.297
446.50	6.420
446.85	6.766
447.20	6.072
447.55	6.515
447.91	6.349
448.26	6.825
448.61	6.647
448.96	6.801
449.31	6.088
449.66	6.659
450.02	6.450
450.37	7.290
450.72	7.481
451.07	5.999
451.42	7.246
451.77	5.864
452.12	6.454
452.47	6.301
452.83	7.098
453.18	6.752
453.53	7.642
453.88	6.828
454.23	7.284
454.58	7.441
454.93	6.335
455.28	6.585
455.63	7.147
455.98	7.678
456.34	6.899
456.69	6.432
457.04	6.299
457.39	6.742
457.74	6.384
458.09	6.783
458.44	6.744
458.79	6.537
459.14	6.798
459.49	6.115
459.84	7.551
460.19	7.442
460.54	6.503
460.89	6.471
461.24	6.883
461.59	7.382
461.94	7.101
462.29	7.331
462.64	6.964
462.99	7.252
463.34	7.326
463.69	7.613
464.04	6.799
464.39	6.817
464.74	7.268
465.09	7.331
465.44	6.839
465.79	6.919
466.14	6.862
466.49	7.793
466.84	6.450
467.19	7.862
467.54	6.631
467.89	6.924
468.24	7.197
468.59	7.134
468.94	6.859
469.29	7.958
469.64	7.075
469.99	6.273
470.34	7.001
470.68	6.846
471.03	7.518
471.38	7.255
471.73	7.267
472.08	7.687
472.43	7.676
472.78	6.744
473.13	7.158
473.48	6.985
473.83	7.332
474.17	6.738
474.52	7.368
474.87	6.881
475.22	7.433
475.57	7.286
475.92	7.277
476.27	7.474
476.61	7.920
476.96	7.350
477.31	7.934
477.66	7.728
478.01	7.240
478.36	7.163
478.70	8.563
479.05	6.326
479.40	7.463
479.75	7.740
480.10	7.251
480.45	8.115
480.79	7.265
481.14	7.696
481.49	7.506
481.84	7.273
482.19	7.415
482.53	8.137
482.88	7.219
483.23	7.940
483.58	7.327
483.92	7.940
484.27	7.260
484.62	8.062
484.97	7.557
485.31	7.618
485.66	6.864
486.01	6.669
486.36	6.684
486.70	6.662
487.05	6.812
487.40	6.598
487.75	7.100
488.09	7.018
488.44	7.461
488.79	7.951
489.13	6.858
489.48	7.465
489.83	7.906
490.17	7.454
490.52	7.887
490.87	8.259
491.22	8.284
491.56	7.856
491.91	7.932
492.26	7.649
492.60	8.061
492.95	7.906
493.30	7.475
493.64	8.519
493.99	7.752
494.34	8.819
494.68	7.532
495.03	7.860
495.37	8.160
495.72	7.911
496.07	7.606
496.41	7.658
496.76	7.736
497.11	7.681
497.45	8.237
497.80	8.204
498.14	8.025
498.49	8.863
498.84	7.652
499.18	7.525
499.53	7.736
499.87	7.834
500.22	7.792
500.56	8.530
500.91	8.600
501.26	7.822
501.60	8.359
501.95	7.830
502.29	8.158
502.64	8.014
502.98	7.875
503.33	8.088
503.67	8.627
504.02	8.376
504.36	8.064
504.71	8.032
505.06	8.034
505.40	9.008
505.75	8.425
506.09	7.963
506.44	7.886
506.78	7.655
507.13	8.198
507.47	8.421
507.82	7.701
508.16	8.073
508.51	9.573
508.85	8.187
509.19	7.735
509.54	8.555
509.88	7.825
510.23	8.876
510.57	8.291
510.92	8.503
511.26	8.558
511.61	8.847
511.95	8.386
512.30	8.290
512.64	9.384
512.98	8.978
513.33	7.855
513.67	8.084
514.02	8.774
514.36	8.837
514.70	8.804
515.05	9.329
515.39	8.846
515.74	8.897
516.08	8.098
516.42	9.385
516.77	9.193
517.11	8.930
517.46	9.244
517.80	9.509
518.14	9.614
518.49	9.897
518.83	9.533
519.17	9.126
519.52	8.994
519.86	9.563
520.20	8.535
520.55	9.334
520.89	9.514
521.23	10.087
521.58	8.532
521.92	9.012
522.26	9.072
522.61	9.010
522.95	9.521
523.29	8.772
523.64	9.159
523.98	8.804
524.32	9.966
524.66	8.973
525.01	9.141
525.35	8.960
525.69	9.566
526.04	10.571
526.38	10.555
526.72	10.972
527.06	9.775
527.41	9.284
527.75	8.615
528.09	9.618
528.43	9.851
528.78	8.595
529.12	9.452
529.46	8.505
529.80	9.054
530.15	9.590
530.49	9.623
530.83	8.821
531.17	9.393
531.51	10.207
531.86	10.784
532.20	9.091
532.54	8.849
532.88	9.673
533.22	9.339
533.57	9.310
533.91	9.842
534.25	9.165
534.59	9.078
534.93	9.201
535.27	8.956
535.62	9.318
535.96	9.281
536.30	10.160
536.64	9.514
536.98	9.587
537.32	10.714
537.66	10.557
538.01	10.162
538.35	10.473
538.69	9.625
539.03	9.517
539.37	8.830
539.71	8.841
540.05	9.479
540.39	9.223
540.73	10.183
541.07	8.971
541.42	9.480
541.76	9.281
542.10	9.971
542.44	10.477
542.78	8.578
543.12	8.809
543.46	10.283
543.80	9.507
544.14	9.964
544.48	9.825
544.82	9.155
545.16	9.710
545.50	8.879
545.84	10.680
546.18	9.813
546.52	10.069
546.86	9.181
547.20	9.848
547.54	9.629
547.88	9.544
548.22	9.634
548.56	9.725
548.90	9.404
549.24	10.380
549.58	10.656
549.92	10.301
550.26	10.270
550.60	9.992
550.94	10.238
551.28	10.000
551.62	10.647
551.96	9.984
552.30	9.302
552.64	9.241
552.98	9.658
553.32	9.242
553.66	10.698
554.00	9.653
554.34	10.391
554.68	10.287
555.02	10.317
555.36	10.405
555.69	9.147
556.03	8.943
556.37	10.203
556.71	9.804
557.05	9.297
557.39	10.040
557.73	9.198
558.07	9.859
558.41	9.577
558.75	10.539
559.08	10.553
559.42	10.201
559.76	10.615
560.10	10.106
560.44	10.135
560.78	9.391
561.12	9.166
561.45	8.854
561.79	9.178
562.13	8.747
562.47	9.021
562.81	9.780
563.15	9.354
563.48	9.438
563.82	9.534
564.16	9.144
564.50	8.883
564.84	10.206
565.17	9.943
565.51	9.782
565.85	10.211
566.19	9.534
566.52	9.247
566.86	9.495
567.20	9.448
567.54	9.062
567.88	9.041
568.21	9.730
568.55	8.829
568.89	9.011
569.23	9.237
569.56	8.828
569.90	8.565
570.24	8.865
570.57	7.863
570.91	8.297
571.25	8.471
571.59	8.656
571.92	7.690
572.26	8.485
572.60	7.633
572.93	7.629
573.27	7.657
573.61	7.892
573.95	7.751
574.28	7.779
574.62	7.512
574.96	7.249
575.29	7.357
575.63	7.393
575.97	7.433
576.30	7.924
576.64	7.552
576.98	7.149
577.31	7.849
577.65	7.453
577.98	7.506
578.32	7.509
578.66	7.343
578.99	7.582
579.33	7.262
579.67	7.799
580.00	7.425
580.34	7.702
580.67	8.037
581.01	7.771
581.35	7.496
581.68	6.852
582.02	6.913
582.35	7.200
582.69	7.213
583.02	7.380
583.36	7.493
583.70	7.427
584.03	7.401
584.37	7.993
584.70	7.773
585.04	7.241
585.37	7.335
585.71	7.528
586.04	7.354
586.38	7.709
586.72	7.153
587.05	7.720
587.39	7.752
587.72	7.474
588.06	7.766
588.39	7.566
588.73	7.433
589.06	7.249
589.40	8.201
589.73	8.153
590.07	7.859
590.40	8.383
590.73	8.580
591.07	7.922
591.40	8.132
591.74	8.442
592.07	8.023
592.41	8.903
592.74	8.266
593.08	8.340
593.41	7.988
593.75	7.583
594.08	7.544
594.41	8.440
594.75	7.361
595.08	8.220
595.42	8.149
595.75	7.765
596.09	8.127
596.42	8.076
596.75	9.000
597.09	8.116
597.42	8.118
597.75	9.099
598.09	8.287
598.42	8.661
598.76	8.880
599.09	8.277
599.42	7.592
599.76	7.611
600.09	8.304
600.42	6.953
600.76	7.775
601.09	7.765
601.42	8.132
601.76	7.792
602.09	8.169
602.42	8.554
602.76	8.246
603.09	8.355
603.42	7.794
603.76	7.889
604.09	7.644
604.42	8.158
604.76	7.942
605.09	8.361
605.42	8.483
605.75	7.949
606.09	8.356
606.42	8.005
606.75	8.126
607.09	8.862
607.42	9.041
607.75	7.805
608.08	8.980
608.42	8.050
608.75	7.554
609.08	7.370
609.41	9.279
609.75	8.215
610.08	8.527
610.41	8.499
610.74	8.443
611.07	8.778
611.41	8.512
611.74	8.760
612.07	8.315
612.40	8.579
612.73	8.449
613.07	8.925
613.40	9.028
613.73	8.305
614.06	8.314
614.39	8.319
614.72	7.497
615.06	9.357
615.39	8.776
615.72	8.903
616.05	8.638
616.38	8.363
616.71	8.831
617.05	8.794
617.38	8.839
617.71	9.732
618.04	9.330
618.37	8.829
618.70	9.307
619.03	10.080
619.36	10.088
619.69	8.942
620.03	9.611
620.36	9.902
620.69	9.904
621.02	8.709
621.35	10.043
621.68	9.811
622.01	9.537
622.34	9.129
622.67	9.022
623.00	9.828
623.33	9.843
623.66	9.482
623.99	9.091
624.32	9.531
624.65	8.906
624.99	8.672
625.32	9.084
625.65	9.928
625.98	10.000
626.31	9.264
626.64	10.180
626.97	11.489
627.30	9.444
627.63	10.977
627.96	9.497
628.29	9.751
628.62	10.619
628.95	9.926
629.28	10.744
629.61	10.345
629.94	10.892
630.26	11.506
630.59	11.937
630.92	9.800
631.25	11.285
631.58	10.233
631.91	11.048
632.24	11.834
632.57	11.653
632.90	12.177
633.23	12.129
633.56	11.195
633.89	12.269
634.22	13.462
634.55	12.221
634.88	13.387
635.20	12.329
635.53	12.709
635.86	12.228
636.19	11.323
636.52	11.456
636.85	11.473
637.18	11.399
637.51	12.602
637.83	11.453
638.16	12.233
638.49	13.256
638.82	11.111
639.15	11.714
639.48	10.771
639.81	10.283
640.13	11.332
640.46	12.283
640.79	11.163
641.12	13.488
641.45	12.597
641.77	10.987
642.10	14.169
642.43	12.795
642.76	12.007
643.09	13.841
643.41	11.290
643.74	13.194
644.07	11.287
644.40	9.747
644.73	12.707
645.05	13.359
645.38	12.308
645.71	12.405
646.04	15.242
646.36	11.364
646.69	14.700
647.02	16.016
647.35	13.800
647.67	16.433
648.00	14.757
648.33	12.717
648.66	15.770
648.98	13.051
649.31	12.392
649.64	11.360
649.96	12.838
650.29	10.442
650.62	12.430
650.94	13.494
651.27	10.790
651.60	13.002
651.92	12.023
652.25	10.516
652.58	11.849
652.90	11.744
653.23	10.969
653.56	12.674
653.88	11.679
654.21	11.342
654.54	12.758
654.86	13.489
655.19	10.000
