SpectraSuite Data File
++++++++++++++++++++++++++++++++++++
Date: Wed May 13 19:10:35 PDT 2015
User: schluterlab
Dark Spectrum Present: Yes
Reference Spectrum Present: Yes
Number of Sampled Component Spectra: 1
Spectrometers: USB2E3373
Integration Time (usec): 3000 (USB2E3373)
Spectra Averaged: 3 (USB2E3373)
Boxcar Smoothing: 0 (USB2E3373)
Correct for Electrical Dark: No (USB2E3373)
Strobe/Lamp Enabled: No (USB2E3373)
Correct for Detector Non-linearity: No (USB2E3373)
Correct for Stray Light: No (USB2E3373)
Number of Pixels in Processed Spectrum: 2048
>>>>>Begin Processed Spectral Data<<<<<
178.53	0.000
178.91	-1300.000
179.29	-1400.000
179.67	-255.556
180.04	-1425.000
180.42	2850.000
180.80	1080.000
181.18	-1250.000
181.56	857.143
181.94	0.000
182.31	-757.143
182.69	2000.000
183.07	-650.000
183.45	-711.111
183.83	563.636
184.20	-540.000
184.58	2850.000
184.96	5900.000
185.34	-920.000
185.72	-725.000
186.09	-2950.000
186.47	2950.000
186.85	2150.000
187.23	6200.000
187.61	-1833.333
187.98	1500.000
188.36	581.818
188.74	563.636
189.12	-1060.000
189.49	640.000
189.87	-6300.000
190.25	-1325.000
190.63	435.714
191.00	500.000
191.38	966.667
191.76	-1525.000
192.14	1550.000
192.51	812.500
192.89	1150.000
193.27	637.500
193.65	-1550.000
194.02	560.000
194.40	1140.000
194.78	640.000
195.15	700.000
195.53	730.000
195.91	-2450.000
196.29	443.750
196.66	310.526
197.04	-470.000
197.42	0.000
197.79	750.000
198.17	-6200.000
198.55	828.571
198.92	725.000
199.30	1180.000
199.68	0.000
200.05	383.333
200.43	900.000
200.81	4900.000
201.18	2033.333
201.56	-1733.333
201.94	666.667
202.31	666.667
202.69	533.333
203.07	700.000
203.44	0.000
203.82	1400.000
204.19	857.143
204.57	457.143
204.95	775.000
205.32	1766.667
205.70	572.727
206.08	500.000
206.45	3050.000
206.83	456.250
207.20	950.000
207.58	860.000
207.96	344.444
208.33	800.000
208.71	-966.667
209.08	742.857
209.46	600.000
209.84	572.727
210.21	-1866.667
210.59	1650.000
210.96	-550.000
211.34	2800.000
211.71	650.000
212.09	933.333
212.46	0.000
212.84	1533.333
213.22	1400.000
213.59	-6200.000
213.97	1016.667
214.34	900.000
214.72	672.727
215.09	1180.000
215.47	-2400.000
215.84	-2950.000
216.22	1966.667
216.59	514.286
216.97	1525.000
217.34	554.545
217.72	-900.000
218.09	0.000
218.47	-5900.000
218.84	744.444
219.22	1042.857
219.59	2066.667
219.97	-828.571
220.34	1180.000
220.72	-2366.667
221.09	442.857
221.47	1625.000
221.84	-1033.333
222.22	0.000
222.59	1500.000
222.97	-3000.000
223.34	1180.000
223.72	453.846
224.09	1300.000
224.46	3150.000
224.84	-5700.000
225.21	-1360.000
225.59	-6300.000
225.96	670.000
226.34	350.000
226.71	2950.000
227.08	825.000
227.46	620.000
227.83	-1325.000
228.21	-2900.000
228.58	777.778
228.95	-3050.000
229.33	-2950.000
229.70	2066.667
230.08	885.714
230.45	-1040.000
230.82	466.667
231.20	966.667
231.57	928.571
231.95	575.000
232.32	268.182
232.69	609.091
233.07	828.571
233.44	438.462
233.81	-2000.000
234.19	321.053
234.56	500.000
234.93	416.667
235.31	436.364
235.68	438.462
236.05	421.429
236.43	166.667
236.80	315.789
237.17	5700.000
237.55	304.762
237.92	239.286
238.29	300.000
238.67	219.355
239.04	206.897
239.41	175.000
239.79	130.435
240.16	145.238
240.53	150.000
240.91	131.373
241.28	120.000
241.65	112.000
242.02	117.391
242.40	111.290
242.77	110.000
243.14	94.624
243.51	89.888
243.89	85.882
244.26	82.222
244.63	87.097
245.00	85.106
245.38	71.287
245.75	70.093
246.12	67.890
246.49	73.723
246.87	72.800
247.24	66.154
247.61	62.143
247.98	58.170
248.36	58.108
248.73	51.592
249.10	56.051
249.47	53.107
249.84	56.684
250.22	49.198
250.59	53.254
250.96	51.010
251.33	52.607
251.70	50.495
252.08	46.190
252.45	45.291
252.82	45.652
253.19	44.681
253.56	40.000
253.94	46.058
254.31	48.047
254.68	44.615
255.05	46.125
255.42	40.244
255.79	39.706
256.16	44.043
256.54	37.456
256.91	39.858
257.28	35.612
257.65	37.954
258.02	40.373
258.39	38.170
258.76	39.799
259.14	38.690
259.51	36.778
259.88	35.714
260.25	36.254
260.62	34.971
260.99	33.230
261.36	38.739
261.73	34.384
262.10	36.047
262.47	38.028
262.85	35.655
263.22	34.188
263.59	37.037
263.96	34.890
264.33	33.943
264.70	32.368
265.07	35.806
265.44	33.838
265.81	32.117
266.18	36.935
266.55	32.195
266.92	29.730
267.29	33.796
267.66	30.963
268.03	34.091
268.40	31.542
268.77	31.265
269.14	31.757
269.51	33.183
269.88	31.702
270.25	32.054
270.62	33.258
270.99	33.978
271.36	31.760
271.73	32.243
272.10	32.391
272.47	30.753
272.84	32.035
273.21	30.818
273.58	29.913
273.95	29.560
274.32	29.545
274.69	31.263
275.06	28.346
275.43	32.766
275.80	29.860
276.17	28.921
276.54	33.264
276.91	30.237
277.28	30.859
277.65	29.014
278.02	28.364
278.39	30.078
278.76	28.545
279.13	30.755
279.50	30.168
279.87	29.681
280.23	28.942
280.60	28.240
280.97	27.172
281.34	30.088
281.71	28.909
282.08	28.791
282.45	27.091
282.82	29.130
283.19	26.203
283.56	28.772
283.92	29.442
284.29	27.690
284.66	27.949
285.03	28.029
285.40	26.585
285.77	27.104
286.14	27.461
286.51	28.167
286.87	25.983
287.24	28.502
287.61	27.127
287.98	26.136
288.35	26.307
288.72	24.611
289.08	27.856
289.45	25.371
289.82	24.390
290.19	25.903
290.56	24.502
290.93	25.982
291.29	25.613
291.66	24.631
292.03	25.727
292.40	24.670
292.77	23.964
293.13	24.478
293.50	23.907
293.87	23.704
294.24	24.000
294.60	22.999
294.97	22.820
295.34	24.542
295.71	24.574
296.08	23.362
296.44	21.871
296.81	22.193
297.18	24.797
297.55	19.657
297.91	22.427
298.28	22.490
298.65	22.324
299.02	20.817
299.38	22.178
299.75	21.024
300.12	21.328
300.48	20.000
300.85	19.975
301.22	21.529
301.59	20.328
301.95	20.907
302.32	20.026
302.69	21.505
303.05	19.758
303.42	20.247
303.79	20.612
304.15	19.231
304.52	20.278
304.89	19.280
305.25	19.838
305.62	19.479
305.99	20.543
306.35	19.016
306.72	20.740
307.09	20.200
307.45	22.635
307.82	18.080
308.19	20.199
308.55	21.575
308.92	19.979
309.29	19.958
309.65	20.255
310.02	19.450
310.38	20.215
310.75	19.958
311.12	19.754
311.48	19.018
311.85	19.497
312.22	20.395
312.58	20.374
312.95	20.063
313.31	20.194
313.68	19.231
314.05	23.077
314.41	20.804
314.78	21.652
315.14	21.251
315.51	21.318
315.87	21.089
316.24	21.351
316.61	21.735
316.97	22.114
317.34	21.722
317.70	23.709
318.07	22.522
318.43	23.777
318.80	23.993
319.16	24.482
319.53	23.827
319.89	26.000
320.26	27.700
320.62	27.579
320.99	27.980
321.35	29.192
321.72	30.082
322.08	30.306
322.45	32.338
322.81	32.074
323.18	33.333
323.54	33.952
323.91	34.717
324.27	32.696
324.64	34.576
325.00	36.069
325.37	39.217
325.73	40.305
326.10	40.071
326.46	41.667
326.83	42.623
327.19	43.553
327.56	46.429
327.92	47.244
328.29	48.891
328.65	48.803
329.01	51.534
329.38	51.619
329.74	53.278
330.11	54.383
330.47	55.188
330.84	55.423
331.20	54.645
331.56	56.881
331.93	56.759
332.29	57.764
332.66	59.646
333.02	59.781
333.38	60.253
333.75	60.428
334.11	60.587
334.48	60.870
334.84	62.408
335.20	63.636
335.57	64.007
335.93	62.232
336.29	64.194
336.66	66.005
337.02	64.072
337.38	64.259
337.75	65.241
338.11	64.996
338.47	65.470
338.84	65.720
339.20	65.413
339.56	67.062
339.93	67.182
340.29	65.761
340.65	65.152
341.02	65.881
341.38	66.726
341.74	67.982
342.11	68.122
342.47	69.251
342.83	66.695
343.20	66.926
343.56	65.796
343.92	68.246
344.28	68.112
344.65	68.272
345.01	66.162
345.37	68.096
345.73	68.528
346.10	69.054
346.46	68.644
346.82	67.957
347.19	67.586
347.55	66.667
347.91	68.123
348.27	69.433
348.63	69.231
349.00	67.638
349.36	68.801
349.72	67.682
350.08	69.368
350.45	68.592
350.81	69.131
351.17	68.720
351.53	67.895
351.89	68.812
352.26	68.429
352.62	69.046
352.98	69.044
353.34	69.187
353.70	68.576
354.07	68.306
354.43	68.730
354.79	69.912
355.15	67.518
355.51	69.145
355.87	71.102
356.24	70.440
356.60	68.083
356.96	70.555
357.32	70.401
357.68	68.425
358.04	68.804
358.40	69.279
358.77	69.405
359.13	70.403
359.49	69.882
359.85	69.286
360.21	71.292
360.57	69.339
360.93	71.615
361.29	70.295
361.66	68.653
362.02	69.254
362.38	71.179
362.74	70.685
363.10	69.652
363.46	70.286
363.82	71.051
364.18	69.971
364.54	71.174
364.90	70.963
365.26	69.926
365.62	71.804
365.98	70.051
366.35	68.983
366.71	70.210
367.07	71.668
367.43	71.843
367.79	70.807
368.15	71.983
368.51	71.584
368.87	70.878
369.23	71.397
369.59	72.918
369.95	70.662
370.31	70.442
370.67	72.101
371.03	71.910
371.39	71.647
371.75	72.426
372.11	69.559
372.47	72.874
372.83	72.334
373.19	71.749
373.55	71.619
373.91	72.533
374.27	70.790
374.63	74.182
374.99	72.105
375.35	72.226
375.71	72.310
376.07	72.359
376.42	72.283
376.78	73.691
377.14	72.117
377.50	73.311
377.86	71.875
378.22	71.997
378.58	70.614
378.94	72.973
379.30	72.964
379.66	73.858
380.02	73.956
380.38	73.103
380.74	72.989
381.09	72.861
381.45	72.833
381.81	72.912
382.17	73.822
382.53	72.956
382.89	74.321
383.25	74.046
383.61	73.606
383.97	72.921
384.32	71.803
384.68	72.739
385.04	72.342
385.40	71.641
385.76	72.604
386.12	73.251
386.48	73.128
386.83	74.792
387.19	73.902
387.55	72.789
387.91	71.584
388.27	73.942
388.62	73.325
388.98	72.604
389.34	72.841
389.70	72.287
390.06	72.877
390.42	73.735
390.77	72.774
391.13	73.261
391.49	72.081
391.85	72.947
392.20	71.672
392.56	73.990
392.92	72.631
393.28	72.308
393.64	73.681
393.99	71.778
394.35	71.030
394.71	70.828
395.07	71.153
395.42	73.548
395.78	72.201
396.14	69.832
396.50	72.807
396.85	72.537
397.21	72.750
397.57	71.110
397.92	72.356
398.28	71.076
398.64	71.087
399.00	70.845
399.35	70.897
399.71	71.470
400.07	70.668
400.42	72.086
400.78	71.472
401.14	73.171
401.49	71.343
401.85	71.506
402.21	68.323
402.57	70.635
402.92	71.501
403.28	71.830
403.63	69.988
403.99	70.892
404.35	69.758
404.70	71.403
405.06	70.646
405.42	70.930
405.77	69.543
406.13	69.131
406.49	69.781
406.84	68.931
407.20	69.090
407.55	70.772
407.91	70.733
408.27	70.325
408.62	69.476
408.98	68.873
409.34	70.111
409.69	69.484
410.05	70.260
410.40	69.969
410.76	67.682
411.11	68.335
411.47	68.179
411.83	68.540
412.18	68.707
412.54	69.116
412.89	69.036
413.25	68.831
413.60	68.993
413.96	68.063
414.31	69.320
414.67	69.772
415.03	69.338
415.38	69.845
415.74	68.232
416.09	69.693
416.45	69.679
416.80	70.588
417.16	69.437
417.51	70.272
417.87	69.942
418.22	69.842
418.58	69.206
418.93	69.287
419.29	69.892
419.64	70.025
420.00	68.963
420.35	69.101
420.71	70.173
421.06	70.644
421.42	69.532
421.77	68.554
422.12	68.445
422.48	69.617
422.83	70.239
423.19	68.343
423.54	69.240
423.90	70.435
424.25	68.956
424.61	69.226
424.96	70.379
425.31	69.823
425.67	68.989
426.02	69.943
426.38	71.429
426.73	69.982
427.09	71.185
427.44	70.845
427.79	70.270
428.15	70.595
428.50	69.046
428.85	70.083
429.21	69.520
429.56	70.036
429.92	71.968
430.27	71.202
430.62	70.251
430.98	70.109
431.33	71.082
431.68	71.571
432.04	69.542
432.39	71.788
432.74	71.993
433.10	72.326
433.45	73.003
433.80	72.838
434.16	71.474
434.51	70.474
434.86	71.380
435.22	71.984
435.57	72.766
435.92	71.738
436.28	74.377
436.63	71.909
436.98	72.295
437.34	74.776
437.69	72.754
438.04	73.524
438.39	73.731
438.75	73.504
439.10	74.637
439.45	74.380
439.81	74.924
440.16	74.421
440.51	74.282
440.86	75.101
441.22	74.527
441.57	74.575
441.92	74.719
442.27	74.381
442.63	73.828
442.98	76.113
443.33	73.804
443.68	74.755
444.03	74.475
444.39	74.976
444.74	75.541
445.09	76.011
445.44	74.358
445.79	75.111
446.15	74.643
446.50	75.229
446.85	75.385
447.20	75.778
447.55	78.671
447.91	76.117
448.26	76.349
448.61	76.258
448.96	77.132
449.31	76.772
449.66	75.577
450.02	75.933
450.37	76.077
450.72	78.342
451.07	75.868
451.42	75.805
451.77	77.745
452.12	74.249
452.47	77.301
452.83	77.448
453.18	74.572
453.53	78.417
453.88	77.082
454.23	75.852
454.58	77.650
454.93	78.830
455.28	77.120
455.63	77.791
455.98	78.810
456.34	78.580
456.69	78.647
457.04	77.895
457.39	77.206
457.74	77.075
458.09	77.458
458.44	77.309
458.79	75.325
459.14	77.201
459.49	76.591
459.84	78.283
460.19	77.725
460.54	75.116
460.89	77.564
461.24	77.474
461.59	77.687
461.94	77.559
462.29	79.110
462.64	77.792
462.99	75.992
463.34	79.200
463.69	78.674
464.04	77.739
464.39	76.174
464.74	77.659
465.09	78.046
465.44	76.731
465.79	76.902
466.14	76.847
466.49	76.474
466.84	78.050
467.19	76.765
467.54	78.625
467.89	77.371
468.24	77.545
468.59	78.938
468.94	76.176
469.29	78.406
469.64	78.648
469.99	79.026
470.34	79.194
470.68	78.807
471.03	77.415
471.38	79.013
471.73	77.748
472.08	78.750
472.43	77.261
472.78	77.814
473.13	78.177
473.48	78.027
473.83	78.963
474.17	78.594
474.52	78.598
474.87	78.109
475.22	79.396
475.57	76.303
475.92	76.527
476.27	76.888
476.61	77.275
476.96	77.625
477.31	76.347
477.66	78.775
478.01	76.529
478.36	78.107
478.70	77.259
479.05	77.423
479.40	78.096
479.75	77.072
480.10	77.286
480.45	75.773
480.79	76.636
481.14	77.691
481.49	78.215
481.84	77.138
482.19	78.328
482.53	77.248
482.88	76.780
483.23	77.523
483.58	76.843
483.92	77.788
484.27	75.294
484.62	76.250
484.97	76.232
485.31	78.836
485.66	78.515
486.01	75.958
486.36	72.865
486.70	72.255
487.05	73.117
487.40	74.183
487.75	75.082
488.09	76.312
488.44	75.884
488.79	78.047
489.13	77.846
489.48	76.958
489.83	77.126
490.17	78.036
490.52	76.749
490.87	77.702
491.22	77.672
491.56	76.082
491.91	77.059
492.26	77.492
492.60	75.207
492.95	76.146
493.30	76.636
493.64	77.648
493.99	75.534
494.34	77.151
494.68	77.610
495.03	77.820
495.37	75.756
495.72	78.363
496.07	77.169
496.41	76.770
496.76	77.353
497.11	76.317
497.45	76.106
497.80	77.063
498.14	76.473
498.49	76.878
498.84	76.510
499.18	77.000
499.53	77.208
499.87	76.468
500.22	77.249
500.56	78.447
500.91	77.452
501.26	76.624
501.60	77.741
501.95	75.619
502.29	77.320
502.64	76.536
502.98	77.560
503.33	75.457
503.67	77.494
504.02	77.596
504.36	76.041
504.71	76.746
505.06	77.639
505.40	76.519
505.75	76.181
506.09	76.336
506.44	76.912
506.78	77.107
507.13	79.001
507.47	77.374
507.82	78.065
508.16	77.406
508.51	78.945
508.85	76.117
509.19	76.735
509.54	77.296
509.88	76.249
510.23	76.710
510.57	78.173
510.92	78.819
511.26	76.362
511.61	77.645
511.95	76.827
512.30	78.155
512.64	78.130
512.98	76.688
513.33	76.338
513.67	74.867
514.02	76.245
514.36	77.772
514.70	77.366
515.05	76.743
515.39	76.444
515.74	76.689
516.08	78.200
516.42	77.026
516.77	77.425
517.11	76.415
517.46	77.370
517.80	79.036
518.14	77.244
518.49	79.055
518.83	76.932
519.17	77.425
519.52	76.457
519.86	76.954
520.20	77.399
520.55	78.995
520.89	79.440
521.23	78.890
521.58	76.771
521.92	79.424
522.26	76.144
522.61	79.315
522.95	77.287
523.29	77.237
523.64	78.171
523.98	78.681
524.32	76.236
524.66	76.969
525.01	77.206
525.35	77.757
525.69	75.924
526.04	77.882
526.38	75.900
526.72	76.564
527.06	78.782
527.41	75.681
527.75	78.135
528.09	77.328
528.43	77.438
528.78	78.365
529.12	76.242
529.46	77.036
529.80	77.413
530.15	78.567
530.49	76.369
530.83	77.468
531.17	79.178
531.51	78.470
531.86	78.581
532.20	77.184
532.54	76.297
532.88	77.535
533.22	75.828
533.57	76.975
533.91	75.978
534.25	75.273
534.59	77.425
534.93	76.205
535.27	77.731
535.62	76.740
535.96	76.648
536.30	78.576
536.64	76.561
536.98	77.240
537.32	76.827
537.66	78.133
538.01	76.959
538.35	76.083
538.69	77.601
539.03	75.439
539.37	76.486
539.71	75.956
540.05	78.105
540.39	77.807
540.73	76.714
541.07	76.898
541.42	78.082
541.76	77.419
542.10	76.132
542.44	78.278
542.78	77.470
543.12	75.560
543.46	75.869
543.80	77.098
544.14	76.508
544.48	76.698
544.82	76.716
545.16	78.009
545.50	75.578
545.84	76.411
546.18	76.970
546.52	77.632
546.86	77.388
547.20	77.073
547.54	77.822
547.88	77.870
548.22	75.903
548.56	76.038
548.90	76.569
549.24	77.172
549.58	77.763
549.92	77.953
550.26	77.699
550.60	75.450
550.94	78.169
551.28	77.981
551.62	79.152
551.96	75.579
552.30	77.816
552.64	77.350
552.98	76.881
553.32	77.141
553.66	77.232
554.00	78.243
554.34	77.433
554.68	79.041
555.02	76.939
555.36	76.896
555.69	76.184
556.03	77.389
556.37	77.149
556.71	76.808
557.05	77.591
557.39	77.957
557.73	76.429
558.07	78.970
558.41	78.075
558.75	77.296
559.08	78.300
559.42	77.853
559.76	76.985
560.10	77.516
560.44	76.520
560.78	76.647
561.12	77.177
561.45	77.379
561.79	76.994
562.13	76.593
562.47	77.596
562.81	78.870
563.15	76.990
563.48	76.525
563.82	79.583
564.16	76.913
564.50	78.125
564.84	76.802
565.17	77.606
565.51	77.891
565.85	77.094
566.19	76.331
566.52	77.961
566.86	77.637
567.20	77.830
567.54	76.941
567.88	75.937
568.21	77.196
568.55	75.581
568.89	76.654
569.23	75.134
569.56	75.263
569.90	73.811
570.24	75.673
570.57	73.580
570.91	73.142
571.25	73.996
571.59	73.726
571.92	74.453
572.26	74.379
572.60	74.835
572.93	74.003
573.27	74.002
573.61	73.953
573.95	74.186
574.28	72.864
574.62	74.514
574.96	73.262
575.29	73.788
575.63	73.908
575.97	74.408
576.30	74.057
576.64	73.819
576.98	73.675
577.31	74.399
577.65	74.072
577.98	73.784
578.32	73.213
578.66	74.004
578.99	74.298
579.33	73.977
579.67	73.680
580.00	73.651
580.34	75.202
580.67	74.096
581.01	73.420
581.35	74.637
581.68	74.670
582.02	73.902
582.35	74.340
582.69	74.133
583.02	75.016
583.36	74.683
583.70	74.950
584.03	75.888
584.37	75.257
584.70	75.679
585.04	74.609
585.37	74.604
585.71	76.010
586.04	74.801
586.38	76.567
586.72	76.194
587.05	74.654
587.39	74.776
587.72	75.238
588.06	76.307
588.39	76.214
588.73	75.506
589.06	77.625
589.40	77.677
589.73	77.156
590.07	77.438
590.40	75.813
590.73	77.674
591.07	78.348
591.40	77.309
591.74	77.316
592.07	77.618
592.41	76.726
592.74	76.891
593.08	75.816
593.41	75.957
593.75	74.891
594.08	76.198
594.41	77.024
594.75	78.189
595.08	76.450
595.42	77.338
595.75	77.208
596.09	77.394
596.42	77.289
596.75	77.839
597.09	77.056
597.42	75.759
597.75	77.706
598.09	78.304
598.42	76.804
598.76	77.017
599.09	76.815
599.42	76.492
599.76	77.855
600.09	77.741
600.42	76.589
600.76	77.143
601.09	76.612
601.42	78.577
601.76	77.381
602.09	77.273
602.42	78.145
602.76	79.121
603.09	77.970
603.42	77.118
603.76	76.258
604.09	76.813
604.42	77.742
604.76	78.364
605.09	78.637
605.42	76.101
605.75	78.146
606.09	77.918
606.42	78.504
606.75	78.059
607.09	77.020
607.42	78.306
607.75	77.975
608.08	78.897
608.42	77.723
608.75	77.502
609.08	77.706
609.41	77.487
609.75	78.466
610.08	78.605
610.41	78.119
610.74	78.713
611.07	79.397
611.41	78.214
611.74	80.191
612.07	79.193
612.40	80.010
612.73	77.421
613.07	80.065
613.40	78.884
613.73	78.710
614.06	79.032
614.39	77.871
614.72	78.053
615.06	79.044
615.39	79.406
615.72	78.834
616.05	78.416
616.38	78.877
616.71	80.404
617.05	80.448
617.38	79.976
617.71	79.760
618.04	81.370
618.37	77.765
618.70	79.963
619.03	81.118
619.36	79.769
619.69	80.704
620.03	81.731
620.36	81.150
620.69	79.726
621.02	80.900
621.35	81.363
621.68	80.062
622.01	79.644
622.34	82.526
622.67	81.369
623.00	80.411
623.33	80.772
623.66	79.700
623.99	81.296
624.32	79.244
624.65	80.085
624.99	79.037
625.32	80.666
625.65	80.015
625.98	81.783
626.31	81.026
626.64	80.490
626.97	83.292
627.30	80.881
627.63	81.460
627.96	83.768
628.29	82.240
628.62	82.891
628.95	83.302
629.28	82.664
629.61	82.951
629.94	84.857
630.26	83.222
630.59	81.506
