SpectraSuite Data File
++++++++++++++++++++++++++++++++++++
Date: Wed May 13 19:10:06 PDT 2015
User: schluterlab
Dark Spectrum Present: Yes
Reference Spectrum Present: Yes
Number of Sampled Component Spectra: 1
Spectrometers: USB2E3373
Integration Time (usec): 3000 (USB2E3373)
Spectra Averaged: 3 (USB2E3373)
Boxcar Smoothing: 0 (USB2E3373)
Correct for Electrical Dark: No (USB2E3373)
Strobe/Lamp Enabled: No (USB2E3373)
Correct for Detector Non-linearity: No (USB2E3373)
Correct for Stray Light: No (USB2E3373)
Number of Pixels in Processed Spectrum: 2048
>>>>>Begin Processed Spectral Data<<<<<
178.53	0.000
178.91	-1450.000
179.29	-1425.000
179.67	-255.556
180.04	-1575.000
180.42	2750.000
180.80	1320.000
181.18	-1100.000
181.56	757.143
181.94	0.000
182.31	-728.571
182.69	1966.667
183.07	-725.000
183.45	-455.556
183.83	618.182
184.20	-390.000
184.58	3000.000
184.96	6300.000
185.34	-980.000
185.72	-762.500
186.09	-3150.000
186.47	2700.000
186.85	3050.000
187.23	5000.000
187.61	-1866.667
187.98	1425.000
188.36	627.273
188.74	536.364
189.12	-1020.000
189.49	690.000
189.87	-5700.000
190.25	-1225.000
190.63	492.857
191.00	538.462
191.38	866.667
191.76	-1425.000
192.14	1700.000
192.51	837.500
192.89	1000.000
193.27	725.000
193.65	-1075.000
194.02	570.000
194.40	940.000
194.78	590.000
195.15	600.000
195.53	650.000
195.91	-2400.000
196.29	350.000
196.66	363.158
197.04	-440.000
197.42	0.000
197.79	650.000
198.17	-5700.000
198.55	857.143
198.92	775.000
199.30	840.000
199.68	0.000
200.05	383.333
200.43	928.571
200.81	5100.000
201.18	1866.667
201.56	-1600.000
201.94	711.111
202.31	644.444
202.69	575.000
203.07	610.000
203.44	0.000
203.82	1400.000
204.19	785.714
204.57	442.857
204.95	787.500
205.32	1800.000
205.70	600.000
206.08	414.286
206.45	3300.000
206.83	375.000
207.20	1016.667
207.58	900.000
207.96	366.667
208.33	900.000
208.71	-983.333
209.08	942.857
209.46	666.667
209.84	627.273
210.21	-1900.000
210.59	1650.000
210.96	-637.500
211.34	2950.000
211.71	600.000
212.09	866.667
212.46	0.000
212.84	1933.333
213.22	1450.000
213.59	-5800.000
213.97	933.333
214.34	785.714
214.72	654.545
215.09	1120.000
215.47	-2350.000
215.84	-3400.000
216.22	2166.667
216.59	457.143
216.97	1550.000
217.34	536.364
217.72	-850.000
218.09	0.000
218.47	-5700.000
218.84	711.111
219.22	914.286
219.59	1900.000
219.97	-700.000
220.34	1100.000
220.72	-2100.000
221.09	478.571
221.47	1700.000
221.84	-1183.333
222.22	0.000
222.59	1600.000
222.97	-3100.000
223.34	1120.000
223.72	476.923
224.09	1180.000
224.46	2700.000
224.84	-5500.000
225.21	-1180.000
225.59	-5600.000
225.96	670.000
226.34	370.000
226.71	2750.000
227.08	750.000
227.46	580.000
227.83	-1200.000
228.21	-2400.000
228.58	655.556
228.95	-2750.000
229.33	-2750.000
229.70	2100.000
230.08	828.571
230.45	-1060.000
230.82	541.667
231.20	1033.333
231.57	771.429
231.95	491.667
232.32	331.818
232.69	400.000
233.07	814.286
233.44	423.077
233.81	-1933.333
234.19	352.632
234.56	591.667
234.93	366.667
235.31	572.727
235.68	430.769
236.05	492.857
236.43	200.000
236.80	342.105
237.17	5300.000
237.55	280.952
237.92	232.143
238.29	242.857
238.67	200.000
239.04	231.034
239.41	194.444
239.79	123.913
240.16	130.952
240.53	131.818
240.91	123.529
241.28	114.000
241.65	118.000
242.02	91.304
242.40	93.548
242.77	105.000
243.14	75.269
243.51	82.022
243.89	67.059
244.26	68.889
244.63	62.366
245.00	73.404
245.38	55.446
245.75	60.748
246.12	56.881
246.49	59.854
246.87	68.800
247.24	56.923
247.61	47.857
247.98	46.405
248.36	43.919
248.73	49.682
249.10	49.682
249.47	45.198
249.84	51.337
250.22	45.455
250.59	42.604
250.96	43.939
251.33	41.706
251.70	43.564
252.08	35.714
252.45	37.668
252.82	37.826
253.19	40.426
253.56	30.980
253.94	37.759
254.31	38.672
254.68	36.154
255.05	37.269
255.42	31.707
255.79	31.985
256.16	34.657
256.54	34.629
256.91	33.452
257.28	30.216
257.65	33.003
258.02	32.298
258.39	31.230
258.76	32.107
259.14	30.952
259.51	28.875
259.88	26.398
260.25	32.024
260.62	29.480
260.99	27.950
261.36	31.532
261.73	28.080
262.10	25.291
262.47	27.324
262.85	28.691
263.22	26.496
263.59	32.194
263.96	26.374
264.33	30.026
264.70	26.842
265.07	28.133
265.44	25.000
265.81	25.547
266.18	27.889
266.55	25.122
266.92	28.256
267.29	24.306
267.66	23.853
268.03	25.000
268.40	24.065
268.77	23.628
269.14	24.550
269.51	25.734
269.88	24.942
270.25	25.056
270.62	25.843
270.99	26.882
271.36	25.536
271.73	23.364
272.10	23.261
272.47	24.731
272.84	26.840
273.21	22.851
273.58	22.926
273.95	21.174
274.32	21.901
274.69	23.126
275.06	21.457
275.43	24.468
275.80	23.848
276.17	21.385
276.54	23.285
276.91	22.530
277.28	20.898
277.65	22.824
278.02	21.739
278.39	24.219
278.76	21.818
279.13	23.019
279.50	24.581
279.87	22.709
280.23	21.756
280.60	20.309
280.97	22.921
281.34	23.540
281.71	20.909
282.08	24.184
282.45	19.636
282.82	22.735
283.19	20.321
283.56	24.561
283.92	21.997
284.29	20.106
284.66	22.323
285.03	21.881
285.40	19.894
285.77	21.886
286.14	18.653
286.51	20.500
286.87	22.051
287.24	22.313
287.61	20.706
287.98	21.916
288.35	19.651
288.72	20.093
289.08	19.405
289.45	19.605
289.82	20.488
290.19	20.251
290.56	19.142
290.93	17.976
291.29	18.252
291.66	19.469
292.03	19.041
292.40	19.236
292.77	17.160
293.13	19.254
293.50	18.222
293.87	19.259
294.24	16.889
294.60	19.214
294.97	18.169
295.34	17.772
295.71	18.608
296.08	16.809
296.44	17.194
296.81	16.645
297.18	17.751
297.55	15.303
297.91	17.018
298.28	17.403
298.65	17.885
299.02	17.523
299.38	15.936
299.75	16.038
300.12	16.092
300.48	16.625
300.85	16.276
301.22	15.669
301.59	16.162
301.95	16.121
302.32	16.816
302.69	14.337
303.05	15.879
303.42	16.296
303.79	16.082
304.15	15.268
304.52	15.411
304.89	15.796
305.25	16.473
305.62	16.082
305.99	15.584
306.35	17.002
306.72	15.471
307.09	17.314
307.45	16.554
307.82	15.067
308.19	15.342
308.55	15.534
308.92	14.930
309.29	13.939
309.65	14.740
310.02	15.328
310.38	15.699
310.75	14.256
311.12	14.637
311.48	15.883
311.85	16.038
312.22	15.297
312.58	13.825
312.95	16.262
313.31	14.466
313.68	13.721
314.05	15.779
314.41	15.779
314.78	14.602
315.14	14.896
315.51	14.315
315.87	14.950
316.24	14.796
316.61	14.230
316.97	13.992
317.34	14.090
317.70	14.532
318.07	14.629
318.43	15.656
318.80	15.089
319.16	14.972
319.53	14.071
319.89	14.762
320.26	15.000
320.62	14.087
320.99	15.859
321.35	13.838
321.72	14.271
322.08	14.511
322.45	15.821
322.81	14.922
323.18	15.703
323.54	14.471
323.91	13.302
324.27	13.767
324.64	14.073
325.00	13.165
325.37	13.831
325.73	13.285
326.10	13.945
326.46	12.814
326.83	13.115
327.19	13.493
327.56	12.979
327.92	13.648
328.29	13.665
328.65	14.088
329.01	13.899
329.38	13.321
329.74	13.943
330.11	12.912
330.47	13.682
330.84	14.798
331.20	13.934
331.56	13.486
331.93	13.426
332.29	13.665
332.66	14.071
333.02	14.077
333.38	13.279
333.75	14.528
334.11	13.434
334.48	13.753
334.84	13.327
335.20	14.545
335.57	12.783
335.93	11.875
336.29	13.645
336.66	13.886
337.02	12.851
337.38	13.519
337.75	12.299
338.11	12.892
338.47	11.878
338.84	13.566
339.20	12.661
339.56	14.051
339.93	12.000
340.29	12.591
340.65	13.102
341.02	13.089
341.38	13.523
341.74	12.456
342.11	13.362
342.47	12.247
342.83	12.842
343.20	13.074
343.56	12.468
343.92	12.105
344.28	13.095
344.65	12.296
345.01	11.869
345.37	11.921
345.73	13.113
346.10	13.640
346.46	13.051
346.82	12.356
347.19	12.281
347.55	12.479
347.91	13.835
348.27	13.065
348.63	12.960
349.00	12.702
349.36	12.562
349.72	12.269
350.08	11.994
350.45	12.368
350.81	11.779
351.17	12.480
351.53	12.285
351.89	13.036
352.26	13.181
352.62	12.911
352.98	12.075
353.34	12.408
353.70	10.966
354.07	12.097
354.43	12.302
354.79	11.424
355.15	11.572
355.51	13.749
355.87	12.898
356.24	12.215
356.60	12.029
356.96	12.872
357.32	10.793
357.68	13.150
358.04	11.797
358.40	12.827
358.77	12.911
359.13	11.602
359.49	11.608
359.85	11.032
360.21	11.962
360.57	11.907
360.93	12.077
361.29	11.565
361.66	11.997
362.02	12.015
362.38	11.635
362.74	12.054
363.10	10.659
363.46	11.079
363.82	11.943
364.18	11.087
364.54	12.259
364.90	11.827
365.26	11.765
365.62	11.614
365.98	11.103
366.35	10.745
366.71	11.424
367.07	11.653
367.43	10.595
367.79	13.062
368.15	11.710
368.51	11.337
368.87	12.348
369.23	11.339
369.59	11.441
369.95	10.662
370.31	10.969
370.67	10.435
371.03	11.610
371.39	11.224
371.75	10.294
372.11	11.024
372.47	11.510
372.83	11.960
373.19	10.838
373.55	11.752
373.91	11.561
374.27	10.034
374.63	11.055
374.99	12.147
375.35	11.096
375.71	10.075
376.07	12.003
376.42	11.073
376.78	11.730
377.14	10.787
377.50	11.258
377.86	11.636
378.22	11.315
378.58	10.088
378.94	11.314
379.30	9.924
379.66	11.041
380.02	11.241
380.38	10.686
380.74	10.864
381.09	10.452
381.45	11.248
381.81	11.609
382.17	10.446
382.53	10.629
382.89	10.617
383.25	9.694
383.61	10.533
383.97	11.632
384.32	10.667
384.68	9.913
385.04	9.896
385.40	10.898
385.76	11.241
386.12	9.909
386.48	10.824
386.83	10.712
387.19	11.441
387.55	11.194
387.91	11.064
388.27	9.994
388.62	10.510
388.98	10.504
389.34	10.701
389.70	10.668
390.06	11.280
390.42	10.700
390.77	11.260
391.13	11.040
391.49	10.533
391.85	10.885
392.20	9.464
392.56	10.732
392.92	10.241
393.28	8.817
393.64	10.671
393.99	10.935
394.35	10.236
394.71	10.602
395.07	10.592
395.42	10.012
395.78	10.178
396.14	10.180
396.50	9.837
396.85	10.871
397.21	9.618
397.57	10.229
397.92	10.276
398.28	9.249
398.64	10.693
399.00	10.129
399.35	9.588
399.71	10.127
400.07	10.822
400.42	10.307
400.78	10.736
401.14	9.634
401.49	10.149
401.85	9.558
402.21	9.521
402.57	10.857
402.92	9.836
403.28	9.744
403.63	10.829
403.99	9.745
404.35	10.545
404.70	9.472
405.06	9.552
405.42	10.480
405.77	9.657
406.13	10.158
406.49	10.822
406.84	9.864
407.20	8.688
407.55	9.126
407.91	9.800
408.27	9.700
408.62	9.813
408.98	9.865
409.34	10.025
409.69	10.129
410.05	9.913
410.40	9.786
410.76	9.438
411.11	10.495
411.47	10.096
411.83	10.446
412.18	9.709
412.54	10.025
412.89	10.964
413.25	10.035
413.60	10.253
413.96	10.200
414.31	10.207
414.67	10.520
415.03	10.199
415.38	11.082
415.74	10.096
416.09	10.255
416.45	9.371
416.80	10.046
417.16	10.523
417.51	10.883
417.87	10.276
418.22	10.158
418.58	10.910
418.93	10.074
419.29	10.630
419.64	10.516
420.00	10.305
420.35	9.913
420.71	10.759
421.06	9.905
421.42	10.234
421.77	10.482
422.12	10.163
422.48	9.552
422.83	10.483
423.19	9.724
423.54	10.331
423.90	9.797
424.25	9.771
424.61	9.940
424.96	9.913
425.31	10.631
425.67	10.337
426.02	10.343
426.38	9.646
426.73	10.064
427.09	9.666
427.44	9.431
427.79	9.546
428.15	10.595
428.50	9.947
428.85	10.310
429.21	10.160
429.56	9.487
429.92	9.814
430.27	9.682
430.62	9.780
430.98	10.275
431.33	9.639
431.68	9.895
432.04	10.383
432.39	9.994
432.74	10.712
433.10	9.621
433.45	10.554
433.80	10.200
434.16	9.669
434.51	9.421
434.86	10.148
435.22	9.616
435.57	10.456
435.92	9.889
436.28	10.439
436.63	11.093
436.98	9.273
437.34	11.032
437.69	10.210
438.04	9.444
438.39	9.910
438.75	10.227
439.10	10.447
439.45	10.744
439.81	9.486
440.16	10.164
440.51	10.545
440.86	10.944
441.22	9.733
441.57	9.820
441.92	9.928
442.27	10.280
442.63	9.426
442.98	9.972
443.33	10.652
443.68	9.809
444.03	10.200
444.39	9.007
444.74	10.011
445.09	10.296
445.44	10.334
445.79	10.143
446.15	10.376
446.50	10.124
446.85	9.918
447.20	9.944
447.55	10.274
447.91	10.204
448.26	10.295
448.61	10.401
448.96	10.354
449.31	9.561
449.66	10.017
450.02	9.749
450.37	10.091
450.72	9.757
451.07	10.299
451.42	10.699
451.77	11.098
452.12	10.450
452.47	10.323
452.83	10.315
453.18	10.758
453.53	11.441
453.88	10.041
454.23	9.863
454.58	11.266
454.93	11.380
455.28	10.100
455.63	11.104
455.98	11.429
456.34	10.616
456.69	11.334
457.04	10.712
457.39	10.403
457.74	10.331
458.09	10.926
458.44	10.262
458.79	10.466
459.14	10.609
459.49	11.092
459.84	10.249
460.19	10.253
460.54	10.185
460.89	10.258
461.24	11.111
461.59	11.563
461.94	9.988
462.29	10.445
462.64	10.721
462.99	10.670
463.34	12.133
463.69	10.381
464.04	11.188
464.39	10.899
464.74	11.230
465.09	11.098
465.44	10.471
465.79	9.340
466.14	11.166
466.49	11.457
466.84	11.442
467.19	11.346
467.54	11.188
467.89	11.224
468.24	10.762
468.59	11.600
468.94	10.629
469.29	11.183
469.64	12.048
469.99	11.164
470.34	10.898
470.68	11.853
471.03	10.612
471.38	11.466
471.73	11.592
472.08	11.908
472.43	11.244
472.78	12.113
473.13	11.297
473.48	11.673
473.83	11.707
474.17	11.637
474.52	11.911
474.87	11.909
475.22	11.027
475.57	10.962
475.92	10.515
476.27	10.936
476.61	10.645
476.96	10.940
477.31	11.146
477.66	11.050
478.01	10.089
478.36	11.687
478.70	10.748
479.05	10.809
479.40	11.259
479.75	10.676
480.10	9.891
480.45	10.900
480.79	10.129
481.14	10.861
481.49	10.916
481.84	10.059
482.19	10.813
482.53	10.734
482.88	10.889
483.23	10.794
483.58	10.965
483.92	11.106
484.27	9.891
484.62	10.690
484.97	9.815
485.31	9.760
485.66	8.800
486.01	7.996
486.36	7.686
486.70	7.961
487.05	8.593
487.40	8.350
487.75	8.680
488.09	9.342
488.44	9.173
488.79	9.548
489.13	10.199
489.48	10.073
489.83	10.142
490.17	10.609
490.52	10.496
490.87	10.583
491.22	10.732
491.56	10.478
491.91	10.237
492.26	10.427
492.60	11.290
492.95	10.384
493.30	10.794
493.64	10.639
493.99	10.631
494.34	11.240
494.68	10.806
495.03	10.996
495.37	10.749
495.72	10.965
496.07	11.044
496.41	10.088
496.76	10.818
497.11	11.031
497.45	11.225
497.80	11.180
498.14	10.821
498.49	11.463
498.84	10.834
499.18	11.000
499.53	11.443
499.87	10.857
500.22	10.881
500.56	12.136
500.91	10.385
501.26	11.522
501.60	11.628
501.95	11.366
502.29	11.200
502.64	10.894
502.98	10.659
503.33	10.558
503.67	10.719
504.02	10.571
504.36	10.950
504.71	10.699
505.06	11.807
505.40	11.473
505.75	10.897
506.09	11.516
506.44	11.248
506.78	11.008
507.13	11.762
507.47	12.424
507.82	11.702
508.16	11.803
508.51	11.771
508.85	10.924
509.19	11.786
509.54	11.684
509.88	11.489
510.23	12.494
510.57	12.539
510.92	11.911
511.26	11.716
511.61	12.293
511.95	11.691
512.30	12.619
512.64	12.251
512.98	12.326
513.33	12.420
513.67	13.180
514.02	11.472
514.36	12.234
514.70	12.673
515.05	11.322
515.39	12.956
515.74	13.007
516.08	12.745
516.42	13.041
516.77	13.211
517.11	12.653
517.46	13.318
517.80	12.602
518.14	12.565
518.49	14.002
518.83	13.295
519.17	12.240
519.52	12.507
519.86	12.436
520.20	13.931
520.55	14.243
520.89	13.686
521.23	13.571
521.58	13.385
521.92	13.595
522.26	13.118
522.61	13.333
522.95	13.321
523.29	13.694
523.64	14.573
523.98	13.678
524.32	13.329
524.66	13.891
525.01	13.787
525.35	13.569
525.69	13.547
526.04	14.019
526.38	13.545
526.72	13.865
527.06	13.497
527.41	13.243
527.75	14.534
528.09	14.322
528.43	14.340
528.78	14.567
529.12	12.970
529.46	14.268
529.80	13.614
530.15	14.642
530.49	14.092
530.83	13.481
531.17	14.491
531.51	14.591
531.86	14.516
532.20	14.798
532.54	14.222
532.88	14.056
533.22	13.679
533.57	14.198
533.91	13.847
534.25	13.791
534.59	13.728
534.93	13.742
535.27	13.398
535.62	13.919
535.96	14.062
536.30	14.304
536.64	14.231
536.98	14.068
537.32	13.759
537.66	14.133
538.01	13.825
538.35	14.544
538.69	14.167
539.03	13.450
539.37	13.227
539.71	13.610
540.05	13.268
540.39	13.555
540.73	14.554
541.07	15.055
541.42	13.568
541.76	15.032
542.10	14.424
542.44	14.040
542.78	14.822
543.12	13.436
543.46	14.820
543.80	14.834
544.14	13.222
544.48	14.095
544.82	13.598
545.16	14.183
545.50	13.432
545.84	14.516
546.18	14.074
546.52	14.384
546.86	14.021
547.20	14.498
547.54	15.030
547.88	15.179
548.22	14.508
548.56	14.403
548.90	13.700
549.24	13.805
549.58	14.939
549.92	14.423
550.26	14.986
550.60	14.523
550.94	14.155
551.28	13.533
551.62	15.600
551.96	14.456
552.30	14.744
552.64	14.334
552.98	14.915
553.32	14.498
553.66	15.133
554.00	15.374
554.34	14.355
554.68	14.807
555.02	15.021
555.36	14.614
555.69	13.870
556.03	14.334
556.37	14.598
556.71	14.666
557.05	14.286
557.39	15.325
557.73	14.608
558.07	14.938
558.41	14.110
558.75	15.209
559.08	14.691
559.42	15.042
559.76	14.853
560.10	14.775
560.44	14.465
560.78	14.172
561.12	14.380
561.45	14.668
561.79	13.843
562.13	14.755
562.47	14.754
562.81	14.575
563.15	14.716
563.48	14.390
563.82	13.829
564.16	13.342
564.50	13.997
564.84	14.159
565.17	13.578
565.51	14.505
565.85	14.150
566.19	13.087
566.52	13.996
566.86	13.502
567.20	14.151
567.54	13.128
567.88	12.222
568.21	13.280
568.55	12.235
568.89	12.597
569.23	12.166
569.56	11.174
569.90	11.321
570.24	11.051
570.57	10.677
570.91	10.795
571.25	10.747
571.59	10.457
571.92	10.052
572.26	10.514
572.60	10.450
572.93	10.315
573.27	10.855
573.61	10.246
573.95	10.284
574.28	9.899
574.62	9.718
574.96	9.892
575.29	9.457
575.63	10.137
575.97	10.180
576.30	10.196
576.64	10.008
576.98	9.504
577.31	9.681
577.65	9.251
577.98	9.208
578.32	8.956
578.66	9.476
578.99	9.496
579.33	9.513
579.67	9.633
580.00	9.806
580.34	9.611
580.67	9.454
581.01	9.692
581.35	9.082
581.68	9.169
582.02	8.991
582.35	8.879
582.69	9.267
583.02	9.060
583.36	9.684
583.70	9.815
584.03	9.744
584.37	10.119
584.70	9.927
585.04	9.907
585.37	9.646
585.71	9.633
586.04	9.640
586.38	10.214
586.72	10.384
587.05	9.861
587.39	9.604
587.72	10.049
588.06	9.605
588.39	10.453
588.73	10.179
589.06	10.408
589.40	11.044
589.73	11.123
590.07	11.210
590.40	11.107
590.73	11.436
591.07	11.925
591.40	11.556
591.74	11.991
592.07	11.300
592.41	11.410
592.74	10.487
593.08	10.660
593.41	10.819
593.75	10.275
594.08	10.627
594.41	10.675
594.75	10.758
595.08	10.988
595.42	11.033
595.75	10.826
596.09	11.378
596.42	11.906
596.75	11.650
597.09	12.468
597.42	10.919
597.75	12.117
598.09	11.565
598.42	11.254
598.76	11.228
599.09	10.604
599.42	11.099
599.76	10.981
600.09	10.674
600.42	10.884
600.76	10.321
601.09	11.038
601.42	11.225
601.76	11.347
602.09	11.067
602.42	11.545
602.76	11.447
603.09	11.094
603.42	10.855
603.76	10.938
604.09	11.206
604.42	11.455
604.76	11.641
605.09	11.883
605.42	12.099
605.75	11.134
606.09	11.549
606.42	10.503
606.75	11.157
607.09	11.427
607.42	12.067
607.75	10.844
608.08	11.507
608.42	11.923
608.75	12.038
609.08	11.702
609.41	11.566
609.75	11.958
610.08	11.970
610.41	11.266
610.74	12.252
611.07	12.796
611.41	12.365
611.74	12.670
612.07	12.629
612.40	12.644
612.73	11.789
613.07	13.093
613.40	13.060
613.73	11.956
614.06	12.258
614.39	11.904
614.72	13.211
615.06	12.973
615.39	12.420
615.72	12.474
616.05	12.493
616.38	13.619
616.71	13.124
617.05	14.193
617.38	13.169
617.71	13.153
618.04	13.642
618.37	13.365
618.70	13.068
619.03	14.671
619.36	13.985
619.69	15.211
620.03	14.354
620.36	14.572
620.69	14.521
621.02	14.676
621.35	14.565
621.68	14.486
622.01	16.022
622.34	15.356
622.67	14.677
623.00	14.967
623.33	14.367
623.66	14.367
623.99	14.065
624.32	15.050
624.65	14.831
624.99	14.164
625.32	14.048
625.65	14.425
625.98	15.757
626.31	15.319
626.64	14.612
626.97	15.295
627.30	15.046
627.63	16.325
627.96	15.307
628.29	16.448
628.62	16.926
628.95	17.453
629.28	16.058
629.61	18.148
629.94	16.381
630.26	16.206
630.59	16.587
630.92	17.433
631.25	16.288
631.58	17.417
631.91	16.430
632.24	16.667
632.57	17.419
632.90	16.886
633.23	19.128
633.56	18.870
