SpectraSuite Data File
++++++++++++++++++++++++++++++++++++
Date: Wed May 13 19:17:38 PDT 2015
User: schluterlab
Dark Spectrum Present: Yes
Reference Spectrum Present: Yes
Number of Sampled Component Spectra: 1
Spectrometers: USB2E3373
Integration Time (usec): 3000 (USB2E3373)
Spectra Averaged: 3 (USB2E3373)
Boxcar Smoothing: 0 (USB2E3373)
Correct for Electrical Dark: No (USB2E3373)
Strobe/Lamp Enabled: No (USB2E3373)
Correct for Detector Non-linearity: No (USB2E3373)
Correct for Stray Light: No (USB2E3373)
Number of Pixels in Processed Spectrum: 2048
>>>>>Begin Processed Spectral Data<<<<<
178.53	0.000
178.91	-1575.000
179.29	-1575.000
179.67	-288.889
180.04	-1425.000
180.42	3200.000
180.80	1280.000
181.18	-1100.000
181.56	685.714
181.94	0.000
182.31	-842.857
182.69	1966.667
183.07	-537.500
183.45	-600.000
183.83	481.818
184.20	-470.000
184.58	2800.000
184.96	5600.000
185.34	-980.000
185.72	-737.500
186.09	-2350.000
186.47	2400.000
186.85	2650.000
187.23	6000.000
187.61	-1966.667
187.98	1525.000
188.36	609.091
188.74	581.818
189.12	-980.000
189.49	600.000
189.87	-6100.000
190.25	-1325.000
190.63	435.714
191.00	476.923
191.38	866.667
191.76	-1325.000
192.14	1450.000
192.51	725.000
192.89	1050.000
193.27	762.500
193.65	-1275.000
194.02	660.000
194.40	1200.000
194.78	470.000
195.15	600.000
195.53	720.000
195.91	-2950.000
196.29	400.000
196.66	384.211
197.04	-430.000
197.42	0.000
197.79	750.000
198.17	-6100.000
198.55	814.286
198.92	850.000
199.30	1100.000
199.68	0.000
200.05	394.444
200.43	1028.571
200.81	5300.000
201.18	2066.667
201.56	-1733.333
201.94	577.778
202.31	677.778
202.69	533.333
203.07	610.000
203.44	0.000
203.82	1325.000
204.19	1014.286
204.57	471.429
204.95	750.000
205.32	1766.667
205.70	572.727
206.08	371.429
206.45	3100.000
206.83	518.750
207.20	1016.667
207.58	1020.000
207.96	338.889
208.33	812.500
208.71	-933.333
209.08	871.429
209.46	655.556
209.84	490.909
210.21	-1600.000
210.59	1875.000
210.96	-600.000
211.34	3350.000
211.71	570.000
212.09	733.333
212.46	0.000
212.84	2066.667
213.22	1525.000
213.59	-5100.000
213.97	950.000
214.34	871.429
214.72	681.818
215.09	1040.000
215.47	-2400.000
215.84	-2550.000
216.22	2200.000
216.59	385.714
216.97	1675.000
217.34	527.273
217.72	-750.000
218.09	0.000
218.47	-5800.000
218.84	766.667
219.22	914.286
219.59	1933.333
219.97	-742.857
220.34	1140.000
220.72	-1833.333
221.09	485.714
221.47	1525.000
221.84	-966.667
222.22	0.000
222.59	1425.000
222.97	-2700.000
223.34	1280.000
223.72	469.231
224.09	1240.000
224.46	2700.000
224.84	-6000.000
225.21	-1180.000
225.59	-5600.000
225.96	620.000
226.34	335.000
226.71	2750.000
227.08	762.500
227.46	640.000
227.83	-1200.000
228.21	-2750.000
228.58	688.889
228.95	-2650.000
229.33	-2650.000
229.70	1833.333
230.08	928.571
230.45	-1100.000
230.82	458.333
231.20	750.000
231.57	871.429
231.95	516.667
232.32	272.727
232.69	436.364
233.07	814.286
233.44	392.308
233.81	-1900.000
234.19	321.053
234.56	550.000
234.93	400.000
235.31	645.455
235.68	453.846
236.05	428.571
236.43	193.939
236.80	284.211
237.17	4900.000
237.55	271.429
237.92	232.143
238.29	309.524
238.67	200.000
239.04	251.724
239.41	169.444
239.79	152.174
240.16	171.429
240.53	177.273
240.91	152.941
241.28	154.000
241.65	152.000
242.02	118.841
242.40	124.194
242.77	131.667
243.14	103.226
243.51	96.629
243.89	104.706
244.26	91.111
244.63	89.247
245.00	91.489
245.38	84.158
245.75	85.981
246.12	79.817
246.49	75.912
246.87	82.400
247.24	79.231
247.61	70.714
247.98	69.935
248.36	69.595
248.73	68.790
249.10	70.701
249.47	68.927
249.84	62.567
250.22	62.567
250.59	69.231
250.96	67.677
251.33	62.559
251.70	63.861
252.08	59.048
252.45	53.812
252.82	53.913
253.19	59.574
253.56	57.255
253.94	57.261
254.31	52.344
254.68	53.462
255.05	58.672
255.42	53.659
255.79	54.779
256.16	55.235
256.54	51.590
256.91	53.025
257.28	45.324
257.65	47.525
258.02	51.242
258.39	52.050
258.76	53.177
259.14	50.000
259.51	47.112
259.88	50.621
260.25	50.453
260.62	48.266
260.99	47.516
261.36	47.147
261.73	49.284
262.10	46.512
262.47	49.014
262.85	47.911
263.22	45.299
263.59	48.718
263.96	48.626
264.33	46.736
264.70	43.158
265.07	47.570
265.44	47.222
265.81	41.363
266.18	47.236
266.55	44.634
266.92	44.472
267.29	46.991
267.66	43.119
268.03	43.636
268.40	43.458
268.77	45.346
269.14	42.793
269.51	43.792
269.88	44.755
270.25	42.889
270.62	45.393
270.99	44.086
271.36	46.781
271.73	44.393
272.10	43.696
272.47	45.806
272.84	43.506
273.21	43.187
273.58	40.175
273.95	42.767
274.32	44.008
274.69	43.255
275.06	39.370
275.43	44.468
275.80	39.679
276.17	41.344
276.54	43.035
276.91	42.688
277.28	40.820
277.65	39.265
278.02	43.478
278.39	42.383
278.76	38.727
279.13	41.509
279.50	39.106
279.87	40.239
280.23	40.519
280.60	39.652
280.97	40.296
281.34	40.708
281.71	41.636
282.08	40.307
282.45	40.182
282.82	37.123
283.19	36.720
283.56	40.526
283.92	39.932
284.29	38.095
284.66	39.201
285.03	36.890
285.40	38.732
285.77	38.721
286.14	36.442
286.51	40.833
286.87	39.829
287.24	37.459
287.61	36.918
287.98	38.312
288.35	36.609
288.72	37.695
289.08	38.028
289.45	37.397
289.82	34.634
290.19	35.322
290.56	36.447
290.93	32.326
291.29	35.276
291.66	34.218
292.03	37.209
292.40	35.389
292.77	35.503
293.13	34.328
293.50	34.694
293.87	34.222
294.24	32.593
294.60	34.789
294.97	33.866
295.34	34.979
295.71	33.239
296.08	32.336
296.44	32.600
296.81	32.100
297.18	34.011
297.55	30.211
297.91	32.718
298.28	33.066
298.65	32.245
299.02	31.489
299.38	33.068
299.75	30.054
300.12	31.034
300.48	31.000
300.85	30.826
301.22	31.592
301.59	31.061
301.95	30.856
302.32	31.194
302.69	29.749
303.05	30.545
303.42	29.383
303.79	31.144
304.15	27.972
304.52	29.200
304.89	30.081
305.25	28.886
305.62	30.011
305.99	30.460
306.35	29.978
306.72	31.054
307.09	28.746
307.45	30.068
307.82	28.125
308.19	30.574
308.55	29.450
308.92	29.753
309.29	29.356
309.65	30.541
310.02	29.704
310.38	31.613
310.75	30.517
311.12	30.092
311.48	30.930
311.85	31.656
312.22	30.489
312.58	30.353
312.95	31.785
313.31	30.000
313.68	32.640
314.05	32.643
314.41	31.558
314.78	31.621
315.14	32.771
315.51	33.059
315.87	33.960
316.24	32.771
316.61	32.943
316.97	32.583
317.34	33.170
317.70	33.939
318.07	35.996
318.43	35.029
318.80	34.677
319.16	35.499
319.53	35.178
319.89	37.143
320.26	37.700
320.62	36.706
320.99	37.778
321.35	36.465
321.72	39.630
322.08	39.585
322.45	40.398
322.81	41.279
323.18	41.522
323.54	42.301
323.91	43.113
324.27	43.690
324.64	43.802
325.00	43.823
325.37	45.132
325.73	45.422
326.10	45.896
326.46	47.401
326.83	48.145
327.19	46.712
327.56	48.345
327.92	51.006
328.29	52.440
328.65	51.105
329.01	51.264
329.38	51.434
329.74	50.508
330.11	53.346
330.47	52.617
330.84	53.033
331.20	53.097
331.56	53.303
331.93	54.630
332.29	52.351
332.66	55.221
333.02	52.651
333.38	55.014
333.75	54.902
334.11	55.160
334.48	54.303
334.84	54.596
335.20	55.091
335.57	55.032
335.93	53.661
336.29	55.678
336.66	56.087
337.02	54.842
337.38	56.296
337.75	55.526
338.11	54.969
338.47	55.709
338.84	56.737
339.20	54.495
339.56	58.485
339.93	55.455
340.29	55.344
340.65	55.971
341.02	56.545
341.38	56.940
341.74	56.140
342.11	57.555
342.47	57.004
342.83	56.250
343.20	56.883
343.56	55.602
343.92	57.982
344.28	55.612
344.65	56.836
345.01	54.714
345.37	56.261
345.73	56.261
346.10	55.840
346.46	55.932
346.82	55.519
347.19	55.723
347.55	55.090
347.91	56.149
348.27	56.286
348.63	55.686
349.00	55.663
349.36	56.979
349.72	55.012
350.08	54.862
350.45	56.957
350.81	57.027
351.17	55.916
351.53	56.265
351.89	57.013
352.26	57.143
352.62	56.536
352.98	56.969
353.34	55.300
353.70	54.583
354.07	57.661
354.43	56.349
354.79	54.867
355.15	56.345
355.51	57.154
355.87	57.551
356.24	58.795
356.60	56.536
356.96	56.959
357.32	57.318
357.68	56.693
358.04	57.799
358.40	57.245
358.77	56.416
359.13	56.511
359.49	57.255
359.85	56.270
360.21	57.018
360.57	57.043
360.93	58.154
361.29	56.009
361.66	56.889
362.02	56.940
362.38	56.882
362.74	57.887
363.10	57.809
363.46	57.814
363.82	57.748
364.18	56.535
364.54	57.355
364.90	57.578
365.26	59.118
365.62	58.291
365.98	56.318
366.35	57.665
366.71	57.484
367.07	57.465
367.43	59.579
367.79	59.957
368.15	59.411
368.51	58.794
368.87	58.887
369.23	59.473
369.59	60.101
369.95	59.926
370.31	57.906
370.67	59.130
371.03	61.273
371.39	58.455
371.75	58.309
372.11	58.677
372.47	61.070
372.83	60.879
373.19	58.887
373.55	60.384
373.91	60.972
374.27	58.694
374.63	61.018
374.99	60.381
375.35	60.363
375.71	58.944
376.07	60.082
376.42	61.761
376.78	62.028
377.14	61.058
377.50	60.795
377.86	59.774
378.22	60.999
378.58	59.586
378.94	61.282
379.30	61.832
379.66	62.437
380.02	61.978
380.38	61.263
380.74	62.005
381.09	62.469
381.45	63.307
381.81	63.084
382.17	62.675
382.53	63.711
382.89	64.506
383.25	62.602
383.61	64.250
383.97	63.977
384.32	63.444
384.68	64.126
385.04	64.413
385.40	64.272
385.76	63.575
386.12	64.702
386.48	64.506
386.83	66.196
387.19	65.121
387.55	64.873
387.91	63.785
388.27	64.562
388.62	64.720
388.98	63.084
389.34	64.080
389.70	64.684
390.06	65.209
390.42	66.342
390.77	65.840
391.13	67.454
391.49	66.434
391.85	65.309
392.20	63.533
392.56	65.720
392.92	66.215
393.28	65.385
393.64	65.408
393.99	64.997
394.35	66.067
394.71	65.307
395.07	63.801
395.42	67.676
395.78	65.394
396.14	65.301
396.50	67.732
396.85	67.133
397.21	66.030
397.57	64.476
397.92	67.067
398.28	65.191
398.64	65.532
399.00	66.200
399.35	66.103
399.71	66.030
400.07	64.991
400.42	66.871
400.78	66.466
401.14	66.768
401.49	66.806
401.85	66.183
402.21	64.731
402.57	67.428
402.92	66.078
403.28	66.334
403.63	65.347
403.99	65.541
404.35	65.879
404.70	65.528
405.06	65.812
405.42	65.876
405.77	65.886
406.13	65.519
406.49	65.346
406.84	64.914
407.20	64.775
407.55	65.603
407.91	66.000
408.27	65.093
408.62	64.720
408.98	64.522
409.34	65.498
409.69	66.323
410.05	66.295
410.40	65.627
410.76	64.994
411.11	64.837
411.47	65.623
411.83	64.936
412.18	64.440
412.54	66.563
412.89	64.578
413.25	65.230
413.60	65.102
413.96	63.813
414.31	65.614
414.67	65.209
415.03	65.298
415.38	65.464
415.74	65.595
416.09	65.578
416.45	65.194
416.80	65.499
417.16	65.550
417.51	65.295
417.87	64.419
418.22	66.057
418.58	64.816
418.93	64.373
419.29	64.863
419.64	64.484
420.00	64.634
420.35	63.942
420.71	63.837
421.06	64.976
421.42	64.035
421.77	64.350
422.12	63.897
422.48	63.411
422.83	65.463
423.19	63.204
423.54	64.539
423.90	64.290
424.25	64.266
424.61	63.690
424.96	65.364
425.31	63.953
425.67	63.034
426.02	63.657
426.38	64.713
426.73	64.190
427.09	64.924
427.44	63.542
427.79	62.737
428.15	63.333
428.50	63.136
428.85	64.482
429.21	62.341
429.56	64.852
429.92	62.959
430.27	62.363
430.62	62.673
430.98	63.051
431.33	61.959
431.68	62.775
432.04	62.886
432.39	64.135
432.74	65.051
433.10	64.460
433.45	64.082
433.80	62.916
434.16	62.927
434.51	62.474
434.86	64.082
435.22	62.646
435.57	64.620
435.92	62.844
436.28	66.074
436.63	63.687
436.98	63.309
437.34	64.580
437.69	64.002
438.04	64.025
438.39	64.418
438.75	64.555
439.10	64.246
439.45	63.813
439.81	64.532
440.16	63.467
440.51	64.323
440.86	63.405
441.22	63.126
441.57	63.163
441.92	63.613
442.27	63.724
442.63	63.138
442.98	64.000
443.33	64.022
443.68	63.191
444.03	63.299
444.39	62.853
444.74	63.366
445.09	63.774
445.44	62.821
445.79	62.890
446.15	63.737
446.50	64.136
446.85	63.926
447.20	62.825
447.55	64.154
447.91	64.368
448.26	63.606
448.61	65.574
448.96	65.227
449.31	66.029
449.66	62.409
450.02	63.677
450.37	62.755
450.72	63.170
451.07	63.132
451.42	62.432
451.77	63.006
452.12	63.337
452.47	62.998
452.83	63.636
453.18	63.936
453.53	64.007
453.88	63.320
454.23	63.837
454.58	64.991
454.93	64.971
455.28	63.591
455.63	64.442
455.98	64.226
456.34	62.877
456.69	64.934
457.04	64.458
457.39	63.881
457.74	64.016
458.09	62.910
458.44	63.683
458.79	62.744
459.14	62.754
459.49	62.464
459.84	62.881
460.19	63.642
460.54	60.880
460.89	61.986
461.24	64.117
461.59	62.987
461.94	63.009
462.29	62.789
462.64	62.731
462.99	62.589
463.34	62.867
463.69	63.227
464.04	62.261
464.39	61.913
464.74	61.913
465.09	62.123
465.44	62.438
465.79	62.304
466.14	60.920
466.49	61.513
466.84	62.055
467.19	61.436
467.54	63.062
467.89	62.485
468.24	61.664
468.59	63.431
468.94	62.370
469.29	62.725
469.64	64.257
469.99	62.991
470.34	62.021
470.68	63.434
471.03	61.497
471.38	63.377
471.73	62.025
472.08	62.961
472.43	62.814
472.78	62.080
473.13	63.671
473.48	62.172
473.83	62.622
474.17	61.045
474.52	61.104
474.87	61.763
475.22	59.721
475.57	58.624
475.92	60.701
476.27	60.147
476.61	60.728
476.96	60.583
477.31	61.224
477.66	60.941
478.01	58.285
478.36	61.396
478.70	59.865
479.05	61.182
479.40	60.338
479.75	60.041
480.10	60.686
480.45	58.258
480.79	59.197
481.14	59.393
481.49	59.753
481.84	59.717
482.19	59.609
482.53	59.220
482.88	58.958
483.23	59.953
483.58	59.418
483.92	60.778
484.27	58.214
484.62	59.052
484.97	58.337
485.31	59.349
485.66	56.318
486.01	53.795
486.36	51.660
486.70	51.080
487.05	53.428
487.40	55.439
487.75	56.407
488.09	57.658
488.44	57.305
488.79	59.566
489.13	58.747
489.48	58.238
489.83	58.956
490.17	59.272
490.52	57.972
490.87	57.440
491.22	58.618
491.56	57.494
491.91	57.934
492.26	57.740
492.60	57.512
492.95	58.700
493.30	58.037
493.64	57.956
493.99	57.753
494.34	57.678
494.68	58.974
495.03	58.177
495.37	57.887
495.72	58.577
496.07	57.401
496.41	55.619
496.76	57.036
497.11	56.326
497.45	57.802
497.80	57.582
498.14	57.826
498.49	57.317
498.84	56.855
499.18	56.667
499.53	57.123
499.87	57.176
500.22	56.571
500.56	57.767
500.91	56.106
501.26	56.520
501.60	58.282
501.95	55.591
502.29	56.888
502.64	57.356
502.98	56.568
503.33	55.759
503.67	56.241
504.02	55.987
504.36	56.247
504.71	56.619
505.06	56.193
505.40	57.754
505.75	55.882
506.09	56.268
506.44	55.303
506.78	56.064
507.13	56.588
507.47	56.465
507.82	57.042
508.16	56.079
508.51	56.824
508.85	55.313
509.19	56.327
509.54	55.918
509.88	55.796
510.23	56.247
510.57	57.327
510.92	57.742
511.26	55.807
511.61	56.017
511.95	54.802
512.30	56.151
512.64	56.475
512.98	55.895
513.33	56.959
513.67	54.856
514.02	55.790
514.36	55.980
514.70	57.609
515.05	56.665
515.39	56.927
515.74	56.532
516.08	57.462
516.42	56.992
516.77	56.689
517.11	55.716
517.46	56.659
517.80	57.956
518.14	56.340
518.49	56.651
518.83	55.000
519.17	55.196
519.52	54.895
519.86	55.961
520.20	57.110
520.55	58.288
520.89	57.117
521.23	56.514
521.58	55.762
521.92	57.869
522.26	54.728
522.61	57.321
522.95	55.494
523.29	55.326
523.64	55.976
523.98	57.178
524.32	55.247
524.66	56.344
525.01	55.331
525.35	56.629
525.69	54.618
526.04	56.511
526.38	54.301
526.72	54.908
527.06	55.681
527.41	54.455
527.75	55.370
528.09	56.776
528.43	55.194
528.78	55.439
529.12	55.273
529.46	55.664
529.80	54.950
530.15	56.075
530.49	54.646
530.83	55.443
531.17	56.397
531.51	55.966
531.86	54.903
532.20	57.236
532.54	54.965
532.88	54.814
533.22	54.091
533.57	54.012
533.91	54.786
534.25	53.584
534.59	53.630
534.93	53.718
535.27	53.349
535.62	54.029
535.96	56.183
536.30	53.910
536.64	54.668
536.98	55.143
537.32	53.588
537.66	54.267
538.01	55.629
538.35	54.557
538.69	54.690
539.03	54.061
539.37	52.268
539.71	53.273
540.05	54.444
540.39	54.086
540.73	51.940
541.07	52.953
541.42	53.751
541.76	53.871
542.10	54.204
542.44	54.305
542.78	53.426
543.12	51.759
543.46	52.852
543.80	54.196
544.14	52.503
544.48	53.778
544.82	51.507
545.16	51.984
545.50	51.864
545.84	54.435
546.18	54.209
546.52	52.719
546.86	52.990
547.20	52.394
547.54	51.904
547.88	53.316
548.22	51.930
548.56	50.314
548.90	51.536
549.24	51.987
549.58	53.274
549.92	53.159
550.26	54.261
550.60	51.660
550.94	54.014
551.28	51.500
551.62	53.559
551.96	51.368
552.30	52.355
552.64	52.941
552.98	52.271
553.32	51.719
553.66	53.170
554.00	51.956
554.34	51.346
554.68	51.288
555.02	51.904
555.36	51.775
555.69	50.068
556.03	50.942
556.37	51.023
556.71	51.569
557.05	52.311
557.39	51.714
557.73	51.729
558.07	50.616
558.41	50.868
558.75	52.902
559.08	52.946
559.42	52.457
559.76	51.618
560.10	51.463
560.44	50.384
560.78	49.834
561.12	49.538
561.45	51.434
561.79	49.637
562.13	49.899
562.47	52.049
562.81	51.325
563.15	49.164
563.48	49.867
563.82	50.033
564.16	50.098
564.50	49.740
564.84	49.178
565.17	49.485
565.51	50.288
565.85	50.444
566.19	48.591
566.52	49.588
566.86	48.342
567.20	48.762
567.54	48.288
567.88	47.257
568.21	48.254
568.55	47.978
568.89	46.547
569.23	45.365
569.56	44.737
569.90	43.472
570.24	44.026
570.57	44.067
570.91	42.114
571.25	42.742
571.59	42.710
571.92	42.022
572.26	42.837
572.60	43.483
572.93	42.519
573.27	42.975
573.61	41.932
573.95	41.990
574.28	41.508
574.62	40.816
574.96	41.290
575.29	41.683
575.63	41.692
575.97	41.161
576.30	41.875
576.64	41.597
576.98	41.152
577.31	40.873
577.65	41.021
577.98	41.174
578.32	40.091
578.66	40.252
578.99	40.402
579.33	41.152
579.67	40.355
580.00	41.549
580.34	41.243
580.67	41.314
581.01	40.881
581.35	40.397
581.68	39.818
582.02	39.321
582.35	39.331
582.69	39.435
583.02	40.134
583.36	40.835
583.70	41.409
584.03	41.353
584.37	42.134
584.70	41.562
585.04	40.753
585.37	40.774
585.71	40.813
586.04	40.710
586.38	41.588
586.72	41.646
587.05	41.076
587.39	40.369
587.72	40.453
588.06	41.009
588.39	41.070
588.73	41.742
589.06	42.225
589.40	42.727
589.73	41.851
590.07	41.744
590.40	41.871
590.73	42.896
591.07	42.979
591.40	43.737
591.74	43.203
592.07	43.630
592.41	43.200
592.74	40.861
593.08	40.973
593.41	40.905
593.75	39.569
594.08	40.697
594.41	41.499
594.75	41.553
595.08	40.802
595.42	41.646
595.75	41.204
596.09	42.246
596.42	42.554
596.75	42.845
597.09	43.074
597.42	41.358
597.75	42.518
598.09	41.957
598.42	41.323
598.76	40.900
599.09	39.909
599.42	40.611
599.76	40.813
600.09	40.583
600.42	40.467
600.76	40.357
601.09	40.911
601.42	40.944
601.76	40.835
602.09	41.265
602.42	40.884
602.76	41.757
603.09	41.503
603.42	41.742
603.76	40.930
604.09	41.218
604.42	41.989
604.76	41.965
605.09	42.202
605.42	40.915
605.75	40.977
606.09	40.626
606.42	41.275
606.75	41.642
607.09	40.938
607.42	40.907
607.75	40.591
608.08	40.773
608.42	41.820
608.75	40.848
609.08	40.981
609.41	40.790
609.75	41.972
610.08	42.130
610.41	41.434
610.74	40.965
611.07	42.342
611.41	41.708
611.74	42.886
612.07	43.271
612.40	42.497
612.73	42.368
613.07	42.834
613.40	43.391
613.73	41.793
614.06	42.634
614.39	41.689
614.72	41.158
615.06	41.912
615.39	41.136
615.72	40.951
616.05	42.052
616.38	42.301
616.71	43.527
617.05	43.404
617.38	42.814
617.71	43.544
618.04	43.389
618.37	41.987
618.70	42.937
619.03	43.816
619.36	43.381
619.69	43.239
620.03	44.231
620.36	43.850
620.69	46.096
621.02	44.027
621.35	45.027
621.68	43.847
622.01	43.963
622.34	45.083
622.67	44.639
623.00	43.800
623.33	42.530
623.66	43.746
623.99	43.078
624.32	42.796
624.65	43.291
624.99	43.555
625.32	43.085
625.65	43.501
625.98	44.965
626.31	44.090
626.64	44.898
626.97	45.220
627.30	45.636
627.63	45.529
627.96	46.341
628.29	45.407
628.62	46.203
628.95	48.208
629.28	46.533
629.61	45.280
629.94	46.476
630.26	46.806
630.59	44.995
