SpectraSuite Data File
++++++++++++++++++++++++++++++++++++
Date: Wed May 13 19:28:55 PDT 2015
User: schluterlab
Dark Spectrum Present: Yes
Reference Spectrum Present: Yes
Number of Sampled Component Spectra: 1
Spectrometers: USB2E3373
Integration Time (usec): 3000 (USB2E3373)
Spectra Averaged: 3 (USB2E3373)
Boxcar Smoothing: 0 (USB2E3373)
Correct for Electrical Dark: No (USB2E3373)
Strobe/Lamp Enabled: No (USB2E3373)
Correct for Detector Non-linearity: No (USB2E3373)
Correct for Stray Light: No (USB2E3373)
Number of Pixels in Processed Spectrum: 2048
>>>>>Begin Processed Spectral Data<<<<<
178.53	0.000
178.91	-1400.000
179.29	-1325.000
179.67	-255.556
180.04	-1350.000
180.42	2500.000
180.80	1080.000
181.18	-1275.000
181.56	585.714
181.94	0.000
182.31	-685.714
182.69	1766.667
183.07	-637.500
183.45	-555.556
183.83	618.182
184.20	-370.000
184.58	2600.000
184.96	6300.000
185.34	-1000.000
185.72	-800.000
186.09	-2100.000
186.47	2400.000
186.85	3150.000
187.23	5600.000
187.61	-1500.000
187.98	1500.000
188.36	636.364
188.74	518.182
189.12	-780.000
189.49	540.000
189.87	-5200.000
190.25	-1300.000
190.63	371.429
191.00	392.308
191.38	733.333
191.76	-1375.000
192.14	1300.000
192.51	575.000
192.89	933.333
193.27	687.500
193.65	-1300.000
194.02	550.000
194.40	880.000
194.78	720.000
195.15	525.000
195.53	680.000
195.91	-1600.000
196.29	306.250
196.66	315.789
197.04	-330.000
197.42	0.000
197.79	600.000
198.17	-4400.000
198.55	714.286
198.92	725.000
199.30	860.000
199.68	0.000
200.05	305.556
200.43	714.286
200.81	4600.000
201.18	1900.000
201.56	-1666.667
201.94	600.000
202.31	477.778
202.69	508.333
203.07	620.000
203.44	0.000
203.82	1100.000
204.19	757.143
204.57	392.857
204.95	675.000
205.32	1733.333
205.70	572.727
206.08	407.143
206.45	2900.000
206.83	362.500
207.20	866.667
207.58	700.000
207.96	366.667
208.33	612.500
208.71	-800.000
209.08	957.143
209.46	566.667
209.84	500.000
210.21	-1466.667
210.59	1450.000
210.96	-612.500
211.34	2150.000
211.71	620.000
212.09	883.333
212.46	0.000
212.84	1700.000
213.22	1475.000
213.59	-4300.000
213.97	900.000
214.34	757.143
214.72	545.455
215.09	880.000
215.47	-2200.000
215.84	-2500.000
216.22	1766.667
216.59	357.143
216.97	1175.000
217.34	427.273
217.72	-766.667
218.09	0.000
218.47	-5700.000
218.84	633.333
219.22	742.857
219.59	1533.333
219.97	-685.714
220.34	900.000
220.72	-1666.667
221.09	342.857
221.47	1575.000
221.84	-950.000
222.22	0.000
222.59	1525.000
222.97	-2450.000
223.34	1280.000
223.72	453.846
224.09	960.000
224.46	1900.000
224.84	-5100.000
225.21	-1080.000
225.59	-4400.000
225.96	600.000
226.34	330.000
226.71	2650.000
227.08	587.500
227.46	530.000
227.83	-925.000
228.21	-2350.000
228.58	644.444
228.95	-2200.000
229.33	-2650.000
229.70	1633.333
230.08	714.286
230.45	-860.000
230.82	500.000
231.20	783.333
231.57	614.286
231.95	500.000
232.32	254.545
232.69	454.545
233.07	728.571
233.44	353.846
233.81	-1833.333
234.19	257.895
234.56	425.000
234.93	433.333
235.31	345.455
235.68	338.462
236.05	364.286
236.43	178.788
236.80	247.368
237.17	4600.000
237.55	195.238
237.92	182.143
238.29	238.095
238.67	200.000
239.04	165.517
239.41	155.556
239.79	95.652
240.16	121.429
240.53	120.455
240.91	88.235
241.28	110.000
241.65	82.000
242.02	91.304
242.40	74.194
242.77	70.000
243.14	74.194
243.51	62.921
243.89	62.353
244.26	57.778
244.63	61.290
245.00	42.553
245.38	51.485
245.75	41.121
246.12	39.450
246.49	48.905
246.87	49.600
247.24	50.000
247.61	42.143
247.98	43.137
248.36	27.027
248.73	34.395
249.10	38.854
249.47	32.203
249.84	33.155
250.22	35.294
250.59	26.627
250.96	29.798
251.33	33.649
251.70	31.188
252.08	30.000
252.45	31.839
252.82	24.783
253.19	28.085
253.56	28.235
253.94	29.046
254.31	23.437
254.68	26.923
255.05	22.140
255.42	27.236
255.79	26.471
256.16	23.105
256.54	20.848
256.91	24.911
257.28	21.223
257.65	25.743
258.02	23.913
258.39	17.981
258.76	19.732
259.14	22.619
259.51	17.629
259.88	19.565
260.25	22.659
260.62	18.497
260.99	18.944
261.36	20.420
261.73	18.052
262.10	17.733
262.47	17.465
262.85	18.106
263.22	18.803
263.59	22.507
263.96	15.110
264.33	18.016
264.70	17.368
265.07	17.136
265.44	17.677
265.81	14.842
266.18	14.573
266.55	17.805
266.92	17.936
267.29	16.204
267.66	17.890
268.03	15.455
268.40	16.355
268.77	11.456
269.14	13.964
269.51	16.027
269.88	15.152
270.25	15.350
270.62	15.281
270.99	16.129
271.36	16.738
271.73	13.551
272.10	14.565
272.47	15.914
272.84	14.719
273.21	15.094
273.58	12.664
273.95	13.627
274.32	13.017
274.69	13.276
275.06	12.402
275.43	15.319
275.80	14.028
276.17	12.831
276.54	12.890
276.91	12.055
277.28	14.062
277.65	13.346
278.02	12.008
278.39	15.625
278.76	13.273
279.13	14.151
279.50	12.477
279.87	12.550
280.23	13.174
280.60	10.832
280.97	12.569
281.34	15.752
281.71	13.636
282.08	12.668
282.45	11.818
282.82	12.078
283.19	8.556
283.56	12.105
283.92	12.860
284.29	12.698
284.66	11.252
285.03	12.297
285.40	13.556
285.77	11.785
286.14	11.399
286.51	13.833
286.87	12.991
287.24	13.029
287.61	10.594
287.98	10.714
288.35	9.350
288.72	11.682
289.08	13.772
289.45	11.367
289.82	13.171
290.19	11.146
290.56	11.792
290.93	10.725
291.29	10.123
291.66	10.914
292.03	13.663
292.40	13.069
292.77	9.763
293.13	11.642
293.50	13.265
293.87	11.704
294.24	9.185
294.60	10.335
294.97	12.645
295.34	13.399
295.71	11.506
296.08	11.111
296.44	11.279
296.81	9.511
297.18	12.331
297.55	7.916
297.91	9.499
298.28	11.245
298.65	12.272
299.02	10.013
299.38	9.429
299.75	8.760
300.12	8.940
300.48	10.500
300.85	10.358
301.22	9.427
301.59	9.975
301.95	10.327
302.32	10.655
302.69	9.558
303.05	10.424
303.42	9.630
303.79	10.306
304.15	8.508
304.52	7.995
304.89	9.175
305.25	8.121
305.62	10.193
305.99	8.146
306.35	9.620
306.72	10.874
307.09	9.989
307.45	9.910
307.82	9.152
308.19	10.155
308.55	11.003
308.92	9.130
309.29	8.131
309.65	8.165
310.02	9.937
310.38	9.462
310.75	8.342
311.12	9.928
311.48	8.882
311.85	8.071
312.22	9.365
312.58	8.836
312.95	9.293
313.31	8.544
313.68	8.316
314.05	10.059
314.41	9.849
314.78	9.567
315.14	8.640
315.51	8.857
315.87	9.604
316.24	9.831
316.61	7.797
316.97	9.883
317.34	7.436
317.70	8.700
318.07	8.470
318.43	8.708
318.80	8.154
319.16	8.945
319.53	9.006
319.89	9.238
320.26	10.000
320.62	9.127
320.99	8.990
321.35	8.485
321.72	8.624
322.08	9.477
322.45	8.756
322.81	10.271
323.18	9.345
323.54	9.647
323.91	9.906
324.27	7.648
324.64	8.108
325.00	7.665
325.37	8.735
325.73	8.977
326.10	8.561
326.46	8.154
326.83	9.577
327.19	8.540
327.56	8.101
327.92	7.962
328.29	8.873
328.65	9.945
329.01	8.935
329.38	8.418
329.74	8.310
330.11	8.954
330.47	8.540
330.84	9.099
331.20	8.015
331.56	8.440
331.93	8.704
332.29	8.163
332.66	9.292
333.02	8.318
333.38	9.304
333.75	8.378
334.11	8.274
334.48	7.986
334.84	8.824
335.20	8.182
335.57	7.434
335.93	7.946
336.29	6.777
336.66	7.935
337.02	7.149
337.38	8.704
337.75	8.467
338.11	8.057
338.47	7.643
338.84	8.708
339.20	6.789
339.56	9.398
339.93	6.636
340.29	6.612
340.65	7.932
341.02	8.639
341.38	8.630
341.74	7.018
342.11	8.035
342.47	6.696
342.83	8.305
343.20	9.004
343.56	7.414
343.92	7.807
344.28	8.333
344.65	8.169
345.01	6.229
345.37	6.089
345.73	7.868
346.10	7.673
346.46	7.288
346.82	8.155
347.19	6.683
347.55	7.553
347.91	7.605
348.27	7.642
348.63	8.612
349.00	7.686
349.36	6.404
349.72	8.500
350.08	7.699
350.45	6.916
350.81	7.311
351.17	7.536
351.53	7.043
351.89	6.106
352.26	8.366
352.62	7.538
352.98	6.402
353.34	6.902
353.70	5.728
354.07	6.452
354.43	6.587
354.79	5.792
355.15	6.305
355.51	7.514
355.87	7.592
356.24	7.003
356.60	6.816
356.96	6.677
357.32	6.950
357.68	7.165
358.04	7.205
358.40	7.047
358.77	7.668
359.13	6.235
359.49	6.588
359.85	5.794
360.21	5.821
360.57	7.626
360.93	6.385
361.29	6.576
361.66	6.115
362.02	6.716
362.38	6.920
362.74	6.324
363.10	5.922
363.46	6.163
363.82	6.047
364.18	6.314
364.54	6.538
364.90	7.649
365.26	6.397
365.62	6.939
365.98	5.551
366.35	5.874
366.71	6.580
367.07	5.827
367.43	6.604
367.79	6.781
368.15	7.112
368.51	5.741
368.87	6.210
369.23	5.852
369.59	6.155
369.95	6.250
370.31	6.339
370.67	6.812
371.03	6.742
371.39	5.685
371.75	6.029
372.11	6.615
372.47	6.745
372.83	6.772
373.19	5.636
373.55	6.135
373.91	6.480
374.27	6.460
374.63	5.600
374.99	6.850
375.35	5.652
375.71	6.032
376.07	6.653
376.42	6.052
376.78	6.229
377.14	5.292
377.50	6.821
377.86	5.386
378.22	5.942
378.58	5.326
378.94	5.783
379.30	5.534
379.66	5.964
380.02	5.835
380.38	5.343
380.74	5.642
381.09	5.685
381.45	5.593
381.81	6.388
382.17	5.414
382.53	6.164
382.89	5.556
383.25	4.878
383.61	6.196
383.97	5.066
384.32	5.427
384.68	5.019
385.04	5.593
385.40	5.511
385.76	5.835
386.12	4.858
386.48	6.293
386.83	5.452
387.19	6.432
387.55	5.875
387.91	5.623
388.27	5.457
388.62	5.716
388.98	5.221
389.34	5.695
389.70	5.763
390.06	6.274
390.42	5.837
390.77	6.170
391.13	5.041
391.49	5.457
391.85	5.474
392.20	5.047
392.56	5.492
392.92	5.356
393.28	3.787
393.64	5.516
393.99	6.048
394.35	5.025
394.71	5.521
395.07	5.296
395.42	4.388
395.78	5.153
396.14	5.773
396.50	6.015
396.85	5.658
397.21	5.055
397.57	4.712
397.92	5.108
398.28	4.821
398.64	5.735
399.00	5.372
399.35	4.794
399.71	5.324
400.07	5.559
400.42	5.706
400.78	5.730
401.14	5.000
401.49	5.313
401.85	4.598
402.21	5.269
402.57	5.182
402.92	5.170
403.28	5.746
403.63	5.260
403.99	5.223
404.35	5.515
404.70	4.916
405.06	4.834
405.42	5.365
405.77	5.486
406.13	5.192
406.49	5.145
406.84	5.966
407.20	4.374
407.55	5.041
407.91	5.533
408.27	4.467
408.62	5.539
408.98	5.086
409.34	4.859
409.69	4.452
410.05	5.081
410.40	5.627
410.76	5.078
411.11	5.790
411.47	4.984
411.83	5.803
412.18	5.195
412.54	4.421
412.89	6.446
413.25	5.903
413.60	5.003
413.96	5.161
414.31	5.346
414.67	6.020
415.03	5.629
415.38	5.026
415.74	5.981
416.09	5.617
416.45	5.355
416.80	5.618
417.16	5.630
417.51	5.574
417.87	5.588
418.22	5.489
418.58	6.004
418.93	5.221
419.29	5.856
419.64	5.227
420.00	6.098
420.35	5.797
420.71	5.559
421.06	4.833
421.42	5.614
421.77	5.269
422.12	5.166
422.48	4.371
422.83	5.649
423.19	5.746
423.54	5.514
423.90	6.087
424.25	5.695
424.61	6.488
424.96	5.598
425.31	6.368
425.67	5.056
426.02	5.314
426.38	5.861
426.73	4.857
427.09	5.593
427.44	5.060
427.79	4.773
428.15	5.417
428.50	6.085
428.85	6.257
429.21	5.246
429.56	4.769
429.92	5.184
430.27	5.114
430.62	5.223
430.98	4.878
431.33	5.000
431.68	5.550
432.04	5.165
432.39	5.483
432.74	5.566
433.10	5.320
433.45	5.248
433.80	5.377
434.16	6.090
434.51	5.474
434.86	5.701
435.22	5.170
435.57	5.350
435.92	5.149
436.28	6.346
436.63	6.181
436.98	5.495
437.34	5.903
437.69	5.601
438.04	5.059
438.39	5.493
438.75	6.043
439.10	5.196
439.45	5.962
439.81	5.015
440.16	5.308
440.51	5.858
440.86	5.732
441.22	5.395
441.57	5.520
441.92	5.937
442.27	5.221
442.63	5.266
442.98	5.746
443.33	5.598
443.68	5.627
444.03	5.368
444.39	5.015
444.74	5.141
445.09	5.121
445.44	5.249
445.79	6.185
446.15	6.035
446.50	5.331
446.85	5.550
447.20	5.048
447.55	5.360
447.91	5.185
448.26	5.231
448.61	5.540
448.96	6.146
449.31	5.174
449.66	6.021
450.02	5.014
450.37	5.782
450.72	5.189
451.07	6.155
451.42	4.681
451.77	6.048
452.12	6.293
452.47	6.219
452.83	5.886
453.18	6.540
453.53	6.494
453.88	5.316
454.23	6.157
454.58	5.754
454.93	6.993
455.28	5.860
455.63	5.825
455.98	6.786
456.34	6.281
456.69	6.011
457.04	5.573
457.39	4.909
457.74	5.572
458.09	5.578
458.44	5.701
458.79	5.477
459.14	5.869
459.49	5.546
459.84	5.152
460.19	5.834
460.54	6.192
460.89	5.321
461.24	5.464
461.59	7.205
461.94	5.610
462.29	6.113
462.64	6.190
462.99	5.725
463.34	6.400
463.69	6.191
464.04	6.087
464.39	6.725
464.74	6.655
465.09	6.092
465.44	5.873
465.79	5.705
466.14	5.747
466.49	5.172
466.84	5.954
467.19	6.397
467.54	6.438
467.89	5.582
468.24	6.166
468.59	6.166
468.94	6.048
469.29	5.656
469.64	7.631
469.99	6.089
470.34	5.482
470.68	6.034
471.03	5.782
471.38	5.976
471.73	6.129
472.08	6.645
472.43	6.156
472.78	5.596
473.13	6.675
473.48	6.554
473.83	5.915
474.17	5.663
474.52	5.335
474.87	6.363
475.22	6.268
475.57	5.373
475.92	5.736
476.27	5.862
476.61	5.571
476.96	5.443
477.31	5.338
477.66	5.908
478.01	4.757
478.36	6.029
478.70	5.867
479.05	5.644
479.40	5.374
479.75	5.694
480.10	4.871
480.45	5.045
480.79	4.969
481.14	5.431
481.49	5.078
481.84	5.075
482.19	5.225
482.53	5.963
482.88	5.491
483.23	5.748
483.58	5.778
483.92	5.061
484.27	4.749
484.62	4.957
484.97	5.321
485.31	4.726
485.66	3.909
486.01	3.519
486.36	3.223
486.70	3.184
487.05	3.811
487.40	4.162
487.75	3.943
488.09	4.186
488.44	4.503
488.79	4.810
489.13	4.813
489.48	4.568
489.83	4.963
490.17	4.998
490.52	5.093
490.87	5.066
491.22	5.321
491.56	4.374
491.91	5.165
492.26	4.915
492.60	4.977
492.95	4.911
493.30	5.140
493.64	4.480
493.99	4.782
494.34	5.458
494.68	5.495
495.03	5.451
495.37	4.979
495.72	4.727
496.07	5.429
496.41	4.248
496.76	5.541
497.11	5.178
497.45	4.984
497.80	5.134
498.14	4.879
498.49	4.976
498.84	5.273
499.18	4.952
499.53	5.461
499.87	4.753
500.22	5.276
500.56	5.291
500.91	5.096
501.26	4.884
501.60	5.980
501.95	5.362
502.29	5.483
502.64	4.935
502.98	5.470
503.33	5.027
503.67	4.733
504.02	5.145
504.36	5.662
504.71	5.081
505.06	5.976
505.40	4.278
505.75	5.111
506.09	4.908
506.44	5.081
506.78	5.212
507.13	5.300
507.47	5.758
507.82	5.572
508.16	5.319
508.51	5.682
508.85	5.263
509.19	5.459
509.54	4.847
509.88	5.049
510.23	5.296
510.57	6.398
510.92	5.489
511.26	5.447
511.61	5.654
511.95	5.376
512.30	5.514
512.64	5.965
512.98	5.788
513.33	5.567
513.67	5.977
514.02	5.519
514.36	5.898
514.70	6.087
515.05	5.466
515.39	5.496
515.74	5.912
516.08	6.484
516.42	6.271
516.77	6.243
517.11	5.494
517.46	5.926
517.80	5.807
518.14	4.748
518.49	6.068
518.83	6.193
519.17	5.831
519.52	6.055
519.86	5.990
520.20	6.416
520.55	7.241
520.89	6.387
521.23	6.695
521.58	5.762
521.92	6.430
522.26	5.918
522.61	6.044
522.95	5.770
523.29	6.573
523.64	6.707
523.98	6.408
524.32	5.971
524.66	6.374
525.01	6.801
525.35	5.390
525.69	6.034
526.04	6.604
526.38	7.016
526.72	6.626
527.06	6.403
527.41	6.002
527.75	6.367
528.09	6.358
528.43	6.246
528.78	7.130
529.12	6.061
529.46	6.920
529.80	6.931
530.15	6.729
530.49	5.785
530.83	5.886
531.17	6.723
531.51	6.809
531.86	6.968
532.20	7.432
532.54	6.983
532.88	7.445
533.22	6.621
533.57	6.852
533.91	6.261
534.25	6.379
534.59	6.406
534.93	6.603
535.27	6.397
535.62	6.838
535.96	7.156
536.30	6.039
536.64	7.083
536.98	6.105
537.32	6.715
537.66	6.067
538.01	6.517
538.35	7.304
538.69	6.956
539.03	5.783
539.37	6.070
539.71	4.990
540.05	6.667
540.39	6.512
540.73	5.692
541.07	6.814
541.42	6.849
541.76	6.387
542.10	7.050
542.44	6.424
542.78	7.115
543.12	6.206
543.46	6.951
543.80	6.571
544.14	5.969
544.48	6.540
544.82	6.607
545.16	6.636
545.50	6.748
545.84	6.317
546.18	6.465
546.52	7.226
546.86	6.667
547.20	7.485
547.54	6.613
547.88	7.781
548.22	6.538
548.56	6.855
548.90	6.786
549.24	6.195
549.58	6.821
549.92	6.731
550.26	7.173
550.60	7.400
550.94	7.042
551.28	7.096
551.62	7.189
551.96	6.737
552.30	7.304
552.64	7.505
552.98	6.508
553.32	6.945
553.66	7.839
554.00	6.932
554.34	6.487
554.68	6.867
555.02	7.405
555.36	6.402
555.69	6.834
556.03	7.201
556.37	7.162
556.71	6.617
557.05	6.092
557.39	6.788
557.73	6.493
558.07	7.614
558.41	6.078
558.75	6.098
559.08	6.711
559.42	6.500
559.76	6.985
560.10	7.566
560.44	7.058
560.78	6.520
561.12	6.662
561.45	7.497
561.79	6.790
562.13	6.908
562.47	7.650
562.81	6.904
563.15	6.622
563.48	7.361
563.82	6.654
564.16	6.082
564.50	5.794
564.84	6.700
565.17	6.628
565.51	6.070
565.85	6.980
566.19	6.512
566.52	6.270
566.86	7.233
567.20	6.486
567.54	6.107
567.88	5.758
568.21	6.190
568.55	5.915
568.89	5.545
569.23	5.437
569.56	5.466
569.90	4.981
570.24	5.095
570.57	4.556
570.91	4.913
571.25	4.663
571.59	4.595
571.92	4.637
572.26	4.506
572.60	5.105
572.93	4.378
573.27	4.910
573.61	4.439
573.95	4.444
574.28	4.221
574.62	4.252
574.96	4.182
575.29	4.195
575.63	4.599
575.97	4.348
576.30	4.541
576.64	4.043
576.98	4.132
577.31	4.136
577.65	4.430
577.98	4.101
578.32	3.872
578.66	3.836
578.99	4.223
579.33	3.946
579.67	3.989
580.00	4.100
580.34	4.414
580.67	4.254
581.01	4.520
581.35	4.050
581.68	3.980
582.02	3.813
582.35	3.852
582.69	4.226
583.02	3.913
583.36	4.266
583.70	4.545
584.03	4.232
584.37	4.611
584.70	4.127
585.04	4.354
585.37	4.171
585.71	4.511
586.04	4.494
586.38	4.415
586.72	5.081
587.05	4.265
587.39	4.354
587.72	4.406
588.06	4.136
588.39	4.664
588.73	4.283
589.06	5.235
589.40	4.916
589.73	4.717
590.07	5.018
590.40	5.079
590.73	5.152
591.07	5.739
591.40	5.314
591.74	6.147
592.07	5.323
592.41	5.374
592.74	5.356
593.08	4.830
593.41	4.714
593.75	4.685
594.08	5.062
594.41	4.878
594.75	5.508
595.08	5.154
595.42	5.254
595.75	4.950
596.09	5.107
596.42	5.933
596.75	6.079
597.09	6.147
597.42	5.312
597.75	5.390
598.09	5.957
598.42	5.069
598.76	4.986
599.09	5.321
599.42	5.167
599.76	5.454
600.09	5.428
600.42	4.785
600.76	4.964
601.09	4.882
601.42	5.251
601.76	5.503
602.09	5.296
602.42	5.295
602.76	5.804
603.09	5.350
603.42	5.310
603.76	4.916
604.09	5.041
604.42	4.770
604.76	5.609
605.09	5.636
605.42	4.831
605.75	5.257
606.09	4.961
606.42	5.149
606.75	5.185
607.09	5.986
607.42	5.092
607.75	5.232
608.08	5.254
608.42	6.186
608.75	5.861
609.08	5.643
609.41	5.712
609.75	5.431
610.08	5.985
610.41	5.773
610.74	5.251
611.07	5.237
611.41	5.545
611.74	6.637
612.07	6.108
612.40	6.086
612.73	6.158
613.07	6.627
613.40	5.898
613.73	5.191
614.06	6.129
614.39	6.555
614.72	6.316
615.06	5.935
615.39	5.520
615.72	5.828
616.05	5.688
616.38	6.948
616.71	6.354
617.05	6.066
617.38	6.314
617.71	5.706
618.04	6.370
618.37	6.623
618.70	6.596
619.03	7.303
619.36	6.925
619.69	6.620
620.03	7.624
620.36	7.353
620.69	6.918
621.02	7.743
621.35	6.265
621.68	7.087
622.01	7.508
622.34	7.640
622.67	7.300
623.00	6.236
623.33	7.362
623.66	6.576
623.99	5.965
624.32	7.703
624.65	7.839
624.99	6.799
625.32	6.300
625.65	6.987
625.98	7.533
626.31	8.243
626.64	8.163
626.97	7.315
627.30	6.899
627.63	8.532
627.96	7.906
628.29	8.749
628.62	8.875
628.95	9.434
629.28	8.120
629.61	9.074
629.94	8.381
630.26	7.340
630.59	7.722
630.92	8.429
631.25	7.799
631.58	9.209
631.91	8.722
632.24	7.278
632.57	9.129
632.90	7.566
633.23	8.389
633.56	9.944
633.89	9.513
634.22	8.740
634.55	10.059
634.88	8.623
635.20	11.231
635.53	9.398
635.86	9.282
636.19	10.000
636.52	8.766
636.85	9.278
637.18	9.101
637.51	11.111
637.83	8.631
638.16	9.207
638.49	9.320
638.82	11.125
639.15	8.375
639.48	10.723
639.81	10.724
640.13	10.417
640.46	9.664
640.79	10.304
641.12	8.803
641.45	9.358
641.77	10.751
642.10	10.380
642.43	9.610
642.76	10.526
643.09	10.429
643.41	10.774
643.74	12.500
644.07	11.280
644.40	12.730
644.73	13.071
645.05	13.154
645.38	11.690
645.71	12.077
646.04	12.292
646.36	13.189
646.69	12.542
647.02	12.075
647.35	13.746
647.67	12.035
648.00	12.195
648.33	11.386
648.66	11.667
648.98	12.744
649.31	8.819
649.64	11.510
649.96	10.879
650.29	11.216
650.62	11.003
650.94	11.669
651.27	13.682
651.60	12.646
651.92	14.696
652.25	10.423
