SpectraSuite Data File
++++++++++++++++++++++++++++++++++++
Date: Wed May 13 19:28:58 PDT 2015
User: schluterlab
Dark Spectrum Present: Yes
Reference Spectrum Present: Yes
Number of Sampled Component Spectra: 1
Spectrometers: USB2E3373
Integration Time (usec): 3000 (USB2E3373)
Spectra Averaged: 3 (USB2E3373)
Boxcar Smoothing: 0 (USB2E3373)
Correct for Electrical Dark: No (USB2E3373)
Strobe/Lamp Enabled: No (USB2E3373)
Correct for Detector Non-linearity: No (USB2E3373)
Correct for Stray Light: No (USB2E3373)
Number of Pixels in Processed Spectrum: 2048
>>>>>Begin Processed Spectral Data<<<<<
178.53	0.000
178.91	-1300.000
179.29	-1500.000
179.67	-233.333
180.04	-1275.000
180.42	2600.000
180.80	1100.000
181.18	-1275.000
181.56	614.286
181.94	0.000
182.31	-642.857
182.69	1433.333
183.07	-562.500
183.45	-577.778
183.83	563.636
184.20	-440.000
184.58	2600.000
184.96	5600.000
185.34	-880.000
185.72	-612.500
186.09	-2350.000
186.47	2900.000
186.85	2050.000
187.23	4800.000
187.61	-1800.000
187.98	1650.000
188.36	536.364
188.74	545.455
189.12	-940.000
189.49	610.000
189.87	-5000.000
190.25	-1425.000
190.63	371.429
191.00	400.000
191.38	950.000
191.76	-1200.000
192.14	1450.000
192.51	587.500
192.89	933.333
193.27	600.000
193.65	-1500.000
194.02	490.000
194.40	920.000
194.78	600.000
195.15	525.000
195.53	610.000
195.91	-1900.000
196.29	331.250
196.66	315.789
197.04	-370.000
197.42	0.000
197.79	610.000
198.17	-5000.000
198.55	671.429
198.92	762.500
199.30	880.000
199.68	0.000
200.05	333.333
200.43	742.857
200.81	4600.000
201.18	1466.667
201.56	-1900.000
201.94	566.667
202.31	677.778
202.69	433.333
203.07	570.000
203.44	0.000
203.82	1375.000
204.19	742.857
204.57	414.286
204.95	600.000
205.32	1633.333
205.70	509.091
206.08	371.429
206.45	2650.000
206.83	350.000
207.20	950.000
207.58	880.000
207.96	355.556
208.33	750.000
208.71	-900.000
209.08	871.429
209.46	555.556
209.84	463.636
210.21	-1666.667
210.59	1125.000
210.96	-512.500
211.34	2500.000
211.71	400.000
212.09	800.000
212.46	0.000
212.84	1966.667
213.22	1300.000
213.59	-5200.000
213.97	983.333
214.34	857.143
214.72	600.000
215.09	1160.000
215.47	-2350.000
215.84	-2900.000
216.22	1566.667
216.59	442.857
216.97	1700.000
217.34	500.000
217.72	-750.000
218.09	0.000
218.47	-5200.000
218.84	611.111
219.22	728.571
219.59	1600.000
219.97	-657.143
220.34	980.000
220.72	-1400.000
221.09	414.286
221.47	1375.000
221.84	-916.667
222.22	0.000
222.59	1350.000
222.97	-2700.000
223.34	1080.000
223.72	423.077
224.09	1160.000
224.46	2400.000
224.84	-5300.000
225.21	-1060.000
225.59	-5300.000
225.96	620.000
226.34	310.000
226.71	2900.000
227.08	700.000
227.46	510.000
227.83	-950.000
228.21	-2250.000
228.58	555.556
228.95	-2550.000
229.33	-2250.000
229.70	1433.333
230.08	771.429
230.45	-880.000
230.82	458.333
231.20	916.667
231.57	642.857
231.95	541.667
232.32	272.727
232.69	445.455
233.07	714.286
233.44	415.385
233.81	-1566.667
234.19	315.789
234.56	433.333
234.93	441.667
235.31	490.909
235.68	353.846
236.05	292.857
236.43	166.667
236.80	247.368
237.17	4300.000
237.55	242.857
237.92	182.143
238.29	252.381
238.67	164.516
239.04	175.862
239.41	113.889
239.79	84.783
240.16	128.571
240.53	109.091
240.91	84.314
241.28	106.000
241.65	88.000
242.02	69.565
242.40	66.129
242.77	68.333
243.14	60.215
243.51	62.921
243.89	56.471
244.26	53.333
244.63	59.140
245.00	37.234
245.38	48.515
245.75	47.664
246.12	47.706
246.49	50.365
246.87	41.600
247.24	40.769
247.61	31.429
247.98	43.137
248.36	31.081
248.73	35.669
249.10	43.949
249.47	36.158
249.84	31.016
250.22	26.738
250.59	26.627
250.96	30.808
251.33	28.436
251.70	31.683
252.08	24.762
252.45	21.525
252.82	21.304
253.19	26.383
253.56	23.529
253.94	24.896
254.31	18.359
254.68	25.000
255.05	21.033
255.42	23.171
255.79	18.015
256.16	22.022
256.54	18.728
256.91	23.132
257.28	16.187
257.65	20.132
258.02	18.323
258.39	16.088
258.76	14.716
259.14	19.345
259.51	17.021
259.88	12.733
260.25	16.616
260.62	17.630
260.99	16.149
261.36	18.619
261.73	16.905
262.10	15.116
262.47	17.465
262.85	15.042
263.22	12.821
263.59	18.234
263.96	15.385
264.33	15.927
264.70	17.105
265.07	15.090
265.44	16.919
265.81	11.679
266.18	12.563
266.55	13.902
266.92	14.496
267.29	15.741
267.66	13.303
268.03	12.955
268.40	12.150
268.77	12.411
269.14	16.216
269.51	16.027
269.88	13.753
270.25	11.512
270.62	11.461
270.99	15.699
271.36	13.305
271.73	10.748
272.10	14.130
272.47	12.688
272.84	12.554
273.21	14.675
273.58	11.135
273.95	11.740
274.32	9.504
274.69	12.848
275.06	11.614
275.43	11.915
275.80	11.222
276.17	10.998
276.54	12.890
276.91	12.846
277.28	11.328
277.65	11.992
278.02	10.559
278.39	11.719
278.76	10.182
279.13	12.264
279.50	10.987
279.87	9.761
280.23	11.776
280.60	9.865
280.97	10.906
281.34	10.619
281.71	12.000
282.08	10.557
282.45	9.636
282.82	11.012
283.19	9.091
283.56	10.877
283.92	11.168
284.29	10.935
284.66	8.530
285.03	11.031
285.40	10.387
285.77	8.923
286.14	9.499
286.51	11.667
286.87	10.769
287.24	10.586
287.61	9.791
287.98	10.065
288.35	9.033
288.72	12.150
289.08	9.859
289.45	9.720
289.82	10.732
290.19	8.791
290.56	8.729
290.93	7.855
291.29	8.896
291.66	6.932
292.03	10.756
292.40	9.985
292.77	5.917
293.13	9.552
293.50	9.038
293.87	8.296
294.24	8.296
294.60	8.151
294.97	8.576
295.34	8.604
295.71	9.091
296.08	6.838
296.44	8.116
296.81	7.926
297.18	9.350
297.55	6.596
297.91	8.707
298.28	9.772
298.65	8.877
299.02	8.696
299.38	7.835
299.75	5.391
300.12	6.513
300.48	7.000
300.85	8.138
301.22	6.879
301.59	7.955
301.95	7.557
302.32	8.472
302.69	6.930
303.05	6.667
303.42	7.284
303.79	7.814
304.15	6.993
304.52	6.605
304.89	6.736
305.25	6.497
305.62	6.569
305.99	6.257
306.35	6.488
306.72	8.072
307.09	6.659
307.45	7.995
307.82	6.138
308.19	7.837
308.55	7.875
308.92	6.660
309.29	5.597
309.65	6.681
310.02	7.400
310.38	7.527
310.75	5.597
311.12	6.960
311.48	7.210
311.85	6.604
312.22	7.284
312.58	5.925
312.95	7.709
313.31	6.408
313.68	6.653
314.05	8.383
314.41	6.734
314.78	6.747
315.14	5.958
315.51	6.385
315.87	6.634
316.24	5.760
316.61	4.776
316.97	6.067
317.34	5.284
317.70	6.214
318.07	6.449
318.43	6.067
318.80	7.123
319.16	6.685
319.53	6.848
319.89	7.333
320.26	7.800
320.62	5.952
320.99	5.960
321.35	6.465
321.72	6.057
322.08	5.627
322.45	8.060
322.81	7.558
323.18	7.418
323.54	7.978
323.91	6.981
324.27	6.979
324.64	5.405
325.00	6.492
325.37	7.188
325.73	7.092
326.10	6.443
326.46	6.004
326.83	6.557
327.19	6.917
327.56	5.488
327.92	7.174
328.29	6.744
328.65	7.090
329.01	6.679
329.38	6.660
329.74	6.464
330.11	6.975
330.47	7.438
330.84	7.904
331.20	7.104
331.56	6.147
331.93	6.574
332.29	7.010
332.66	7.434
333.02	7.221
333.38	7.588
333.75	7.754
334.11	6.584
334.48	6.477
334.84	7.721
335.20	6.091
335.57	5.893
335.93	5.536
336.29	6.960
336.66	6.943
337.02	6.244
337.38	6.204
337.75	6.061
338.11	5.998
338.47	5.617
338.84	7.516
339.20	6.147
339.56	6.934
339.93	6.364
340.29	5.616
340.65	6.595
341.02	7.417
341.38	7.206
341.74	5.789
342.11	7.511
342.47	6.167
342.83	6.507
343.20	7.013
343.56	6.824
343.92	6.491
344.28	7.143
344.65	6.965
345.01	5.556
345.37	5.403
345.73	6.599
346.10	6.991
346.46	6.610
346.82	6.425
347.19	5.347
347.55	6.732
347.91	6.553
348.27	6.738
348.63	6.271
349.00	6.472
349.36	5.419
349.72	5.774
350.08	5.673
350.45	6.509
350.81	6.418
351.17	5.916
351.53	5.733
351.89	5.528
352.26	6.946
352.62	6.415
352.98	6.564
353.34	5.834
353.70	4.910
354.07	6.290
354.43	6.111
354.79	5.149
355.15	6.624
355.51	7.434
355.87	6.367
356.24	6.759
356.60	5.453
356.96	5.953
357.32	6.214
357.68	5.906
358.04	6.017
358.40	5.622
358.77	6.495
359.13	5.919
359.49	5.176
359.85	5.556
360.21	4.944
360.57	5.837
360.93	5.692
361.29	5.593
361.66	5.341
362.02	5.970
362.38	6.540
362.74	6.176
363.10	4.885
363.46	4.842
363.82	5.140
364.18	5.213
364.54	5.646
364.90	6.232
365.26	4.853
365.62	6.209
365.98	5.259
366.35	5.158
366.71	5.568
367.07	5.098
367.43	5.588
367.79	5.996
368.15	6.034
368.51	5.305
368.87	4.925
369.23	5.121
369.59	5.503
369.95	5.441
370.31	5.698
370.67	5.580
371.03	5.768
371.39	3.863
371.75	5.662
372.11	5.690
372.47	6.012
372.83	5.187
373.19	4.913
373.55	5.765
373.91	7.069
374.27	4.467
374.63	5.091
374.99	5.791
375.35	4.257
375.71	5.072
376.07	6.036
376.42	5.089
376.78	5.964
377.14	5.224
377.50	5.695
377.86	4.854
378.22	5.689
378.58	4.386
378.94	4.588
379.30	4.008
379.66	5.203
380.02	5.098
380.38	4.554
380.74	5.102
381.09	4.890
381.45	5.409
381.81	5.160
382.17	5.287
382.53	4.906
382.89	5.926
383.25	4.440
383.61	4.585
383.97	4.941
384.32	4.928
384.68	4.275
385.04	4.917
385.40	5.077
385.76	4.914
386.12	4.598
386.48	4.972
386.83	5.324
387.19	4.947
387.55	4.947
387.91	4.534
388.27	4.231
388.62	5.347
388.98	4.361
389.34	5.632
389.70	5.273
390.06	4.753
390.42	5.188
390.77	5.598
391.13	4.978
391.49	5.330
391.85	4.838
392.20	4.416
392.56	4.672
392.92	4.944
393.28	4.260
393.64	5.456
393.99	5.437
394.35	5.025
394.71	4.705
395.07	4.984
395.42	4.944
395.78	5.344
396.14	5.152
396.50	5.388
396.85	4.704
397.21	4.131
397.57	5.084
397.92	4.868
398.28	3.812
398.64	5.197
399.00	4.365
399.35	4.230
399.71	5.035
400.07	5.086
400.42	5.092
400.78	5.609
401.14	3.841
401.49	4.836
401.85	4.295
402.21	4.491
402.57	4.380
402.92	4.540
403.28	4.435
403.63	4.517
403.99	4.268
404.35	5.394
404.70	4.317
405.06	4.368
405.42	4.616
405.77	4.514
406.13	4.628
406.49	4.731
406.84	5.139
407.20	4.078
407.55	4.340
407.91	4.267
408.27	4.403
408.62	4.877
408.98	3.983
409.34	4.859
409.69	5.484
410.05	3.903
410.40	4.526
410.76	4.480
411.11	5.368
411.47	5.495
411.83	4.948
412.18	4.082
412.54	4.795
412.89	5.301
413.25	4.545
413.60	4.941
413.96	4.432
414.31	4.678
414.67	5.260
415.03	4.570
415.38	5.412
415.74	4.823
416.09	5.683
416.45	4.552
416.80	4.296
417.16	5.764
417.51	5.242
417.87	4.881
418.22	5.174
418.58	5.229
418.93	4.423
419.29	5.283
419.64	5.227
420.00	4.512
420.35	4.696
420.71	5.619
421.06	4.535
421.42	5.614
421.77	4.765
422.12	4.211
422.48	4.317
422.83	4.193
423.19	4.917
423.54	4.411
423.90	5.391
424.25	4.411
424.61	4.762
424.96	5.423
425.31	5.150
425.67	4.270
426.02	5.143
426.38	5.250
426.73	5.091
427.09	4.498
427.44	4.485
427.79	4.255
428.15	5.833
428.50	4.915
428.85	5.244
429.21	4.417
429.56	4.044
429.92	4.227
430.27	4.320
430.62	3.994
430.98	4.567
431.33	4.691
431.68	5.026
432.04	5.112
432.39	4.340
432.74	4.608
433.10	4.641
433.45	4.548
433.80	4.102
434.16	4.220
434.51	4.579
434.86	5.131
435.22	4.336
435.57	4.498
435.92	3.920
436.28	4.804
436.63	5.629
436.98	4.121
437.34	4.353
437.69	5.484
438.04	4.553
438.39	4.955
438.75	5.055
439.10	4.637
439.45	4.841
439.81	3.988
440.16	4.969
440.51	4.628
440.86	4.632
441.22	4.561
441.57	4.671
441.92	5.015
442.27	4.198
442.63	4.423
442.98	5.352
443.33	4.239
443.68	4.182
444.03	4.246
444.39	3.700
444.74	4.708
445.09	4.367
445.44	4.265
445.79	4.701
446.15	4.976
446.50	4.039
446.85	4.008
447.20	4.131
447.55	4.523
447.91	4.633
448.26	4.841
448.61	4.522
448.96	4.651
449.31	4.949
449.66	4.615
450.02	4.178
450.37	4.365
450.72	4.569
451.07	4.753
451.42	4.681
451.77	4.756
452.12	5.543
452.47	5.162
452.83	4.895
453.18	5.196
453.53	5.318
453.88	4.666
454.23	5.140
454.58	4.724
454.93	4.895
455.28	4.177
455.63	4.672
455.98	5.833
456.34	4.020
456.69	4.696
457.04	4.768
457.39	4.734
457.74	4.875
458.09	5.060
458.44	5.131
458.79	4.447
459.14	4.289
459.49	5.079
459.84	4.765
460.19	4.007
460.54	4.630
460.89	4.498
461.24	4.007
461.59	5.985
461.94	4.562
462.29	4.629
462.64	5.105
462.99	4.164
463.34	5.133
463.69	4.941
464.04	5.159
464.39	5.159
464.74	5.288
465.09	4.825
465.44	3.989
465.79	4.418
466.14	4.871
466.49	4.283
466.84	5.429
467.19	5.190
467.54	5.125
467.89	4.982
468.24	5.294
468.59	5.617
468.94	4.765
469.29	5.077
469.64	5.890
469.99	5.345
470.34	4.954
470.68	5.172
471.03	5.102
471.38	5.907
471.73	5.130
472.08	5.526
472.43	4.962
472.78	4.872
473.13	5.071
473.48	5.368
473.83	5.244
474.17	5.352
474.52	5.459
474.87	5.371
475.22	5.107
475.57	4.997
475.92	4.727
476.27	4.510
476.61	4.026
476.96	3.683
477.31	4.134
477.66	4.650
478.01	4.600
478.36	4.707
478.70	4.413
479.05	4.473
479.40	4.964
479.75	4.677
480.10	4.722
480.45	4.426
480.79	3.679
481.14	4.207
481.49	4.461
481.84	4.527
482.19	4.316
482.53	4.037
482.88	4.281
483.23	4.159
483.58	4.368
483.92	3.936
484.27	3.573
484.62	4.052
484.97	3.942
485.31	3.904
485.66	2.901
486.01	2.542
486.36	2.481
486.70	2.562
487.05	2.819
487.40	3.294
487.75	3.039
488.09	3.245
488.44	3.202
488.79	3.436
489.13	3.934
489.48	3.630
489.83	3.971
490.17	4.253
490.52	4.119
490.87	3.664
491.22	4.866
491.56	3.462
491.91	4.141
492.26	3.767
492.60	4.055
492.95	3.555
493.30	4.065
493.64	3.826
493.99	3.575
494.34	4.117
494.68	4.853
495.03	4.135
495.37	4.467
495.72	3.996
496.07	4.084
496.41	3.584
496.76	3.738
497.11	4.457
497.45	4.145
497.80	4.127
498.14	3.816
498.49	4.244
498.84	4.027
499.18	3.619
499.53	4.321
499.87	4.334
500.22	3.815
500.56	4.854
500.91	3.750
501.26	4.599
501.60	4.699
501.95	3.712
502.29	4.592
502.64	4.236
502.98	4.161
503.33	3.748
503.67	4.362
504.02	4.116
504.36	4.445
504.71	4.104
505.06	4.145
505.40	3.938
505.75	4.098
506.09	4.325
506.44	3.799
506.78	4.627
507.13	4.543
507.47	4.646
507.82	4.407
508.16	4.509
508.51	4.414
508.85	4.220
509.19	4.541
509.54	4.796
509.88	4.534
510.23	4.370
510.57	5.160
510.92	4.195
511.26	4.522
511.61	5.135
511.95	4.332
512.30	3.818
512.64	4.352
512.98	5.305
513.33	4.550
513.67	4.109
514.02	4.221
514.36	5.025
514.70	4.427
515.05	4.183
515.39	4.375
515.74	4.899
516.08	5.366
516.42	4.939
516.77	5.240
517.11	4.384
517.46	5.079
517.80	4.878
518.14	3.706
518.49	4.842
518.83	5.852
519.17	4.677
519.52	4.584
519.86	4.735
520.20	5.376
520.55	4.548
520.89	5.414
521.23	5.368
521.58	5.462
521.92	5.573
522.26	4.149
522.61	4.174
522.95	5.402
523.29	5.234
523.64	5.305
523.98	4.806
524.32	4.946
524.66	5.652
525.01	5.392
525.35	4.337
525.69	4.803
526.04	5.171
526.38	4.881
526.72	6.135
527.06	5.148
527.41	5.012
527.75	5.466
528.09	5.845
528.43	5.481
528.78	5.900
529.12	5.394
529.46	5.879
529.80	5.817
530.15	5.234
530.49	4.615
530.83	6.266
531.17	5.157
531.51	6.031
531.86	5.290
532.20	6.063
532.54	6.214
532.88	5.520
533.22	5.184
533.57	5.679
533.91	5.178
534.25	5.225
534.59	5.003
534.93	5.592
535.27	5.492
535.62	5.495
535.96	5.650
536.30	4.514
536.64	5.216
536.98	5.441
537.32	5.859
537.66	4.867
538.01	5.596
538.35	6.012
538.69	6.190
539.03	5.133
539.37	5.304
539.71	3.953
540.05	5.294
540.39	5.449
540.73	5.239
541.07	5.321
541.42	5.284
541.76	5.935
542.10	5.951
542.44	5.033
542.78	5.929
543.12	5.310
543.46	6.033
543.80	5.921
544.14	5.071
544.48	5.714
544.82	5.196
545.16	4.880
545.50	4.306
545.84	5.444
546.18	5.724
546.52	5.643
546.86	5.017
547.20	6.136
547.54	6.346
547.88	6.122
548.22	5.853
548.56	5.912
548.90	4.994
549.24	4.916
549.58	5.935
549.92	5.907
550.26	6.321
550.60	4.979
550.94	5.634
551.28	4.755
551.62	6.254
551.96	5.614
552.30	5.802
552.64	6.220
552.98	5.898
553.32	5.597
553.66	5.999
554.00	5.834
554.34	5.728
554.68	6.366
555.02	5.783
555.36	5.915
555.69	5.548
556.03	6.057
556.37	5.116
556.71	5.457
557.05	5.462
557.39	5.808
557.73	6.210
558.07	6.599
558.41	6.802
558.75	5.952
559.08	6.488
559.42	4.913
559.76	6.029
560.10	6.424
560.44	5.660
560.78	5.788
561.12	5.277
561.45	6.063
561.79	4.944
562.13	5.231
562.47	6.079
562.81	4.881
563.15	5.017
563.48	5.769
563.82	5.936
564.16	4.774
564.50	5.013
564.84	5.626
565.17	5.084
565.51	5.815
565.85	5.647
566.19	5.260
566.52	5.256
566.86	5.244
567.20	5.366
567.54	5.080
567.88	4.780
568.21	4.974
568.55	5.207
568.89	4.475
569.23	4.768
569.56	4.130
569.90	3.962
570.24	3.947
570.57	3.536
570.91	3.749
571.25	3.274
571.59	3.859
571.92	3.312
572.26	3.582
572.60	3.333
572.93	3.628
573.27	3.668
573.61	3.462
573.95	3.411
574.28	2.965
574.62	3.158
574.96	3.035
575.29	3.031
575.63	2.947
575.97	3.359
576.30	3.478
576.64	3.083
576.98	2.844
577.31	2.842
577.65	2.866
577.98	2.855
578.32	2.859
578.66	2.956
578.99	3.013
579.33	3.123
579.67	2.773
580.00	2.997
580.34	3.370
580.67	2.883
581.01	3.238
581.35	2.864
581.68	3.031
582.02	2.729
582.35	2.586
582.69	2.805
583.02	2.867
583.36	3.044
583.70	2.997
584.03	3.213
584.37	3.742
584.70	3.109
585.04	3.571
585.37	3.099
585.71	3.313
586.04	3.382
586.38	3.396
586.72	3.783
587.05	3.015
587.39	3.061
587.72	3.247
588.06	3.095
588.39	3.320
588.73	3.491
589.06	3.615
589.40	3.737
589.73	3.661
590.07	4.128
590.40	3.617
590.73	4.059
591.07	4.233
591.40	4.133
591.74	4.978
592.07	4.101
592.41	4.217
592.74	4.007
593.08	3.897
593.41	3.638
593.75	3.810
594.08	3.989
594.41	4.277
594.75	3.586
595.08	3.901
595.42	3.993
595.75	3.811
596.09	3.905
596.42	4.440
596.75	4.306
597.09	4.978
597.42	4.089
597.75	4.010
598.09	4.087
598.42	4.167
598.76	3.810
599.09	3.421
599.42	3.967
599.76	3.697
600.09	4.153
600.42	3.652
600.76	3.750
601.09	3.679
601.42	3.919
601.76	4.213
602.09	4.308
602.42	4.260
602.76	4.555
603.09	4.367
603.42	4.178
603.76	3.582
604.09	4.033
604.42	3.873
604.76	4.639
605.09	4.806
605.42	4.660
605.75	4.180
606.09	3.863
606.42	3.801
606.75	3.940
607.09	4.311
607.42	3.851
607.75	4.093
608.08	3.995
608.42	4.527
608.75	4.509
609.08	4.070
609.41	5.378
609.75	4.669
610.08	5.231
610.41	3.957
610.74	4.115
611.07	4.348
611.41	5.005
611.74	4.676
612.07	5.124
612.40	5.404
612.73	4.842
613.07	5.119
613.40	5.003
613.73	4.090
614.06	4.570
614.39	5.663
614.72	5.105
615.06	5.305
615.39	4.459
615.72	4.806
616.05	4.519
616.38	5.170
616.71	4.276
617.05	5.124
617.38	5.232
617.71	5.225
618.04	4.868
618.37	5.086
618.70	5.600
619.03	6.053
619.36	5.703
619.69	5.845
620.03	6.113
620.36	5.615
620.69	6.644
621.02	6.711
621.35	5.247
621.68	5.763
622.01	6.347
622.34	6.051
622.67	6.084
623.00	5.503
623.33	6.576
623.66	6.147
623.99	5.449
624.32	5.064
624.65	5.650
624.99	5.453
625.32	6.372
625.65	5.860
625.98	6.610
626.31	6.843
626.64	6.286
626.97	6.567
627.30	5.071
627.63	7.055
627.96	7.149
628.29	6.649
628.62	6.679
628.95	8.113
629.28	7.117
629.61	8.708
629.94	7.810
630.26	6.959
630.59	6.387
630.92	6.130
631.25	7.601
631.58	8.408
631.91	6.491
632.24	7.173
632.57	8.814
632.90	7.895
633.23	7.942
633.56	8.249
633.89	8.154
634.22	8.513
634.55	7.929
634.88	8.383
635.20	7.168
635.53	9.639
635.86	6.683
636.19	8.941
636.52	8.997
636.85	8.820
637.18	6.797
637.51	9.456
637.83	6.412
638.16	7.673
638.49	9.068
638.82	9.355
639.15	8.500
639.48	9.227
639.81	9.651
640.13	8.464
640.46	9.530
640.79	10.040
641.12	8.528
641.45	9.497
641.77	9.426
642.10	8.626
642.43	8.859
642.76	9.598
643.09	11.043
643.41	9.105
643.74	11.265
644.07	11.433
644.40	11.963
644.73	10.551
645.05	9.826
645.38	9.637
645.71	11.111
646.04	10.631
646.36	11.519
646.69	12.876
647.02	11.735
647.35	9.278
647.67	10.796
648.00	12.195
648.33	10.231
648.66	10.606
648.98	11.994
649.31	8.371
649.64	9.417
649.96	8.346
650.29	11.690
650.62	8.900
650.94	11.994
651.27	13.007
651.60	10.649
651.92	13.419
652.25	11.075
652.58	11.215
652.90	11.532
653.23	9.861
653.56	11.181
