SpectraSuite Data File
++++++++++++++++++++++++++++++++++++
Date: Wed May 13 19:43:26 PDT 2015
User: schluterlab
Dark Spectrum Present: Yes
Reference Spectrum Present: Yes
Number of Sampled Component Spectra: 1
Spectrometers: USB2E3373
Integration Time (usec): 3000 (USB2E3373)
Spectra Averaged: 3 (USB2E3373)
Boxcar Smoothing: 0 (USB2E3373)
Correct for Electrical Dark: No (USB2E3373)
Strobe/Lamp Enabled: No (USB2E3373)
Correct for Detector Non-linearity: No (USB2E3373)
Correct for Stray Light: No (USB2E3373)
Number of Pixels in Processed Spectrum: 2048
>>>>>Begin Processed Spectral Data<<<<<
178.53	0.000
178.91	-1275.000
179.29	-1500.000
179.67	-244.444
180.04	-1400.000
180.42	2600.000
180.80	1120.000
181.18	-1125.000
181.56	614.286
181.94	0.000
182.31	-614.286
182.69	1833.333
183.07	-600.000
183.45	-588.889
183.83	536.364
184.20	-440.000
184.58	2500.000
184.96	5600.000
185.34	-740.000
185.72	-662.500
186.09	-1900.000
186.47	2800.000
186.85	2550.000
187.23	4000.000
187.61	-1866.667
187.98	1500.000
188.36	527.273
188.74	490.909
189.12	-1040.000
189.49	550.000
189.87	-4800.000
190.25	-1200.000
190.63	385.714
191.00	407.692
191.38	766.667
191.76	-1275.000
192.14	1375.000
192.51	587.500
192.89	966.667
193.27	512.500
193.65	-1150.000
194.02	540.000
194.40	1020.000
194.78	510.000
195.15	483.333
195.53	680.000
195.91	-1950.000
196.29	325.000
196.66	300.000
197.04	-450.000
197.42	0.000
197.79	560.000
198.17	-4700.000
198.55	685.714
198.92	675.000
199.30	920.000
199.68	0.000
200.05	333.333
200.43	700.000
200.81	5400.000
201.18	1633.333
201.56	-1533.333
201.94	477.778
202.31	555.556
202.69	433.333
203.07	550.000
203.44	0.000
203.82	1250.000
204.19	614.286
204.57	464.286
204.95	662.500
205.32	1566.667
205.70	545.455
206.08	407.143
206.45	2800.000
206.83	343.750
207.20	866.667
207.58	700.000
207.96	333.333
208.33	762.500
208.71	-916.667
209.08	742.857
209.46	633.333
209.84	400.000
210.21	-1900.000
210.59	1225.000
210.96	-487.500
211.34	2450.000
211.71	620.000
212.09	766.667
212.46	0.000
212.84	1666.667
213.22	1575.000
213.59	-5300.000
213.97	766.667
214.34	671.429
214.72	590.909
215.09	920.000
215.47	-2200.000
215.84	-2300.000
216.22	1566.667
216.59	428.571
216.97	1500.000
217.34	400.000
217.72	-766.667
218.09	0.000
218.47	-5400.000
218.84	588.889
219.22	814.286
219.59	1566.667
219.97	-742.857
220.34	820.000
220.72	-1666.667
221.09	400.000
221.47	1425.000
221.84	-766.667
222.22	0.000
222.59	1250.000
222.97	-2450.000
223.34	1260.000
223.72	500.000
224.09	1020.000
224.46	2200.000
224.84	-4700.000
225.21	-900.000
225.59	-5000.000
225.96	520.000
226.34	240.000
226.71	2650.000
227.08	675.000
227.46	610.000
227.83	-1125.000
228.21	-2200.000
228.58	655.556
228.95	-2300.000
229.33	-2150.000
229.70	1766.667
230.08	685.714
230.45	-940.000
230.82	441.667
231.20	783.333
231.57	542.857
231.95	491.667
232.32	200.000
232.69	381.818
233.07	571.429
233.44	438.462
233.81	-1566.667
234.19	305.263
234.56	400.000
234.93	358.333
235.31	436.364
235.68	400.000
236.05	278.571
236.43	142.424
236.80	221.053
237.17	3700.000
237.55	157.143
237.92	239.286
238.29	233.333
238.67	164.516
239.04	182.759
239.41	138.889
239.79	128.261
240.16	150.000
240.53	115.909
240.91	90.196
241.28	100.000
241.65	102.000
242.02	84.058
242.40	80.645
242.77	85.000
243.14	58.065
243.51	65.169
243.89	58.824
244.26	58.889
244.63	61.290
245.00	60.638
245.38	58.416
245.75	36.449
246.12	44.037
246.49	54.015
246.87	49.600
247.24	41.538
247.61	43.571
247.98	39.869
248.36	36.486
248.73	35.032
249.10	38.854
249.47	36.723
249.84	35.294
250.22	32.086
250.59	33.728
250.96	31.818
251.33	34.597
251.70	33.168
252.08	30.000
252.45	29.596
252.82	26.957
253.19	32.766
253.56	25.098
253.94	32.365
254.31	27.344
254.68	24.615
255.05	24.723
255.42	27.642
255.79	25.735
256.16	29.964
256.54	21.555
256.91	26.335
257.28	19.065
257.65	23.102
258.02	23.913
258.39	21.136
258.76	21.739
259.14	20.833
259.51	19.757
259.88	19.255
260.25	21.752
260.62	17.052
260.99	18.012
261.36	21.021
261.73	20.630
262.10	18.314
262.47	20.000
262.85	15.877
263.22	16.524
263.59	22.222
263.96	18.132
264.33	15.144
264.70	19.737
265.07	19.437
265.44	17.677
265.81	17.032
266.18	18.090
266.55	16.585
266.92	18.428
267.29	15.741
267.66	16.514
268.03	16.364
268.40	17.757
268.77	14.320
269.14	14.640
269.51	16.930
269.88	17.716
270.25	16.253
270.62	14.157
270.99	18.710
271.36	15.236
271.73	13.785
272.10	15.435
272.47	16.774
272.84	15.584
273.21	17.820
273.58	11.790
273.95	15.514
274.32	15.289
274.69	16.702
275.06	13.583
275.43	14.468
275.80	14.830
276.17	15.275
276.54	19.335
276.91	15.613
277.28	15.039
277.65	14.507
278.02	14.700
278.39	13.867
278.76	16.000
279.13	16.415
279.50	16.574
279.87	15.139
280.23	14.571
280.60	13.540
280.97	14.787
281.34	15.752
281.71	18.545
282.08	14.203
282.45	13.636
282.82	14.387
283.19	13.725
283.56	14.561
283.92	13.367
284.29	13.404
284.66	14.156
285.03	12.839
285.40	11.444
285.77	12.963
286.14	13.299
286.51	13.500
286.87	11.795
287.24	13.844
287.61	13.323
287.98	13.474
288.35	14.105
288.72	13.084
289.08	13.928
289.45	12.685
289.82	12.846
290.19	12.873
290.56	12.864
290.93	11.329
291.29	10.583
291.66	12.684
292.03	15.407
292.40	13.069
292.77	11.538
293.13	12.985
293.50	12.099
293.87	12.000
294.24	9.926
294.60	10.189
294.97	12.500
295.34	12.271
295.71	10.653
296.08	10.684
296.44	11.967
296.81	11.889
297.18	11.924
297.55	9.367
297.91	10.026
298.28	12.048
298.65	11.880
299.02	11.067
299.38	9.960
299.75	8.086
300.12	10.345
300.48	10.625
300.85	10.851
301.22	9.936
301.59	9.343
301.95	10.579
302.32	10.783
302.69	10.275
303.05	10.424
303.42	10.247
303.79	9.853
304.15	9.674
304.52	7.764
304.89	8.595
305.25	10.093
305.62	9.400
305.99	10.272
306.35	9.732
306.72	9.417
307.09	10.544
307.45	9.685
307.82	8.929
308.19	10.596
308.55	10.572
308.92	9.452
309.29	8.870
309.65	9.650
310.02	9.725
310.38	8.925
310.75	9.820
311.12	10.235
311.48	9.718
311.85	10.168
312.22	9.990
312.58	9.771
312.95	10.982
313.31	10.388
313.68	9.667
314.05	11.834
314.41	10.251
314.78	11.782
315.14	11.420
315.51	10.711
315.87	10.099
316.24	11.221
316.61	9.844
316.97	10.665
317.34	10.763
317.70	10.994
318.07	11.261
318.43	11.350
318.80	11.996
319.16	11.205
319.53	11.163
319.89	13.524
320.26	12.800
320.62	13.492
320.99	12.424
321.35	12.222
321.72	12.628
322.08	14.314
322.45	12.736
322.81	13.663
323.18	13.969
323.54	14.471
323.91	14.434
324.27	14.340
324.64	12.954
325.00	13.436
325.37	15.014
325.73	15.171
326.10	15.711
326.46	14.875
326.83	15.531
327.19	15.798
327.56	15.157
327.92	16.010
328.29	16.859
328.65	16.206
329.01	15.253
329.38	15.726
329.74	15.882
330.11	17.719
330.47	17.447
330.84	16.820
331.20	17.304
331.56	16.514
331.93	17.222
332.29	17.480
332.66	17.345
333.02	16.179
333.38	16.621
333.75	17.380
334.11	17.349
334.48	16.238
334.84	17.096
335.20	16.273
335.57	16.138
335.93	15.536
336.29	16.850
336.66	16.952
337.02	16.018
337.38	16.389
337.75	15.775
338.11	16.831
338.47	16.390
338.84	16.499
339.20	16.239
339.56	17.792
339.93	16.000
340.29	16.395
340.65	15.954
341.02	17.103
341.38	16.548
341.74	16.228
342.11	16.943
342.47	17.093
342.83	16.695
343.20	17.576
343.56	15.586
343.92	15.965
344.28	16.156
344.65	16.251
345.01	15.404
345.37	15.266
345.73	16.497
346.10	16.965
346.46	16.441
346.82	15.486
347.19	15.288
347.55	15.764
347.91	16.667
348.27	15.941
348.63	16.472
349.00	16.019
349.36	16.420
349.72	16.199
350.08	14.587
350.45	16.355
350.81	15.516
351.17	15.883
351.53	16.462
351.89	15.347
352.26	16.496
352.62	15.237
352.98	16.126
353.34	16.598
353.70	14.321
354.07	15.565
354.43	15.159
354.79	15.768
355.15	16.042
355.51	17.186
355.87	16.082
356.24	15.635
356.60	15.237
356.96	15.849
357.32	15.454
357.68	16.457
358.04	15.281
358.40	15.202
358.77	15.336
359.13	14.680
359.49	15.373
359.85	14.524
360.21	14.115
360.57	16.576
360.93	15.231
361.29	15.420
361.66	14.628
362.02	15.746
362.38	15.817
362.74	15.253
363.10	15.026
363.46	14.967
363.82	15.268
364.18	14.831
364.54	16.493
364.90	16.572
365.26	16.397
365.62	15.705
365.98	13.952
366.35	14.112
366.71	14.751
367.07	15.659
367.43	16.183
367.79	16.274
368.15	16.236
368.51	14.535
368.87	15.203
369.23	15.582
369.59	15.568
369.95	16.176
370.31	15.883
370.67	15.580
371.03	16.629
371.39	15.671
371.75	15.368
372.11	15.434
372.47	16.202
372.83	16.859
373.19	16.329
373.55	15.669
373.91	17.084
374.27	15.189
374.63	15.855
374.99	15.466
375.35	15.213
375.71	15.422
376.07	16.255
376.42	14.924
376.78	15.971
377.14	15.943
377.50	15.762
377.86	15.691
378.22	15.487
378.58	15.100
378.94	16.153
379.30	16.094
379.66	16.244
380.02	15.909
380.38	15.847
380.74	16.206
381.09	16.626
381.45	16.472
381.81	17.076
382.17	16.943
382.53	16.478
382.89	16.543
383.25	16.323
383.61	16.729
383.97	16.573
384.32	15.970
384.68	16.357
385.04	16.288
385.40	16.037
385.76	15.725
386.12	16.580
386.48	16.362
386.83	16.934
387.19	17.254
387.55	16.574
387.91	16.264
388.27	16.616
388.62	17.148
388.98	16.523
389.34	16.959
389.70	17.535
390.06	16.984
390.42	17.315
390.77	16.794
391.13	17.549
391.49	17.893
391.85	18.014
392.20	16.278
392.56	17.235
392.92	17.422
393.28	16.331
393.64	18.405
393.99	17.654
394.35	17.432
394.71	17.566
395.07	17.882
395.42	17.553
395.78	18.702
396.14	18.187
396.50	18.546
396.85	18.945
397.21	18.064
397.57	18.785
397.92	18.089
398.28	17.881
398.64	18.757
399.00	17.292
399.35	17.766
399.71	18.056
400.07	18.805
400.42	18.528
400.78	18.577
401.14	18.232
401.49	18.746
401.85	18.754
402.21	18.383
402.57	17.705
402.92	19.420
403.28	19.113
403.63	18.626
403.99	19.172
404.35	18.909
404.70	18.945
405.06	18.637
405.42	19.152
405.77	18.457
406.13	19.865
406.49	19.633
406.84	20.142
407.20	18.913
407.55	18.634
407.91	19.800
408.27	19.911
408.62	19.928
408.98	19.424
409.34	19.434
409.69	20.258
410.05	20.136
410.40	19.878
410.76	19.415
411.11	19.903
411.47	19.681
411.83	20.892
412.18	19.604
412.54	20.299
412.89	20.904
413.25	19.540
413.60	20.506
413.96	20.097
414.31	20.292
414.67	20.406
415.03	21.192
415.38	20.941
415.74	20.257
416.09	21.620
416.45	20.214
416.80	21.150
417.16	21.917
417.51	21.367
417.87	20.938
418.22	20.505
418.58	20.658
418.93	21.560
419.29	21.006
419.64	22.103
420.00	20.305
420.35	21.681
420.71	21.817
421.06	20.346
421.42	20.760
421.77	20.964
422.12	21.112
422.48	20.183
422.83	20.676
423.19	21.160
423.54	21.300
423.90	22.551
424.25	21.441
424.61	21.786
424.96	21.341
425.31	20.986
425.67	20.674
426.02	21.429
426.38	21.734
426.73	21.533
427.09	21.581
427.44	21.162
427.79	21.909
428.15	22.083
428.50	21.475
428.85	22.050
429.21	20.928
429.56	20.477
429.92	21.792
430.27	20.655
430.62	20.481
430.98	21.692
431.33	21.134
431.68	21.571
432.04	21.565
432.39	21.188
432.74	22.621
433.10	21.845
433.45	21.983
433.80	21.452
434.16	21.528
434.51	20.947
434.86	22.634
435.22	21.512
435.57	21.641
435.92	21.709
436.28	22.005
436.63	22.958
436.98	22.152
437.34	22.958
437.69	22.812
438.04	22.597
438.39	22.866
438.75	22.661
439.10	22.793
439.45	22.196
439.81	22.538
440.16	21.400
440.51	22.671
440.86	22.756
441.22	21.691
441.57	22.771
441.92	21.904
442.27	22.390
442.63	20.853
442.98	22.817
443.33	21.902
443.68	22.148
444.03	22.352
444.39	21.714
444.74	22.348
445.09	22.264
445.44	21.870
445.79	22.810
446.15	22.605
446.50	22.456
446.85	21.942
447.20	22.336
447.55	21.887
447.91	22.394
448.26	22.204
448.61	22.555
448.96	23.145
449.31	22.947
449.66	22.454
450.02	21.727
450.37	22.052
450.72	22.391
451.07	21.755
451.42	21.581
451.77	22.725
452.12	22.575
452.47	22.264
452.83	22.319
453.18	22.800
453.53	23.438
453.88	22.091
454.23	23.013
454.58	23.137
454.93	24.730
455.28	22.382
455.63	22.633
455.98	23.929
456.34	22.425
456.69	22.855
457.04	23.839
457.39	22.677
457.74	22.693
458.09	22.484
458.44	22.634
458.79	22.234
459.14	22.065
459.49	22.125
459.84	22.327
460.19	21.862
460.54	21.817
460.89	22.655
461.24	22.951
461.59	22.661
461.94	23.120
462.29	23.680
462.64	22.719
462.99	22.446
463.34	23.733
463.69	23.014
464.04	22.377
464.39	22.899
464.74	23.054
465.09	22.919
465.44	21.717
465.79	22.315
466.14	23.043
466.49	22.191
466.84	23.351
467.19	23.295
467.54	23.375
467.89	22.929
468.24	22.397
468.59	23.260
468.94	22.358
469.29	22.943
469.64	23.025
469.99	23.139
470.34	23.514
470.68	22.701
471.03	23.401
471.38	23.280
471.73	23.384
472.08	23.750
472.43	22.111
472.78	23.502
473.13	23.813
473.48	22.534
473.83	22.561
474.17	22.651
474.52	23.015
474.87	23.234
475.22	22.751
475.57	21.548
475.92	21.933
476.27	22.604
476.61	22.780
476.96	22.045
477.31	22.030
477.66	22.374
478.01	22.164
478.36	22.634
478.70	21.911
479.05	23.003
479.40	22.569
479.75	21.861
480.10	22.068
480.45	22.132
480.79	21.691
481.14	22.456
481.49	22.069
481.84	21.674
482.19	21.581
482.53	21.514
482.88	21.778
483.23	21.542
483.58	22.520
483.92	21.743
484.27	20.741
484.62	21.595
484.97	21.600
485.31	21.062
485.66	19.690
486.01	18.773
486.36	18.595
486.70	19.198
487.05	19.396
487.40	20.148
487.75	20.345
488.09	21.353
488.44	20.914
488.79	21.591
489.13	21.658
489.48	21.166
489.83	20.846
490.17	21.263
490.52	22.055
490.87	21.438
491.22	21.692
491.56	21.549
491.91	21.498
492.26	20.900
492.60	22.166
492.95	20.720
493.30	21.495
493.64	21.512
493.99	21.495
494.34	21.462
494.68	22.024
495.03	21.758
495.37	21.871
495.72	21.345
496.07	22.042
496.41	21.062
496.76	20.976
497.11	20.937
497.45	21.565
497.80	21.689
498.14	20.918
498.49	21.366
498.84	21.860
499.18	21.381
499.53	21.462
499.87	21.528
500.22	21.102
500.56	22.670
500.91	21.010
501.26	21.811
501.60	22.307
501.95	20.898
502.29	21.462
502.64	21.555
502.98	21.038
503.33	21.664
503.67	21.578
504.02	21.562
504.36	21.806
504.71	21.983
505.06	21.831
505.40	21.633
505.75	21.456
506.09	21.137
506.44	21.460
506.78	22.163
507.13	22.615
507.47	21.566
507.82	22.138
508.16	21.986
508.51	22.730
508.85	21.698
509.19	21.786
509.54	22.500
509.88	21.381
510.23	21.902
510.57	23.994
510.92	22.268
511.26	21.531
511.61	22.303
511.95	21.555
512.30	22.216
512.64	22.085
512.98	22.883
513.33	22.484
513.67	21.825
514.02	21.266
514.36	22.665
514.70	21.472
515.05	22.365
515.39	22.434
515.74	22.917
516.08	23.197
516.42	22.420
516.77	22.241
517.11	21.809
517.46	22.912
517.80	23.287
518.14	22.293
518.49	23.162
518.83	23.182
519.17	22.979
519.52	22.581
519.86	23.103
520.20	23.584
520.55	23.339
520.89	23.662
521.23	24.246
521.58	23.950
521.92	23.270
522.26	21.904
522.61	22.679
522.95	23.143
523.29	22.824
523.64	23.963
523.98	22.489
524.32	23.160
524.66	23.572
525.01	22.243
525.35	23.110
525.69	22.783
526.04	22.741
526.38	23.429
526.72	22.393
527.06	22.662
527.41	21.411
527.75	24.373
528.09	22.543
528.43	23.901
528.78	23.049
529.12	22.909
529.46	23.148
529.80	22.463
530.15	23.364
530.49	22.954
530.83	22.911
531.17	24.739
531.51	23.800
531.86	22.968
532.20	23.794
532.54	24.087
532.88	23.941
533.22	22.236
533.57	23.395
533.91	22.818
534.25	23.086
534.59	23.307
534.93	22.903
535.27	22.450
535.62	23.199
535.96	23.540
536.30	23.140
536.64	23.954
536.98	23.955
537.32	23.502
537.66	23.733
538.01	23.436
538.35	23.335
538.69	23.612
539.03	21.248
539.37	22.236
539.71	22.100
540.05	23.203
540.39	23.389
540.73	22.574
541.07	23.816
541.42	23.418
541.76	23.419
542.10	23.609
542.44	22.781
542.78	23.650
543.12	22.137
543.46	22.820
543.80	23.878
544.14	22.657
544.48	23.175
544.82	22.771
545.16	23.617
545.50	23.458
545.84	23.723
546.18	23.300
546.52	22.987
546.86	23.986
547.20	23.196
547.54	22.111
547.88	23.469
548.22	23.039
548.56	22.327
548.90	22.599
549.24	22.559
549.58	23.124
549.92	23.283
550.26	23.864
550.60	23.029
550.94	22.324
551.28	22.824
551.62	23.508
551.96	23.298
552.30	23.276
552.64	22.177
552.98	22.915
553.32	23.061
553.66	23.449
554.00	23.542
554.34	22.567
554.68	23.891
555.02	23.131
555.36	22.477
555.69	22.395
556.03	22.342
556.37	22.715
556.71	22.306
557.05	23.389
557.39	22.673
557.73	22.653
558.07	22.988
558.41	22.359
558.75	23.439
559.08	23.266
559.42	21.391
559.76	22.868
560.10	21.627
560.44	22.432
560.78	21.756
561.12	22.427
561.45	22.555
561.79	21.556
562.13	21.999
562.47	21.926
562.81	22.594
563.15	22.943
563.48	22.347
563.82	21.983
564.16	21.387
564.50	22.070
564.84	21.492
565.17	21.622
565.51	21.853
565.85	21.827
566.19	21.290
566.52	21.406
566.86	21.157
567.20	21.639
567.54	21.005
567.88	20.641
568.21	20.582
568.55	20.526
568.89	20.233
569.23	19.964
569.56	19.676
569.90	19.434
570.24	19.125
570.57	19.313
570.91	18.293
571.25	18.345
571.59	18.498
571.92	18.232
572.26	18.255
572.60	18.739
572.93	17.961
573.27	18.870
573.61	18.146
573.95	17.984
574.28	18.291
574.62	17.833
574.96	17.897
575.29	17.798
575.63	17.708
575.97	18.068
576.30	18.030
576.64	17.892
576.98	18.012
577.31	17.421
577.65	17.524
577.98	16.968
578.32	17.176
578.66	17.044
578.99	17.416
579.33	17.381
579.67	17.246
580.00	17.670
580.34	18.011
580.67	17.750
581.01	17.338
581.35	16.997
581.68	16.757
582.02	16.635
582.35	16.564
582.69	17.036
583.02	17.619
583.36	17.178
583.70	17.757
584.03	17.241
584.37	17.813
584.70	17.372
585.04	17.490
585.37	17.288
585.71	17.411
586.04	17.106
586.38	17.894
586.72	17.868
587.05	17.251
587.39	17.124
587.72	17.289
588.06	17.689
588.39	17.805
588.73	17.512
589.06	18.105
589.40	17.912
589.73	18.339
590.07	18.078
590.40	18.049
590.73	17.760
591.07	19.170
591.40	18.431
591.74	18.874
592.07	18.543
592.41	17.445
592.74	16.966
593.08	16.989
593.41	17.589
593.75	17.395
594.08	17.600
594.41	17.497
594.75	17.893
595.08	17.931
595.42	17.583
595.75	17.450
596.09	18.513
596.42	18.075
596.75	18.573
597.09	19.134
597.42	18.128
597.75	18.025
598.09	17.957
598.42	18.256
598.76	16.903
599.09	17.028
599.42	16.703
599.76	17.240
600.09	17.304
600.42	16.983
600.76	16.286
601.09	17.268
601.42	16.933
601.76	17.154
602.09	17.115
602.42	17.277
602.76	17.936
603.09	17.270
603.42	17.845
603.76	17.416
604.09	17.022
604.42	17.326
604.76	17.967
605.09	17.606
605.42	17.529
605.75	17.384
606.09	16.633
606.42	16.714
606.75	17.337
607.09	17.874
607.42	17.672
607.75	16.878
608.08	17.065
608.42	18.288
608.75	17.448
609.08	17.068
609.41	17.182
609.75	17.151
610.08	17.955
610.41	16.620
610.74	17.550
611.07	18.330
611.41	17.910
611.74	17.848
612.07	18.685
612.40	18.573
612.73	16.947
613.07	18.265
613.40	17.694
613.73	17.147
614.06	17.742
614.39	17.777
614.72	17.526
615.06	17.910
615.39	17.251
615.72	17.587
616.05	17.278
616.38	17.899
616.71	17.993
617.05	17.786
617.38	17.980
617.71	17.538
618.04	17.909
618.37	17.918
618.70	18.979
619.03	18.750
619.36	19.484
619.69	18.028
620.03	19.162
620.36	18.783
620.69	20.205
621.02	19.838
621.35	19.029
621.68	18.458
622.01	18.344
622.34	18.684
622.67	19.011
623.00	18.342
623.33	17.870
623.66	19.514
623.99	18.041
624.32	18.759
624.65	19.068
624.99	17.280
625.32	18.248
625.65	18.557
625.98	19.293
626.31	19.907
626.64	19.184
626.97	18.537
627.30	19.202
627.63	19.524
627.96	20.353
628.29	19.773
628.62	20.586
628.95	22.547
629.28	19.069
629.61	19.707
629.94	20.667
630.26	18.780
630.59	19.924
630.92	20.019
631.25	19.645
631.58	20.821
