SpectraSuite Data File
++++++++++++++++++++++++++++++++++++
Date: Wed May 13 19:10:47 PDT 2015
User: schluterlab
Dark Spectrum Present: Yes
Reference Spectrum Present: Yes
Number of Sampled Component Spectra: 1
Spectrometers: USB2E3373
Integration Time (usec): 3000 (USB2E3373)
Spectra Averaged: 3 (USB2E3373)
Boxcar Smoothing: 0 (USB2E3373)
Correct for Electrical Dark: No (USB2E3373)
Strobe/Lamp Enabled: No (USB2E3373)
Correct for Detector Non-linearity: No (USB2E3373)
Correct for Stray Light: No (USB2E3373)
Number of Pixels in Processed Spectrum: 2048
>>>>>Begin Processed Spectral Data<<<<<
178.53	0.000
178.91	-1575.000
179.29	-1375.000
179.67	-272.222
180.04	-1475.000
180.42	2800.000
180.80	1260.000
181.18	-1225.000
181.56	857.143
181.94	0.000
182.31	-728.571
182.69	1933.333
183.07	-537.500
183.45	-555.556
183.83	627.273
184.20	-470.000
184.58	2800.000
184.96	6900.000
185.34	-1040.000
185.72	-725.000
186.09	-2700.000
186.47	3450.000
186.85	2750.000
187.23	6100.000
187.61	-2033.333
187.98	1575.000
188.36	636.364
188.74	600.000
189.12	-1160.000
189.49	670.000
189.87	-5300.000
190.25	-1575.000
190.63	485.714
191.00	476.923
191.38	1050.000
191.76	-1400.000
192.14	1525.000
192.51	762.500
192.89	1133.333
193.27	600.000
193.65	-1450.000
194.02	640.000
194.40	1120.000
194.78	650.000
195.15	600.000
195.53	710.000
195.91	-2400.000
196.29	368.750
196.66	363.158
197.04	-410.000
197.42	0.000
197.79	650.000
198.17	-5100.000
198.55	785.714
198.92	850.000
199.30	1040.000
199.68	0.000
200.05	372.222
200.43	785.714
200.81	6600.000
201.18	1900.000
201.56	-1966.667
201.94	688.889
202.31	677.778
202.69	441.667
203.07	720.000
203.44	0.000
203.82	1375.000
204.19	842.857
204.57	442.857
204.95	712.500
205.32	1700.000
205.70	681.818
206.08	457.143
206.45	2800.000
206.83	343.750
207.20	916.667
207.58	860.000
207.96	438.889
208.33	762.500
208.71	-1066.667
209.08	957.143
209.46	666.667
209.84	636.364
210.21	-1933.333
210.59	1575.000
210.96	-550.000
211.34	2800.000
211.71	710.000
212.09	783.333
212.46	0.000
212.84	1833.333
213.22	1600.000
213.59	-5800.000
213.97	833.333
214.34	985.714
214.72	590.909
215.09	1200.000
215.47	-2800.000
215.84	-3100.000
216.22	2200.000
216.59	414.286
216.97	1375.000
217.34	609.091
217.72	-850.000
218.09	0.000
218.47	-4600.000
218.84	677.778
219.22	1042.857
219.59	1833.333
219.97	-828.571
220.34	1220.000
220.72	-2266.667
221.09	521.429
221.47	1675.000
221.84	-1066.667
222.22	0.000
222.59	1550.000
222.97	-3150.000
223.34	1240.000
223.72	438.462
224.09	1400.000
224.46	2200.000
224.84	-6300.000
225.21	-1320.000
225.59	-5600.000
225.96	630.000
226.34	370.000
226.71	3200.000
227.08	762.500
227.46	640.000
227.83	-1675.000
228.21	-3100.000
228.58	711.111
228.95	-2700.000
229.33	-2500.000
229.70	1966.667
230.08	842.857
230.45	-1100.000
230.82	500.000
231.20	1000.000
231.57	814.286
231.95	516.667
232.32	290.909
232.69	400.000
233.07	628.571
233.44	376.923
233.81	-1933.333
234.19	336.842
234.56	500.000
234.93	458.333
235.31	500.000
235.68	376.923
236.05	392.857
236.43	218.182
236.80	247.368
237.17	5400.000
237.55	266.667
237.92	232.143
238.29	233.333
238.67	190.323
239.04	241.379
239.41	163.889
239.79	121.739
240.16	157.143
240.53	122.727
240.91	113.725
241.28	114.000
241.65	108.000
242.02	105.797
242.40	90.323
242.77	83.333
243.14	66.667
243.51	79.775
243.89	74.118
244.26	61.111
244.63	70.968
245.00	68.085
245.38	62.376
245.75	61.682
246.12	57.798
246.49	49.635
246.87	57.600
247.24	53.077
247.61	50.714
247.98	45.752
248.36	45.270
248.73	36.943
249.10	38.217
249.47	33.333
249.84	40.107
250.22	41.176
250.59	38.462
250.96	36.869
251.33	39.336
251.70	36.634
252.08	36.190
252.45	33.184
252.82	31.739
253.19	33.191
253.56	32.941
253.94	32.780
254.31	33.594
254.68	30.000
255.05	32.103
255.42	34.146
255.79	33.088
256.16	32.130
256.54	25.088
256.91	28.826
257.28	20.504
257.65	28.713
258.02	29.503
258.39	23.975
258.76	24.749
259.14	25.595
259.51	22.796
259.88	23.602
260.25	25.680
260.62	25.723
260.99	23.602
261.36	25.826
261.73	22.636
262.10	25.581
262.47	24.507
262.85	25.348
263.22	23.362
263.59	25.926
263.96	20.879
264.33	24.543
264.70	22.632
265.07	24.808
265.44	23.485
265.81	23.114
266.18	21.608
266.55	22.195
266.92	19.410
267.29	20.139
267.66	19.266
268.03	21.818
268.40	20.093
268.77	19.809
269.14	19.369
269.51	22.799
269.88	20.513
270.25	21.670
270.62	22.022
270.99	23.441
271.36	21.888
271.73	19.626
272.10	18.696
272.47	20.430
272.84	20.346
273.21	18.449
273.58	18.777
273.95	17.610
274.32	18.182
274.69	20.128
275.06	18.307
275.43	18.723
275.80	18.838
276.17	17.108
276.54	20.166
276.91	16.403
277.28	18.750
277.65	18.956
278.02	18.427
278.39	16.992
278.76	18.727
279.13	18.679
279.50	18.063
279.87	16.932
280.23	17.166
280.60	18.375
280.97	14.972
281.34	18.053
281.71	20.000
282.08	16.315
282.45	17.818
282.82	17.052
283.19	14.795
283.56	18.421
283.92	16.920
284.29	17.989
284.66	17.786
285.03	17.179
285.40	16.373
285.77	15.825
286.14	16.580
286.51	16.000
286.87	16.410
287.24	17.915
287.61	14.446
287.98	17.045
288.35	16.957
288.72	15.265
289.08	16.432
289.45	15.157
289.82	14.146
290.19	13.815
290.56	15.161
290.93	14.199
291.29	12.577
291.66	14.454
292.03	16.134
292.40	17.474
292.77	11.686
293.13	14.478
293.50	14.286
293.87	15.852
294.24	13.481
294.60	13.246
294.97	13.081
295.34	16.079
295.71	14.631
296.08	12.251
296.44	13.205
296.81	13.474
297.18	13.008
297.55	10.686
297.91	13.061
298.28	13.788
298.65	14.621
299.02	12.780
299.38	13.944
299.75	12.534
300.12	12.005
300.48	13.000
300.85	12.454
301.22	12.866
301.59	11.237
301.95	12.469
302.32	12.195
302.69	12.784
303.05	10.424
303.42	10.988
303.79	12.911
304.15	10.723
304.52	11.935
304.89	12.079
305.25	11.369
305.62	12.571
305.99	12.279
306.35	11.633
306.72	12.556
307.09	12.320
307.45	12.162
307.82	10.491
308.19	11.479
308.55	11.435
308.92	11.815
309.29	11.616
309.65	11.135
310.02	11.734
310.38	10.968
310.75	11.827
311.12	11.259
311.48	11.808
311.85	12.579
312.22	11.967
312.58	11.850
312.95	12.566
313.31	10.777
313.68	11.123
314.05	13.807
314.41	12.362
314.78	12.085
315.14	12.214
315.51	12.358
315.87	13.267
316.24	12.711
316.61	12.378
316.97	13.112
317.34	12.524
317.70	13.767
318.07	13.282
318.43	13.503
318.80	14.339
319.16	14.783
319.53	14.634
319.89	15.714
320.26	16.000
320.62	16.567
320.99	15.152
321.35	17.071
321.72	17.043
322.08	16.782
322.45	17.711
322.81	18.023
323.18	17.341
323.54	16.605
323.91	18.208
324.27	16.826
324.64	17.894
325.00	19.657
325.37	19.745
325.73	19.928
326.10	20.212
326.46	19.892
326.83	21.311
327.19	21.008
327.56	20.296
327.92	22.222
328.29	22.804
328.65	20.994
329.01	21.119
329.38	22.664
329.74	21.145
330.11	22.714
330.47	22.314
330.84	22.886
331.20	22.495
331.56	23.853
331.93	23.611
332.29	23.248
332.66	23.805
333.02	23.218
333.38	24.481
333.75	23.797
334.11	23.932
334.48	23.780
334.84	24.173
335.20	24.273
335.57	23.300
335.93	22.589
336.29	23.352
336.66	24.797
337.02	23.620
337.38	24.722
337.75	23.975
338.11	25.157
338.47	23.941
338.84	24.106
339.20	24.128
339.56	26.004
339.93	25.000
340.29	24.275
340.65	24.777
341.02	23.997
341.38	25.445
341.74	23.421
342.11	24.367
342.47	24.405
342.83	24.486
343.20	25.281
343.56	23.673
343.92	25.175
344.28	24.065
344.65	24.936
345.01	23.232
345.37	23.328
345.73	24.704
346.10	25.320
346.46	25.169
346.82	24.465
347.19	24.561
347.55	24.631
347.91	25.243
348.27	26.048
348.63	25.418
349.00	25.000
349.36	24.220
349.72	24.619
350.08	24.311
350.45	25.305
350.81	24.208
351.17	24.311
351.53	25.635
351.89	23.680
352.26	24.546
352.62	25.822
352.98	23.420
353.34	25.308
353.70	24.059
354.07	24.597
354.43	24.048
354.79	24.377
355.15	24.661
355.51	25.659
355.87	24.490
356.24	25.407
356.60	24.699
356.96	25.664
357.32	24.530
357.68	25.197
358.04	25.337
358.40	25.337
358.77	25.430
359.13	25.335
359.49	25.176
359.85	25.000
360.21	24.003
360.57	26.304
360.93	26.308
361.29	25.246
361.66	25.155
362.02	25.672
362.38	26.084
362.74	25.670
363.10	24.648
363.46	25.238
363.82	25.170
364.18	25.184
364.54	25.854
364.90	26.487
365.26	26.029
365.62	26.881
365.98	24.763
366.35	25.072
366.71	26.320
367.07	25.492
367.43	26.923
367.79	26.695
368.15	26.437
368.51	25.073
368.87	26.552
369.23	25.896
369.59	26.503
369.95	26.250
370.31	27.422
370.67	26.377
371.03	26.667
371.39	26.385
371.75	26.471
372.11	25.533
372.47	26.466
372.83	27.810
373.19	26.879
373.55	26.829
373.91	28.277
374.27	27.079
374.63	26.982
374.99	26.907
375.35	26.029
375.71	27.279
376.07	27.366
376.42	27.923
376.78	27.568
377.14	26.730
377.50	27.815
377.86	27.194
378.22	27.750
378.58	27.318
378.94	27.404
379.30	27.735
379.66	27.919
380.02	28.440
380.38	26.290
380.74	28.391
381.09	28.056
381.45	27.412
381.81	28.563
382.17	27.580
382.53	28.176
382.89	27.901
383.25	28.205
383.61	27.695
383.97	28.580
384.32	28.072
384.68	28.129
385.04	28.334
385.40	27.492
385.76	27.641
386.12	29.469
386.48	29.452
386.83	28.159
387.19	29.190
387.55	28.881
387.91	28.295
388.27	27.836
388.62	28.519
388.98	29.238
389.34	29.599
389.70	28.081
390.06	29.214
390.42	28.470
390.77	29.707
391.13	28.717
391.49	29.061
391.85	29.281
392.20	29.211
392.56	29.545
392.92	28.546
393.28	28.639
393.64	29.856
393.99	29.933
394.35	28.412
394.71	28.984
395.07	28.723
395.42	29.852
395.78	29.707
396.14	29.299
396.50	29.010
396.85	30.324
397.21	29.162
397.57	30.006
397.92	29.267
398.28	29.204
398.64	29.211
399.00	29.155
399.35	28.596
399.71	29.572
400.07	29.213
400.42	29.632
400.78	29.373
401.14	28.659
401.49	29.552
401.85	28.433
402.21	28.802
402.57	30.167
402.92	28.625
403.28	29.856
403.63	29.765
403.99	29.554
404.35	29.455
404.70	29.077
405.06	28.655
405.42	29.570
405.77	28.629
406.13	28.781
406.49	28.622
406.84	28.766
407.20	28.664
407.55	28.781
407.91	30.133
408.27	29.355
408.62	29.561
408.98	28.676
409.34	28.229
409.69	30.129
410.05	28.810
410.40	29.052
410.76	28.136
411.11	29.674
411.47	29.201
411.83	29.078
412.18	27.767
412.54	29.514
412.89	29.036
413.25	29.103
413.60	30.080
413.96	29.022
414.31	28.433
414.67	29.911
415.03	29.272
415.38	29.381
415.74	28.746
416.09	29.197
416.45	28.112
416.80	28.883
417.16	29.424
417.51	29.728
417.87	29.159
418.22	29.338
418.58	29.567
418.93	28.624
419.29	30.045
419.64	28.715
420.00	29.024
420.35	28.522
420.71	29.468
421.06	28.759
421.42	28.889
421.77	28.812
422.12	28.243
422.48	28.117
422.83	27.897
423.19	28.066
423.54	28.381
423.90	29.101
424.25	29.090
424.61	27.798
424.96	28.397
425.31	28.073
425.67	27.640
426.02	27.943
426.38	27.900
426.73	28.028
427.09	27.538
427.44	28.062
427.79	27.832
428.15	28.512
428.50	28.496
428.85	29.142
429.21	27.885
429.56	27.320
429.92	27.529
430.27	26.713
430.62	27.803
430.98	27.296
431.33	27.320
431.68	27.225
432.04	27.370
432.39	27.242
432.74	28.007
433.10	27.674
433.45	28.163
433.80	26.718
434.16	27.724
434.51	27.105
434.86	27.309
435.22	27.237
435.57	28.024
435.92	27.326
436.28	26.928
436.63	27.152
436.98	26.445
437.34	27.788
437.69	27.421
438.04	27.094
438.39	27.164
438.75	27.426
439.10	27.765
439.45	27.273
439.81	27.009
440.16	26.539
440.51	28.002
440.86	27.852
441.22	27.030
441.57	26.539
441.92	27.431
442.27	26.426
442.63	26.119
442.98	26.873
443.33	26.467
443.68	25.710
444.03	26.745
444.39	25.803
444.74	26.948
445.09	26.415
445.44	27.064
445.79	26.423
446.15	26.575
446.50	25.525
446.85	26.105
447.20	25.905
447.55	26.912
447.91	25.593
448.26	26.210
448.61	25.721
448.96	26.357
449.31	26.547
449.66	26.505
450.02	25.348
450.37	26.134
450.72	25.832
451.07	26.204
451.42	24.620
451.77	26.189
452.12	25.635
452.47	26.679
452.83	25.408
453.18	25.000
453.53	26.469
453.88	25.399
454.23	25.045
454.58	25.803
454.93	26.192
455.28	25.436
455.63	25.728
455.98	26.548
456.34	25.754
456.69	25.861
457.04	25.387
457.39	24.196
457.74	24.492
458.09	25.532
458.44	25.029
458.79	24.078
459.14	25.169
459.49	24.810
459.84	24.155
460.19	24.808
460.54	24.595
460.89	24.794
461.24	25.440
461.59	25.915
461.94	25.339
462.29	24.688
462.64	25.207
462.99	24.398
463.34	25.133
463.69	24.828
464.04	24.754
464.39	23.768
464.74	23.648
465.09	23.643
465.44	23.490
465.79	22.483
466.14	23.426
466.49	23.804
466.84	22.942
467.19	23.959
467.54	23.875
467.89	23.349
468.24	24.200
468.59	23.748
468.94	23.030
469.29	23.458
469.64	24.699
469.99	23.275
470.34	23.448
470.68	23.922
471.03	22.857
471.38	23.697
471.73	23.185
472.08	24.408
472.43	23.178
472.78	22.449
473.13	23.620
473.48	23.720
473.83	23.415
474.17	22.278
474.52	23.015
474.87	22.475
475.22	22.287
475.57	21.333
475.92	21.721
476.27	21.646
476.61	21.346
476.96	21.385
477.31	21.769
477.66	21.608
478.01	21.432
478.36	21.100
478.70	21.132
479.05	21.353
479.40	20.983
479.75	20.336
480.10	20.278
480.45	20.990
480.79	21.214
481.14	20.205
481.49	21.073
481.84	20.119
482.19	20.036
482.53	20.275
482.88	19.777
483.23	20.234
483.58	20.064
483.92	20.478
484.27	19.129
484.62	20.474
484.97	19.432
485.31	19.555
485.66	18.781
486.01	17.889
486.36	17.451
486.70	17.643
487.05	17.479
487.40	17.926
487.75	18.593
488.09	18.866
488.44	18.546
488.79	19.928
489.13	19.481
489.48	18.760
489.83	18.472
490.17	19.377
490.52	19.176
490.87	18.996
491.22	19.236
491.56	18.269
491.91	18.846
492.26	17.823
492.60	18.571
492.95	18.522
493.30	18.084
493.64	17.545
493.99	18.338
494.34	18.548
494.68	18.315
495.03	18.186
495.37	18.567
495.72	17.836
496.07	18.237
496.41	17.566
496.76	17.810
497.11	17.650
497.45	17.746
497.80	18.234
498.14	17.971
498.49	17.902
498.84	17.929
499.18	17.762
499.53	16.999
499.87	17.381
500.22	17.428
500.56	18.544
500.91	17.308
501.26	16.880
501.60	18.225
501.95	16.728
502.29	17.713
502.64	16.946
502.98	16.877
503.33	16.773
503.67	16.705
504.02	17.072
504.36	17.080
504.71	16.659
505.06	16.867
505.40	17.258
505.75	16.104
506.09	16.667
506.44	17.070
506.78	16.512
507.13	17.214
507.47	16.970
507.82	17.528
508.16	16.616
508.51	17.047
508.85	16.336
509.19	16.071
509.54	16.276
509.88	16.589
510.23	16.761
510.57	16.615
510.92	16.831
511.26	16.650
511.61	16.286
511.95	16.023
512.30	16.119
512.64	16.443
512.98	16.077
513.33	16.809
513.67	16.382
514.02	15.747
514.36	16.985
514.70	16.159
515.05	16.843
515.39	16.489
515.74	15.428
516.08	16.266
516.42	17.037
516.77	16.778
517.11	15.094
517.46	16.535
517.80	15.738
518.14	15.229
518.49	16.511
518.83	15.852
519.17	15.531
519.52	15.563
519.86	15.859
520.20	16.301
520.55	15.500
520.89	16.302
521.23	16.405
521.58	16.086
521.92	16.167
522.26	15.192
522.61	15.826
522.95	16.022
523.29	15.277
523.64	16.463
523.98	15.896
524.32	15.862
524.66	15.995
525.01	16.422
525.35	16.233
525.69	15.702
526.04	15.016
526.38	15.619
526.72	15.767
527.06	16.196
527.41	14.728
527.75	15.563
528.09	15.800
528.43	16.125
528.78	16.165
529.12	15.212
529.46	15.738
529.80	15.470
530.15	15.826
530.49	15.446
530.83	16.519
531.17	15.992
531.51	16.148
531.86	15.806
532.20	16.037
532.54	15.631
532.88	15.148
533.22	14.553
533.57	14.938
533.91	15.774
534.25	14.945
534.59	14.765
534.93	15.170
535.27	15.269
535.62	15.263
535.96	14.878
536.30	14.495
536.64	15.454
536.98	14.864
537.32	14.681
537.66	15.667
538.01	15.010
538.35	15.902
538.69	15.507
539.03	14.750
539.37	14.441
539.71	13.480
540.05	14.902
540.39	14.884
540.73	14.295
541.07	15.380
541.42	14.873
541.76	16.000
542.10	15.718
542.44	14.636
542.78	15.481
543.12	13.756
543.46	14.820
543.80	15.485
544.14	13.928
544.48	15.238
544.82	13.855
545.16	14.639
545.50	14.203
545.84	14.516
546.18	14.209
546.52	14.866
546.86	15.052
547.20	14.767
547.54	14.562
547.88	15.625
548.22	14.819
548.56	14.340
548.90	14.661
549.24	14.141
549.58	14.802
549.92	14.217
550.26	14.773
550.60	14.108
550.94	14.930
551.28	13.826
551.62	14.809
551.96	13.404
552.30	14.403
552.64	15.010
552.98	14.034
553.32	14.835
553.66	15.610
554.00	15.237
554.34	13.596
554.68	14.664
555.02	15.656
555.36	14.405
555.69	14.411
556.03	14.334
556.37	13.438
556.71	14.256
557.05	14.006
557.39	13.996
557.73	14.397
558.07	14.141
558.41	14.255
558.75	13.960
559.08	14.765
559.42	14.437
559.76	14.412
560.10	14.061
560.44	14.326
560.78	13.107
561.12	13.127
561.45	14.472
561.79	14.305
562.13	13.816
562.47	13.934
562.81	13.877
563.15	13.712
563.48	13.793
563.82	14.416
564.16	13.865
564.50	13.086
564.84	13.274
565.17	14.093
565.51	13.291
565.85	13.452
566.19	12.774
566.52	13.110
566.86	12.719
567.20	13.149
567.54	12.671
567.88	12.710
568.21	13.175
568.55	12.892
568.89	12.646
569.23	12.567
569.56	12.470
569.90	12.302
570.24	11.733
570.57	12.105
570.91	11.668
571.25	11.550
571.59	11.311
571.92	11.204
572.26	11.467
572.60	11.471
572.93	11.124
573.27	11.742
573.61	11.725
573.95	11.654
574.28	11.508
574.62	11.224
574.96	11.231
575.29	11.397
575.63	11.306
575.97	11.481
576.30	11.285
576.64	11.120
576.98	10.938
577.31	10.744
577.65	11.205
577.98	10.977
578.32	10.663
578.66	11.132
578.99	11.481
579.33	10.869
579.67	10.849
580.00	10.933
580.34	11.438
580.67	11.203
581.01	11.064
581.35	10.943
581.68	11.047
582.02	10.880
582.35	10.542
582.69	10.934
583.02	10.860
583.36	11.021
583.70	11.114
584.03	11.416
584.37	11.357
584.70	11.207
585.04	10.788
585.37	10.718
585.71	11.278
586.04	11.138
586.38	11.233
586.72	11.350
587.05	11.247
587.39	10.739
587.72	11.234
588.06	10.966
588.39	11.248
588.73	11.118
589.06	11.405
589.40	11.582
589.73	11.404
590.07	11.530
590.40	11.545
590.73	11.553
591.07	12.047
591.40	12.273
591.74	12.165
592.07	12.042
592.41	11.699
592.74	11.610
593.08	11.692
593.41	11.262
593.75	11.274
594.08	11.364
594.41	10.817
594.75	11.275
595.08	11.596
595.42	11.699
595.75	11.788
596.09	11.716
596.42	11.395
596.75	12.284
597.09	12.381
597.42	11.425
597.75	11.125
598.09	11.870
598.42	11.770
598.76	11.431
599.09	11.098
599.42	11.499
599.76	11.201
600.09	11.293
600.42	11.249
600.76	11.393
601.09	11.330
601.42	11.416
601.76	11.461
602.09	11.621
602.42	11.783
602.76	11.407
603.09	11.841
603.42	11.363
603.76	10.709
604.09	11.477
604.42	11.578
604.76	12.231
605.09	11.621
605.42	11.629
605.75	11.589
606.09	11.590
606.42	11.524
606.75	11.613
607.09	11.595
607.42	12.152
607.75	11.308
608.08	11.333
608.42	11.923
608.75	11.722
609.08	11.702
609.41	12.137
609.75	11.625
610.08	12.158
610.41	11.359
610.74	11.211
611.07	11.660
611.41	11.825
611.74	12.720
612.07	11.905
612.40	12.067
612.73	11.474
613.07	12.500
613.40	12.428
613.73	11.484
614.06	12.366
614.39	12.166
614.72	11.789
615.06	12.553
615.39	11.571
615.72	11.759
616.05	11.590
616.38	12.785
616.71	12.292
617.05	12.309
617.38	12.387
617.71	12.252
618.04	12.500
618.37	12.123
618.70	12.694
619.03	13.289
619.36	12.967
619.69	12.535
620.03	12.981
620.36	13.503
620.69	13.836
621.02	13.496
621.35	13.312
621.68	12.617
622.01	13.467
622.34	13.918
622.67	12.776
623.00	13.206
623.33	12.366
623.66	12.938
623.99	12.887
624.32	12.482
624.65	12.641
624.99	11.544
625.32	13.034
625.65	12.998
625.98	12.452
626.31	13.530
626.64	13.633
626.97	12.718
627.30	12.552
627.63	13.864
627.96	13.625
628.29	13.648
628.62	16.194
628.95	14.717
629.28	14.690
629.61	14.940
629.94	13.714
630.26	13.060
630.59	15.062
