SpectraSuite Data File
++++++++++++++++++++++++++++++++++++
Date: Wed May 13 19:27:36 PDT 2015
User: schluterlab
Dark Spectrum Present: Yes
Reference Spectrum Present: Yes
Number of Sampled Component Spectra: 1
Spectrometers: USB2E3373
Integration Time (usec): 3000 (USB2E3373)
Spectra Averaged: 3 (USB2E3373)
Boxcar Smoothing: 0 (USB2E3373)
Correct for Electrical Dark: No (USB2E3373)
Strobe/Lamp Enabled: No (USB2E3373)
Correct for Detector Non-linearity: No (USB2E3373)
Correct for Stray Light: No (USB2E3373)
Number of Pixels in Processed Spectrum: 2048
>>>>>Begin Processed Spectral Data<<<<<
178.53	0.000
178.91	-1250.000
179.29	-1450.000
179.67	-244.444
180.04	-1300.000
180.42	2300.000
180.80	940.000
181.18	-1375.000
181.56	828.571
181.94	0.000
182.31	-714.286
182.69	1666.667
183.07	-575.000
183.45	-633.333
183.83	490.909
184.20	-440.000
184.58	2950.000
184.96	5800.000
185.34	-880.000
185.72	-650.000
186.09	-2650.000
186.47	3100.000
186.85	2950.000
187.23	5900.000
187.61	-1900.000
187.98	1425.000
188.36	590.909
188.74	527.273
189.12	-780.000
189.49	590.000
189.87	-5200.000
190.25	-1325.000
190.63	457.143
191.00	469.231
191.38	800.000
191.76	-1450.000
192.14	1425.000
192.51	737.500
192.89	950.000
193.27	475.000
193.65	-1275.000
194.02	690.000
194.40	980.000
194.78	480.000
195.15	516.667
195.53	630.000
195.91	-2550.000
196.29	350.000
196.66	363.158
197.04	-390.000
197.42	0.000
197.79	570.000
198.17	-4100.000
198.55	785.714
198.92	775.000
199.30	900.000
199.68	0.000
200.05	344.444
200.43	800.000
200.81	4000.000
201.18	1766.667
201.56	-1666.667
201.94	655.556
202.31	633.333
202.69	433.333
203.07	510.000
203.44	0.000
203.82	1325.000
204.19	785.714
204.57	421.429
204.95	612.500
205.32	1700.000
205.70	481.818
206.08	414.286
206.45	2950.000
206.83	381.250
207.20	950.000
207.58	820.000
207.96	355.556
208.33	762.500
208.71	-683.333
209.08	700.000
209.46	666.667
209.84	554.545
210.21	-1600.000
210.59	1350.000
210.96	-587.500
211.34	2850.000
211.71	660.000
212.09	816.667
212.46	0.000
212.84	1800.000
213.22	1450.000
213.59	-4800.000
213.97	850.000
214.34	1000.000
214.72	545.455
215.09	1120.000
215.47	-2400.000
215.84	-2550.000
216.22	1666.667
216.59	407.143
216.97	1650.000
217.34	436.364
217.72	-883.333
218.09	0.000
218.47	-6000.000
218.84	655.556
219.22	628.571
219.59	1666.667
219.97	-500.000
220.34	960.000
220.72	-1766.667
221.09	450.000
221.47	1625.000
221.84	-900.000
222.22	0.000
222.59	1400.000
222.97	-2700.000
223.34	1120.000
223.72	430.769
224.09	1300.000
224.46	2250.000
224.84	-4500.000
225.21	-940.000
225.59	-5200.000
225.96	610.000
226.34	265.000
226.71	3100.000
227.08	625.000
227.46	520.000
227.83	-1225.000
228.21	-2600.000
228.58	633.333
228.95	-2800.000
229.33	-2600.000
229.70	1633.333
230.08	857.143
230.45	-900.000
230.82	466.667
231.20	933.333
231.57	657.143
231.95	475.000
232.32	236.364
232.69	445.455
233.07	728.571
233.44	430.769
233.81	-1966.667
234.19	321.053
234.56	466.667
234.93	458.333
235.31	454.545
235.68	315.385
236.05	385.714
236.43	193.939
236.80	315.789
237.17	5000.000
237.55	261.905
237.92	242.857
238.29	314.286
238.67	229.032
239.04	244.828
239.41	180.556
239.79	130.435
240.16	154.762
240.53	152.273
240.91	139.216
241.28	132.000
241.65	154.000
242.02	124.638
242.40	125.806
242.77	123.333
243.14	95.699
243.51	104.494
243.89	103.529
244.26	96.667
244.63	83.871
245.00	93.617
245.38	86.139
245.75	78.505
246.12	83.486
246.49	83.212
246.87	85.600
247.24	89.231
247.61	75.000
247.98	73.856
248.36	75.676
248.73	71.338
249.10	78.344
249.47	72.316
249.84	77.005
250.22	65.241
250.59	79.290
250.96	64.141
251.33	71.564
251.70	68.812
252.08	68.571
252.45	63.677
252.82	65.217
253.19	65.106
253.56	61.961
253.94	67.220
254.31	60.937
254.68	61.923
255.05	62.362
255.42	63.415
255.79	64.338
256.16	63.899
256.54	59.011
256.91	61.922
257.28	57.914
257.65	59.736
258.02	59.627
258.39	56.151
258.76	63.211
259.14	56.548
259.51	55.623
259.88	55.590
260.25	58.308
260.62	52.312
260.99	58.696
261.36	57.658
261.73	54.441
262.10	56.977
262.47	54.930
262.85	54.039
263.22	56.125
263.59	60.969
263.96	53.022
264.33	54.569
264.70	55.789
265.07	58.824
265.44	51.768
265.81	51.095
266.18	55.276
266.55	53.415
266.92	53.071
267.29	52.778
267.66	54.587
268.03	51.818
268.40	52.336
268.77	50.119
269.14	52.252
269.51	51.693
269.88	54.312
270.25	53.499
270.62	51.461
270.99	50.108
271.36	50.858
271.73	50.234
272.10	52.609
272.47	52.258
272.84	54.113
273.21	52.411
273.58	48.253
273.95	50.314
274.32	50.207
274.69	48.394
275.06	50.591
275.43	52.553
275.80	49.499
276.17	50.102
276.54	52.183
276.91	49.209
277.28	48.633
277.65	47.582
278.02	47.412
278.39	50.000
278.76	48.000
279.13	50.189
279.50	48.231
279.87	50.598
280.23	49.900
280.60	50.290
280.97	49.723
281.34	48.142
281.71	46.545
282.08	47.409
282.45	48.182
282.82	47.602
283.19	47.594
283.56	48.421
283.92	48.393
284.29	45.150
284.66	48.276
285.03	45.389
285.40	47.183
285.77	46.296
286.14	44.560
286.51	46.500
286.87	46.667
287.24	44.137
287.61	45.104
287.98	44.481
288.35	42.789
288.72	44.393
289.08	44.444
289.45	45.470
289.82	43.577
290.19	40.345
290.56	42.113
290.93	41.994
291.29	42.178
291.66	40.265
292.03	43.459
292.40	42.438
292.77	39.349
293.13	40.149
293.50	40.379
293.87	40.000
294.24	38.074
294.60	38.428
294.97	39.244
295.34	40.339
295.71	38.210
296.08	36.895
296.44	38.927
296.81	37.120
297.18	37.263
297.55	34.828
297.91	36.412
298.28	38.554
298.65	36.554
299.02	37.154
299.38	37.185
299.75	34.232
300.12	35.249
300.48	34.000
300.85	35.512
301.22	36.561
301.59	32.576
301.95	35.264
302.32	34.146
302.69	33.572
303.05	33.697
303.42	33.704
303.79	32.843
304.15	32.168
304.52	33.720
304.89	32.985
305.25	33.527
305.62	32.390
305.99	34.238
306.35	32.438
306.72	32.960
307.09	34.073
307.45	32.320
307.82	30.580
308.19	33.333
308.55	31.499
308.92	31.579
309.29	32.313
309.65	31.495
310.02	31.712
310.38	31.613
310.75	31.151
311.12	31.627
311.48	31.975
311.85	31.866
312.22	31.530
312.58	30.873
312.95	32.207
313.31	29.612
313.68	32.328
314.05	32.446
314.41	31.859
314.78	29.305
315.14	31.678
315.51	30.896
315.87	31.089
316.24	29.891
316.61	30.409
316.97	29.941
317.34	29.648
317.70	31.358
318.07	30.510
318.43	31.311
318.80	31.209
319.16	29.284
319.53	29.550
319.89	31.333
320.26	32.200
320.62	30.556
320.99	31.414
321.35	29.697
321.72	29.466
322.08	30.701
322.45	32.338
322.81	30.620
323.18	30.347
323.54	30.427
323.91	29.528
324.27	30.688
324.64	29.357
325.00	30.117
325.37	30.573
325.73	31.329
326.10	30.627
326.46	30.197
326.83	30.889
327.19	30.914
327.56	30.314
327.92	30.009
328.29	30.524
328.65	31.400
329.01	30.686
329.38	30.712
329.74	30.379
330.11	30.631
330.47	31.221
330.84	31.618
331.20	29.964
331.56	29.266
331.93	32.315
332.29	30.612
332.66	30.265
333.02	29.799
333.38	30.714
333.75	29.768
334.11	29.626
334.48	29.991
334.84	29.779
335.20	30.818
335.57	30.281
335.93	28.929
336.29	30.037
336.66	30.478
337.02	29.864
337.38	30.648
337.75	29.501
338.11	29.722
338.47	31.952
338.84	32.356
339.20	29.174
339.56	31.843
339.93	29.545
340.29	29.076
340.65	30.125
341.02	30.628
341.38	30.249
341.74	28.947
342.11	29.170
342.47	30.132
342.83	29.195
343.20	30.996
343.56	28.981
343.92	28.421
344.28	29.677
344.65	29.493
345.01	28.704
345.37	27.959
345.73	29.272
346.10	30.009
346.46	28.814
346.82	28.418
347.19	29.240
347.55	29.228
347.91	28.641
348.27	29.499
348.63	29.348
349.00	27.913
349.36	28.982
349.72	28.949
350.08	29.011
350.45	28.967
350.81	28.351
351.17	29.092
351.53	27.518
351.89	28.383
352.26	29.045
352.62	29.270
352.98	27.958
353.34	27.609
353.70	27.823
354.07	27.016
354.43	27.381
354.79	27.916
355.15	27.294
355.51	27.898
355.87	27.673
356.24	27.524
356.60	27.105
356.96	27.031
357.32	27.065
357.68	27.874
358.04	28.583
358.40	28.345
358.77	27.778
359.13	25.730
359.49	26.902
359.85	25.714
360.21	25.997
360.57	27.626
360.93	27.385
361.29	25.699
361.66	26.471
362.02	26.791
362.38	27.909
362.74	26.711
363.10	25.907
363.46	25.972
363.82	26.531
364.18	26.065
364.54	26.672
364.90	26.629
365.26	26.029
365.62	26.370
365.98	25.493
366.35	24.713
366.71	26.175
367.07	26.001
367.43	26.996
367.79	26.338
368.15	27.011
368.51	25.000
368.87	25.910
369.23	26.042
369.59	26.358
369.95	25.662
370.31	26.994
370.67	25.580
371.03	25.393
371.39	25.729
371.75	25.735
372.11	26.245
372.47	25.293
372.83	26.801
373.19	25.939
373.55	25.942
373.91	25.920
374.27	25.155
374.63	25.455
374.99	24.576
375.35	24.634
375.71	25.291
376.07	25.995
376.42	25.653
376.78	25.911
377.14	24.627
377.50	25.099
377.86	24.136
378.22	25.095
378.58	23.997
378.94	24.513
379.30	24.237
379.66	25.000
380.02	24.816
380.38	24.287
380.74	24.370
381.09	24.817
381.45	25.200
381.81	25.061
382.17	25.223
382.53	24.780
382.89	24.074
383.25	24.578
383.61	25.403
383.97	24.453
384.32	25.078
384.68	23.296
385.04	23.417
385.40	23.467
385.76	24.140
386.12	23.381
386.48	23.726
386.83	24.631
387.19	25.170
387.55	23.933
387.91	23.096
388.27	22.992
388.62	25.015
388.98	22.973
389.34	24.280
389.70	23.544
390.06	26.046
390.42	23.735
390.77	24.682
391.13	25.080
391.49	24.873
391.85	24.316
392.20	23.407
392.56	23.990
392.92	24.308
393.28	23.373
393.64	24.221
393.99	24.252
394.35	23.015
394.71	24.279
395.07	23.178
395.42	24.166
395.78	23.982
396.14	23.588
396.50	24.687
396.85	23.649
397.21	23.921
397.57	23.807
397.92	23.618
398.28	21.973
398.64	23.297
399.00	24.007
399.35	23.294
399.71	23.206
400.07	23.536
400.42	24.417
400.78	23.764
401.14	23.049
401.49	23.642
401.85	22.989
402.21	23.114
402.57	23.196
402.92	23.077
403.28	24.172
403.63	23.267
403.99	23.248
404.35	22.788
404.70	22.782
405.06	23.063
405.42	23.706
405.77	22.000
406.13	22.291
406.49	23.832
406.84	23.804
407.20	23.050
407.55	22.910
407.91	23.133
408.27	23.548
408.62	23.660
408.98	23.223
409.34	23.001
409.69	22.839
410.05	23.482
410.40	23.670
410.76	22.760
411.11	21.713
411.47	22.812
411.83	23.335
412.18	22.573
412.54	23.474
412.89	23.494
413.25	22.609
413.60	22.977
413.96	22.526
414.31	22.661
414.67	23.257
415.03	22.384
415.38	24.162
415.74	23.023
416.09	23.187
416.45	22.356
416.80	23.067
417.16	23.123
417.51	23.623
417.87	22.543
418.22	23.785
418.58	23.241
418.93	22.789
419.29	23.806
419.64	22.796
420.00	23.902
420.35	23.014
420.71	22.475
421.06	22.971
421.42	22.398
421.77	23.430
422.12	21.729
422.48	22.504
422.83	22.831
423.19	23.149
423.54	22.287
423.90	22.261
424.25	23.227
424.61	22.917
424.96	23.848
425.31	22.647
425.67	21.517
426.02	22.571
426.38	23.199
426.73	21.358
427.09	22.553
427.44	21.967
427.79	22.197
428.15	23.036
428.50	22.820
428.85	22.944
429.21	22.198
429.56	21.773
429.92	22.396
430.27	22.244
430.62	22.017
430.98	21.951
431.33	22.474
431.68	22.723
432.04	22.045
432.39	21.473
432.74	21.903
433.10	22.015
433.45	22.216
433.80	22.173
434.16	22.115
434.51	22.316
434.86	22.862
435.22	21.790
435.57	22.006
435.92	22.762
436.28	22.894
436.63	22.792
436.98	21.752
437.34	22.600
437.69	22.637
438.04	22.203
438.39	22.448
438.75	22.777
439.10	22.570
439.45	22.432
439.81	22.296
440.16	22.981
440.51	22.203
440.86	22.177
441.22	22.469
441.57	22.293
441.92	21.955
442.27	23.143
442.63	22.275
442.98	22.535
443.33	22.174
443.68	22.251
444.03	22.889
444.39	21.373
444.74	22.294
445.09	21.941
445.44	21.925
445.79	22.316
446.15	22.287
446.50	22.025
446.85	21.531
447.20	22.642
447.55	23.060
447.91	22.449
448.26	21.981
448.61	21.933
448.96	22.259
449.31	21.654
449.66	22.060
450.02	21.058
450.37	21.429
450.72	21.997
451.07	22.060
451.42	21.945
451.77	22.020
452.12	22.402
452.47	21.953
452.83	21.678
453.18	21.944
453.53	23.006
453.88	22.268
454.23	22.355
454.58	22.532
454.93	23.458
455.28	22.257
455.63	22.148
455.98	22.976
456.34	22.236
456.69	23.231
457.04	22.972
457.39	21.975
457.74	22.055
458.09	22.197
458.44	22.805
458.79	20.770
459.14	22.404
459.49	22.358
459.84	21.496
460.19	22.687
460.54	21.991
460.89	21.558
461.24	21.372
461.59	22.719
461.94	21.763
462.29	22.671
462.64	22.272
462.99	21.210
463.34	22.667
463.69	21.826
464.04	22.667
464.39	21.623
464.74	22.044
465.09	22.195
465.44	21.219
465.79	21.029
466.14	21.073
466.49	21.023
466.84	21.950
467.19	21.786
467.54	22.125
467.89	21.369
468.24	21.640
468.59	21.856
468.94	21.503
469.29	21.272
469.64	22.691
469.99	21.989
470.34	21.797
470.68	22.198
471.03	21.224
471.38	22.377
471.73	22.785
472.08	21.711
472.43	20.854
472.78	22.186
473.13	22.080
473.48	22.222
473.83	22.317
474.17	20.722
474.52	21.712
474.87	22.592
475.22	21.242
475.57	21.440
475.92	20.924
476.27	21.984
476.61	21.125
476.96	20.176
477.31	21.350
477.66	21.061
478.01	20.753
478.36	20.730
478.70	20.820
479.05	21.299
479.40	20.829
479.75	21.708
480.10	20.875
480.45	20.800
480.79	20.592
481.14	20.401
481.49	20.978
481.84	20.165
482.19	20.854
482.53	20.780
482.88	20.893
483.23	20.935
483.58	20.974
483.92	21.040
484.27	19.434
484.62	20.302
484.97	20.536
485.31	20.719
485.66	20.575
486.01	20.155
486.36	19.433
486.70	19.327
487.05	19.802
487.40	20.352
487.75	19.880
488.09	20.382
488.44	19.913
488.79	20.579
489.13	21.008
489.48	20.677
489.83	20.155
490.17	20.693
490.52	20.151
490.87	20.262
491.22	20.236
491.56	19.772
491.91	20.475
492.26	20.119
492.60	20.092
492.95	19.878
493.30	19.813
493.64	19.739
493.99	20.056
494.34	20.074
494.68	20.238
495.03	20.113
495.37	20.149
495.72	19.932
496.07	20.278
496.41	19.867
496.76	19.525
497.11	19.676
497.45	20.075
497.80	20.058
498.14	19.372
498.49	20.244
498.84	20.614
499.18	19.952
499.53	19.611
499.87	19.571
500.22	19.830
500.56	20.049
500.91	19.808
501.26	20.152
501.60	20.076
501.95	19.386
502.29	20.619
502.64	20.484
502.98	20.711
503.33	20.293
503.67	20.232
504.02	19.224
504.36	19.794
504.71	19.834
505.06	19.229
505.40	19.349
505.75	18.901
506.09	19.922
506.44	19.882
506.78	19.873
507.13	20.242
507.47	19.949
507.82	20.010
508.16	20.010
508.51	20.446
508.85	19.414
509.19	19.541
509.54	20.051
509.88	19.114
510.23	19.023
510.57	20.485
510.92	19.472
511.26	18.962
511.61	19.346
511.95	19.572
512.30	18.823
512.64	19.237
512.98	19.614
513.33	19.754
513.67	19.637
514.02	20.022
514.36	20.262
514.70	19.867
515.05	19.353
515.39	20.022
515.74	19.651
516.08	20.067
516.42	19.922
516.77	19.677
517.11	18.812
517.46	20.316
517.80	19.686
518.14	18.761
518.49	19.428
518.83	18.864
519.17	19.515
519.52	19.581
519.86	19.909
520.20	20.405
520.55	20.108
520.89	19.769
521.23	20.507
521.58	19.208
521.92	20.392
522.26	19.402
522.61	19.626
522.95	19.276
523.29	19.355
523.64	19.939
523.98	19.655
524.32	19.119
524.66	19.122
525.01	19.363
525.35	20.074
525.69	19.643
526.04	19.875
526.38	18.792
526.72	19.202
527.06	19.209
527.41	18.688
527.75	18.392
528.09	19.653
528.43	18.547
528.78	20.283
529.12	19.455
529.46	19.902
529.80	20.297
530.15	21.059
530.49	19.877
530.83	19.177
531.17	19.909
531.51	19.909
531.86	18.774
532.20	19.817
532.54	19.603
532.88	19.384
533.22	19.363
533.57	19.568
533.91	19.687
534.25	19.806
534.59	20.073
534.93	19.453
535.27	19.252
535.62	20.024
535.96	20.213
536.30	20.216
536.64	19.897
536.98	19.973
537.32	19.487
537.66	19.733
538.01	19.684
538.35	21.138
538.69	20.868
539.03	19.883
539.37	19.361
539.71	18.730
540.05	19.346
540.39	20.066
540.73	19.664
541.07	20.052
541.42	20.091
541.76	20.839
542.10	20.375
542.44	19.603
542.78	20.949
543.12	19.770
543.46	19.410
543.80	20.299
544.14	20.154
544.48	19.556
544.82	19.885
545.16	19.649
545.50	19.794
545.84	19.355
546.18	20.135
546.52	19.890
546.86	20.000
547.20	21.173
547.54	19.572
547.88	20.536
548.22	20.361
548.56	19.811
548.90	19.078
549.24	19.798
549.58	20.055
549.92	20.192
550.26	20.739
550.60	19.710
550.94	19.789
551.28	18.800
551.62	19.626
551.96	20.561
552.30	20.068
552.64	19.878
552.98	21.017
553.32	20.094
553.66	20.791
554.00	20.728
554.34	19.255
554.68	20.959
555.02	19.676
555.36	19.137
555.69	20.095
556.03	19.785
556.37	20.737
556.71	19.850
557.05	19.398
557.39	19.594
557.73	19.407
558.07	20.015
558.41	19.899
558.75	21.161
559.08	20.209
559.42	19.728
559.76	20.809
560.10	19.629
560.44	19.567
560.78	19.295
561.12	20.910
561.45	20.078
561.79	19.578
562.13	19.987
562.47	19.672
562.81	19.596
563.15	19.130
563.48	19.828
563.82	20.352
564.16	19.817
564.50	19.076
564.84	20.354
565.17	19.691
565.51	20.256
565.85	20.241
566.19	19.349
566.52	19.949
566.86	19.711
567.20	20.578
567.54	19.749
567.88	20.261
568.21	20.212
568.55	19.919
568.89	19.601
569.23	19.652
569.56	19.919
569.90	19.283
570.24	19.627
570.57	19.449
570.91	19.198
571.25	19.734
571.59	19.764
571.92	19.700
572.26	19.295
572.60	19.550
572.93	19.670
573.27	19.817
573.61	19.765
573.95	19.690
574.28	19.095
574.62	19.121
574.96	19.331
575.29	19.447
575.63	19.436
575.97	19.526
576.30	19.623
576.64	19.560
576.98	19.276
577.31	19.524
577.65	19.262
577.98	19.702
578.32	19.500
578.66	19.727
578.99	19.562
579.33	19.777
579.67	18.973
580.00	19.468
580.34	19.625
580.67	20.066
581.01	19.676
581.35	19.370
581.68	20.030
582.02	19.486
582.35	19.693
582.69	19.803
583.02	19.251
583.36	19.968
583.70	19.605
584.03	19.801
584.37	19.816
584.70	19.592
585.04	19.839
585.37	19.595
585.71	20.019
586.04	19.739
586.38	19.880
586.72	19.994
587.05	19.940
587.39	19.367
587.72	19.814
588.06	19.504
588.39	19.396
588.73	19.947
589.06	20.287
589.40	19.764
589.73	20.451
590.07	20.036
590.40	19.547
590.73	20.414
591.07	19.821
591.40	19.992
591.74	19.913
592.07	19.939
592.41	20.422
592.74	19.888
593.08	20.253
593.41	20.057
593.75	19.113
594.08	19.913
594.41	20.078
594.75	19.704
595.08	19.936
595.42	20.245
595.75	19.729
596.09	20.240
596.42	20.668
596.75	20.093
597.09	20.216
597.42	19.857
597.75	20.009
598.09	20.391
598.42	19.759
598.76	19.822
599.09	19.650
599.42	19.360
599.76	19.839
600.09	19.636
600.42	19.795
600.76	19.036
601.09	19.308
601.42	19.901
601.76	19.772
602.09	19.842
602.42	20.104
602.76	20.637
603.09	20.535
603.42	20.578
603.76	19.779
604.09	19.310
604.42	20.139
604.76	20.034
605.09	19.441
605.42	19.752
605.75	19.992
606.09	19.317
606.42	19.534
606.75	19.950
607.09	19.548
607.42	20.282
607.75	19.705
608.08	19.583
608.42	20.619
608.75	20.018
609.08	20.398
609.41	19.943
609.75	19.819
610.08	20.075
610.41	18.808
610.74	19.962
611.07	20.652
611.41	19.627
611.74	20.613
612.07	19.876
612.40	20.199
612.73	20.316
613.07	20.690
613.40	20.326
613.73	19.297
614.06	20.484
614.39	20.031
614.72	19.737
615.06	20.641
615.39	19.639
615.72	19.479
616.05	19.564
616.38	19.789
616.71	20.724
617.05	20.141
617.38	19.844
617.71	20.420
618.04	20.072
618.37	19.988
618.70	19.602
619.03	20.132
619.36	19.348
619.69	21.620
620.03	21.085
620.36	21.257
620.69	21.096
621.02	19.469
621.35	21.300
621.68	20.093
622.01	19.737
622.34	20.197
622.67	20.913
623.00	19.516
623.33	19.871
623.66	20.229
623.99	20.324
624.32	20.185
624.65	20.056
624.99	20.184
625.32	19.986
625.65	20.436
625.98	20.523
626.31	21.851
626.64	20.163
626.97	20.449
627.30	20.449
627.63	21.575
627.96	20.606
628.29	19.948
628.62	21.500
628.95	21.321
629.28	20.620
629.61	21.173
629.94	21.429
630.26	19.924
630.59	19.638
630.92	21.743
