SpectraSuite Data File
++++++++++++++++++++++++++++++++++++
Date: Wed May 13 19:41:40 PDT 2015
User: schluterlab
Dark Spectrum Present: Yes
Reference Spectrum Present: Yes
Number of Sampled Component Spectra: 1
Spectrometers: USB2E3373
Integration Time (usec): 3000 (USB2E3373)
Spectra Averaged: 3 (USB2E3373)
Boxcar Smoothing: 0 (USB2E3373)
Correct for Electrical Dark: No (USB2E3373)
Strobe/Lamp Enabled: No (USB2E3373)
Correct for Detector Non-linearity: No (USB2E3373)
Correct for Stray Light: No (USB2E3373)
Number of Pixels in Processed Spectrum: 2048
>>>>>Begin Processed Spectral Data<<<<<
178.53	0.000
178.91	-1250.000
179.29	-1300.000
179.67	-250.000
180.04	-1400.000
180.42	2300.000
180.80	1260.000
181.18	-925.000
181.56	657.143
181.94	0.000
182.31	-600.000
182.69	2166.667
183.07	-537.500
183.45	-522.222
183.83	609.091
184.20	-370.000
184.58	2300.000
184.96	5300.000
185.34	-760.000
185.72	-650.000
186.09	-2200.000
186.47	3300.000
186.85	2250.000
187.23	4800.000
187.61	-2133.333
187.98	1325.000
188.36	554.545
188.74	509.091
189.12	-1000.000
189.49	580.000
189.87	-5900.000
190.25	-1225.000
190.63	428.571
191.00	492.308
191.38	900.000
191.76	-1225.000
192.14	1450.000
192.51	737.500
192.89	1000.000
193.27	687.500
193.65	-1225.000
194.02	600.000
194.40	1200.000
194.78	620.000
195.15	508.333
195.53	640.000
195.91	-2300.000
196.29	356.250
196.66	352.632
197.04	-330.000
197.42	0.000
197.79	640.000
198.17	-4100.000
198.55	742.857
198.92	750.000
199.30	1200.000
199.68	0.000
200.05	372.222
200.43	814.286
200.81	4800.000
201.18	1900.000
201.56	-1633.333
201.94	633.333
202.31	677.778
202.69	516.667
203.07	580.000
203.44	0.000
203.82	1625.000
204.19	828.571
204.57	485.714
204.95	725.000
205.32	1466.667
205.70	527.273
206.08	471.429
206.45	2850.000
206.83	343.750
207.20	1050.000
207.58	840.000
207.96	366.667
208.33	750.000
208.71	-883.333
209.08	771.429
209.46	655.556
209.84	554.545
210.21	-1800.000
210.59	1450.000
210.96	-600.000
211.34	2850.000
211.71	630.000
212.09	766.667
212.46	0.000
212.84	1766.667
213.22	1475.000
213.59	-4900.000
213.97	750.000
214.34	914.286
214.72	645.455
215.09	1080.000
215.47	-2350.000
215.84	-2450.000
216.22	1600.000
216.59	442.857
216.97	1200.000
217.34	463.636
217.72	-800.000
218.09	0.000
218.47	-6200.000
218.84	700.000
219.22	828.571
219.59	2100.000
219.97	-671.429
220.34	1160.000
220.72	-2166.667
221.09	450.000
221.47	1325.000
221.84	-833.333
222.22	0.000
222.59	1600.000
222.97	-2850.000
223.34	1240.000
223.72	476.923
224.09	1160.000
224.46	2000.000
224.84	-5000.000
225.21	-1240.000
225.59	-5900.000
225.96	630.000
226.34	335.000
226.71	2900.000
227.08	787.500
227.46	530.000
227.83	-1400.000
228.21	-2750.000
228.58	633.333
228.95	-2750.000
229.33	-2500.000
229.70	1700.000
230.08	685.714
230.45	-960.000
230.82	450.000
231.20	1050.000
231.57	785.714
231.95	466.667
232.32	300.000
232.69	381.818
233.07	885.714
233.44	430.769
233.81	-2166.667
234.19	310.526
234.56	550.000
234.93	441.667
235.31	554.545
235.68	376.923
236.05	442.857
236.43	184.848
236.80	278.947
237.17	4400.000
237.55	280.952
237.92	221.429
238.29	347.619
238.67	177.419
239.04	255.172
239.41	172.222
239.79	141.304
240.16	176.190
240.53	150.000
240.91	117.647
241.28	146.000
241.65	118.000
242.02	111.594
242.40	112.903
242.77	126.667
243.14	86.022
243.51	100.000
243.89	88.235
244.26	88.889
244.63	78.495
245.00	75.532
245.38	91.089
245.75	73.832
246.12	77.064
246.49	74.453
246.87	73.600
247.24	70.000
247.61	65.000
247.98	63.399
248.36	62.162
248.73	68.153
249.10	71.338
249.47	61.582
249.84	67.914
250.22	51.337
250.59	63.314
250.96	57.071
251.33	55.450
251.70	56.931
252.08	54.762
252.45	45.740
252.82	51.739
253.19	54.894
253.56	54.118
253.94	51.867
254.31	51.562
254.68	55.000
255.05	52.768
255.42	50.813
255.79	50.735
256.16	51.986
256.54	48.057
256.91	51.601
257.28	45.683
257.65	48.185
258.02	47.205
258.39	44.795
258.76	48.161
259.14	47.024
259.51	46.809
259.88	48.137
260.25	43.505
260.62	41.618
260.99	47.205
261.36	48.048
261.73	46.991
262.10	43.605
262.47	42.817
262.85	45.961
263.22	41.880
263.59	45.869
263.96	41.484
264.33	43.342
264.70	43.947
265.07	42.199
265.44	42.172
265.81	36.496
266.18	41.457
266.55	42.195
266.92	43.980
267.29	38.426
267.66	39.450
268.03	39.773
268.40	41.589
268.77	41.527
269.14	39.640
269.51	40.181
269.88	39.860
270.25	39.729
270.62	39.101
270.99	39.140
271.36	38.197
271.73	41.589
272.10	41.739
272.47	40.645
272.84	38.745
273.21	41.509
273.58	37.118
273.95	38.365
274.32	36.570
274.69	39.829
275.06	38.780
275.43	37.234
275.80	38.878
276.17	36.864
276.54	37.630
276.91	37.352
277.28	37.695
277.65	38.491
278.02	37.474
278.39	37.500
278.76	36.000
279.13	39.057
279.50	37.989
279.87	36.454
280.23	37.725
280.60	36.364
280.97	33.457
281.34	34.867
281.71	37.636
282.08	38.580
282.45	35.818
282.82	36.234
283.19	33.155
283.56	34.737
283.92	36.548
284.29	36.332
284.66	35.390
285.03	32.911
285.40	35.563
285.77	34.343
286.14	35.924
286.51	35.167
286.87	35.385
287.24	37.296
287.61	34.992
287.98	33.117
288.35	34.548
288.72	33.333
289.08	30.986
289.45	33.937
289.82	32.358
290.19	32.810
290.56	31.700
290.93	30.060
291.29	30.982
291.66	29.646
292.03	32.994
292.40	29.809
292.77	30.917
293.13	30.746
293.50	30.904
293.87	31.556
294.24	30.074
294.60	30.713
294.97	29.070
295.34	28.491
295.71	30.682
296.08	29.060
296.44	29.023
296.81	28.137
297.18	29.404
297.55	25.726
297.91	28.364
298.28	29.183
298.65	28.590
299.02	26.614
299.38	25.764
299.75	25.876
300.12	26.948
300.48	25.625
300.85	27.127
301.22	26.242
301.59	25.631
301.95	26.952
302.32	26.829
302.69	27.001
303.05	27.030
303.42	26.049
303.79	26.387
304.15	24.592
304.52	24.681
304.89	24.855
305.25	25.290
305.62	26.161
305.99	26.328
306.35	26.174
306.72	26.009
307.09	25.416
307.45	26.014
307.82	25.446
308.19	26.600
308.55	24.488
308.92	25.994
309.29	24.604
309.65	25.451
310.02	25.687
310.38	25.269
310.75	25.554
311.12	26.612
311.48	25.810
311.85	27.044
312.22	25.702
312.58	25.364
312.95	26.294
313.31	25.049
313.68	27.131
314.05	27.613
314.41	26.734
314.78	27.090
315.14	26.614
315.51	27.188
315.87	28.317
316.24	26.812
316.61	28.168
316.97	28.474
317.34	27.691
317.70	28.872
318.07	29.066
318.43	30.039
318.80	29.428
319.16	30.508
319.53	28.049
319.89	31.714
320.26	31.500
320.62	31.548
320.99	31.717
321.35	32.121
321.72	33.470
322.08	33.564
322.45	35.323
322.81	34.109
323.18	34.104
323.54	34.508
323.91	35.283
324.27	36.807
324.64	36.719
325.00	36.700
325.37	39.399
325.73	40.305
326.10	38.747
326.46	38.978
326.83	41.415
327.19	40.137
327.56	42.944
327.92	41.645
328.29	42.502
328.65	43.646
329.01	41.697
329.38	42.183
329.74	43.398
330.11	42.884
330.47	44.353
330.84	45.221
331.20	43.989
331.56	45.046
331.93	46.389
332.29	44.188
332.66	45.310
333.02	44.516
333.38	45.348
333.75	46.257
334.11	47.509
334.48	45.430
334.84	47.151
335.20	47.545
335.57	45.784
335.93	46.161
336.29	45.696
336.66	45.717
337.02	45.339
337.38	46.574
337.75	45.544
338.11	46.285
338.47	46.961
338.84	48.121
339.20	46.330
339.56	46.533
339.93	47.091
340.29	47.736
340.65	46.435
341.02	47.818
341.38	48.754
341.74	46.491
342.11	48.035
342.47	47.048
342.83	45.548
343.20	48.745
343.56	47.599
343.92	47.895
344.28	47.109
344.65	47.120
345.01	46.128
345.37	46.141
345.73	47.631
346.10	48.338
346.46	46.356
346.82	46.540
347.19	47.536
347.55	45.977
347.91	48.220
348.27	47.905
348.63	47.659
349.00	45.307
349.36	47.455
349.72	46.993
350.08	47.407
350.45	46.867
350.81	47.522
351.17	47.407
351.53	47.338
351.89	46.865
352.26	47.514
352.62	47.795
352.98	47.731
353.34	48.726
353.70	47.791
354.07	47.742
354.43	46.825
354.79	48.351
355.15	47.326
355.51	48.521
355.87	50.122
356.24	48.697
356.60	49.158
356.96	48.029
357.32	48.896
357.68	48.740
358.04	47.348
358.40	49.802
358.77	46.792
359.13	47.514
359.49	48.157
359.85	48.016
360.21	49.362
360.57	48.482
360.93	48.692
361.29	49.584
361.66	48.529
362.02	49.776
362.38	49.810
362.74	51.265
363.10	49.001
363.46	50.037
363.82	49.962
364.18	49.413
364.54	50.371
364.90	50.637
365.26	51.765
365.62	51.059
365.98	51.059
366.35	49.642
366.71	50.832
367.07	51.202
367.43	52.032
367.79	50.678
368.15	52.514
368.51	51.163
368.87	51.535
369.23	51.500
369.59	53.584
369.95	52.426
370.31	52.849
370.67	51.957
371.03	54.532
371.39	53.207
371.75	53.603
372.11	53.058
372.47	54.765
372.83	55.115
373.19	52.673
373.55	55.432
373.91	55.891
374.27	52.852
374.63	55.418
374.99	54.944
375.35	54.780
375.71	55.243
376.07	55.487
376.42	56.190
376.78	55.931
377.14	56.174
377.50	58.278
377.86	56.516
378.22	56.890
378.58	55.576
378.94	57.071
379.30	57.952
379.66	59.327
380.02	58.231
380.38	57.741
380.74	57.803
381.09	58.435
381.45	59.496
381.81	59.705
382.17	59.873
382.53	60.440
382.89	60.000
383.25	62.539
383.61	62.206
383.97	60.663
384.32	60.200
384.68	61.896
385.04	62.508
385.40	61.796
385.76	62.039
386.12	63.666
386.48	64.128
386.83	64.593
387.19	64.750
387.55	63.946
387.91	63.785
388.27	64.929
388.62	65.765
388.98	64.926
389.34	65.832
389.70	66.401
390.06	66.857
390.42	68.677
390.77	66.094
391.13	67.900
391.49	67.703
391.85	69.255
392.20	67.319
392.56	69.129
392.92	69.570
393.28	69.408
393.64	69.484
393.99	69.456
394.35	71.526
394.71	70.640
395.07	69.408
395.42	72.064
395.78	71.565
396.14	71.943
396.50	74.812
396.85	73.808
397.21	73.613
397.57	74.520
397.92	74.399
398.28	74.047
398.64	74.014
399.00	74.147
399.35	75.014
399.71	74.711
400.07	75.754
400.42	76.564
400.78	75.935
401.14	77.805
401.49	77.731
401.85	77.435
402.21	78.263
402.57	78.532
402.92	79.571
403.28	79.638
403.63	79.579
403.99	81.783
404.35	80.061
404.70	80.036
405.06	80.082
405.42	82.595
405.77	81.486
406.13	81.716
406.49	83.205
406.84	82.871
407.20	82.801
407.55	84.748
407.91	85.533
408.27	87.109
408.62	83.925
408.98	85.846
409.34	87.208
409.69	86.516
410.05	87.918
410.40	88.073
410.76	88.292
411.11	85.404
411.47	87.796
411.83	88.760
412.18	88.374
412.54	90.224
412.89	89.096
413.25	92.090
413.60	93.020
413.96	89.557
414.31	92.770
414.67	93.790
415.03	93.179
415.38	92.332
415.74	93.891
416.09	96.146
416.45	93.641
416.80	95.704
417.16	97.453
417.51	98.474
417.87	96.660
418.22	97.792
418.58	97.289
418.93	97.113
419.29	99.236
419.64	97.670
420.00	97.317
420.35	97.507
420.71	99.761
421.06	99.344
421.42	99.649
421.77	100.448
422.12	98.428
422.48	99.137
422.83	102.912
423.19	99.503
423.54	101.857
423.90	100.754
424.25	100.726
424.61	100.536
424.96	102.391
425.31	101.938
425.67	99.719
426.02	102.629
426.38	106.410
426.73	102.809
427.09	106.748
427.44	104.198
427.79	104.485
428.15	106.786
428.50	106.495
428.85	106.198
429.21	106.019
429.56	107.621
429.92	105.586
430.27	106.256
430.62	107.424
430.98	107.369
431.33	105.464
431.68	107.749
432.04	106.763
432.39	109.252
432.74	109.096
433.10	110.640
433.45	110.845
433.80	109.368
434.16	108.654
434.51	109.211
434.86	111.288
435.22	112.729
435.57	112.584
435.92	112.405
436.28	113.405
436.63	111.479
436.98	112.936
437.34	114.431
437.69	114.936
438.04	114.503
438.39	113.493
438.75	113.945
439.10	114.581
439.45	114.168
439.81	116.314
440.16	113.043
440.51	115.173
440.86	114.650
441.22	114.794
441.57	115.074
441.92	114.841
442.27	114.586
442.63	114.587
442.98	116.845
443.33	113.641
443.68	116.262
444.03	117.130
444.39	117.381
444.74	117.532
445.09	116.442
445.44	114.653
445.79	115.438
446.15	116.146
446.50	117.609
446.85	115.930
447.20	117.695
447.55	119.710
447.91	118.478
448.26	118.531
448.61	118.428
448.96	119.380
449.31	118.673
449.66	117.895
450.02	119.220
450.37	117.687
450.72	119.966
451.07	119.927
451.42	119.635
451.77	120.082
452.12	117.610
452.47	119.154
452.83	120.862
453.18	118.643
453.53	120.532
453.88	118.429
454.23	119.904
454.58	120.533
454.93	121.551
455.28	120.449
455.63	120.449
455.98	122.202
456.34	120.415
456.69	121.666
457.04	123.096
457.39	121.157
457.74	120.546
458.09	120.817
458.44	121.494
458.79	118.167
459.14	120.485
459.49	120.724
459.84	120.055
460.19	119.564
460.54	116.956
460.89	121.393
461.24	121.919
461.59	120.395
461.94	120.838
462.29	123.442
462.64	121.315
462.99	120.494
463.34	120.267
463.69	123.327
464.04	119.826
464.39	118.957
464.74	119.133
465.09	119.843
465.44	119.668
465.79	120.694
466.14	117.789
466.49	120.245
466.84	121.366
467.19	118.890
467.54	120.125
467.89	120.888
468.24	118.732
468.59	120.879
468.94	121.197
469.29	122.879
469.64	122.222
469.99	122.530
470.34	122.193
470.68	124.138
471.03	121.497
471.38	122.933
471.73	121.586
472.08	122.434
472.43	121.168
472.78	121.461
473.13	120.988
473.48	120.662
473.83	121.220
474.17	121.157
474.52	123.201
474.87	121.308
475.22	119.675
475.57	120.795
475.92	118.003
476.27	118.771
476.61	119.801
476.96	121.056
477.31	119.414
477.66	120.405
478.01	119.289
478.36	120.254
478.70	120.405
479.05	120.341
479.40	119.806
479.75	122.471
480.10	121.322
480.45	119.419
480.79	118.729
481.14	120.352
481.49	120.218
481.84	119.662
482.19	120.945
482.53	119.404
482.88	119.358
483.23	119.626
483.58	118.926
483.92	120.197
484.27	116.601
484.62	118.491
484.97	117.146
485.31	119.110
485.66	114.356
486.01	111.809
486.36	109.152
486.70	109.590
487.05	112.111
487.40	113.304
487.75	113.992
488.09	116.288
488.44	116.511
488.79	119.349
489.13	119.977
489.48	118.515
489.83	117.825
490.17	117.229
490.52	117.848
490.87	118.001
491.22	117.599
491.56	116.902
491.91	118.008
492.26	117.501
492.60	117.834
492.95	116.183
493.30	115.654
493.64	117.685
493.99	116.063
494.34	116.374
494.68	117.995
495.03	117.481
495.37	116.147
495.72	117.982
496.07	118.422
496.41	113.540
496.76	115.435
497.11	115.624
497.45	116.628
497.80	117.946
498.14	116.135
498.49	117.268
498.84	116.347
499.18	116.286
499.53	116.762
499.87	116.589
500.22	115.073
500.56	117.621
500.91	115.673
501.26	115.789
501.60	116.706
501.95	112.924
502.29	115.136
502.64	115.363
502.98	114.446
503.33	112.797
503.67	113.596
504.02	114.500
504.36	113.898
504.71	116.659
505.06	114.169
505.40	113.904
505.75	114.465
506.09	113.120
506.44	115.146
506.78	114.954
507.13	116.456
507.47	114.293
507.82	114.539
508.16	115.299
508.51	117.098
508.85	111.867
509.19	116.480
509.54	113.571
509.88	113.756
510.23	115.219
510.57	117.079
510.92	115.588
511.26	113.052
511.61	113.382
511.95	114.718
512.30	115.270
512.64	114.347
512.98	116.345
513.33	114.400
513.67	112.166
514.02	114.286
514.36	115.401
514.70	114.831
515.05	113.385
515.39	114.526
515.74	115.315
516.08	114.366
516.42	114.539
516.77	113.824
517.11	113.873
517.46	113.262
517.80	115.912
518.14	115.402
518.49	115.228
518.83	112.330
519.17	114.434
519.52	112.281
519.86	112.778
520.20	113.873
520.55	115.440
520.89	117.214
521.23	114.113
521.58	114.346
521.92	115.983
522.26	114.094
522.61	115.576
522.95	113.382
523.29	115.155
523.64	113.293
523.98	114.603
524.32	113.631
524.66	112.808
525.01	113.174
525.35	113.383
525.69	112.808
526.04	113.707
526.38	112.569
526.72	111.472
527.06	112.869
527.41	110.396
527.75	113.505
528.09	114.130
528.43	113.129
528.78	112.723
529.12	111.394
529.46	113.166
529.80	113.738
530.15	112.274
530.49	108.800
530.83	113.608
531.17	115.470
531.51	113.748
531.86	112.839
532.20	112.907
532.54	112.172
532.88	113.158
533.22	109.806
533.57	110.062
533.91	108.850
534.25	110.207
534.59	110.860
534.93	108.626
535.27	109.716
535.62	109.341
535.96	111.927
536.30	111.697
536.64	111.397
536.98	111.480
537.32	112.113
537.66	110.733
538.01	110.797
538.35	110.019
538.69	110.657
539.03	111.176
539.37	109.265
539.71	107.777
540.05	110.784
540.39	110.764
540.73	107.827
541.07	109.020
541.42	110.894
541.76	110.903
542.10	109.314
542.44	110.927
542.78	109.420
543.12	107.166
543.46	109.508
543.80	109.174
544.14	108.087
544.48	107.746
544.82	107.248
545.16	109.824
545.50	106.170
545.84	107.728
546.18	108.687
546.52	107.639
546.86	108.385
547.20	109.777
547.54	107.214
547.88	107.207
548.22	104.795
548.56	104.151
548.90	105.698
549.24	107.138
549.58	107.844
549.92	107.624
550.26	108.736
550.60	106.916
550.94	107.113
551.28	107.827
551.62	108.627
551.96	105.474
552.30	106.689
552.64	105.815
552.98	106.847
553.32	104.585
553.66	106.817
554.00	106.658
554.34	106.211
554.68	107.368
555.02	104.725
555.36	105.567
555.69	105.007
556.03	104.509
556.37	104.707
556.71	102.387
557.05	104.972
557.39	104.619
557.73	103.246
558.07	105.801
558.41	104.631
558.75	106.098
559.08	106.711
559.42	107.407
559.76	104.559
560.10	103.926
560.44	104.403
560.78	102.129
561.12	103.364
561.45	102.151
561.79	102.044
562.13	102.951
562.47	104.918
562.81	104.045
563.15	100.669
563.48	100.265
563.82	100.196
564.16	101.112
564.50	103.060
564.84	100.316
565.17	100.901
565.51	101.981
565.85	101.015
566.19	100.250
566.52	102.407
566.86	98.071
567.20	99.587
567.54	99.543
567.88	98.642
568.21	99.471
568.55	96.309
568.89	97.860
569.23	95.588
569.56	93.968
569.90	93.585
570.24	93.434
570.57	92.996
570.91	90.465
571.25	90.117
571.59	90.044
571.92	90.409
572.26	91.334
572.60	91.712
572.93	91.244
573.27	90.447
573.61	90.592
573.95	90.310
574.28	88.266
574.62	88.435
574.96	87.216
575.29	87.949
575.63	88.084
575.97	87.972
576.30	87.945
576.64	89.032
576.98	86.850
577.31	87.246
577.65	87.861
577.98	87.093
578.32	85.703
578.66	85.723
578.99	86.670
579.33	85.911
579.67	86.354
580.00	87.077
580.34	86.640
580.67	86.575
581.01	86.081
581.35	85.150
581.68	85.066
582.02	84.065
582.35	84.665
582.69	84.916
583.02	84.767
583.36	85.105
583.70	86.264
584.03	87.382
584.37	87.009
584.70	87.095
585.04	85.127
585.37	84.483
585.71	84.563
586.04	84.537
586.38	85.920
586.72	85.363
587.05	84.352
587.39	84.538
587.72	84.179
588.06	84.285
588.39	85.350
588.73	85.538
589.06	86.226
589.40	85.926
589.73	86.695
590.07	86.014
590.40	84.545
590.73	87.471
591.07	87.627
591.40	86.504
591.74	88.701
592.07	85.515
592.41	85.697
592.74	83.820
593.08	83.278
593.41	84.309
593.75	81.543
594.08	83.171
594.41	83.351
594.75	83.512
595.08	82.963
595.42	83.363
595.75	84.081
596.09	84.942
596.42	84.479
596.75	83.537
597.09	84.675
597.42	82.462
597.75	84.260
598.09	83.783
598.42	83.119
598.76	82.408
599.09	81.110
599.42	80.750
599.76	81.406
600.09	81.093
600.42	80.972
600.76	81.000
601.09	80.255
601.42	81.659
601.76	80.911
602.09	81.621
602.42	81.330
602.76	81.258
603.09	81.471
603.42	81.765
603.76	81.059
604.09	80.807
604.42	82.063
604.76	81.316
605.09	81.302
605.42	81.018
605.75	81.374
606.09	80.846
606.42	80.670
606.75	79.511
607.09	79.657
607.42	80.274
607.75	78.312
608.08	79.592
608.42	80.368
608.75	79.035
609.08	78.400
609.41	80.295
609.75	79.038
610.08	80.254
610.41	78.305
610.74	80.464
611.07	80.534
611.41	79.441
611.74	80.744
612.07	79.917
612.40	81.899
612.73	79.000
613.07	82.435
613.40	80.937
613.73	79.601
614.06	79.677
614.39	77.661
614.72	78.053
615.06	77.941
615.39	79.512
615.72	77.658
616.05	78.363
616.38	79.044
616.71	81.770
617.05	80.153
617.38	81.058
617.71	82.523
618.04	80.829
618.37	78.060
618.70	79.900
619.03	79.671
619.36	81.466
619.69	80.634
620.03	81.731
620.36	79.278
620.69	79.795
621.02	80.531
621.35	81.284
621.68	80.218
