SpectraSuite Data File
++++++++++++++++++++++++++++++++++++
Date: Wed May 13 19:55:41 PDT 2015
User: schluterlab
Dark Spectrum Present: Yes
Reference Spectrum Present: Yes
Number of Sampled Component Spectra: 1
Spectrometers: USB2E3373
Integration Time (usec): 3000 (USB2E3373)
Spectra Averaged: 3 (USB2E3373)
Boxcar Smoothing: 0 (USB2E3373)
Correct for Electrical Dark: No (USB2E3373)
Strobe/Lamp Enabled: No (USB2E3373)
Correct for Detector Non-linearity: No (USB2E3373)
Correct for Stray Light: No (USB2E3373)
Number of Pixels in Processed Spectrum: 2048
>>>>>Begin Processed Spectral Data<<<<<
178.53	0.000
178.91	-1275.000
179.29	-1725.000
179.67	-266.667
180.04	-1350.000
180.42	2650.000
180.80	1080.000
181.18	-1000.000
181.56	600.000
181.94	0.000
182.31	-642.857
182.69	1933.333
183.07	-625.000
183.45	-533.333
183.83	527.273
184.20	-380.000
184.58	2650.000
184.96	5400.000
185.34	-940.000
185.72	-550.000
186.09	-2300.000
186.47	3000.000
186.85	2050.000
187.23	5100.000
187.61	-1933.333
187.98	1475.000
188.36	609.091
188.74	518.182
189.12	-940.000
189.49	580.000
189.87	-4400.000
190.25	-1425.000
190.63	414.286
191.00	415.385
191.38	766.667
191.76	-1375.000
192.14	1375.000
192.51	787.500
192.89	1166.667
193.27	637.500
193.65	-1250.000
194.02	530.000
194.40	940.000
194.78	610.000
195.15	550.000
195.53	630.000
195.91	-2300.000
196.29	318.750
196.66	321.053
197.04	-380.000
197.42	0.000
197.79	670.000
198.17	-4500.000
198.55	785.714
198.92	687.500
199.30	1000.000
199.68	0.000
200.05	305.556
200.43	857.143
200.81	6400.000
201.18	1466.667
201.56	-1633.333
201.94	511.111
202.31	533.333
202.69	475.000
203.07	590.000
203.44	0.000
203.82	1075.000
204.19	914.286
204.57	421.429
204.95	762.500
205.32	1433.333
205.70	436.364
206.08	392.857
206.45	2250.000
206.83	343.750
207.20	1000.000
207.58	780.000
207.96	361.111
208.33	725.000
208.71	-900.000
209.08	842.857
209.46	644.444
209.84	500.000
210.21	-1600.000
210.59	1850.000
210.96	-500.000
211.34	2600.000
211.71	610.000
212.09	833.333
212.46	0.000
212.84	1900.000
213.22	1275.000
213.59	-4800.000
213.97	966.667
214.34	800.000
214.72	609.091
215.09	1040.000
215.47	-2100.000
215.84	-2700.000
216.22	2000.000
216.59	435.714
216.97	1425.000
217.34	527.273
217.72	-916.667
218.09	0.000
218.47	-4400.000
218.84	622.222
219.22	842.857
219.59	1666.667
219.97	-642.857
220.34	1060.000
220.72	-1966.667
221.09	428.571
221.47	1425.000
221.84	-900.000
222.22	0.000
222.59	1600.000
222.97	-2750.000
223.34	1300.000
223.72	484.615
224.09	1100.000
224.46	2050.000
224.84	-5200.000
225.21	-1000.000
225.59	-5100.000
225.96	610.000
226.34	295.000
226.71	2950.000
227.08	650.000
227.46	540.000
227.83	-1150.000
228.21	-2550.000
228.58	622.222
228.95	-2350.000
229.33	-2350.000
229.70	1633.333
230.08	757.143
230.45	-980.000
230.82	483.333
231.20	883.333
231.57	685.714
231.95	541.667
232.32	286.364
232.69	372.727
233.07	771.429
233.44	453.846
233.81	-1500.000
234.19	305.263
234.56	400.000
234.93	400.000
235.31	490.909
235.68	423.077
236.05	378.571
236.43	181.818
236.80	242.105
237.17	5300.000
237.55	214.286
237.92	210.714
238.29	280.952
238.67	190.323
239.04	224.138
239.41	155.556
239.79	121.739
240.16	138.095
240.53	145.455
240.91	125.490
241.28	124.000
241.65	120.000
242.02	95.652
242.40	104.839
242.77	118.333
243.14	77.419
243.51	87.640
243.89	90.588
244.26	78.889
244.63	72.043
245.00	84.043
245.38	76.238
245.75	59.813
246.12	67.890
246.49	72.263
246.87	69.600
247.24	65.385
247.61	65.714
247.98	54.902
248.36	57.432
248.73	52.866
249.10	56.688
249.47	57.627
249.84	49.733
250.22	52.406
250.59	50.296
250.96	50.000
251.33	49.763
251.70	42.574
252.08	46.667
252.45	46.188
252.82	43.913
253.19	49.787
253.56	40.392
253.94	40.664
254.31	46.094
254.68	43.077
255.05	45.387
255.42	44.309
255.79	45.956
256.16	40.433
256.54	37.809
256.91	43.772
257.28	35.612
257.65	42.904
258.02	40.062
258.39	38.801
258.76	41.137
259.14	38.988
259.51	38.906
259.88	37.267
260.25	38.369
260.62	36.416
260.99	37.578
261.36	38.438
261.73	35.244
262.10	35.174
262.47	36.620
262.85	37.604
263.22	33.903
263.59	37.037
263.96	34.066
264.33	37.076
264.70	34.211
265.07	37.852
265.44	37.626
265.81	32.360
266.18	34.673
266.55	34.878
266.92	32.432
267.29	35.880
267.66	31.881
268.03	33.409
268.40	33.645
268.77	31.981
269.14	30.856
269.51	32.506
269.88	34.266
270.25	32.280
270.62	32.584
270.99	33.548
271.36	34.335
271.73	32.477
272.10	29.130
272.47	32.043
272.84	33.766
273.21	32.914
273.58	29.476
273.95	28.721
274.32	31.818
274.69	32.548
275.06	29.331
275.43	32.766
275.80	30.661
276.17	30.957
276.54	33.264
276.91	32.806
277.28	33.008
277.65	30.174
278.02	28.157
278.39	33.203
278.76	29.091
279.13	31.509
279.50	29.236
279.87	30.677
280.23	31.138
280.60	30.754
280.97	30.314
281.34	31.858
281.71	30.364
282.08	29.175
282.45	27.091
282.82	29.485
283.19	26.560
283.56	29.474
283.92	29.611
284.29	29.101
284.66	30.490
285.03	29.476
285.40	28.169
285.77	28.956
286.14	27.979
286.51	29.167
286.87	30.256
287.24	30.130
287.61	29.535
287.98	29.708
288.35	28.051
288.72	28.660
289.08	29.108
289.45	28.007
289.82	30.407
290.19	28.885
290.56	28.025
290.93	26.133
291.29	28.374
291.66	26.991
292.03	29.651
292.40	28.341
292.77	28.698
293.13	28.060
293.50	27.259
293.87	28.148
294.24	28.444
294.60	26.492
294.97	27.326
295.34	28.773
295.71	29.403
296.08	28.775
296.44	28.336
296.81	27.213
297.18	30.352
297.55	25.462
297.91	29.156
298.28	30.790
298.65	28.329
299.02	29.117
299.38	28.287
299.75	29.111
300.12	28.352
300.48	29.875
300.85	29.346
301.22	28.917
301.59	28.409
301.95	29.093
302.32	28.113
302.69	30.108
303.05	30.303
303.42	30.617
303.79	31.370
304.15	29.953
304.52	29.896
304.89	28.804
305.25	31.903
305.62	30.464
305.99	32.349
306.35	33.669
306.72	31.726
307.09	33.074
307.45	34.009
307.82	33.482
308.19	33.333
308.55	33.549
308.92	33.083
309.29	33.157
309.65	34.783
310.02	35.518
310.38	34.946
310.75	35.375
311.12	36.745
311.48	35.632
311.85	36.792
312.22	36.733
312.58	39.085
312.95	39.599
313.31	38.155
313.68	40.125
314.05	41.321
314.41	42.111
314.78	41.390
315.14	43.198
315.51	42.430
315.87	43.465
316.24	43.694
316.61	42.788
316.97	44.325
317.34	45.597
317.70	46.080
318.07	46.583
318.43	47.847
318.80	49.203
319.16	50.659
319.53	48.593
319.89	51.238
320.26	53.000
320.62	51.488
320.99	53.030
321.35	56.061
321.72	56.982
322.08	57.947
322.45	60.000
322.81	59.496
323.18	60.886
323.54	62.616
323.91	64.151
324.27	64.245
324.64	65.424
325.00	65.464
325.37	67.971
325.73	69.479
326.10	72.286
326.46	71.505
326.83	72.994
327.19	75.406
327.56	77.091
327.92	78.915
328.29	78.261
328.65	80.755
329.01	80.866
329.38	81.869
329.74	82.364
330.11	83.506
330.47	82.185
330.84	83.364
331.20	83.151
331.56	83.119
331.93	85.093
332.29	83.940
332.66	85.664
333.02	86.472
333.38	86.360
333.75	87.701
334.11	86.655
334.48	86.335
334.84	87.592
335.20	90.727
335.57	88.486
335.93	87.411
336.29	90.476
336.66	90.171
337.02	87.964
337.38	89.444
337.75	87.522
338.11	89.615
338.47	90.976
338.84	90.284
339.20	90.000
339.56	90.602
339.93	88.818
340.29	89.674
340.65	88.503
341.02	90.052
341.38	92.260
341.74	88.684
342.11	90.917
342.47	90.044
342.83	89.469
343.20	89.177
343.56	90.143
343.92	91.754
344.28	88.776
344.65	92.089
345.01	88.131
345.37	90.823
345.73	90.863
346.10	90.452
346.46	89.661
346.82	89.703
347.19	89.474
347.55	88.342
347.91	90.210
348.27	91.537
348.63	91.054
349.00	89.239
349.36	89.819
349.72	89.816
350.08	88.655
350.45	88.934
350.81	90.252
351.17	90.357
351.53	90.254
351.89	89.191
352.26	88.003
352.62	88.212
352.98	90.113
353.34	88.907
353.70	89.853
354.07	89.032
354.43	87.381
354.79	88.496
355.15	89.944
355.51	91.287
355.87	90.122
356.24	87.948
356.60	86.528
356.96	90.185
357.32	91.169
357.68	89.528
358.04	87.332
358.40	89.707
358.77	87.872
359.13	87.214
359.49	87.765
359.85	89.365
360.21	89.952
360.57	89.339
360.93	89.846
361.29	87.453
361.66	86.687
362.02	88.209
362.38	88.897
362.74	88.244
363.10	87.195
363.46	86.500
363.82	88.209
364.18	85.169
364.54	88.336
364.90	88.173
365.26	89.118
365.62	87.436
365.98	86.706
366.35	85.244
366.71	86.985
367.07	86.526
367.43	88.316
367.79	87.580
368.15	87.356
368.51	87.064
368.87	88.080
369.23	86.906
369.59	87.545
369.95	87.132
370.31	84.046
370.67	84.493
371.03	86.217
371.39	87.536
371.75	85.662
372.11	84.068
372.47	85.117
372.83	87.608
373.19	85.549
373.55	87.288
373.91	86.892
374.27	82.337
374.63	86.182
374.99	85.734
375.35	83.950
375.71	83.962
376.07	84.568
376.42	84.388
376.78	83.565
377.14	84.396
377.50	83.775
377.86	82.314
378.22	84.766
378.58	80.639
378.94	84.098
379.30	83.842
379.66	85.787
380.02	83.047
380.38	82.271
380.74	83.073
381.09	82.641
381.45	84.388
381.81	83.968
382.17	83.057
382.53	83.270
382.89	82.840
383.25	82.176
383.61	84.139
383.97	82.051
384.32	82.034
384.68	81.537
385.04	82.913
385.40	80.062
385.76	80.651
386.12	82.642
386.48	81.624
386.83	82.425
387.19	83.117
387.55	81.509
387.91	82.467
388.27	81.913
388.62	80.762
388.98	79.545
389.34	81.414
389.70	80.625
390.06	79.911
390.42	80.804
390.77	79.517
391.13	82.451
391.49	79.569
391.85	79.185
392.20	77.855
392.56	79.104
392.92	79.576
393.28	79.112
393.64	78.777
393.99	77.886
394.35	78.908
394.71	78.356
395.07	76.698
395.42	79.604
395.78	76.145
396.14	76.723
396.50	77.256
396.85	77.877
397.21	77.127
397.57	77.185
397.92	76.863
398.28	75.504
398.64	75.269
399.00	76.721
399.35	76.199
399.71	75.174
400.07	76.464
400.42	75.890
400.78	76.176
401.14	76.341
401.49	75.701
401.85	74.955
402.21	74.491
402.57	74.645
402.92	75.221
403.28	74.391
403.63	74.752
403.99	75.541
404.35	73.697
404.70	73.561
405.06	72.685
405.42	74.922
405.77	72.457
406.13	71.163
406.49	71.851
406.84	72.357
407.20	72.104
407.55	72.814
407.91	73.600
408.27	71.857
408.62	70.741
408.98	70.833
409.34	71.771
409.69	70.645
410.05	70.818
410.40	69.847
410.76	69.534
411.11	68.938
411.47	69.073
411.83	70.739
412.18	69.635
412.54	69.801
412.89	68.373
413.25	68.064
413.60	70.229
413.96	67.638
414.31	68.712
414.67	67.617
415.03	70.199
415.38	68.814
415.74	68.424
416.09	68.844
416.45	68.273
416.80	67.812
417.16	68.432
417.51	69.011
417.87	67.052
418.22	68.139
418.58	66.753
418.93	67.260
419.29	66.200
419.64	67.506
420.00	66.280
420.35	65.797
420.71	66.527
421.06	66.050
421.42	65.789
421.77	65.639
422.12	65.300
422.48	65.084
422.83	66.104
423.19	64.586
423.54	65.003
423.90	65.217
424.25	64.489
424.61	63.571
424.96	64.840
425.31	63.344
425.67	61.629
426.02	62.400
426.38	64.164
426.73	64.190
427.09	63.708
427.44	63.140
427.79	62.105
428.15	63.810
428.50	63.312
428.85	62.992
429.21	61.623
429.56	62.519
429.92	62.607
430.27	60.129
430.62	61.034
430.98	60.301
431.33	61.134
431.68	60.942
432.04	58.892
432.39	62.193
432.74	61.580
433.10	62.422
433.45	60.525
433.80	60.920
434.16	59.722
434.51	59.789
434.86	60.148
435.22	60.589
435.57	61.094
435.92	59.743
436.28	59.312
436.63	58.775
436.98	59.473
437.34	60.525
437.69	59.802
438.04	59.191
438.39	59.284
438.75	59.152
439.10	58.547
439.45	58.383
439.81	58.066
440.16	57.595
440.51	57.821
440.86	57.788
441.22	57.119
441.57	58.227
441.92	58.291
442.27	57.212
442.63	55.872
442.98	57.803
443.33	56.739
443.68	56.479
444.03	55.832
444.39	54.917
444.74	56.331
445.09	56.173
445.44	55.659
445.79	55.121
446.15	54.473
446.50	55.681
446.85	56.835
447.20	54.972
447.55	56.058
447.91	55.543
448.26	55.092
448.61	55.172
448.96	55.980
449.31	54.781
449.66	54.643
450.02	54.485
450.37	53.628
450.72	54.484
451.07	53.870
451.42	53.556
451.77	55.608
452.12	53.926
452.47	54.042
452.83	54.429
453.18	53.790
453.53	54.669
453.88	54.400
454.23	52.899
454.58	52.938
454.93	54.100
455.28	54.676
455.63	53.519
455.98	53.988
456.34	53.706
456.69	53.851
457.04	53.746
457.39	52.425
457.74	51.538
458.09	51.811
458.44	52.908
458.79	50.271
459.14	52.427
459.49	51.138
459.84	51.191
460.19	51.267
460.54	50.521
460.89	50.741
461.24	51.609
461.59	51.482
461.94	49.753
462.29	51.395
462.64	50.542
462.99	50.553
463.34	50.800
463.69	50.594
464.04	50.435
464.39	49.913
464.74	49.317
465.09	49.216
465.44	49.529
465.79	50.112
466.14	48.495
466.49	49.611
466.84	50.088
467.19	48.582
467.54	49.062
467.89	48.619
468.24	48.400
468.59	50.611
468.94	48.503
469.29	48.650
469.64	50.134
469.99	49.662
470.34	48.811
470.68	48.563
471.03	49.048
471.38	50.521
471.73	48.368
472.08	49.868
472.43	48.241
472.78	47.926
473.13	48.010
473.48	47.503
473.83	48.841
474.17	47.106
474.52	47.953
474.87	47.169
475.22	47.533
475.57	45.943
475.92	46.256
476.27	46.843
476.61	46.828
476.96	46.564
477.31	47.096
477.66	46.882
478.01	46.001
478.36	46.536
478.70	46.158
479.05	45.847
479.40	46.469
479.75	45.501
480.10	45.129
480.45	44.979
480.79	44.864
481.14	45.695
481.49	46.084
481.84	44.353
482.19	44.162
482.53	45.138
482.88	44.812
483.23	45.654
483.58	45.132
483.92	45.548
484.27	43.224
484.62	44.052
484.97	43.713
485.31	43.801
485.66	42.060
486.01	41.544
486.36	39.865
486.70	39.312
487.05	40.618
487.40	41.803
487.75	41.539
488.09	42.038
488.44	42.195
488.79	43.834
489.13	43.468
489.48	43.883
489.83	42.210
490.17	44.367
490.52	42.914
490.87	43.193
491.22	42.610
491.56	42.096
491.91	43.369
492.26	42.857
492.60	41.797
492.95	42.891
493.30	42.617
493.64	42.930
493.99	42.247
494.34	41.397
494.68	43.361
495.03	43.374
495.37	42.531
495.72	43.665
496.07	42.831
496.41	41.195
496.76	42.260
497.11	42.143
497.45	41.872
497.80	42.562
498.14	41.063
498.49	42.780
498.84	41.802
499.18	41.381
499.53	41.358
499.87	41.705
500.22	40.415
500.56	42.379
500.91	42.308
501.26	40.588
501.60	41.338
501.95	40.467
502.29	41.565
502.64	41.108
502.98	40.720
503.33	40.174
503.67	40.974
504.02	41.160
504.36	40.524
504.71	41.182
505.06	39.952
505.40	41.274
505.75	39.971
506.09	40.671
506.44	40.059
506.78	40.331
507.13	41.191
507.47	40.657
507.82	40.679
508.16	41.033
508.51	41.451
508.85	41.410
509.19	41.071
509.54	40.357
509.88	39.722
510.23	41.183
510.57	41.847
510.92	40.290
511.26	39.979
511.61	40.508
511.95	39.927
512.30	40.403
512.64	40.516
512.98	40.461
513.33	40.525
513.67	39.061
514.02	38.961
514.36	39.650
514.70	40.398
515.05	40.045
515.39	40.774
515.74	40.259
516.08	40.749
516.42	40.622
516.77	41.249
517.11	39.678
517.46	39.391
517.80	39.779
518.14	39.954
518.49	40.898
518.83	40.227
519.17	38.857
519.52	39.672
519.86	40.445
520.20	39.249
520.55	40.515
520.89	39.781
521.23	40.229
521.58	40.336
521.92	40.049
522.26	39.841
522.61	39.875
522.95	39.840
523.29	40.110
523.64	40.427
523.98	40.296
524.32	38.902
524.66	39.627
525.01	39.951
525.35	39.219
525.69	39.655
526.04	39.751
526.38	39.292
526.72	39.939
527.06	40.804
527.41	38.181
527.75	39.614
528.09	39.499
528.43	39.771
528.78	40.135
529.12	38.545
529.46	37.844
529.80	38.985
530.15	39.502
530.49	38.462
530.83	39.177
531.17	40.731
531.51	40.013
531.86	38.903
532.20	38.853
532.54	38.821
532.88	39.602
533.22	38.101
533.57	38.148
533.91	38.230
534.25	37.606
534.59	38.560
534.93	37.537
535.27	38.262
535.62	39.316
535.96	37.414
536.30	37.762
536.64	38.571
536.98	38.222
537.32	38.381
537.66	38.667
538.01	38.249
538.35	38.074
538.69	39.375
539.03	37.427
539.37	37.125
539.71	36.876
540.05	39.542
540.39	38.073
540.73	37.581
541.07	39.714
541.42	37.965
541.76	38.452
542.10	37.840
542.44	37.219
542.78	38.538
543.12	36.788
543.46	38.623
543.80	37.801
544.14	36.585
544.48	37.841
544.82	36.883
545.16	38.712
545.50	37.661
545.84	37.769
546.18	37.845
546.52	38.059
546.86	38.557
547.20	38.233
547.54	36.874
547.88	38.520
548.22	36.550
548.56	37.925
548.90	37.260
549.24	36.027
549.58	38.063
549.92	37.981
550.26	37.216
550.60	37.275
550.94	37.465
551.28	37.454
551.62	38.030
551.96	37.684
552.30	38.157
552.64	37.728
552.98	37.492
553.32	36.278
553.66	36.878
554.00	36.582
554.34	36.232
554.68	37.124
555.02	37.659
555.36	37.022
555.69	36.265
556.03	36.205
556.37	36.494
556.71	36.494
557.05	36.415
557.39	37.649
557.73	36.486
558.07	38.651
558.41	37.482
558.75	37.619
559.08	38.255
559.42	36.735
559.76	36.985
560.10	35.689
560.44	37.177
560.78	35.196
561.12	36.214
561.45	35.202
561.79	35.992
562.13	36.083
562.47	36.885
562.81	36.471
563.15	34.849
563.48	35.013
563.82	36.204
564.16	35.971
564.50	35.091
564.84	34.893
565.17	35.907
565.51	35.719
565.85	36.041
566.19	36.068
566.52	36.542
566.86	34.720
567.20	35.613
567.54	35.388
567.88	33.949
568.21	34.180
568.55	34.277
568.89	34.387
569.23	33.244
569.56	33.077
569.90	32.226
570.24	31.970
570.57	32.302
570.91	31.125
571.25	31.038
571.59	30.574
571.92	30.703
572.26	30.705
572.60	30.721
572.93	30.405
573.27	31.085
573.61	30.737
573.95	31.292
574.28	30.678
574.62	30.709
574.96	29.988
575.29	30.068
575.63	30.742
575.97	30.070
576.30	30.828
576.64	30.200
576.98	29.995
577.31	30.291
577.65	29.902
577.98	29.795
578.32	29.567
578.66	29.790
578.99	29.833
579.33	30.283
579.67	29.652
580.00	30.448
580.34	30.066
580.67	30.087
581.01	30.020
581.35	29.618
581.68	29.291
582.02	28.774
582.35	29.313
582.69	29.600
583.02	29.713
583.36	30.136
583.70	30.844
584.03	30.172
584.37	30.619
584.70	30.068
585.04	29.721
585.37	29.753
585.71	29.958
586.04	29.500
586.38	30.172
586.72	30.295
587.05	29.938
587.39	29.446
587.72	29.863
588.06	30.043
588.39	30.233
588.73	30.155
589.06	30.975
589.40	30.539
589.73	31.010
590.07	31.068
590.40	30.179
590.73	31.382
591.07	33.048
591.40	31.632
591.74	32.294
592.07	32.243
592.41	31.294
592.74	30.861
593.08	30.346
593.41	29.991
593.75	29.232
594.08	29.836
594.41	30.930
594.75	31.128
595.08	30.351
595.42	29.982
595.75	30.484
596.09	31.093
596.42	31.945
596.75	31.152
597.09	31.991
597.42	30.270
597.75	31.263
598.09	30.565
598.42	30.412
598.76	29.550
599.09	29.875
599.42	29.003
599.76	29.941
600.09	29.545
600.42	29.036
600.76	29.464
601.09	29.472
601.42	30.175
601.76	29.943
602.09	30.514
602.42	30.812
602.76	31.197
603.09	30.409
603.42	30.730
603.76	29.878
604.09	29.197
604.42	30.126
604.76	30.662
605.09	30.494
605.42	30.483
605.75	29.843
606.09	30.175
606.42	29.955
606.75	30.153
607.09	30.557
607.42	29.696
607.75	29.662
608.08	29.570
608.42	30.793
608.75	30.433
609.08	30.435
609.41	30.604
609.75	30.681
610.08	31.197
610.41	30.121
610.74	30.653
611.07	30.978
611.41	30.815
611.74	30.820
612.07	31.729
612.40	31.375
612.73	30.684
613.07	31.950
613.40	31.438
613.73	30.834
614.06	30.538
614.39	30.205
614.72	30.000
615.06	30.620
615.39	30.573
615.72	30.266
616.05	30.037
616.38	31.351
616.71	32.007
617.05	31.743
617.38	31.209
617.71	31.952
618.04	31.671
618.37	30.219
618.70	31.798
619.03	31.184
619.36	32.315
619.69	32.254
620.03	33.173
620.36	31.952
620.69	31.781
621.02	32.743
621.35	32.968
621.68	32.944
622.01	31.656
622.34	31.467
622.67	33.384
623.00	31.988
623.33	31.737
623.66	33.024
623.99	32.548
624.32	31.170
624.65	31.497
624.99	31.303
625.32	31.209
625.65	33.283
625.98	33.282
626.31	33.593
626.64	33.714
626.97	33.084
627.30	33.084
627.63	33.880
627.96	33.726
628.29	34.383
628.62	34.126
628.95	33.585
629.28	32.482
629.61	33.181
629.94	35.048
630.26	34.604
630.59	33.365
