SpectraSuite Data File
++++++++++++++++++++++++++++++++++++
Date: Tue May 12 19:40:18 PDT 2015
User: schluterlab
Dark Spectrum Present: Yes
Reference Spectrum Present: Yes
Number of Sampled Component Spectra: 1
Spectrometers: USB2E3373
Integration Time (usec): 3000 (USB2E3373)
Spectra Averaged: 3 (USB2E3373)
Boxcar Smoothing: 0 (USB2E3373)
Correct for Electrical Dark: No (USB2E3373)
Strobe/Lamp Enabled: No (USB2E3373)
Correct for Detector Non-linearity: No (USB2E3373)
Correct for Stray Light: No (USB2E3373)
Number of Pixels in Processed Spectrum: 2048
>>>>>Begin Processed Spectral Data<<<<<
178.53	0.000
178.91	-50.000
179.29	-66.667
179.67	400.000
180.04	0.000
180.42	60.000
180.80	-100.000
181.18	600.000
181.56	-100.000
181.94	183.333
182.31	1500.000
182.69	85.714
183.07	0.000
183.45	191.667
183.83	280.000
184.20	366.667
184.58	350.000
184.96	366.667
185.34	-366.667
185.72	28.571
186.09	-166.667
186.47	-1200.000
186.85	-40.000
187.23	108.333
187.61	-157.143
187.98	-340.000
188.36	400.000
188.74	-125.000
189.12	-55.556
189.49	-60.000
189.87	325.000
190.25	211.111
190.63	566.667
191.00	300.000
191.38	-133.333
191.76	140.000
192.14	-71.429
192.51	-30.000
192.89	-180.000
193.27	100.000
193.65	-400.000
194.02	-116.667
194.40	100.000
194.78	-87.500
195.15	-171.429
195.53	266.667
195.91	100.000
196.29	-200.000
196.66	-233.333
197.04	-100.000
197.42	300.000
197.79	-100.000
198.17	-33.333
198.55	200.000
198.92	-55.556
199.30	400.000
199.68	-75.000
200.05	-550.000
200.43	11.111
200.81	-33.333
201.18	300.000
201.56	-450.000
201.94	-1000.000
202.31	0.000
202.69	33.333
203.07	-33.333
203.44	-300.000
203.82	0.000
204.19	112.500
204.57	-200.000
204.95	18.182
205.32	240.000
205.70	250.000
206.08	-500.000
206.45	-40.000
206.83	1000.000
207.20	-111.111
207.58	76.923
207.96	300.000
208.33	433.333
208.71	600.000
209.08	-50.000
209.46	33.333
209.84	500.000
210.21	-433.333
210.59	350.000
210.96	166.667
211.34	-150.000
211.71	700.000
212.09	-80.000
212.46	-100.000
212.84	-100.000
213.22	71.429
213.59	-75.000
213.97	0.000
214.34	-450.000
214.72	-1100.000
215.09	-0.000
215.47	20.000
215.84	-162.500
216.22	200.000
216.59	1300.000
216.97	-33.333
217.34	-100.000
217.72	11.111
218.09	250.000
218.47	15.789
218.84	-225.000
219.22	28.571
219.59	-100.000
219.97	130.000
220.34	233.333
220.72	63.636
221.09	-600.000
221.47	0.000
221.84	100.000
222.22	-350.000
222.59	-425.000
222.97	13.043
223.34	73.333
223.72	271.429
224.09	-100.000
224.46	138.462
224.84	-106.667
225.21	-650.000
225.59	-275.000
225.96	5.000
226.34	133.333
226.71	230.000
227.08	-7.692
227.46	-71.429
227.83	-8.333
228.21	-950.000
228.58	200.000
228.95	-26.316
229.33	12.500
229.70	-83.333
230.08	-22.222
230.45	-433.333
230.82	-1500.000
231.20	9.524
231.57	-280.000
231.95	-400.000
232.32	22.222
232.69	-550.000
233.07	81.250
233.44	-25.000
233.81	19.355
234.19	-180.000
234.56	-55.556
234.93	-216.667
235.31	7.407
235.68	25.926
236.05	-23.077
236.43	-21.053
236.80	9.091
237.17	-114.286
237.55	-75.000
237.92	20.930
238.29	16.129
238.67	7.143
239.04	5.714
239.41	0.000
239.79	2.000
240.16	-17.500
240.53	-20.690
240.91	5.479
241.28	-11.268
241.65	7.812
242.02	-7.018
242.40	-4.000
242.77	-2.105
243.14	5.882
243.51	-5.376
243.89	-1.905
244.26	-0.926
244.63	0.000
245.00	-14.286
245.38	0.000
245.75	-7.627
246.12	5.469
246.49	-3.200
246.87	-1.639
247.24	-1.408
247.61	-1.987
247.98	8.427
248.36	1.258
248.73	-2.841
249.10	2.222
249.47	1.042
249.84	4.061
250.22	-2.083
250.59	1.124
250.96	5.909
251.33	9.906
251.70	3.670
252.08	9.957
252.45	4.898
252.82	2.110
253.19	3.113
253.56	7.451
253.94	2.439
254.31	7.194
254.68	5.903
255.05	6.623
255.42	5.091
255.79	6.954
256.16	4.514
256.54	6.364
256.91	11.538
257.28	1.948
257.65	1.639
258.02	5.706
258.39	5.136
258.76	5.199
259.14	1.765
259.51	4.225
259.88	9.798
260.25	3.409
260.62	3.090
260.99	2.786
261.36	4.885
261.73	3.467
262.10	6.540
262.47	4.132
262.85	7.969
263.22	2.688
263.59	5.094
263.96	5.222
264.33	2.156
264.70	7.862
265.07	3.448
265.44	7.728
265.81	6.024
266.18	4.684
266.55	2.857
266.92	4.688
267.29	5.333
267.66	2.273
268.03	5.376
268.40	2.746
268.77	3.341
269.14	5.882
269.51	6.787
269.88	4.701
270.25	3.165
270.62	7.143
270.99	5.684
271.36	4.194
271.73	5.000
272.10	5.394
272.47	4.400
272.84	2.335
273.21	3.340
273.58	1.633
273.95	4.980
274.32	4.642
274.69	4.501
275.06	5.629
275.43	2.800
275.80	4.398
276.17	3.557
276.54	6.844
276.91	5.374
277.28	5.222
277.65	4.348
278.02	6.818
278.39	6.534
278.76	5.214
279.13	6.261
279.50	7.401
279.87	5.094
280.23	4.918
280.60	3.357
280.97	4.218
281.34	4.407
281.71	3.375
282.08	5.725
282.45	4.762
282.82	5.892
283.19	4.545
283.56	7.338
283.92	5.529
284.29	5.415
284.66	3.186
285.03	2.916
285.40	5.833
285.77	6.240
286.14	3.803
286.51	2.894
286.87	4.862
287.24	2.404
287.61	5.556
287.98	7.199
288.35	5.116
288.72	4.740
289.08	3.302
289.45	4.680
289.82	4.037
290.19	2.121
290.56	5.644
290.93	3.840
291.29	6.667
291.66	4.354
292.03	5.595
292.40	5.612
292.77	2.915
293.13	2.349
293.50	2.479
293.87	6.519
294.24	3.792
294.60	4.508
294.97	3.601
295.34	4.110
295.71	2.913
296.08	4.235
296.44	4.084
296.81	3.105
297.18	6.210
297.55	4.020
297.91	5.330
298.28	2.813
298.65	3.622
299.02	3.946
299.38	3.571
299.75	3.990
300.12	3.837
300.48	4.108
300.85	2.445
301.22	5.409
301.59	4.258
301.95	4.756
302.32	2.916
302.69	2.021
303.05	2.479
303.42	3.382
303.79	3.708
304.15	3.511
304.52	3.575
304.89	2.706
305.25	4.014
305.62	2.727
305.99	2.240
306.35	3.356
306.72	4.902
307.09	2.720
307.45	3.236
307.82	3.949
308.19	4.510
308.55	4.219
308.92	2.542
309.29	3.556
309.65	4.128
310.02	3.459
310.38	4.051
310.75	3.586
311.12	4.985
311.48	4.008
311.85	3.343
312.22	4.649
312.58	3.625
312.95	3.696
313.31	4.228
313.68	3.277
314.05	4.568
314.41	3.733
314.78	3.216
315.14	4.016
315.51	4.767
315.87	3.711
316.24	4.352
316.61	3.883
316.97	3.431
317.34	3.732
317.70	2.988
318.07	3.279
318.43	3.214
318.80	3.552
319.16	2.982
319.53	3.774
319.89	3.409
320.26	4.621
320.62	3.876
320.99	4.592
321.35	3.656
321.72	4.949
322.08	4.455
322.45	3.550
322.81	3.547
323.18	4.410
323.54	3.886
323.91	4.080
324.27	3.472
324.64	2.718
325.00	4.459
325.37	3.867
325.73	3.467
326.10	3.503
326.46	3.626
326.83	2.726
327.19	3.231
327.56	3.802
327.92	3.212
328.29	4.301
328.65	4.143
329.01	4.037
329.38	2.755
329.74	3.993
330.11	3.914
330.47	3.445
330.84	2.538
331.20	3.512
331.56	2.830
331.93	4.117
332.29	3.700
332.66	3.436
333.02	3.807
333.38	4.228
333.75	4.117
334.11	3.978
334.48	2.773
334.84	2.441
335.20	3.939
335.57	5.631
335.93	3.628
336.29	3.839
336.66	3.461
337.02	3.717
337.38	3.396
337.75	3.727
338.11	4.558
338.47	3.621
338.84	3.407
339.20	4.491
339.56	2.423
339.93	3.694
340.29	4.080
340.65	4.840
341.02	3.277
341.38	5.384
341.74	4.004
342.11	4.686
342.47	3.322
342.83	3.729
343.20	4.332
343.56	4.283
343.92	2.712
344.28	3.688
344.65	4.366
345.01	3.659
345.37	4.359
345.73	3.790
346.10	3.889
346.46	3.451
346.82	3.738
347.19	4.542
347.55	3.486
347.91	3.767
348.27	3.875
348.63	4.235
349.00	5.175
349.36	5.029
349.72	4.351
350.08	4.419
350.45	4.312
350.81	5.037
351.17	4.366
351.53	4.750
351.89	3.541
352.26	5.122
352.62	5.397
352.98	5.607
353.34	5.263
353.70	3.868
354.07	5.189
354.43	3.756
354.79	4.836
355.15	4.843
355.51	5.786
355.87	4.829
356.24	6.536
356.60	5.509
356.96	4.739
357.32	5.514
357.68	5.012
358.04	4.214
358.40	4.992
358.77	5.221
359.13	5.783
359.49	4.800
359.85	5.915
360.21	4.441
360.57	5.423
360.93	5.622
361.29	4.984
361.66	5.599
362.02	4.945
362.38	5.439
362.74	4.689
363.10	5.053
363.46	5.192
363.82	4.977
364.18	4.466
364.54	5.420
364.90	5.185
365.26	5.142
365.62	4.012
365.98	4.648
366.35	4.917
366.71	5.527
367.07	5.535
367.43	5.343
367.79	5.451
368.15	4.374
368.51	6.142
368.87	5.507
369.23	4.542
369.59	5.441
369.95	4.173
370.31	4.470
370.67	6.015
371.03	5.650
371.39	4.909
371.75	4.606
372.11	5.111
372.47	4.900
372.83	5.113
373.19	4.819
373.55	4.865
373.91	5.076
374.27	5.224
374.63	4.639
374.99	5.051
375.35	4.499
375.71	5.380
376.07	5.300
376.42	5.048
376.78	4.530
377.14	4.399
377.50	4.856
377.86	5.292
378.22	5.614
378.58	5.263
378.94	5.632
379.30	4.633
379.66	6.018
380.02	5.213
380.38	4.580
380.74	4.661
381.09	4.257
381.45	4.698
381.81	5.102
382.17	6.059
382.53	5.457
382.89	4.875
383.25	4.756
383.61	3.306
383.97	5.133
384.32	5.355
384.68	5.683
385.04	4.456
385.40	4.217
385.76	5.629
386.12	4.950
386.48	5.284
386.83	5.069
387.19	5.939
387.55	4.016
387.91	4.424
388.27	4.479
388.62	4.080
388.98	5.280
389.34	3.709
389.70	4.295
390.06	4.950
390.42	5.003
390.77	4.494
391.13	4.750
391.49	5.930
391.85	4.524
392.20	4.290
392.56	4.060
392.92	5.380
393.28	5.446
393.64	4.560
393.99	4.545
394.35	4.802
394.71	4.371
395.07	5.172
395.42	5.397
395.78	4.435
396.14	3.864
396.50	5.110
396.85	4.825
397.21	4.916
397.57	3.884
397.92	5.789
398.28	4.496
398.64	4.444
399.00	5.746
399.35	5.275
399.71	4.551
400.07	4.756
400.42	4.744
400.78	5.118
401.14	5.492
401.49	4.747
401.85	4.889
402.21	4.949
402.57	4.379
402.92	4.914
403.28	4.876
403.63	4.679
403.99	3.963
404.35	4.713
404.70	4.117
405.06	4.650
405.42	5.010
405.77	5.054
406.13	4.839
406.49	4.290
406.84	5.604
407.20	4.895
407.55	5.344
407.91	3.706
408.27	4.322
408.62	4.630
408.98	4.955
409.34	4.609
409.69	4.883
410.05	4.663
410.40	4.046
410.76	5.479
411.11	4.460
411.47	5.238
411.83	5.409
412.18	4.581
412.54	5.692
412.89	4.534
413.25	5.392
413.60	5.548
413.96	5.372
414.31	4.270
414.67	4.929
415.03	5.325
415.38	4.735
415.74	5.238
416.09	3.515
416.45	5.237
416.80	4.451
417.16	4.443
417.51	4.927
417.87	5.882
418.22	4.479
418.58	4.285
418.93	5.351
419.29	4.410
419.64	5.082
420.00	5.632
420.35	5.336
420.71	5.058
421.06	4.478
421.42	5.270
421.77	6.638
422.12	5.434
422.48	4.740
422.83	5.532
423.19	5.412
423.54	4.765
423.90	4.883
424.25	5.196
424.61	5.355
424.96	4.607
425.31	4.891
425.67	5.273
426.02	4.969
426.38	4.440
426.73	4.424
427.09	4.924
427.44	4.630
427.79	6.126
428.15	4.502
428.50	4.774
428.85	5.645
429.21	5.499
429.56	4.696
429.92	5.354
430.27	4.587
430.62	6.003
430.98	5.588
431.33	5.673
431.68	5.088
432.04	5.409
432.39	5.348
432.74	5.882
433.10	5.458
433.45	5.510
433.80	6.250
434.16	6.617
434.51	5.017
434.86	4.653
435.22	5.122
435.57	5.739
435.92	4.334
436.28	5.479
436.63	5.426
436.98	5.370
437.34	5.438
437.69	5.617
438.04	5.589
438.39	5.352
438.75	5.046
439.10	5.952
439.45	6.418
439.81	5.270
440.16	4.947
440.51	5.019
440.86	5.556
441.22	5.539
441.57	5.527
441.92	5.080
442.27	5.429
442.63	5.756
442.98	6.418
443.33	6.052
443.68	5.602
444.03	5.567
444.39	5.414
444.74	5.438
445.09	5.962
445.44	4.840
445.79	6.419
446.15	5.364
446.50	5.495
446.85	6.051
447.20	5.416
447.55	5.643
447.91	5.761
448.26	5.697
448.61	5.498
448.96	5.973
449.31	5.184
449.66	5.206
450.02	5.444
450.37	5.589
450.72	5.326
451.07	5.867
451.42	5.599
451.77	4.288
452.12	5.952
452.47	5.352
452.83	6.164
453.18	5.604
453.53	6.466
453.88	5.041
454.23	5.559
454.58	6.332
454.93	4.837
455.28	5.431
455.63	5.393
455.98	6.345
456.34	5.693
456.69	5.484
457.04	5.446
457.39	5.993
457.74	5.942
458.09	5.787
458.44	6.315
458.79	5.241
459.14	5.605
459.49	5.541
459.84	6.599
460.19	5.629
460.54	5.682
460.89	5.882
461.24	6.039
461.59	6.372
461.94	6.509
462.29	5.451
462.64	5.989
462.99	6.019
463.34	5.861
463.69	7.064
464.04	6.350
464.39	5.466
464.74	5.386
465.09	6.688
465.44	5.939
465.79	5.415
466.14	6.325
466.49	6.008
466.84	6.695
467.19	6.173
467.54	5.703
467.89	6.009
468.24	6.187
468.59	6.675
468.94	5.649
469.29	6.367
469.64	7.294
469.99	5.768
470.34	6.223
470.68	6.462
471.03	6.204
471.38	5.909
471.73	6.904
472.08	6.833
472.43	6.708
472.78	4.641
473.13	6.246
473.48	5.602
473.83	6.803
474.17	5.537
474.52	6.564
474.87	5.808
475.22	5.781
475.57	6.639
475.92	6.538
476.27	6.148
476.61	6.915
476.96	6.580
477.31	6.336
477.66	6.566
478.01	5.709
478.36	6.074
478.70	6.761
479.05	5.514
479.40	6.247
479.75	6.113
480.10	6.331
480.45	6.440
480.79	6.694
481.14	6.168
481.49	5.707
481.84	6.414
482.19	6.098
482.53	6.324
482.88	6.253
483.23	6.985
483.58	6.634
483.92	6.533
484.27	5.954
484.62	6.931
484.97	6.107
485.31	6.497
485.66	5.976
486.01	5.949
486.36	5.883
486.70	5.647
487.05	6.131
487.40	6.041
487.75	5.955
488.09	6.266
488.44	6.294
488.79	5.887
489.13	6.525
489.48	6.360
489.83	6.472
490.17	6.845
490.52	6.453
490.87	6.528
491.22	7.298
491.56	6.522
491.91	6.275
492.26	6.782
492.60	7.551
492.95	7.033
493.30	6.587
493.64	6.288
493.99	6.417
494.34	7.299
494.68	7.037
495.03	6.339
495.37	6.893
495.72	6.276
496.07	6.897
496.41	6.324
496.76	6.925
497.11	6.598
497.45	7.032
497.80	7.165
498.14	7.022
498.49	6.567
498.84	6.656
499.18	6.798
499.53	7.269
499.87	7.322
500.22	6.545
500.56	7.274
500.91	7.813
501.26	6.194
501.60	7.136
501.95	6.858
502.29	7.337
502.64	6.819
502.98	7.067
503.33	7.039
503.67	6.942
504.02	7.150
504.36	6.831
504.71	7.287
505.06	7.017
505.40	6.863
505.75	7.636
506.09	6.392
506.44	7.457
506.78	6.959
507.13	6.080
507.47	7.479
507.82	7.199
508.16	6.849
508.51	7.495
508.85	7.308
509.19	7.296
509.54	7.195
509.88	7.250
510.23	7.697
510.57	6.985
510.92	7.086
511.26	6.146
511.61	7.306
511.95	7.345
512.30	7.072
512.64	7.625
512.98	7.620
513.33	6.213
513.67	6.407
514.02	7.212
514.36	8.066
514.70	7.711
515.05	7.073
515.39	7.026
515.74	8.020
516.08	7.094
516.42	7.147
516.77	7.702
517.11	7.217
517.46	8.307
517.80	8.041
518.14	9.045
518.49	7.956
518.83	7.782
519.17	8.612
519.52	8.245
519.86	9.120
520.20	7.962
520.55	8.812
520.89	8.165
521.23	7.882
521.58	8.399
521.92	7.610
522.26	8.591
522.61	8.464
522.95	8.356
523.29	7.625
523.64	7.598
523.98	8.266
524.32	8.148
524.66	8.498
525.01	8.247
525.35	8.550
525.69	9.016
526.04	8.386
526.38	8.362
526.72	8.542
527.06	9.072
527.41	7.867
527.75	8.256
528.09	8.557
528.43	8.930
528.78	8.386
529.12	8.767
529.46	8.173
529.80	8.509
530.15	9.104
530.49	8.996
530.83	8.677
531.17	8.192
531.51	8.851
531.86	8.613
532.20	7.720
532.54	8.705
532.88	7.418
533.22	8.046
533.57	8.483
533.91	8.052
534.25	8.418
534.59	8.528
534.93	8.932
535.27	7.744
535.62	8.170
535.96	8.653
536.30	8.281
536.64	9.013
536.98	8.923
537.32	8.929
537.66	9.311
538.01	8.984
538.35	8.291
538.69	7.714
539.03	8.147
539.37	8.758
539.71	9.420
540.05	8.104
540.39	8.860
540.73	9.158
541.07	8.603
541.42	8.624
541.76	8.777
542.10	8.106
542.44	8.815
542.78	9.091
543.12	7.653
543.46	8.271
543.80	9.221
544.14	9.176
544.48	7.789
544.82	8.020
545.16	9.203
545.50	8.515
545.84	9.949
546.18	8.689
546.52	8.762
546.86	8.799
547.20	9.091
547.54	8.946
547.88	8.618
548.22	8.509
548.56	8.527
548.90	8.070
549.24	8.845
549.58	8.793
549.92	8.872
550.26	10.039
550.60	8.723
550.94	7.778
551.28	9.187
551.62	10.074
551.96	9.105
552.30	8.682
552.64	8.340
552.98	8.990
553.32	8.939
553.66	9.712
554.00	9.189
554.34	9.297
554.68	9.809
555.02	8.016
555.36	8.578
555.69	8.839
556.03	9.091
556.37	9.152
556.71	9.050
557.05	8.828
557.39	9.558
557.73	9.827
558.07	9.781
558.41	8.540
558.75	9.212
559.08	9.362
559.42	9.532
559.76	8.677
560.10	10.024
560.44	8.868
560.78	9.767
561.12	9.166
561.45	8.631
561.79	8.443
562.13	8.154
562.47	8.333
562.81	8.870
563.15	7.833
563.48	7.491
563.82	9.316
564.16	8.636
564.50	8.811
564.84	9.001
565.17	8.584
565.51	8.937
565.85	8.803
566.19	8.907
566.52	8.602
566.86	8.948
567.20	8.450
567.54	8.807
567.88	8.738
568.21	8.382
568.55	8.319
568.89	7.802
569.23	7.731
569.56	7.770
569.90	8.180
570.24	8.077
570.57	7.976
570.91	7.751
571.25	7.851
571.59	8.066
571.92	7.256
572.26	7.714
572.60	7.409
572.93	6.778
573.27	7.430
573.61	7.830
573.95	7.383
574.28	7.062
574.62	7.251
574.96	6.988
575.29	7.176
575.63	7.339
575.97	7.295
576.30	7.721
576.64	7.249
576.98	7.549
577.31	7.468
577.65	7.213
577.98	7.266
578.32	7.101
578.66	7.056
578.99	7.582
579.33	7.210
579.67	7.694
580.00	7.347
580.34	7.575
580.67	7.401
581.01	7.372
581.35	7.204
581.68	7.284
582.02	6.951
582.35	7.200
582.69	7.391
583.02	7.531
583.36	7.469
583.70	7.714
584.03	7.206
584.37	7.879
584.70	7.035
585.04	7.187
585.37	7.743
585.71	7.477
586.04	7.431
586.38	7.736
586.72	7.242
587.05	7.335
587.39	7.781
587.72	7.558
588.06	7.962
588.39	7.333
588.73	7.714
589.06	7.348
589.40	8.025
589.73	7.666
590.07	7.859
590.40	8.027
590.73	8.288
591.07	7.706
591.40	7.903
591.74	8.116
592.07	7.736
592.41	7.779
592.74	7.968
593.08	7.663
593.41	7.748
593.75	7.718
594.08	8.116
594.41	8.026
594.75	7.713
595.08	7.713
595.42	7.736
595.75	7.348
596.09	8.086
596.42	7.780
596.75	8.273
597.09	8.302
597.42	8.353
597.75	9.053
598.09	8.287
598.42	8.566
598.76	7.696
599.09	8.403
599.42	7.789
599.76	8.121
600.09	8.462
600.42	7.695
600.76	7.737
601.09	8.353
601.42	7.971
601.76	7.995
602.09	8.002
602.42	7.990
602.76	8.202
603.09	8.486
603.42	7.751
603.76	7.931
604.09	8.104
604.42	8.373
604.76	7.622
605.09	8.739
605.42	8.341
605.75	8.223
606.09	7.733
606.42	7.437
606.75	8.481
607.09	8.582
607.42	8.352
607.75	7.851
608.08	8.793
608.42	8.341
608.75	7.504
609.08	7.420
609.41	8.346
609.75	8.110
610.08	7.494
610.41	8.448
610.74	8.342
611.07	8.831
611.41	7.762
611.74	7.889
612.07	8.426
612.40	8.691
612.73	8.507
613.07	8.221
613.40	8.511
613.73	8.247
614.06	7.494
614.39	8.612
614.72	7.851
615.06	8.783
615.39	8.199
615.72	8.175
616.05	8.348
616.38	8.541
616.71	8.520
617.05	9.045
617.38	9.097
617.71	9.144
618.04	8.673
618.37	8.764
618.70	9.443
619.03	9.210
619.36	9.278
619.69	9.176
620.03	9.535
620.36	9.146
620.69	9.460
621.02	8.630
621.35	9.617
621.68	8.731
622.01	10.250
622.34	9.631
622.67	8.516
623.00	9.009
623.33	9.764
623.66	9.960
623.99	8.852
624.32	9.373
624.65	9.219
624.99	9.062
625.32	8.373
625.65	7.926
625.98	9.500
626.31	10.130
626.64	9.910
626.97	10.110
627.30	8.981
627.63	8.558
627.96	8.287
628.29	10.038
628.62	9.588
628.95	10.665
629.28	9.607
629.61	9.404
629.94	11.307
630.26	11.192
630.59	10.785
630.92	10.011
631.25	8.603
631.58	10.233
631.91	8.314
632.24	9.467
632.57	10.226
632.90	12.792
633.23	10.065
633.56	10.440
633.89	10.818
634.22	12.179
634.55	10.118
634.88	11.245
635.20	10.137
635.53	11.034
635.86	12.228
636.19	9.959
636.52	10.647
636.85	7.953
637.18	11.788
637.51	10.840
637.83	10.056
638.16	13.087
638.49	10.951
638.82	11.252
639.15	9.429
639.48	9.316
639.81	11.028
640.13	9.648
640.46	10.079
640.79	9.147
641.12	11.163
641.45	11.820
641.77	10.669
642.10	12.052
642.43	12.458
642.76	11.290
643.09	11.073
643.41	11.828
643.74	12.847
644.07	8.289
644.40	12.635
644.73	10.866
645.05	10.305
645.38	10.769
645.71	11.260
646.04	12.454
646.36	10.227
646.69	13.346
647.02	13.477
647.35	11.600
647.67	16.032
648.00	13.010
648.33	12.524
648.66	11.688
648.98	12.034
649.31	12.220
649.64	10.671
649.96	10.473
650.29	10.442
650.62	12.059
650.94	11.830
651.27	11.368
651.60	11.281
651.92	8.588
652.25	7.648
652.58	9.515
652.90	11.388
653.23	10.420
653.56	11.111
653.88	9.672
654.21	10.019
654.54	12.195
654.86	12.050
655.19	8.065
655.52	9.465
655.84	6.906
656.17	6.658
656.49	8.908
656.82	10.316
