SpectraSuite Data File
++++++++++++++++++++++++++++++++++++
Date: Wed May 13 19:48:09 PDT 2015
User: schluterlab
Dark Spectrum Present: Yes
Reference Spectrum Present: Yes
Number of Sampled Component Spectra: 1
Spectrometers: USB2E3373
Integration Time (usec): 3000 (USB2E3373)
Spectra Averaged: 3 (USB2E3373)
Boxcar Smoothing: 0 (USB2E3373)
Correct for Electrical Dark: No (USB2E3373)
Strobe/Lamp Enabled: No (USB2E3373)
Correct for Detector Non-linearity: No (USB2E3373)
Correct for Stray Light: No (USB2E3373)
Number of Pixels in Processed Spectrum: 2048
>>>>>Begin Processed Spectral Data<<<<<
178.53	0.000
178.91	-1250.000
179.29	-1400.000
179.67	-194.444
180.04	-1250.000
180.42	2700.000
180.80	900.000
181.18	-1050.000
181.56	700.000
181.94	0.000
182.31	-685.714
182.69	1800.000
183.07	-675.000
183.45	-544.444
183.83	536.364
184.20	-520.000
184.58	2350.000
184.96	5900.000
185.34	-1040.000
185.72	-575.000
186.09	-2500.000
186.47	2300.000
186.85	2100.000
187.23	5000.000
187.61	-1400.000
187.98	1150.000
188.36	672.727
188.74	572.727
189.12	-780.000
189.49	670.000
189.87	-5300.000
190.25	-1275.000
190.63	457.143
191.00	423.077
191.38	933.333
191.76	-1025.000
192.14	1575.000
192.51	612.500
192.89	1016.667
193.27	550.000
193.65	-1200.000
194.02	410.000
194.40	1040.000
194.78	560.000
195.15	450.000
195.53	600.000
195.91	-2050.000
196.29	350.000
196.66	347.368
197.04	-350.000
197.42	0.000
197.79	600.000
198.17	-4900.000
198.55	800.000
198.92	687.500
199.30	820.000
199.68	0.000
200.05	316.667
200.43	785.714
200.81	5100.000
201.18	1766.667
201.56	-1466.667
201.94	522.222
202.31	711.111
202.69	491.667
203.07	550.000
203.44	0.000
203.82	1250.000
204.19	871.429
204.57	450.000
204.95	675.000
205.32	1800.000
205.70	563.636
206.08	335.714
206.45	2850.000
206.83	362.500
207.20	866.667
207.58	900.000
207.96	355.556
208.33	787.500
208.71	-750.000
209.08	828.571
209.46	644.444
209.84	481.818
210.21	-1600.000
210.59	1500.000
210.96	-587.500
211.34	2500.000
211.71	640.000
212.09	800.000
212.46	0.000
212.84	1833.333
213.22	1250.000
213.59	-4700.000
213.97	883.333
214.34	842.857
214.72	627.273
215.09	1140.000
215.47	-2200.000
215.84	-2300.000
216.22	1900.000
216.59	414.286
216.97	1350.000
217.34	463.636
217.72	-716.667
218.09	0.000
218.47	-4600.000
218.84	600.000
219.22	857.143
219.59	1700.000
219.97	-600.000
220.34	920.000
220.72	-1866.667
221.09	450.000
221.47	1450.000
221.84	-1033.333
222.22	0.000
222.59	1525.000
222.97	-2500.000
223.34	1140.000
223.72	400.000
224.09	1120.000
224.46	2750.000
224.84	-5600.000
225.21	-1160.000
225.59	-5500.000
225.96	630.000
226.34	290.000
226.71	2950.000
227.08	537.500
227.46	570.000
227.83	-1175.000
228.21	-2650.000
228.58	588.889
228.95	-2650.000
229.33	-2000.000
229.70	1933.333
230.08	742.857
230.45	-980.000
230.82	500.000
231.20	833.333
231.57	685.714
231.95	525.000
232.32	277.273
232.69	400.000
233.07	785.714
233.44	376.923
233.81	-1533.333
234.19	310.526
234.56	333.333
234.93	400.000
235.31	481.818
235.68	400.000
236.05	435.714
236.43	181.818
236.80	268.421
237.17	3800.000
237.55	285.714
237.92	264.286
238.29	276.190
238.67	203.226
239.04	234.483
239.41	163.889
239.79	147.826
240.16	147.619
240.53	131.818
240.91	115.686
241.28	132.000
241.65	122.000
242.02	100.000
242.40	91.935
242.77	101.667
243.14	80.645
243.51	92.135
243.89	87.059
244.26	77.778
244.63	77.419
245.00	77.660
245.38	78.218
245.75	71.028
246.12	84.404
246.49	70.073
246.87	80.800
247.24	74.615
247.61	73.571
247.98	61.438
248.36	62.162
248.73	58.599
249.10	74.522
249.47	56.497
249.84	62.567
250.22	52.406
250.59	63.314
250.96	57.576
251.33	54.502
251.70	58.911
252.08	51.905
252.45	49.327
252.82	48.261
253.19	52.340
253.56	52.157
253.94	55.187
254.31	49.219
254.68	52.308
255.05	47.232
255.42	45.935
255.79	50.368
256.16	49.097
256.54	45.936
256.91	48.043
257.28	45.683
257.65	47.195
258.02	46.584
258.39	44.164
258.76	43.813
259.14	44.940
259.51	43.161
259.88	43.168
260.25	43.202
260.62	41.040
260.99	41.925
261.36	44.745
261.73	39.828
262.10	41.860
262.47	45.352
262.85	40.390
263.22	39.031
263.59	43.875
263.96	39.286
264.33	40.470
264.70	40.526
265.07	40.921
265.44	41.919
265.81	39.903
266.18	40.704
266.55	41.951
266.92	39.803
267.29	38.426
267.66	40.367
268.03	39.545
268.40	38.318
268.77	38.425
269.14	37.387
269.51	39.955
269.88	40.559
270.25	38.375
270.62	38.652
270.99	40.000
271.36	36.910
271.73	39.486
272.10	37.826
272.47	40.430
272.84	38.528
273.21	38.784
273.58	35.153
273.95	35.849
274.32	37.190
274.69	36.188
275.06	34.252
275.43	37.660
275.80	37.275
276.17	37.271
276.54	37.838
276.91	38.933
277.28	36.523
277.65	34.816
278.02	37.267
278.39	36.914
278.76	36.364
279.13	35.472
279.50	34.451
279.87	36.454
280.23	37.924
280.60	36.170
280.97	35.305
281.34	34.336
281.71	35.818
282.08	37.044
282.45	33.636
282.82	34.458
283.19	33.155
283.56	36.316
283.92	35.871
284.29	34.392
284.66	37.568
285.03	33.816
285.40	34.859
285.77	35.522
286.14	33.161
286.51	34.833
286.87	33.504
287.24	33.550
287.61	32.745
287.98	32.630
288.35	32.171
288.72	31.464
289.08	32.707
289.45	30.807
289.82	32.195
290.19	29.670
290.56	30.015
290.93	30.665
291.29	32.515
291.66	28.614
292.03	32.122
292.40	31.571
292.77	28.402
293.13	31.045
293.50	29.009
293.87	30.519
294.24	29.926
294.60	28.530
294.97	29.797
295.34	30.606
295.71	27.557
296.08	29.487
296.44	28.748
296.81	25.231
297.18	29.268
297.55	26.121
297.91	27.045
298.28	28.380
298.65	27.023
299.02	27.800
299.38	27.490
299.75	25.472
300.12	27.075
300.48	27.125
300.85	25.894
301.22	25.605
301.59	25.253
301.95	27.204
302.32	25.674
302.69	24.612
303.05	25.576
303.42	25.309
303.79	23.669
304.15	24.592
304.52	25.145
304.89	24.971
305.25	25.174
305.62	25.481
305.99	24.439
306.35	23.714
306.72	24.888
307.09	24.306
307.45	27.252
307.82	23.996
308.19	24.614
308.55	24.272
308.92	24.597
309.29	23.442
309.65	24.390
310.02	24.101
310.38	25.054
310.75	25.238
311.12	25.179
311.48	25.496
311.85	24.948
312.22	24.350
312.58	23.389
312.95	25.026
313.31	24.078
313.68	24.636
314.05	24.852
314.41	25.025
314.78	25.277
315.14	25.720
315.51	25.644
315.87	25.644
316.24	24.628
316.61	25.828
316.97	25.538
317.34	25.538
317.70	27.342
318.07	26.949
318.43	26.810
318.80	27.460
319.16	27.213
319.53	27.392
319.89	29.048
320.26	28.600
320.62	29.266
320.99	29.394
321.35	30.404
321.72	30.595
322.08	30.997
322.45	34.030
322.81	33.236
323.18	34.682
323.54	33.395
323.91	33.868
324.27	35.564
324.64	33.830
325.00	35.708
325.37	37.125
325.73	39.048
326.10	37.776
326.46	39.158
326.83	40.293
327.19	42.186
327.56	40.941
327.92	42.432
328.29	42.768
328.65	44.567
329.01	44.224
329.38	46.346
329.74	45.522
330.11	45.712
330.47	45.179
330.84	46.507
331.20	47.268
331.56	46.972
331.93	47.407
332.29	46.761
332.66	48.142
333.02	47.532
333.38	48.419
333.75	47.861
334.11	48.221
334.48	48.625
334.84	50.368
335.20	50.364
335.57	50.227
335.93	49.107
336.29	49.908
336.66	50.496
337.02	49.321
337.38	49.444
337.75	49.822
338.11	49.866
338.47	52.486
338.84	51.146
339.20	51.651
339.56	52.372
339.93	51.636
340.29	50.634
340.65	50.891
341.02	52.356
341.38	53.114
341.74	50.439
342.11	51.878
342.47	52.599
342.83	50.942
343.20	52.294
343.56	51.643
343.92	53.158
344.28	54.337
344.65	52.794
345.01	51.936
345.37	53.345
345.73	53.046
346.10	53.623
346.46	53.051
346.82	52.224
347.19	52.715
347.55	52.709
347.91	53.883
348.27	52.917
348.63	53.930
349.00	52.670
349.36	53.284
349.72	53.168
350.08	52.350
350.45	54.028
350.81	53.452
351.17	53.404
351.53	53.563
351.89	53.300
352.26	53.828
352.62	53.970
352.98	55.429
353.34	52.671
353.70	54.337
354.07	53.871
354.43	54.524
354.79	53.821
355.15	53.791
355.51	55.156
355.87	56.163
356.24	55.456
356.60	53.729
356.96	53.821
357.32	54.783
357.68	54.882
358.04	53.365
358.40	55.424
358.77	53.052
359.13	53.907
359.49	53.490
359.85	54.921
360.21	54.864
360.57	55.564
360.93	54.385
361.29	54.346
361.66	53.406
362.02	54.254
362.38	56.046
362.74	54.911
363.10	53.960
363.46	53.778
363.82	55.329
364.18	54.772
364.54	54.383
364.90	56.091
365.26	55.221
365.62	56.245
365.98	54.638
366.35	53.295
366.71	55.459
367.07	55.790
367.43	56.967
367.79	55.889
368.15	55.819
368.51	56.323
368.87	55.889
369.23	56.620
369.59	56.191
369.95	55.588
370.31	56.339
370.67	55.362
371.03	56.929
371.39	56.560
371.75	55.956
372.11	56.117
372.47	57.258
372.83	57.853
373.19	55.780
373.55	57.945
373.91	59.057
374.27	56.426
374.63	56.727
374.99	58.192
375.35	56.315
375.71	58.053
376.07	57.476
376.42	58.253
376.78	56.528
377.14	57.531
377.50	58.675
377.86	57.979
378.22	57.080
378.58	57.456
378.94	58.768
379.30	58.969
379.66	59.645
380.02	58.784
380.38	57.863
380.74	58.884
381.09	58.985
381.45	59.435
381.81	59.337
382.17	59.809
382.53	59.560
382.89	59.568
383.25	60.413
383.61	61.586
383.97	59.787
384.32	59.638
384.68	59.727
385.04	59.557
385.40	60.186
385.76	60.074
386.12	61.075
386.48	61.359
386.83	62.155
387.19	62.894
387.55	61.719
387.91	61.548
388.27	60.822
388.62	61.709
388.98	59.337
389.34	60.388
389.70	61.128
390.06	62.104
390.42	62.322
390.77	62.595
391.13	62.348
391.49	62.563
391.85	61.426
392.20	61.893
392.56	63.699
392.92	62.448
393.28	61.657
393.64	61.451
393.99	61.393
394.35	61.787
394.71	61.920
395.07	60.748
395.42	63.164
395.78	62.087
396.14	60.397
396.50	63.534
396.85	63.255
397.21	61.344
397.57	61.562
397.92	63.401
398.28	60.930
398.64	62.843
399.00	60.660
399.35	61.421
399.71	62.384
400.07	62.744
400.42	61.840
400.78	61.882
401.14	62.744
401.49	62.925
401.85	61.645
402.21	60.838
402.57	62.739
402.92	62.863
403.28	61.212
403.63	61.386
403.99	61.529
404.35	61.455
404.70	60.731
405.06	62.376
405.42	60.886
405.77	60.571
406.13	59.650
406.49	61.975
406.84	61.488
407.20	61.111
407.55	62.029
407.91	63.067
408.27	62.093
408.62	59.843
408.98	61.581
409.34	61.070
409.69	61.613
410.05	60.781
410.40	60.367
410.76	60.753
411.11	61.037
411.47	60.703
411.83	61.881
412.18	60.297
412.54	62.017
412.89	60.964
413.25	60.390
413.60	60.346
413.96	58.470
414.31	60.875
414.67	60.330
415.03	60.530
415.38	60.052
415.74	59.743
416.09	62.051
416.45	60.442
416.80	61.071
417.16	61.729
417.51	61.048
417.87	59.538
418.22	59.937
418.58	61.007
418.93	60.565
419.29	59.325
419.64	60.579
420.00	57.866
420.35	60.290
420.71	59.892
421.06	58.771
421.42	58.480
421.77	59.305
422.12	59.349
422.48	59.147
422.83	58.649
423.19	58.011
423.54	60.244
423.90	58.493
424.25	59.241
424.61	59.405
424.96	60.350
425.31	58.140
425.67	57.584
426.02	57.943
426.38	59.768
426.73	58.631
427.09	59.149
427.44	58.884
427.79	59.517
428.15	59.643
428.50	57.929
428.85	58.582
429.21	58.145
429.56	56.091
429.92	57.574
430.27	57.051
430.62	56.733
430.98	57.032
431.33	57.010
431.68	58.063
432.04	56.496
432.39	57.967
432.74	59.007
433.10	59.253
433.45	59.184
433.80	58.093
434.16	56.517
434.51	57.895
434.86	57.355
435.22	57.032
435.57	59.210
435.92	58.280
436.28	58.185
436.63	57.340
436.98	57.527
437.34	57.782
437.69	58.460
438.04	58.797
438.39	58.269
438.75	58.164
439.10	58.939
439.45	57.733
439.81	59.094
440.16	57.425
440.51	57.001
440.86	58.193
441.22	57.175
441.57	56.847
441.92	56.755
442.27	57.104
442.63	56.345
442.98	57.972
443.33	56.522
443.68	57.099
444.03	56.711
444.39	56.378
444.74	57.035
445.09	57.574
445.44	56.479
445.79	56.210
446.15	56.167
446.50	56.489
446.85	56.269
447.20	56.196
447.55	57.845
447.91	56.922
448.26	56.205
448.61	56.812
448.96	57.420
449.31	57.537
449.66	54.924
450.02	55.933
450.37	55.329
450.72	56.571
451.07	55.393
451.42	55.015
451.77	57.076
452.12	55.370
452.47	56.343
452.83	55.594
453.18	56.051
453.53	56.895
453.88	55.405
454.23	55.529
454.58	56.390
454.93	56.961
455.28	55.549
455.63	55.886
455.98	57.976
456.34	56.407
456.69	54.477
457.04	56.409
457.39	54.880
457.74	55.194
458.09	55.032
458.44	54.447
458.79	54.393
459.14	54.515
459.49	55.283
459.84	54.127
460.19	53.212
460.54	53.588
460.89	54.909
461.24	55.677
461.59	55.665
461.94	53.576
462.29	54.837
462.64	53.350
462.99	53.481
463.34	56.133
463.69	54.722
464.04	52.580
464.39	53.739
464.74	53.060
465.09	53.378
465.44	52.299
465.79	52.405
466.14	52.436
466.49	52.892
466.84	52.423
467.19	52.625
467.54	53.812
467.89	53.181
468.24	52.298
468.59	54.029
468.94	52.596
469.29	53.792
469.64	55.020
469.99	53.518
470.34	53.765
470.68	54.095
471.03	53.061
471.38	53.996
471.73	53.698
472.08	53.684
472.43	52.827
472.78	52.930
473.13	52.118
473.48	52.497
473.83	52.317
474.17	52.209
474.52	53.722
474.87	52.715
475.22	53.047
475.57	50.296
475.92	51.779
476.27	50.225
476.61	51.462
476.96	50.797
477.31	51.387
477.66	50.985
478.01	49.869
478.36	51.243
478.70	50.363
479.05	51.491
479.40	50.716
479.75	50.686
480.10	50.646
480.45	49.643
480.79	48.495
481.14	50.538
481.49	49.739
481.84	49.703
482.19	48.796
482.53	48.624
482.88	48.953
483.23	49.907
483.58	50.182
483.92	49.625
484.27	47.930
484.62	48.190
484.97	48.522
485.31	48.767
485.66	46.288
486.01	44.307
486.36	43.136
486.70	43.357
487.05	44.993
487.40	45.710
487.75	46.824
488.09	48.044
488.44	47.865
488.79	48.861
489.13	49.236
489.48	48.409
489.83	48.640
490.17	48.531
490.52	47.874
490.87	48.349
491.22	47.840
491.56	47.927
491.91	47.976
492.26	46.853
492.60	47.604
492.95	47.428
493.30	48.271
493.64	47.783
493.99	46.797
494.34	47.502
494.68	46.429
495.03	47.321
495.37	46.114
495.72	48.002
496.07	47.146
496.41	45.575
496.76	45.998
497.11	45.835
497.45	46.716
497.80	47.073
498.14	47.198
498.49	47.707
498.84	46.357
499.18	46.143
499.53	46.154
499.87	45.946
500.22	46.350
500.56	47.184
500.91	46.202
501.26	46.610
501.60	47.129
501.95	45.600
502.29	46.251
502.64	46.229
502.98	45.442
503.33	45.018
503.67	45.058
504.02	45.182
504.36	44.736
504.71	46.263
505.06	44.530
505.40	45.017
505.75	44.696
506.09	45.141
506.44	46.078
506.78	45.592
507.13	45.583
507.47	45.808
507.82	45.491
508.16	46.302
508.51	44.901
508.85	45.084
509.19	44.694
509.54	44.592
509.88	44.410
510.23	44.627
510.57	45.304
510.92	45.313
511.26	43.525
511.61	45.021
511.95	43.424
512.30	45.334
512.64	43.847
512.98	44.855
513.33	44.379
513.67	44.023
514.02	44.805
514.36	45.877
514.70	44.881
515.05	44.730
515.39	46.046
515.74	45.270
516.08	46.003
516.42	44.784
516.77	45.262
517.11	44.728
517.46	45.655
517.80	44.715
518.14	44.239
518.49	45.974
518.83	44.148
519.17	44.284
519.52	44.029
519.86	44.324
520.20	44.740
520.55	45.063
520.89	44.465
521.23	44.511
521.58	44.838
521.92	45.070
522.26	43.563
522.61	45.296
522.95	45.181
523.29	44.918
523.64	45.366
523.98	43.808
524.32	44.692
524.66	43.656
525.01	44.301
525.35	44.238
525.69	43.473
526.04	44.174
526.38	42.953
526.72	43.742
527.06	44.570
527.41	42.698
527.75	44.244
528.09	44.188
528.43	43.850
528.78	43.823
529.12	42.848
529.46	43.295
529.80	43.502
530.15	44.424
530.49	41.969
530.83	43.101
531.17	44.974
531.51	44.812
531.86	43.419
532.20	43.286
532.54	43.818
532.88	42.875
533.22	42.161
533.57	41.481
533.91	41.842
534.25	43.439
534.59	41.489
534.93	42.118
535.27	41.400
535.62	43.162
535.96	42.310
536.30	42.912
536.64	42.176
536.98	42.269
537.32	42.989
537.66	41.067
538.01	42.133
538.35	42.986
538.69	42.055
539.03	41.196
539.37	40.447
539.71	40.570
540.05	41.895
540.39	42.259
540.73	41.915
541.07	41.142
541.42	42.727
541.76	42.000
542.10	42.238
542.44	42.053
542.78	42.490
543.12	41.395
543.46	41.443
543.80	42.030
544.14	40.886
544.48	41.397
544.82	40.988
545.16	41.249
545.50	40.167
545.84	42.406
546.18	41.886
546.52	42.120
546.86	41.237
547.20	40.256
547.54	41.550
547.88	42.219
548.22	40.535
548.56	40.692
548.90	39.821
549.24	41.549
549.58	39.359
549.92	41.552
550.26	41.335
550.60	40.526
550.94	41.690
551.28	41.478
551.62	42.344
551.96	41.544
552.30	40.751
552.64	40.365
552.98	40.949
553.32	39.784
553.66	40.968
554.00	40.975
554.34	40.097
554.68	41.345
555.02	41.961
555.36	40.501
555.69	40.054
556.03	39.704
556.37	40.177
556.71	40.109
557.05	40.336
557.39	39.958
557.73	40.649
558.07	40.682
558.41	41.172
558.75	40.338
559.08	41.462
559.42	41.875
559.76	40.441
560.10	40.114
560.44	40.461
560.78	38.789
561.12	39.908
561.45	39.765
561.79	39.420
562.13	39.370
562.47	39.481
562.81	40.307
563.15	38.328
563.48	40.252
563.82	39.530
564.16	39.241
564.50	38.737
564.84	38.180
565.17	39.575
565.51	39.808
565.85	38.579
566.19	38.322
566.52	38.632
566.86	38.939
567.20	38.502
567.54	38.071
567.88	36.828
568.21	36.931
568.55	37.209
568.89	36.868
569.23	35.517
569.56	35.061
569.90	35.094
570.24	35.773
570.57	34.886
570.91	34.098
571.25	33.694
571.59	34.080
571.92	33.813
572.26	33.824
572.60	34.535
572.93	33.703
573.27	33.984
573.61	33.585
573.95	34.289
574.28	33.216
574.62	33.163
574.96	32.664
575.29	33.220
575.63	33.155
575.97	33.142
576.30	32.634
576.64	33.131
576.98	32.766
577.31	32.417
577.65	32.530
577.98	32.589
578.32	32.089
578.66	32.327
578.99	33.052
579.33	32.849
579.67	32.547
580.00	32.534
580.34	33.151
580.67	32.900
581.01	32.899
581.35	31.990
581.68	32.044
582.02	31.328
582.35	31.700
582.69	31.893
583.02	32.203
583.36	32.949
583.70	33.242
584.03	33.307
584.37	33.228
584.70	33.934
585.04	32.583
585.37	32.852
585.71	32.754
586.04	32.544
586.38	32.341
586.72	33.306
587.05	32.301
587.39	32.084
587.72	32.569
588.06	33.138
588.39	32.949
588.73	32.796
589.06	33.998
589.40	33.737
589.73	33.685
590.07	33.772
590.40	33.613
590.73	35.129
591.07	35.368
591.40	34.795
591.74	35.455
592.07	33.988
592.41	33.278
592.74	32.659
593.08	32.145
593.41	32.173
593.75	31.636
594.08	32.585
594.41	32.450
594.75	32.643
595.08	32.677
595.42	33.065
595.75	33.084
596.09	33.909
596.42	34.263
596.75	34.234
597.09	35.022
597.42	32.546
597.75	33.851
598.09	33.565
598.42	32.560
598.76	32.793
599.09	32.231
599.42	32.242
599.76	32.467
600.09	32.459
600.42	31.958
600.76	31.536
601.09	31.985
601.42	32.040
601.76	32.296
602.09	32.451
602.42	33.201
602.76	33.011
603.09	33.163
603.42	33.073
603.76	32.660
604.09	32.416
604.42	32.532
604.76	33.488
605.09	34.032
605.42	32.108
605.75	33.278
606.09	31.720
606.42	32.489
606.75	33.015
607.09	32.482
607.42	32.863
607.75	32.447
608.08	32.002
608.42	33.483
608.75	32.191
609.08	31.915
609.41	33.317
609.75	33.063
610.08	32.941
610.41	32.263
610.74	32.450
611.07	33.794
611.41	32.924
611.74	33.987
612.07	33.282
612.40	34.155
612.73	32.684
613.07	34.159
613.40	34.281
613.73	33.036
614.06	34.247
614.39	32.407
614.72	32.789
615.06	33.456
615.39	33.280
615.72	32.924
616.05	32.217
616.38	33.797
616.71	34.204
617.05	33.804
617.38	33.494
617.71	34.775
618.04	34.195
618.37	33.944
618.70	34.910
619.03	35.132
619.36	34.963
619.69	35.070
620.03	35.783
620.36	34.225
620.69	35.616
621.02	34.956
621.35	34.926
621.68	34.190
622.01	34.675
622.34	35.098
622.67	35.361
623.00	34.409
623.33	33.810
623.66	34.882
623.99	35.935
624.32	34.451
624.65	34.534
624.99	33.428
625.32	33.816
625.65	33.959
625.98	35.204
626.31	35.148
626.64	36.408
626.97	36.575
627.30	34.663
627.63	35.849
627.96	35.828
628.29	35.083
628.62	36.962
628.95	38.113
629.28	36.588
629.61	37.489
629.94	37.905
630.26	35.748
630.59	35.939
630.92	36.015
