SpectraSuite Data File
++++++++++++++++++++++++++++++++++++
Date: Tue May 12 19:41:04 PDT 2015
User: schluterlab
Dark Spectrum Present: Yes
Reference Spectrum Present: Yes
Number of Sampled Component Spectra: 1
Spectrometers: USB2E3373
Integration Time (usec): 3000 (USB2E3373)
Spectra Averaged: 3 (USB2E3373)
Boxcar Smoothing: 0 (USB2E3373)
Correct for Electrical Dark: No (USB2E3373)
Strobe/Lamp Enabled: No (USB2E3373)
Correct for Detector Non-linearity: No (USB2E3373)
Correct for Stray Light: No (USB2E3373)
Number of Pixels in Processed Spectrum: 2048
>>>>>Begin Processed Spectral Data<<<<<
178.53	0.000
178.91	-80.000
179.29	-183.333
179.67	333.333
180.04	0.000
180.42	-120.000
180.80	-166.667
181.18	800.000
181.56	-150.000
181.94	16.667
182.31	1600.000
182.69	-71.429
183.07	0.000
183.45	191.667
183.83	240.000
184.20	316.667
184.58	150.000
184.96	266.667
185.34	-266.667
185.72	-100.000
186.09	-50.000
186.47	-1300.000
186.85	40.000
187.23	108.333
187.61	-157.143
187.98	-180.000
188.36	400.000
188.74	-75.000
189.12	-11.111
189.49	40.000
189.87	150.000
190.25	122.222
190.63	400.000
191.00	180.000
191.38	-566.667
191.76	380.000
192.14	85.714
192.51	-30.000
192.89	-100.000
193.27	-20.000
193.65	-200.000
194.02	-216.667
194.40	200.000
194.78	-75.000
195.15	-171.429
195.53	233.333
195.91	180.000
196.29	-350.000
196.66	-100.000
197.04	-71.429
197.42	200.000
197.79	-87.500
198.17	-16.667
198.55	-300.000
198.92	-100.000
199.30	300.000
199.68	75.000
200.05	-650.000
200.43	5.556
200.81	-33.333
201.18	233.333
201.56	-100.000
201.94	-1000.000
202.31	16.667
202.69	0.000
203.07	58.333
203.44	-400.000
203.82	0.000
204.19	187.500
204.57	-266.667
204.95	100.000
205.32	100.000
205.70	200.000
206.08	-700.000
206.45	-120.000
206.83	1100.000
207.20	-88.889
207.58	38.462
207.96	33.333
208.33	466.667
208.71	500.000
209.08	350.000
209.46	-66.667
209.84	166.667
210.21	-533.333
210.59	-50.000
210.96	244.444
211.34	-250.000
211.71	600.000
212.09	120.000
212.46	-137.500
212.84	-125.000
213.22	100.000
213.59	-25.000
213.97	0.000
214.34	-50.000
214.72	-1300.000
215.09	500.000
215.47	-20.000
215.84	37.500
216.22	-200.000
216.59	-0.000
216.97	8.333
217.34	150.000
217.72	11.111
218.09	300.000
218.47	-31.579
218.84	-100.000
219.22	7.143
219.59	-150.000
219.97	-50.000
220.34	200.000
220.72	81.818
221.09	-100.000
221.47	0.000
221.84	-0.000
222.22	-175.000
222.59	-50.000
222.97	-34.783
223.34	120.000
223.72	142.857
224.09	-66.667
224.46	92.308
224.84	-20.000
225.21	-100.000
225.59	0.000
225.96	35.000
226.34	250.000
226.71	100.000
227.08	84.615
227.46	-57.143
227.83	0.000
228.21	-550.000
228.58	-0.000
228.95	26.316
229.33	6.250
229.70	-66.667
230.08	-88.889
230.45	-400.000
230.82	-1000.000
231.20	76.190
231.57	-220.000
231.95	-100.000
232.32	200.000
232.69	-450.000
233.07	31.250
233.44	-37.500
233.81	25.806
234.19	-20.000
234.56	11.111
234.93	-150.000
235.31	62.963
235.68	14.815
236.05	61.538
236.43	-10.526
236.80	9.091
237.17	0.000
237.55	-20.000
237.92	55.814
238.29	45.161
238.67	57.143
239.04	77.143
239.41	58.824
239.79	42.000
240.16	70.000
240.53	44.828
240.91	47.945
241.28	40.845
241.65	56.250
242.02	57.895
242.40	37.333
242.77	48.421
243.14	62.353
243.51	47.312
243.89	52.381
244.26	46.296
244.63	58.163
245.00	43.750
245.38	41.176
245.75	56.780
246.12	52.344
246.49	54.400
246.87	50.820
247.24	45.775
247.61	52.980
247.98	44.944
248.36	59.119
248.73	50.568
249.10	57.778
249.47	55.729
249.84	51.777
250.22	52.083
250.59	56.742
250.96	54.545
251.33	62.736
251.70	57.339
252.08	58.874
252.45	50.204
252.82	56.540
253.19	55.253
253.56	58.824
253.94	58.130
254.31	62.230
254.68	53.819
255.05	56.291
255.42	59.273
255.79	61.258
256.16	58.333
256.54	52.424
256.91	58.974
257.28	56.494
257.65	60.656
258.02	55.856
258.39	55.589
258.76	55.352
259.14	56.471
259.51	56.620
259.88	58.501
260.25	57.955
260.62	53.371
260.99	58.496
261.36	62.069
261.73	58.400
262.10	59.946
262.47	59.229
262.85	56.555
263.22	57.796
263.59	62.198
263.96	61.619
264.33	54.987
264.70	57.494
265.07	56.404
265.44	60.656
265.81	59.759
266.18	60.890
266.55	64.048
266.92	56.920
267.29	58.667
267.66	55.455
268.03	59.355
268.40	61.327
268.77	57.238
269.14	56.092
269.51	57.466
269.88	57.051
270.25	52.954
270.62	60.504
270.99	57.263
271.36	58.720
271.73	55.208
272.10	57.676
272.47	56.800
272.84	56.263
273.21	54.697
273.58	55.306
273.95	54.980
274.32	55.513
274.69	53.033
275.06	54.972
275.43	54.000
275.80	58.509
276.17	56.719
276.54	57.034
276.91	58.349
277.28	58.607
277.65	56.522
278.02	55.682
278.39	58.439
278.76	57.914
279.13	61.181
279.50	56.318
279.87	56.604
280.23	57.377
280.60	54.947
280.97	56.591
281.34	53.898
281.71	53.819
282.08	54.383
282.45	55.556
282.82	54.040
283.19	54.714
283.56	57.338
283.92	54.502
284.29	55.161
284.66	54.513
285.03	53.173
285.40	53.333
285.77	55.008
286.14	50.713
286.51	52.572
286.87	53.160
287.24	50.801
287.61	51.543
287.98	54.930
288.35	52.558
288.72	52.141
289.08	52.358
289.45	51.482
289.82	49.224
290.19	52.121
290.56	50.362
290.93	50.960
291.29	50.071
291.66	50.281
292.03	50.215
292.40	49.496
292.77	48.834
293.13	45.815
293.50	49.174
293.87	48.405
294.24	47.191
294.60	46.858
294.97	45.568
295.34	46.849
295.71	46.463
296.08	44.945
296.44	44.928
296.81	45.408
297.18	47.348
297.55	45.854
297.91	44.797
298.28	45.652
298.65	42.691
299.02	43.650
299.38	43.112
299.75	45.560
300.12	42.686
300.48	41.197
300.85	42.176
301.22	42.788
301.59	42.944
301.95	41.585
302.32	43.256
302.69	39.952
303.05	41.795
303.42	42.029
303.79	39.775
304.15	42.356
304.52	40.335
304.89	40.586
305.25	41.628
305.62	41.477
305.99	39.530
306.35	41.275
306.72	41.068
307.09	38.955
307.45	40.129
307.82	40.128
308.19	39.494
308.55	39.979
308.92	41.419
309.29	40.900
309.65	39.628
310.02	39.099
310.38	41.151
310.75	40.779
311.12	39.776
311.48	41.007
311.85	40.122
312.22	40.702
312.58	39.074
312.95	40.041
313.31	38.446
313.68	39.523
314.05	40.814
314.41	38.998
314.78	39.799
315.14	38.394
315.51	39.722
315.87	42.383
316.24	40.455
316.61	40.777
316.97	40.392
317.34	40.766
317.70	40.710
318.07	40.984
318.43	40.926
318.80	38.889
319.16	39.609
319.53	40.943
319.89	41.761
320.26	41.396
320.62	42.926
320.99	42.551
321.35	40.711
321.72	42.222
322.08	42.079
322.45	42.702
322.81	42.956
323.18	42.090
323.54	42.275
323.91	42.694
324.27	41.562
324.64	42.268
325.00	41.310
325.37	42.086
325.73	40.785
326.10	40.368
326.46	42.520
326.83	45.383
327.19	44.279
327.56	46.154
327.92	42.795
328.29	43.459
328.65	44.256
329.01	43.578
329.38	43.067
329.74	44.290
330.11	43.243
330.47	43.203
330.84	43.703
331.20	42.976
331.56	43.302
331.93	41.720
332.29	44.681
332.66	44.304
333.02	41.411
333.38	43.658
333.75	44.190
334.11	42.857
334.48	42.039
334.84	44.131
335.20	42.435
335.57	43.869
335.93	43.721
336.29	44.516
336.66	43.716
337.02	43.608
337.38	43.585
337.75	43.545
338.11	45.214
338.47	44.475
338.84	44.107
339.20	45.188
339.56	45.760
339.93	43.243
340.29	44.424
340.65	44.384
341.02	43.490
341.38	45.190
341.74	44.751
342.11	45.447
342.47	44.668
342.83	45.707
343.20	45.447
343.56	46.503
343.92	46.194
344.28	44.854
344.65	44.949
345.01	45.993
345.37	47.009
345.73	47.028
346.10	47.623
346.46	47.541
346.82	48.343
347.19	48.612
347.55	48.895
347.91	48.731
348.27	49.874
348.63	49.092
349.00	49.583
349.36	48.063
349.72	48.686
350.08	49.509
350.45	50.041
350.81	49.546
351.17	49.918
351.53	50.161
351.89	50.604
352.26	49.756
352.62	51.594
352.98	50.962
353.34	50.376
353.70	50.700
354.07	52.306
354.43	50.751
354.79	52.541
355.15	51.009
355.51	53.056
355.87	53.539
356.24	52.696
356.60	52.838
356.96	50.869
357.32	53.663
357.68	53.063
358.04	52.512
358.40	53.191
358.77	53.092
359.13	53.574
359.49	53.200
359.85	52.758
360.21	53.688
360.57	53.509
360.93	53.365
361.29	54.050
361.66	53.943
362.02	54.631
362.38	54.235
362.74	54.804
363.10	53.017
363.46	53.424
363.82	54.135
364.18	53.369
364.54	53.969
364.90	54.296
365.26	56.557
365.62	55.034
365.98	56.297
366.35	55.673
366.71	56.535
367.07	55.793
367.43	54.152
367.79	54.869
368.15	55.967
368.51	56.929
368.87	57.636
369.23	57.456
369.59	56.103
369.95	55.589
370.31	57.879
370.67	56.015
371.03	56.656
371.39	58.233
371.75	55.646
372.11	57.630
372.47	56.347
372.83	57.268
373.19	58.434
373.55	57.859
373.91	58.788
374.27	58.352
374.63	59.205
374.99	58.785
375.35	58.345
375.71	58.895
376.07	57.173
376.42	58.506
376.78	58.815
377.14	59.218
377.50	59.166
377.86	59.262
378.22	59.709
378.58	60.724
378.94	60.380
379.30	60.103
379.66	58.899
380.02	60.521
380.38	60.941
380.74	60.162
381.09	61.753
381.45	61.143
381.81	61.480
382.17	61.629
382.53	63.577
382.89	61.450
383.25	60.748
383.61	61.920
383.97	62.313
384.32	61.677
384.68	62.644
385.04	61.871
385.40	61.661
385.76	64.200
386.12	62.970
386.48	64.057
386.83	63.924
387.19	65.453
387.55	64.508
387.91	63.427
388.27	63.532
388.62	65.479
388.98	65.967
389.34	65.192
389.70	65.705
390.06	64.686
390.42	66.599
390.77	65.594
391.13	66.168
391.49	66.914
391.85	66.401
392.20	66.601
392.56	65.095
392.92	67.285
393.28	65.829
393.64	68.398
393.99	66.753
394.35	68.332
394.71	66.159
395.07	68.369
395.42	67.683
395.78	67.809
396.14	68.155
396.50	67.982
396.85	67.944
397.21	67.206
397.57	68.993
397.92	69.148
398.28	70.084
398.64	69.143
399.00	68.601
399.35	68.406
399.71	68.443
400.07	69.673
400.42	71.410
400.78	71.529
401.14	69.634
401.49	70.831
401.85	70.984
402.21	72.145
402.57	69.736
402.92	71.315
403.28	70.481
403.63	70.705
403.99	71.136
404.35	69.172
404.70	71.881
405.06	72.288
405.42	71.893
405.77	70.452
406.13	71.087
406.49	71.609
406.84	71.918
407.20	70.508
407.55	71.209
407.91	73.077
408.27	73.271
408.62	70.997
408.98	72.844
409.34	71.127
409.69	71.237
410.05	72.215
410.40	71.869
410.76	72.354
411.11	72.657
411.47	72.245
411.83	71.024
412.18	71.662
412.54	71.151
412.89	72.539
413.25	72.727
413.60	73.087
413.96	72.492
414.31	72.467
414.67	74.814
415.03	71.438
415.38	73.816
415.74	72.330
416.09	72.433
416.45	74.522
416.80	72.531
417.16	72.920
417.51	73.768
417.87	74.692
418.22	72.861
418.58	74.015
418.93	73.694
419.29	73.406
419.64	75.206
420.00	74.460
420.35	73.949
420.71	75.096
421.06	75.276
421.42	73.902
421.77	75.396
422.12	72.357
422.48	74.415
422.83	74.468
423.19	73.353
423.54	74.282
423.90	75.031
424.25	76.314
424.61	73.871
424.96	74.140
425.31	75.121
425.67	74.303
426.02	74.099
426.38	75.547
426.73	73.333
427.09	75.903
427.44	76.173
427.79	75.619
428.15	74.889
428.50	74.874
428.85	73.894
429.21	76.330
429.56	74.365
429.92	73.770
430.27	74.720
430.62	74.094
430.98	74.637
431.33	75.306
431.68	75.547
432.04	76.007
432.39	73.678
432.74	75.269
433.10	75.985
433.45	76.694
433.80	74.464
434.16	74.684
434.51	74.582
434.86	76.073
435.22	75.320
435.57	76.913
435.92	75.418
436.28	74.720
436.63	76.744
436.98	76.914
437.34	77.095
437.69	75.864
438.04	76.562
438.39	75.065
438.75	74.708
439.10	77.738
439.45	76.958
439.81	74.095
440.16	76.933
440.51	74.969
440.86	77.399
441.22	75.342
441.57	76.296
441.92	78.189
442.27	75.200
442.63	76.072
442.98	77.812
443.33	76.968
443.68	75.652
444.03	74.794
444.39	75.794
444.74	74.299
445.09	75.266
445.44	75.452
445.79	76.321
446.15	76.327
446.50	75.130
446.85	75.303
447.20	75.875
447.55	74.578
447.91	75.544
448.26	75.193
448.61	75.166
448.96	75.577
449.31	74.985
449.66	74.274
450.02	73.373
450.37	75.820
450.72	75.404
451.07	75.808
451.42	76.877
451.77	75.536
452.12	74.499
452.47	77.236
452.83	75.093
453.18	74.679
453.53	76.682
453.88	76.324
454.23	75.016
454.58	75.000
454.93	74.319
455.28	75.356
455.63	75.179
455.98	75.952
456.34	75.218
456.69	75.085
457.04	75.394
457.39	74.594
457.74	75.790
458.09	74.611
458.44	76.395
458.79	75.501
459.14	73.226
459.49	75.987
459.84	74.435
460.19	74.171
460.54	72.348
460.89	74.000
461.24	74.481
461.59	75.899
461.94	74.885
462.29	73.810
462.64	75.557
462.99	74.547
463.34	74.579
463.69	75.789
464.04	75.176
464.39	75.498
464.74	72.875
465.09	73.055
465.44	72.406
465.79	73.406
466.14	72.196
466.49	73.052
466.84	73.219
467.19	72.775
467.54	71.154
467.89	72.110
468.24	72.412
468.59	71.531
468.94	73.705
469.29	72.941
469.64	72.356
469.99	73.324
470.34	71.146
470.68	72.000
471.03	69.854
471.38	71.204
471.73	71.221
472.08	72.384
472.43	73.306
472.78	70.558
473.13	71.789
473.48	71.300
473.83	71.202
474.17	72.181
474.52	72.271
474.87	70.013
475.22	72.300
475.57	71.739
475.92	69.642
476.27	70.524
476.61	69.799
476.96	71.429
477.31	72.032
477.66	70.715
478.01	69.806
478.36	69.628
478.70	70.535
479.05	69.588
479.40	70.978
479.75	71.060
480.10	70.671
480.45	70.942
480.79	69.331
481.14	69.109
481.49	69.357
481.84	70.808
482.19	68.585
482.53	69.706
482.88	68.582
483.23	68.593
483.58	68.762
483.92	68.090
484.27	68.587
484.62	68.600
484.97	67.091
485.31	68.020
485.66	68.491
486.01	67.765
486.36	68.024
486.70	68.075
487.05	67.461
487.40	67.223
487.75	66.075
488.09	65.257
488.44	66.160
488.79	65.864
489.13	68.953
489.48	65.283
489.83	66.343
490.17	66.995
490.52	67.113
490.87	68.002
491.22	65.976
491.56	66.156
491.91	66.014
492.26	67.976
492.60	65.816
492.95	66.170
493.30	66.963
493.64	65.720
493.99	65.452
494.34	65.839
494.68	66.204
495.03	65.365
495.37	64.622
495.72	64.821
496.07	64.909
496.41	64.526
496.76	64.852
497.11	64.943
497.45	64.591
497.80	64.434
498.14	64.203
498.49	65.350
498.84	63.627
499.18	63.985
499.53	64.538
499.87	64.158
500.22	64.987
500.56	65.254
500.91	63.922
501.26	64.252
501.60	63.303
501.95	64.739
502.29	64.802
502.64	62.220
502.98	62.241
503.33	62.007
503.67	63.502
504.02	63.534
504.36	62.712
504.71	62.447
505.06	63.524
505.40	63.592
505.75	61.243
506.09	63.272
506.44	62.983
506.78	62.741
507.13	62.704
507.47	63.047
507.82	61.719
508.16	61.693
508.51	61.871
508.85	61.813
509.19	61.437
509.54	63.059
509.88	62.543
510.23	61.404
510.57	60.704
510.92	61.905
511.26	61.804
511.61	61.073
511.95	59.514
512.30	60.696
512.64	59.824
512.98	62.256
513.33	59.672
513.67	59.162
514.02	60.757
514.36	60.261
514.70	60.595
515.05	59.756
515.39	61.982
515.74	60.965
516.08	59.761
516.42	61.342
516.77	60.870
517.11	59.817
517.46	60.150
517.80	60.179
518.14	59.709
518.49	60.673
518.83	60.636
519.17	60.540
519.52	60.275
519.86	60.798
520.20	58.535
520.55	59.073
520.89	59.447
521.23	58.250
521.58	58.730
521.92	58.278
522.26	58.763
522.61	59.249
522.95	58.014
523.29	58.097
523.64	58.616
523.98	57.863
524.32	57.778
524.66	58.804
525.01	61.237
525.35	58.687
525.69	58.293
526.04	59.901
526.38	57.916
526.72	58.194
527.06	59.212
527.41	59.674
527.75	59.512
528.09	56.223
528.43	56.414
528.78	57.093
529.12	57.945
529.46	56.744
529.80	57.318
530.15	58.235
530.49	56.904
530.83	58.713
531.17	56.073
531.51	58.030
531.86	56.653
532.20	56.566
532.54	57.266
532.88	55.564
533.22	56.322
533.57	56.345
533.91	56.986
534.25	56.415
534.59	57.703
534.93	56.279
535.27	55.084
535.62	54.760
535.96	55.897
536.30	55.254
536.64	55.651
536.98	55.900
537.32	56.176
537.66	53.739
538.01	55.965
538.35	55.055
538.69	54.494
539.03	55.011
539.37	55.635
539.71	55.580
540.05	54.993
540.39	55.338
540.73	55.385
541.07	54.191
541.42	54.312
541.76	55.036
542.10	53.802
542.44	54.191
542.78	53.886
543.12	52.563
543.46	55.291
543.80	53.538
544.14	53.978
544.48	52.842
544.82	54.436
545.16	54.275
545.50	55.531
545.84	54.060
546.18	53.558
546.52	53.882
546.86	53.940
547.20	53.712
547.54	52.767
547.88	52.991
548.22	53.586
548.56	52.784
548.90	53.263
549.24	52.412
549.58	52.235
549.92	53.233
550.26	53.050
550.60	52.657
550.94	53.651
551.28	52.358
551.62	53.235
551.96	52.875
552.30	52.636
552.64	51.690
552.98	52.526
553.32	52.348
553.66	52.731
554.00	53.050
554.34	52.969
554.68	52.073
555.02	51.190
555.36	50.755
555.69	52.421
556.03	50.924
556.37	53.038
556.71	51.207
557.05	51.719
557.39	51.968
557.73	50.708
558.07	51.252
558.41	51.636
558.75	51.286
559.08	53.532
559.42	52.425
559.76	50.295
560.10	51.589
560.44	51.386
560.78	51.165
561.12	51.165
561.45	51.414
561.79	49.486
562.13	50.185
562.47	50.535
562.81	49.583
563.15	49.202
563.48	50.637
563.82	50.218
564.16	49.274
564.50	49.857
564.84	50.177
565.17	49.642
565.51	49.543
565.85	50.634
566.19	50.870
566.52	51.900
566.86	50.068
567.20	50.299
567.54	50.351
567.88	49.454
568.21	50.117
568.55	49.972
568.89	49.945
569.23	50.050
569.56	51.218
569.90	49.979
570.24	49.330
570.57	49.925
570.91	50.036
571.25	50.551
571.59	49.902
571.92	48.403
572.26	48.750
572.60	48.942
572.93	48.232
573.27	47.761
573.61	48.901
573.95	48.289
574.28	48.248
574.62	47.992
574.96	48.240
575.29	48.322
575.63	47.772
575.97	47.472
576.30	48.178
576.64	47.712
576.98	48.173
577.31	48.412
577.65	48.598
577.98	48.047
578.32	47.908
578.66	47.982
578.99	48.512
579.33	47.175
579.67	47.626
580.00	46.755
580.34	47.331
580.67	47.152
581.01	47.148
581.35	47.666
581.68	47.572
582.02	47.917
582.35	47.732
582.69	47.391
583.02	47.065
583.36	46.795
583.70	47.123
584.03	47.162
584.37	47.531
584.70	46.950
585.04	46.918
585.37	47.202
585.71	46.224
586.04	46.349
586.38	46.500
586.72	46.835
587.05	46.732
587.39	46.454
587.72	46.985
588.06	45.921
588.39	47.122
588.73	46.627
589.06	45.964
589.40	45.899
589.73	46.111
590.07	45.606
590.40	46.105
590.73	46.814
591.07	45.411
591.40	46.688
591.74	45.942
592.07	46.227
592.41	46.111
592.74	46.826
593.08	45.605
593.41	45.835
593.75	46.646
594.08	46.800
594.41	46.496
594.75	45.576
595.08	45.890
595.42	45.175
595.75	46.439
596.09	45.476
596.42	46.004
596.75	46.273
597.09	45.429
597.42	45.753
597.75	45.732
598.09	45.225
598.42	45.338
598.76	44.945
599.09	44.706
599.42	43.430
599.76	45.430
600.09	45.196
600.42	43.359
600.76	44.149
601.09	44.745
601.42	43.599
601.76	44.683
602.09	45.119
602.42	44.116
602.76	43.892
603.09	44.648
603.42	45.017
603.76	44.188
604.09	45.739
604.42	44.483
604.76	45.002
605.09	43.741
605.42	45.118
605.75	44.130
606.09	44.444
606.42	44.182
606.75	44.361
607.09	44.543
607.42	43.965
607.75	43.067
608.08	43.826
608.42	43.889
608.75	44.072
609.08	43.160
609.41	42.976
609.75	43.707
610.08	43.618
610.41	43.919
610.74	43.377
611.07	43.628
611.41	42.934
611.74	43.580
612.07	43.025
612.40	44.011
612.73	42.708
613.07	44.451
613.40	43.818
613.73	44.158
614.06	43.033
614.39	42.648
614.72	43.211
615.06	43.226
615.39	42.783
615.72	43.281
616.05	41.913
616.38	43.535
616.71	42.164
617.05	42.274
617.38	42.387
617.71	43.240
618.04	43.890
618.37	43.623
618.70	43.750
619.03	43.800
619.36	42.047
619.69	41.602
620.03	42.639
620.36	42.101
620.69	42.646
621.02	41.964
621.35	42.383
621.68	42.304
622.01	42.513
622.34	43.132
622.67	41.737
623.00	42.588
623.33	41.339
623.66	43.108
623.99	42.026
624.32	42.812
624.65	40.625
624.99	42.656
625.32	42.417
625.65	41.393
625.98	43.000
626.31	41.732
626.64	41.261
626.97	42.831
627.30	42.037
627.63	42.233
627.96	41.341
628.29	41.587
628.62	41.237
628.95	41.711
629.28	40.496
629.61	40.857
629.94	41.701
630.26	40.481
630.59	42.932
630.92	40.780
631.25	41.453
631.58	40.000
631.91	40.888
632.24	39.645
632.57	41.974
632.90	42.312
633.23	42.839
