SpectraSuite Data File
++++++++++++++++++++++++++++++++++++
Date: Wed May 13 19:27:34 PDT 2015
User: schluterlab
Dark Spectrum Present: Yes
Reference Spectrum Present: Yes
Number of Sampled Component Spectra: 1
Spectrometers: USB2E3373
Integration Time (usec): 3000 (USB2E3373)
Spectra Averaged: 3 (USB2E3373)
Boxcar Smoothing: 0 (USB2E3373)
Correct for Electrical Dark: No (USB2E3373)
Strobe/Lamp Enabled: No (USB2E3373)
Correct for Detector Non-linearity: No (USB2E3373)
Correct for Stray Light: No (USB2E3373)
Number of Pixels in Processed Spectrum: 2048
>>>>>Begin Processed Spectral Data<<<<<
178.53	0.000
178.91	-1550.000
179.29	-1225.000
179.67	-255.556
180.04	-1300.000
180.42	2800.000
180.80	1100.000
181.18	-1000.000
181.56	771.429
181.94	0.000
182.31	-685.714
182.69	2033.333
183.07	-562.500
183.45	-611.111
183.83	590.909
184.20	-470.000
184.58	2900.000
184.96	6400.000
185.34	-720.000
185.72	-625.000
186.09	-2200.000
186.47	3000.000
186.85	2750.000
187.23	4800.000
187.61	-1566.667
187.98	1150.000
188.36	609.091
188.74	500.000
189.12	-1180.000
189.49	540.000
189.87	-5000.000
190.25	-1450.000
190.63	385.714
191.00	392.308
191.38	983.333
191.76	-1325.000
192.14	1500.000
192.51	775.000
192.89	1050.000
193.27	687.500
193.65	-1250.000
194.02	520.000
194.40	1100.000
194.78	480.000
195.15	475.000
195.53	590.000
195.91	-2200.000
196.29	350.000
196.66	326.316
197.04	-350.000
197.42	0.000
197.79	550.000
198.17	-5100.000
198.55	728.571
198.92	837.500
199.30	940.000
199.68	0.000
200.05	366.667
200.43	728.571
200.81	5400.000
201.18	1933.333
201.56	-1900.000
201.94	577.778
202.31	633.333
202.69	491.667
203.07	600.000
203.44	0.000
203.82	1375.000
204.19	871.429
204.57	500.000
204.95	687.500
205.32	1633.333
205.70	490.909
206.08	342.857
206.45	2400.000
206.83	381.250
207.20	950.000
207.58	920.000
207.96	300.000
208.33	800.000
208.71	-883.333
209.08	857.143
209.46	677.778
209.84	563.636
210.21	-1666.667
210.59	1400.000
210.96	-512.500
211.34	2900.000
211.71	580.000
212.09	866.667
212.46	0.000
212.84	1733.333
213.22	1300.000
213.59	-5300.000
213.97	866.667
214.34	800.000
214.72	663.636
215.09	1320.000
215.47	-2200.000
215.84	-2300.000
216.22	1833.333
216.59	450.000
216.97	1375.000
217.34	490.909
217.72	-800.000
218.09	0.000
218.47	-4500.000
218.84	666.667
219.22	714.286
219.59	1666.667
219.97	-700.000
220.34	1080.000
220.72	-1766.667
221.09	400.000
221.47	1625.000
221.84	-883.333
222.22	0.000
222.59	1350.000
222.97	-2200.000
223.34	1140.000
223.72	392.308
224.09	1220.000
224.46	1750.000
224.84	-5400.000
225.21	-980.000
225.59	-5100.000
225.96	570.000
226.34	290.000
226.71	2800.000
227.08	675.000
227.46	540.000
227.83	-1000.000
228.21	-2500.000
228.58	544.444
228.95	-2550.000
229.33	-2300.000
229.70	1766.667
230.08	571.429
230.45	-960.000
230.82	341.667
231.20	816.667
231.57	657.143
231.95	600.000
232.32	227.273
232.69	490.909
233.07	714.286
233.44	392.308
233.81	-2066.667
234.19	321.053
234.56	483.333
234.93	466.667
235.31	445.455
235.68	323.077
236.05	371.429
236.43	172.727
236.80	305.263
237.17	4900.000
237.55	228.571
237.92	221.429
238.29	290.476
238.67	183.871
239.04	196.552
239.41	161.111
239.79	126.087
240.16	142.857
240.53	134.091
240.91	127.451
241.28	114.000
241.65	122.000
242.02	92.754
242.40	106.452
242.77	105.000
243.14	80.645
243.51	84.270
243.89	78.824
244.26	78.889
244.63	69.892
245.00	86.170
245.38	84.158
245.75	55.140
246.12	65.138
246.49	61.314
246.87	68.800
247.24	61.538
247.61	57.143
247.98	56.209
248.36	54.730
248.73	50.955
249.10	64.968
249.47	47.458
249.84	50.267
250.22	45.989
250.59	44.379
250.96	51.010
251.33	46.445
251.70	44.554
252.08	49.048
252.45	46.188
252.82	47.826
253.19	46.809
253.56	43.137
253.94	40.664
254.31	41.016
254.68	44.231
255.05	42.435
255.42	39.431
255.79	40.074
256.16	42.960
256.54	36.042
256.91	40.214
257.28	32.734
257.65	39.274
258.02	36.957
258.39	39.117
258.76	36.789
259.14	36.905
259.51	35.866
259.88	34.161
260.25	35.347
260.62	35.838
260.99	33.540
261.36	38.739
261.73	33.524
262.10	35.465
262.47	38.873
262.85	32.869
263.22	34.473
263.59	36.182
263.96	30.495
264.33	35.248
264.70	32.105
265.07	34.783
265.44	33.586
265.81	32.360
266.18	30.402
266.55	30.000
266.92	32.432
267.29	34.028
267.66	31.422
268.03	30.455
268.40	30.374
268.77	30.072
269.14	31.757
269.51	32.280
269.88	32.401
270.25	30.700
270.62	29.888
270.99	29.892
271.36	30.258
271.73	30.607
272.10	31.304
272.47	31.828
272.84	30.519
273.21	31.656
273.58	29.476
273.95	26.625
274.32	28.099
274.69	31.263
275.06	29.134
275.43	29.574
275.80	28.257
276.17	30.957
276.54	29.938
276.91	31.818
277.28	28.711
277.65	30.174
278.02	30.435
278.39	30.078
278.76	27.273
279.13	29.623
279.50	29.609
279.87	27.291
280.23	28.942
280.60	27.853
280.97	28.835
281.34	28.319
281.71	28.909
282.08	28.791
282.45	26.545
282.82	28.597
283.19	25.847
283.56	28.246
283.92	27.580
284.29	27.160
284.66	29.038
285.03	28.210
285.40	26.232
285.77	27.609
286.14	26.943
286.51	27.000
286.87	29.573
287.24	25.570
287.61	26.324
287.98	26.136
288.35	24.247
288.72	25.078
289.08	24.257
289.45	24.712
289.82	25.691
290.19	23.234
290.56	22.971
290.93	24.169
291.29	22.699
291.66	24.631
292.03	25.727
292.40	24.229
292.77	24.556
293.13	23.731
293.50	23.615
293.87	22.074
294.24	23.407
294.60	21.834
294.97	22.384
295.34	25.952
295.71	22.585
296.08	20.370
296.44	22.971
296.81	21.268
297.18	22.087
297.55	19.657
297.91	22.032
298.28	22.222
298.65	21.802
299.02	21.739
299.38	20.452
299.75	18.194
300.12	19.668
300.48	20.125
300.85	20.962
301.22	19.873
301.59	21.338
301.95	20.025
302.32	20.282
302.69	19.952
303.05	18.909
303.42	20.000
303.79	19.139
304.15	18.648
304.52	19.467
304.89	18.118
305.25	18.445
305.62	19.026
305.99	19.717
306.35	19.687
306.72	18.722
307.09	19.756
307.45	18.356
307.82	17.969
308.19	18.874
308.55	19.417
308.92	17.938
309.29	17.846
309.65	17.073
310.02	17.653
310.38	18.925
310.75	17.635
311.12	18.628
311.48	19.018
311.85	18.029
312.22	17.794
312.58	19.023
312.95	18.691
313.31	15.825
313.68	17.672
314.05	19.625
314.41	17.990
314.78	17.321
315.14	18.073
315.51	17.714
315.87	17.525
316.24	16.981
316.61	17.641
316.97	18.395
317.34	16.047
317.70	18.642
318.07	16.362
318.43	17.906
318.80	18.182
319.16	18.738
319.53	17.355
319.89	17.714
320.26	18.600
320.62	17.857
320.99	17.273
321.35	18.485
321.72	17.556
322.08	18.460
322.45	18.607
322.81	18.023
323.18	19.364
323.54	19.017
323.91	18.585
324.27	18.834
324.64	17.521
325.00	17.133
325.37	19.472
325.73	18.492
326.10	18.005
326.46	17.921
326.83	19.327
327.19	17.848
327.56	18.990
327.92	17.323
328.29	18.279
328.65	18.785
329.01	19.404
329.38	18.779
329.74	19.760
330.11	18.756
330.47	19.651
330.84	19.945
331.20	18.852
331.56	19.817
331.93	20.370
332.29	19.698
332.66	19.646
333.02	20.201
333.38	19.874
333.75	19.608
334.11	19.573
334.48	19.876
334.84	20.129
335.20	19.818
335.57	20.762
335.93	19.107
336.29	18.773
336.66	20.289
337.02	19.819
337.38	19.537
337.75	18.182
338.11	19.606
338.47	18.877
338.84	19.523
339.20	18.440
339.56	20.803
339.93	19.455
340.29	20.018
340.65	19.430
341.02	20.942
341.38	19.395
341.74	19.298
342.11	19.039
342.47	18.326
342.83	18.836
343.20	20.346
343.56	19.545
343.92	18.421
344.28	19.388
344.65	18.745
345.01	18.855
345.37	18.182
345.73	19.374
346.10	18.926
346.46	18.983
346.82	19.440
347.19	18.129
347.55	18.227
347.91	18.932
348.27	19.803
348.63	19.231
349.00	18.932
349.36	17.570
349.72	18.765
350.08	18.071
350.45	19.040
350.81	18.278
351.17	19.044
351.53	17.690
351.89	17.739
352.26	18.627
352.62	18.765
352.98	18.720
353.34	18.077
353.70	17.349
354.07	18.226
354.43	17.698
354.79	16.573
355.15	17.159
355.51	19.265
355.87	17.633
356.24	18.160
356.60	18.524
356.96	18.423
357.32	17.334
357.68	17.402
358.04	17.260
358.40	17.815
358.77	18.232
359.13	17.285
359.49	17.098
359.85	15.397
360.21	16.906
360.57	18.054
360.93	18.077
361.29	17.234
361.66	16.718
362.02	16.791
362.38	17.490
362.74	17.485
363.10	15.766
363.46	16.875
363.82	17.536
364.18	17.181
364.54	17.756
364.90	17.635
365.26	16.765
365.62	17.093
365.98	16.216
366.35	16.404
366.71	16.341
367.07	15.805
367.43	17.199
367.79	16.417
368.15	16.595
368.51	15.988
368.87	17.131
369.23	16.020
369.59	17.017
369.95	15.882
370.31	16.382
370.67	16.522
371.03	17.303
371.39	16.108
371.75	16.250
372.11	16.572
372.47	15.689
372.83	17.579
373.19	16.402
373.55	16.408
373.91	16.274
374.27	16.220
374.63	15.055
374.99	16.879
375.35	15.283
375.71	16.244
376.07	16.529
376.42	15.475
376.78	16.103
377.14	15.332
377.50	16.026
377.86	14.960
378.22	15.676
378.58	13.972
378.94	15.399
379.30	15.712
379.66	16.053
380.02	15.541
380.38	14.815
380.74	15.006
381.09	15.709
381.45	15.673
381.81	15.786
382.17	15.796
382.53	15.283
382.89	15.679
383.25	15.134
383.61	15.242
383.97	15.134
384.32	15.409
384.68	14.994
385.04	16.411
385.40	14.303
385.76	15.663
386.12	14.832
386.48	15.230
386.83	16.100
387.19	15.523
387.55	15.523
387.91	14.994
388.27	14.960
388.62	15.243
388.98	14.742
389.34	14.894
389.70	15.267
390.06	14.829
390.42	15.370
390.77	15.394
391.13	14.422
391.49	14.911
391.85	14.004
392.20	14.132
392.56	14.836
392.92	15.127
393.28	13.846
393.64	15.348
393.99	15.272
394.35	14.640
394.71	14.868
395.07	14.393
395.42	15.637
395.78	14.249
396.14	14.463
396.50	15.727
396.85	15.067
397.21	15.413
397.57	14.879
397.92	14.663
398.28	13.677
398.64	15.591
399.00	14.494
399.35	14.100
399.71	14.236
400.07	15.021
400.42	15.460
400.78	15.139
401.14	14.329
401.49	15.224
401.85	14.761
402.21	14.012
402.57	14.744
402.92	15.069
403.28	15.678
403.63	14.295
403.99	14.268
404.35	14.909
404.70	14.329
405.06	14.094
405.42	14.223
405.77	13.714
406.13	14.052
406.49	14.962
406.84	15.535
407.20	14.303
407.55	15.316
407.91	15.533
408.27	14.550
408.62	14.449
408.98	14.461
409.34	13.961
409.69	14.000
410.05	14.374
410.40	14.985
410.76	14.277
411.11	15.501
411.47	14.633
411.83	14.905
412.18	13.296
412.54	13.761
412.89	14.759
413.25	14.286
413.60	14.947
413.96	13.418
414.31	15.128
414.67	14.702
415.03	13.775
415.38	15.206
415.74	14.855
416.09	14.958
416.45	13.989
416.80	15.334
417.16	14.946
417.51	14.267
417.87	13.873
418.22	14.700
418.58	14.784
418.93	14.496
419.29	14.131
419.64	15.050
420.00	15.122
420.35	14.783
420.71	14.943
421.06	14.857
421.42	14.269
421.77	14.742
422.12	13.251
422.48	14.247
422.83	14.560
423.19	14.420
423.54	14.568
423.90	14.667
424.25	14.070
424.61	14.405
424.96	14.111
425.31	14.009
425.67	13.764
426.02	13.829
426.38	14.164
426.73	14.336
427.09	14.347
427.44	14.376
427.79	14.204
428.15	14.821
428.50	13.751
428.85	15.077
429.21	13.528
429.56	13.893
429.92	14.041
430.27	14.052
430.62	13.210
430.98	14.167
431.33	13.763
431.68	13.874
432.04	13.259
432.39	13.764
432.74	14.722
433.10	14.658
433.45	14.519
433.80	14.579
434.16	14.263
434.51	14.421
434.86	14.595
435.22	14.619
435.57	15.137
435.92	14.102
436.28	14.235
436.63	14.956
436.98	14.139
437.34	15.206
437.69	14.761
438.04	14.221
438.39	14.507
438.75	14.410
439.10	14.637
439.45	14.935
439.81	14.260
440.16	13.947
440.51	14.528
440.86	14.476
441.22	13.626
441.57	13.323
441.92	14.893
442.27	13.886
442.63	14.429
442.98	14.254
443.33	14.837
443.68	13.681
444.03	14.153
444.39	13.827
444.74	13.961
445.09	14.016
445.44	13.997
445.79	13.855
446.15	14.981
446.50	14.486
446.85	14.286
447.20	14.227
447.55	14.015
447.91	15.279
448.26	14.691
448.61	14.811
448.96	15.338
449.31	15.017
449.66	15.025
450.02	13.760
450.37	14.512
450.72	13.875
451.07	14.503
451.42	14.650
451.77	14.563
452.12	15.127
452.47	14.863
452.83	14.918
453.18	15.342
453.53	14.533
453.88	14.589
454.23	14.286
454.58	14.416
454.93	15.639
455.28	14.963
455.63	15.231
455.98	16.131
456.34	14.824
456.69	15.153
457.04	14.799
457.39	14.144
457.74	14.626
458.09	14.721
458.44	14.652
458.79	13.883
459.14	15.011
459.49	14.244
459.84	14.183
460.19	14.496
460.54	15.104
460.89	14.756
461.24	14.754
461.59	16.037
461.94	14.920
462.29	14.837
462.64	14.614
462.99	14.639
463.34	15.400
463.69	14.759
464.04	14.841
464.39	14.667
464.74	14.557
465.09	13.872
465.44	15.291
465.79	14.150
466.14	14.505
466.49	14.961
466.84	15.236
467.19	14.303
467.54	15.438
467.89	14.166
468.24	15.300
468.59	15.324
468.94	14.233
469.29	14.460
469.64	15.930
469.99	15.629
470.34	14.795
470.68	15.374
471.03	14.966
471.38	15.427
471.73	15.523
472.08	16.382
472.43	14.761
472.78	15.405
473.13	15.469
473.48	14.794
473.83	15.122
474.17	14.997
474.52	15.136
474.87	15.412
475.22	14.626
475.57	13.864
475.92	14.604
476.27	13.811
476.61	15.058
476.96	13.909
477.31	14.443
477.66	14.770
478.01	14.062
478.36	14.014
478.70	13.863
479.05	14.058
479.40	14.125
479.75	14.133
480.10	14.165
480.45	14.089
480.79	13.760
481.14	14.335
481.49	14.001
481.84	13.489
482.19	14.721
482.53	14.266
482.88	14.565
483.23	14.252
483.58	14.422
483.92	14.339
484.27	14.074
484.62	13.578
484.97	13.007
485.31	13.562
485.66	12.512
486.01	12.030
486.36	11.457
486.70	11.365
487.05	12.269
487.40	12.411
487.75	12.459
488.09	13.315
488.44	12.608
488.79	13.707
489.13	13.980
489.48	13.785
489.83	13.336
490.17	13.547
490.52	14.349
490.87	13.659
491.22	13.824
491.56	13.394
491.91	12.797
492.26	13.597
492.60	13.871
492.95	13.564
493.30	13.925
493.64	13.579
493.99	13.324
494.34	13.876
494.68	14.011
495.03	14.098
495.37	14.053
495.72	14.181
496.07	13.921
496.41	13.761
496.76	13.500
497.11	14.318
497.45	13.740
497.80	13.964
498.14	13.478
498.49	13.610
498.84	13.615
499.18	13.286
499.53	13.580
499.87	13.933
500.22	13.895
500.56	14.612
500.91	12.837
501.26	13.893
501.60	13.526
501.95	13.932
502.29	13.730
502.64	14.804
502.98	13.698
503.33	14.077
503.67	14.153
504.02	13.938
504.36	13.617
504.71	13.288
505.06	14.120
505.40	14.050
505.75	13.549
506.09	14.140
506.44	13.962
506.78	14.321
507.13	13.882
507.47	13.889
507.82	14.539
508.16	14.134
508.51	14.866
508.85	13.952
509.19	13.980
509.54	14.184
509.88	13.601
510.23	13.573
510.57	14.603
510.92	14.034
511.26	14.645
511.61	14.212
511.95	13.622
512.30	14.316
512.64	14.240
512.98	13.987
513.33	14.454
513.67	13.661
514.02	13.745
514.36	14.200
514.70	15.440
515.05	13.887
515.39	14.807
515.74	14.640
516.08	14.813
516.42	15.094
516.77	14.939
517.11	14.317
517.46	14.334
517.80	14.576
518.14	13.086
518.49	14.469
518.83	14.432
519.17	14.896
519.52	14.205
519.86	14.546
520.20	15.145
520.55	15.081
520.89	14.659
521.23	14.294
521.58	15.006
521.92	14.758
522.26	14.399
522.61	15.140
522.95	13.874
523.29	14.607
523.64	14.329
523.98	14.726
524.32	14.475
524.66	14.913
525.01	14.951
525.35	14.560
525.69	15.086
526.04	15.639
526.38	15.131
526.72	14.172
527.06	14.689
527.41	13.676
527.75	14.084
528.09	15.350
528.43	15.105
528.78	14.382
529.12	15.455
529.46	14.942
529.80	13.985
530.15	15.016
530.49	15.200
530.83	14.557
531.17	15.731
531.51	15.240
531.86	14.452
532.20	15.385
532.54	15.759
532.88	15.083
533.22	14.304
533.57	14.568
533.91	15.111
534.25	14.945
534.59	15.253
534.93	14.753
535.27	15.208
535.62	15.201
535.96	14.815
536.30	14.304
536.64	14.681
536.98	15.395
537.32	15.207
537.66	15.133
538.01	15.471
538.35	14.674
538.69	15.890
539.03	14.945
539.37	14.441
539.71	14.193
540.05	14.967
540.39	14.551
540.73	14.683
541.07	14.860
541.42	15.264
541.76	14.903
542.10	15.395
542.44	14.172
542.78	15.283
543.12	14.715
543.46	15.213
543.80	15.290
544.14	14.570
544.48	15.492
544.82	13.983
545.16	15.680
545.50	14.460
545.84	15.054
546.18	15.017
546.52	14.659
546.86	15.120
547.20	15.914
547.54	15.030
547.88	16.263
548.22	14.259
548.56	14.654
548.90	14.277
549.24	14.141
549.58	16.166
549.92	15.522
550.26	15.412
550.60	14.039
550.94	15.000
551.28	14.338
551.62	15.457
551.96	14.526
552.30	16.587
552.64	15.957
552.98	14.983
553.32	15.577
553.66	16.224
554.00	15.237
554.34	15.666
554.68	15.021
555.02	15.374
555.36	15.518
555.69	15.223
556.03	15.007
556.37	15.280
556.71	14.461
557.05	14.776
557.39	15.045
557.73	15.385
558.07	14.358
558.41	15.702
558.75	15.356
559.08	15.884
559.42	15.495
559.76	15.000
560.10	14.418
560.44	15.024
560.78	14.704
561.12	14.644
561.45	15.450
561.79	13.579
562.13	14.889
562.47	15.437
562.81	15.411
563.15	14.783
563.48	14.721
563.82	14.481
564.16	14.650
564.50	14.323
564.84	14.602
565.17	14.286
565.51	14.058
565.85	15.799
566.19	14.527
566.52	14.250
566.86	13.562
567.20	14.800
567.54	14.212
567.88	14.014
568.21	14.497
568.55	13.600
568.89	13.278
569.23	12.745
569.56	13.239
569.90	13.208
570.24	12.809
570.57	12.819
570.91	12.540
571.25	12.817
571.59	12.754
571.92	12.586
572.26	12.594
572.60	13.063
572.93	12.594
573.27	12.600
573.61	12.814
573.95	12.274
574.28	12.714
574.62	12.123
574.96	12.115
575.29	12.488
575.63	12.322
575.97	12.132
576.30	12.427
576.64	12.383
576.98	11.983
577.31	12.315
577.65	12.096
577.98	12.183
578.32	11.855
578.66	11.950
578.99	12.280
579.33	11.983
579.67	12.308
580.00	11.964
580.34	12.197
580.67	12.243
581.01	12.705
581.35	12.027
581.68	11.996
582.02	11.824
582.35	11.808
582.69	11.977
583.02	12.116
583.36	12.336
583.70	12.438
584.03	12.226
584.37	13.202
584.70	12.644
585.04	12.427
585.37	12.395
585.71	12.617
586.04	12.346
586.38	12.853
586.72	12.787
587.05	12.986
587.39	12.454
587.72	12.394
588.06	12.353
588.39	12.785
588.73	12.995
589.06	13.400
589.40	13.300
589.73	12.988
590.07	12.740
590.40	12.751
590.73	13.232
591.07	13.879
591.40	13.792
591.74	13.766
592.07	13.525
592.41	13.518
592.74	13.034
593.08	13.058
593.41	12.749
593.75	12.836
594.08	12.772
594.41	13.220
594.75	12.976
595.08	12.956
595.42	13.345
595.75	13.355
596.09	12.805
596.42	13.792
596.75	13.634
597.09	14.805
597.42	13.111
597.75	13.627
598.09	13.478
598.42	14.046
598.76	13.052
599.09	12.619
599.42	12.809
599.76	13.104
600.09	13.042
600.42	12.600
600.76	12.821
601.09	13.078
601.42	12.823
601.76	13.321
602.09	13.518
602.42	13.336
602.76	13.906
603.09	13.415
603.42	13.393
603.76	13.186
604.09	12.912
604.42	13.290
604.76	14.129
605.09	13.718
605.42	12.783
605.75	13.286
606.09	12.403
606.42	12.873
606.75	12.816
607.09	13.771
607.42	13.308
607.75	13.755
608.08	13.157
608.42	14.030
608.75	12.985
609.08	13.737
609.41	14.136
609.75	13.530
610.08	13.855
610.41	13.268
610.74	13.576
611.07	14.328
611.41	13.494
611.74	14.480
612.07	13.768
612.40	14.428
612.73	13.421
613.07	13.901
613.40	13.849
613.73	13.477
614.06	14.032
614.39	14.473
614.72	13.684
615.06	14.653
615.39	13.694
615.72	13.599
616.05	13.663
616.38	14.119
616.71	14.430
617.05	15.018
617.38	14.311
617.71	13.754
618.04	14.784
618.37	13.838
618.70	15.059
619.03	14.539
619.36	14.189
619.69	14.577
620.03	15.659
620.36	15.307
620.69	15.685
621.02	15.782
621.35	15.114
621.68	14.953
622.01	15.402
622.34	15.431
622.67	15.894
623.00	14.674
623.33	14.725
623.66	15.011
623.99	13.991
624.32	13.980
624.65	16.031
624.99	14.660
625.32	15.062
625.65	15.101
625.98	15.680
626.31	16.096
626.64	16.571
626.97	16.209
627.30	15.461
627.63	15.422
627.96	16.484
628.29	16.535
628.62	16.194
628.95	17.830
629.28	15.055
629.61	17.049
629.94	17.810
630.26	15.443
630.59	16.587
630.92	15.326
