SpectraSuite Data File
++++++++++++++++++++++++++++++++++++
Date: Wed May 13 19:30:19 PDT 2015
User: schluterlab
Dark Spectrum Present: Yes
Reference Spectrum Present: Yes
Number of Sampled Component Spectra: 1
Spectrometers: USB2E3373
Integration Time (usec): 3000 (USB2E3373)
Spectra Averaged: 3 (USB2E3373)
Boxcar Smoothing: 0 (USB2E3373)
Correct for Electrical Dark: No (USB2E3373)
Strobe/Lamp Enabled: No (USB2E3373)
Correct for Detector Non-linearity: No (USB2E3373)
Correct for Stray Light: No (USB2E3373)
Number of Pixels in Processed Spectrum: 2048
>>>>>Begin Processed Spectral Data<<<<<
178.53	0.000
178.91	-1350.000
179.29	-1275.000
179.67	-250.000
180.04	-1400.000
180.42	2400.000
180.80	1140.000
181.18	-1175.000
181.56	614.286
181.94	0.000
182.31	-657.143
182.69	1633.333
183.07	-625.000
183.45	-500.000
183.83	536.364
184.20	-400.000
184.58	2500.000
184.96	5800.000
185.34	-920.000
185.72	-587.500
186.09	-2750.000
186.47	2300.000
186.85	2700.000
187.23	4700.000
187.61	-1766.667
187.98	1425.000
188.36	572.727
188.74	590.909
189.12	-800.000
189.49	520.000
189.87	-5500.000
190.25	-1250.000
190.63	392.857
191.00	453.846
191.38	933.333
191.76	-1300.000
192.14	1325.000
192.51	612.500
192.89	800.000
193.27	662.500
193.65	-1225.000
194.02	540.000
194.40	1020.000
194.78	500.000
195.15	508.333
195.53	640.000
195.91	-2300.000
196.29	356.250
196.66	278.947
197.04	-380.000
197.42	0.000
197.79	570.000
198.17	-4200.000
198.55	728.571
198.92	712.500
199.30	800.000
199.68	0.000
200.05	311.111
200.43	671.429
200.81	4500.000
201.18	1466.667
201.56	-1800.000
201.94	733.333
202.31	600.000
202.69	450.000
203.07	520.000
203.44	0.000
203.82	1250.000
204.19	700.000
204.57	414.286
204.95	650.000
205.32	1600.000
205.70	454.545
206.08	407.143
206.45	2700.000
206.83	400.000
207.20	800.000
207.58	920.000
207.96	288.889
208.33	675.000
208.71	-883.333
209.08	771.429
209.46	766.667
209.84	500.000
210.21	-1733.333
210.59	1325.000
210.96	-562.500
211.34	2400.000
211.71	570.000
212.09	716.667
212.46	0.000
212.84	1633.333
213.22	1050.000
213.59	-4900.000
213.97	883.333
214.34	671.429
214.72	645.455
215.09	1160.000
215.47	-2300.000
215.84	-2400.000
216.22	1533.333
216.59	378.571
216.97	1350.000
217.34	472.727
217.72	-750.000
218.09	0.000
218.47	-5100.000
218.84	688.889
219.22	814.286
219.59	1833.333
219.97	-671.429
220.34	1160.000
220.72	-1733.333
221.09	414.286
221.47	1450.000
221.84	-950.000
222.22	0.000
222.59	1050.000
222.97	-2550.000
223.34	1240.000
223.72	469.231
224.09	1280.000
224.46	2100.000
224.84	-4900.000
225.21	-940.000
225.59	-4600.000
225.96	580.000
226.34	305.000
226.71	2650.000
227.08	600.000
227.46	530.000
227.83	-1200.000
228.21	-2400.000
228.58	577.778
228.95	-2200.000
229.33	-2200.000
229.70	1500.000
230.08	771.429
230.45	-860.000
230.82	516.667
231.20	950.000
231.57	628.571
231.95	458.333
232.32	272.727
232.69	454.545
233.07	571.429
233.44	430.769
233.81	-1800.000
234.19	342.105
234.56	450.000
234.93	441.667
235.31	463.636
235.68	330.769
236.05	364.286
236.43	160.606
236.80	236.842
237.17	4700.000
237.55	233.333
237.92	210.714
238.29	304.762
238.67	158.065
239.04	196.552
239.41	152.778
239.79	104.348
240.16	159.524
240.53	143.182
240.91	94.118
241.28	116.000
241.65	108.000
242.02	107.246
242.40	82.258
242.77	96.667
243.14	75.269
243.51	89.888
243.89	70.588
244.26	63.333
244.63	56.989
245.00	52.128
245.38	65.347
245.75	50.467
246.12	55.963
246.49	65.693
246.87	56.000
247.24	56.154
247.61	52.857
247.98	45.098
248.36	42.568
248.73	44.586
249.10	49.045
249.47	44.068
249.84	41.711
250.22	42.781
250.59	43.195
250.96	42.424
251.33	42.180
251.70	43.069
252.08	35.238
252.45	34.529
252.82	31.739
253.19	36.170
253.56	36.078
253.94	36.929
254.31	34.766
254.68	35.000
255.05	32.841
255.42	30.894
255.79	35.294
256.16	33.935
256.54	29.329
256.91	34.520
257.28	26.259
257.65	29.373
258.02	32.298
258.39	31.861
258.76	30.769
259.14	28.571
259.51	28.875
259.88	25.466
260.25	30.816
260.62	26.879
260.99	27.640
261.36	31.532
261.73	26.074
262.10	27.616
262.47	29.577
262.85	25.348
263.22	23.932
263.59	28.490
263.96	27.747
264.33	26.632
264.70	25.000
265.07	26.598
265.44	25.000
265.81	26.034
266.18	26.382
266.55	25.610
266.92	25.553
267.29	27.546
267.66	25.917
268.03	24.091
268.40	23.832
268.77	23.866
269.14	22.297
269.51	25.282
269.88	25.874
270.25	23.476
270.62	24.719
270.99	26.667
271.36	24.678
271.73	21.495
272.10	24.130
272.47	26.237
272.84	24.675
273.21	25.157
273.58	24.672
273.95	22.013
274.32	23.554
274.69	23.126
275.06	20.276
275.43	24.894
275.80	23.647
276.17	22.811
276.54	23.909
276.91	22.530
277.28	23.438
277.65	24.371
278.02	23.810
278.39	24.414
278.76	23.818
279.13	20.755
279.50	23.091
279.87	23.904
280.23	21.357
280.60	21.470
280.97	21.072
281.34	23.186
281.71	22.545
282.08	22.649
282.45	20.545
282.82	20.959
283.19	18.182
283.56	22.456
283.92	21.320
284.29	19.753
284.66	20.327
285.03	21.519
285.40	21.479
285.77	19.360
286.14	18.480
286.51	22.500
286.87	20.684
287.24	21.987
287.61	19.583
287.98	19.156
288.35	19.334
288.72	20.872
289.08	20.501
289.45	19.440
289.82	19.675
290.19	19.152
290.56	18.989
290.93	16.918
291.29	18.712
291.66	19.027
292.03	20.785
292.40	22.320
292.77	17.160
293.13	18.209
293.50	18.367
293.87	17.778
294.24	17.926
294.60	16.012
294.97	19.041
295.34	18.759
295.71	18.040
296.08	15.242
296.44	17.056
296.81	16.777
297.18	16.802
297.55	15.303
297.91	16.227
298.28	18.340
298.65	18.668
299.02	17.655
299.38	15.538
299.75	15.768
300.12	15.326
300.48	14.625
300.85	16.276
301.22	15.414
301.59	14.268
301.95	16.373
302.32	15.789
302.69	16.846
303.05	14.909
303.42	14.198
303.79	15.855
304.15	14.452
304.52	14.021
304.89	14.750
305.25	14.733
305.62	15.402
305.99	15.348
306.35	15.436
306.72	15.022
307.09	14.095
307.45	15.541
307.82	13.504
308.19	15.011
308.55	15.965
308.92	14.823
309.29	14.044
309.65	13.892
310.02	14.799
310.38	15.269
310.75	14.361
311.12	14.637
311.48	14.420
311.85	14.570
312.22	13.215
312.58	14.345
312.95	14.572
313.31	13.398
313.68	13.929
314.05	14.596
314.41	14.673
314.78	13.797
315.14	14.399
315.51	14.212
315.87	13.564
316.24	12.910
316.61	13.060
316.97	13.601
317.34	12.622
317.70	14.627
318.07	12.512
318.43	14.481
318.80	13.871
319.16	14.783
319.53	11.726
319.89	13.429
320.26	14.400
320.62	13.889
320.99	14.949
321.35	13.838
321.72	13.244
322.08	14.116
322.45	15.821
322.81	14.438
323.18	14.644
323.54	14.750
323.91	14.717
324.27	14.914
324.64	13.700
325.00	13.796
325.37	13.922
325.73	14.004
326.10	13.504
326.46	12.097
326.83	14.150
327.19	14.091
327.56	13.502
327.92	13.911
328.29	14.286
328.65	13.812
329.01	13.899
329.38	13.599
329.74	12.742
330.11	12.818
330.47	14.050
330.84	14.430
331.20	14.572
331.56	13.761
331.93	13.333
332.29	13.576
332.66	13.717
333.02	13.985
333.38	14.182
333.75	14.082
334.11	12.900
334.48	14.286
334.84	14.982
335.20	14.091
335.57	14.325
335.93	12.589
336.29	13.370
336.66	14.247
337.02	12.579
337.38	13.796
337.75	12.923
338.11	13.071
338.47	12.799
338.84	13.107
339.20	13.670
339.56	14.507
339.93	14.000
340.29	13.225
340.65	13.369
341.02	14.398
341.38	13.167
341.74	13.070
342.11	13.799
342.47	11.806
342.83	14.298
343.20	14.199
343.56	14.069
343.92	12.368
344.28	13.435
344.65	13.500
345.01	12.458
345.37	12.521
345.73	13.536
346.10	13.896
346.46	14.068
346.82	13.674
347.19	13.952
347.55	12.890
347.91	14.239
348.27	13.394
348.63	14.047
349.00	12.945
349.36	14.122
349.72	13.553
350.08	13.452
350.45	13.588
350.81	12.429
351.17	13.938
351.53	12.449
351.89	12.376
352.26	13.339
352.62	14.114
352.98	13.776
353.34	13.887
353.70	11.948
354.07	13.548
354.43	14.286
354.79	12.631
355.15	13.089
355.51	12.870
355.87	12.408
356.24	13.436
356.60	12.430
356.96	12.148
357.32	11.856
357.68	13.071
358.04	13.143
358.40	13.618
358.77	13.146
359.13	12.076
359.49	12.235
359.85	11.111
360.21	12.759
360.57	12.763
360.93	12.231
361.29	12.774
361.66	12.307
362.02	12.164
362.38	14.144
362.74	12.723
363.10	11.991
363.46	12.472
363.82	12.472
364.18	12.555
364.54	13.150
364.90	12.181
365.26	12.206
365.62	11.980
365.98	11.614
366.35	11.963
366.71	12.148
367.07	12.309
367.43	12.192
367.79	12.991
368.15	12.284
368.51	12.645
368.87	11.706
369.23	12.070
369.59	12.455
369.95	11.765
370.31	12.393
370.67	11.812
371.03	12.360
371.39	11.953
371.75	12.500
372.11	11.735
372.47	12.757
372.83	13.040
373.19	12.211
373.55	11.826
373.91	12.887
374.27	11.340
374.63	10.764
374.99	12.782
375.35	10.886
375.71	11.583
376.07	13.100
376.42	11.486
376.78	12.790
377.14	11.533
377.50	12.252
377.86	11.769
378.22	12.263
378.58	10.902
378.94	11.376
379.30	11.132
379.66	11.992
380.02	11.548
380.38	11.475
380.74	11.164
381.09	11.797
381.45	11.924
381.81	12.101
382.17	11.592
382.53	11.509
382.89	11.975
383.25	11.320
383.61	11.524
383.97	11.507
384.32	10.792
384.68	11.276
385.04	10.940
385.40	11.022
385.76	11.425
386.12	11.464
386.48	11.705
386.83	11.418
387.19	11.441
387.55	11.255
387.91	10.459
388.27	11.281
388.62	12.600
388.98	10.319
389.34	11.327
389.70	10.668
390.06	11.914
390.42	11.414
390.77	11.450
391.13	11.359
391.49	11.421
391.85	10.503
392.20	10.410
392.56	11.553
392.92	11.772
393.28	9.941
393.64	11.091
393.99	11.729
394.35	10.856
394.71	10.916
395.07	11.215
395.42	11.001
395.78	10.814
396.14	11.732
396.50	11.779
396.85	10.807
397.21	11.282
397.57	10.663
397.92	11.118
398.28	10.426
398.64	10.812
399.00	10.632
399.35	10.716
399.71	10.995
400.07	11.473
400.42	10.920
400.78	11.460
401.14	10.610
401.49	11.104
401.85	11.010
402.21	10.479
402.57	10.487
402.92	11.160
403.28	11.056
403.63	10.891
403.99	10.510
404.35	10.727
404.70	10.432
405.06	10.250
405.42	10.543
405.77	10.400
406.13	10.609
406.49	10.645
406.84	10.455
407.20	11.525
407.55	10.721
407.91	11.200
408.27	10.402
408.62	10.957
408.98	10.784
409.34	10.517
409.69	11.290
410.05	10.719
410.40	11.131
410.76	10.812
411.11	12.002
411.47	10.415
411.83	11.423
412.18	9.833
412.54	11.768
412.89	10.964
413.25	10.390
413.60	11.242
413.96	10.565
414.31	10.936
414.67	11.153
415.03	11.523
415.38	11.727
415.74	11.125
416.09	11.822
416.45	10.576
416.80	10.839
417.16	11.528
417.51	10.750
417.87	10.918
418.22	10.662
418.58	11.556
418.93	11.609
419.29	11.776
419.64	12.280
420.00	11.280
420.35	11.304
420.71	11.178
421.06	10.800
421.42	11.228
421.77	11.659
422.12	9.882
422.48	10.308
422.83	11.008
423.19	10.884
423.54	10.331
423.90	11.768
424.25	10.999
424.61	10.774
424.96	11.370
425.31	11.019
425.67	10.674
426.02	10.686
426.38	11.600
426.73	11.059
427.09	10.881
427.44	10.868
427.79	11.098
428.15	11.190
428.50	11.118
428.85	11.323
429.21	10.491
429.56	10.213
429.92	10.619
430.27	10.477
430.62	10.343
430.98	10.431
431.33	11.186
431.68	10.262
432.04	11.342
432.39	10.908
432.74	11.430
433.10	10.922
433.45	11.312
433.80	11.253
434.16	11.432
434.51	10.316
434.86	11.174
435.22	10.228
435.57	11.307
435.92	11.059
436.28	11.269
436.63	12.141
436.98	9.903
437.34	11.628
437.69	11.785
438.04	11.017
438.39	10.627
438.75	11.447
439.10	11.397
439.45	11.570
439.81	10.514
440.16	11.971
440.51	11.482
440.86	11.060
441.22	10.067
441.57	10.722
441.92	10.696
442.27	11.033
442.63	10.900
442.98	11.211
443.33	11.141
443.68	10.893
444.03	10.786
444.39	10.711
444.74	11.310
445.09	11.429
445.44	11.372
445.79	10.688
446.15	11.117
446.50	11.147
446.85	10.586
447.20	10.658
447.55	11.837
447.91	11.473
448.26	11.130
448.61	11.080
448.96	12.182
449.31	11.080
449.66	10.974
450.02	10.195
450.37	10.771
450.72	11.168
451.07	10.664
451.42	11.246
451.77	11.744
452.12	10.855
452.47	12.065
452.83	11.480
453.18	10.941
453.53	12.183
453.88	10.868
454.23	11.297
454.58	11.387
454.93	11.570
455.28	11.160
455.63	11.044
455.98	12.321
456.34	11.181
456.69	11.334
457.04	10.898
457.39	11.222
457.74	10.563
458.09	11.558
458.44	11.060
458.79	10.575
459.14	11.005
459.49	11.617
459.84	11.247
460.19	11.196
460.54	10.822
460.89	10.971
461.24	12.143
461.59	12.377
461.94	11.899
462.29	11.335
462.64	11.040
462.99	11.841
463.34	12.600
463.69	11.695
464.04	11.826
464.39	11.942
464.74	11.824
465.09	11.037
465.44	10.748
465.79	10.850
466.14	11.440
466.49	11.235
466.84	10.450
467.19	11.949
467.54	11.625
467.89	11.525
468.24	11.693
468.59	11.355
468.94	11.057
469.29	11.697
469.64	12.584
469.99	11.637
470.34	11.757
470.68	11.207
471.03	10.952
471.38	11.883
471.73	12.125
472.08	12.434
472.43	11.495
472.78	11.718
473.13	12.580
473.48	11.798
473.83	11.463
474.17	10.890
474.52	12.097
474.87	12.026
475.22	11.782
475.57	10.747
475.92	11.152
476.27	11.612
476.61	11.638
476.96	11.655
477.31	11.512
477.66	11.488
478.01	11.343
478.36	11.687
478.70	10.228
479.05	11.182
479.40	11.771
479.75	10.422
480.10	10.736
480.45	11.138
480.79	10.225
481.14	10.910
481.49	11.865
481.84	10.837
482.19	11.268
482.53	10.642
482.88	11.215
483.23	11.215
483.58	10.965
483.92	10.544
484.27	10.458
484.62	10.388
484.97	10.485
485.31	10.719
485.66	8.825
486.01	8.677
486.36	8.443
486.70	8.657
487.05	9.157
487.40	9.244
487.75	9.529
488.09	10.130
488.44	9.773
488.79	10.814
489.13	10.733
489.48	10.522
489.83	10.272
490.17	11.092
490.52	10.629
490.87	10.403
491.22	11.096
491.56	10.205
491.91	10.377
492.26	10.473
492.60	10.737
492.95	10.477
493.30	10.654
493.64	10.826
493.99	10.631
494.34	10.962
494.68	11.218
495.03	11.043
495.37	10.889
495.72	10.916
496.07	11.044
496.41	10.310
496.76	10.686
497.11	11.211
497.45	10.573
497.80	11.276
498.14	10.821
498.49	11.073
498.84	10.930
499.18	10.714
499.53	10.921
499.87	10.391
500.22	10.975
500.56	11.068
500.91	10.481
501.26	10.763
501.60	11.201
501.95	10.632
502.29	11.528
502.64	11.127
502.98	11.033
503.33	10.649
503.67	10.858
504.02	10.804
504.36	10.903
504.71	10.894
505.06	11.422
505.40	10.938
505.75	11.138
506.09	10.641
506.44	11.297
506.78	10.667
507.13	11.206
507.47	11.515
507.82	11.145
508.16	11.094
508.51	11.618
508.85	11.718
509.19	10.969
509.54	11.582
509.88	10.871
510.23	11.003
510.57	11.352
510.92	11.134
511.26	11.716
511.61	11.307
511.95	10.960
512.30	11.241
512.64	11.123
512.98	11.790
513.33	12.152
513.67	11.099
514.02	10.714
514.36	12.015
514.70	11.345
515.05	11.880
515.39	12.619
515.74	11.205
516.08	12.297
516.42	12.042
516.77	12.319
517.11	11.432
517.46	11.569
517.80	12.369
518.14	10.886
518.49	11.202
518.83	11.761
519.17	11.490
519.52	11.432
519.86	11.865
520.20	11.908
520.55	12.148
520.89	12.774
521.23	12.244
521.58	12.125
521.92	11.758
522.26	11.043
522.61	11.838
522.95	11.786
523.29	11.625
523.64	12.134
523.98	11.953
524.32	12.304
524.66	12.207
525.01	11.520
525.35	11.648
525.69	12.562
526.04	11.776
526.38	12.203
526.72	13.374
527.06	11.676
527.41	11.881
527.75	12.797
528.09	12.267
528.43	12.620
528.78	12.477
529.12	12.121
529.46	12.370
529.80	12.252
530.15	13.271
530.49	12.123
530.83	12.658
531.17	12.663
531.51	12.776
531.86	12.258
532.20	12.842
532.54	13.069
532.88	12.067
533.22	11.181
533.57	12.593
533.91	11.981
534.25	12.151
534.59	12.203
534.93	12.017
535.27	11.949
535.62	12.393
535.96	11.739
536.30	12.270
536.64	12.428
536.98	12.608
537.32	12.377
537.66	12.000
538.01	11.982
538.35	13.251
538.69	12.891
539.03	11.696
539.37	11.502
539.71	11.082
540.05	12.614
540.39	12.226
540.73	12.225
541.07	12.914
541.42	12.851
541.76	13.226
542.10	13.001
542.44	12.384
542.78	12.648
543.12	11.708
543.46	11.475
543.80	12.882
544.14	12.067
544.48	12.571
544.82	11.931
545.16	12.622
545.50	11.568
545.84	12.567
546.18	12.256
546.52	12.732
546.86	12.715
547.20	12.879
547.54	12.759
547.88	12.755
548.22	11.831
548.56	12.138
548.90	12.356
549.24	12.054
549.58	12.688
549.92	12.363
550.26	13.281
550.60	13.209
550.94	12.606
551.28	12.217
551.62	12.509
551.96	11.649
552.30	13.106
552.64	12.441
552.98	13.288
553.32	12.879
553.66	12.952
554.00	13.040
554.34	12.974
554.68	13.376
555.02	13.047
555.36	13.083
555.69	12.314
556.03	12.853
556.37	12.824
556.71	12.688
557.05	11.765
557.39	12.176
557.73	13.056
558.07	12.255
558.41	12.663
558.75	13.226
559.08	13.572
559.42	13.228
559.76	12.279
560.10	12.206
560.44	12.509
560.78	12.176
561.12	12.005
561.45	13.233
561.79	12.063
562.13	12.542
562.47	13.046
562.81	13.319
563.15	12.241
563.48	12.997
563.82	12.459
564.16	12.034
564.50	12.044
564.84	12.010
565.17	12.548
565.51	12.204
565.85	12.119
566.19	11.647
566.52	12.286
566.86	12.055
567.20	12.382
567.54	11.473
567.88	11.570
568.21	11.587
568.55	11.173
568.89	11.479
569.23	10.428
569.56	10.607
569.90	10.038
570.24	10.047
570.57	9.997
570.91	9.890
571.25	9.636
571.59	9.867
571.92	9.533
572.26	9.445
572.60	10.150
572.93	9.865
573.27	9.820
573.61	9.436
573.95	9.561
574.28	9.347
574.62	9.159
574.96	9.343
575.29	9.481
575.63	9.426
575.97	9.477
576.30	9.825
576.64	9.325
576.98	9.188
577.31	9.265
577.65	8.969
577.98	8.705
578.32	8.777
578.66	9.497
578.99	9.381
579.33	9.175
579.67	9.268
580.00	9.374
580.34	9.184
580.67	8.792
581.01	9.422
581.35	9.143
581.68	8.704
582.02	8.571
582.35	8.770
582.69	9.172
583.02	9.123
583.36	9.154
583.70	9.640
584.03	9.404
584.37	9.750
584.70	9.274
585.04	9.026
585.37	9.343
585.71	9.469
586.04	9.398
586.38	9.901
586.72	9.832
587.05	9.318
587.39	9.288
587.72	9.791
588.06	9.338
588.39	9.492
588.73	10.003
589.06	10.065
589.40	10.034
589.73	10.032
590.07	10.178
590.40	10.047
590.73	10.422
591.07	11.070
591.40	10.586
591.74	11.082
592.07	10.646
592.41	11.038
592.74	9.963
593.08	10.027
593.41	9.301
593.75	9.619
594.08	9.923
594.41	10.392
594.75	9.723
595.08	10.415
595.42	10.613
595.75	9.793
596.09	10.815
596.42	10.923
596.75	10.806
597.09	11.169
597.42	10.329
597.75	10.737
598.09	11.217
598.42	11.040
598.76	9.931
599.09	9.806
599.42	10.080
599.76	10.395
600.09	9.982
600.42	9.861
600.76	10.036
601.09	9.872
601.42	10.464
601.76	9.829
602.09	10.514
602.42	10.669
602.76	11.084
603.09	10.464
603.42	10.348
603.76	9.870
604.09	9.849
604.42	10.355
604.76	11.219
605.09	10.572
605.42	10.090
605.75	10.099
606.09	10.126
606.42	10.298
606.75	10.452
607.09	11.009
607.42	10.270
607.75	10.127
608.08	9.944
608.42	11.206
608.75	11.046
609.08	10.638
609.41	10.900
609.75	10.719
610.08	11.169
610.41	10.894
610.74	10.880
611.07	10.721
611.41	11.580
611.74	11.966
612.07	11.335
612.40	11.490
612.73	12.000
613.07	12.284
613.40	11.690
613.73	11.012
614.06	11.505
614.39	11.274
614.72	12.000
615.06	11.922
615.39	11.093
615.72	10.890
616.05	11.005
616.38	11.562
616.71	11.401
617.05	11.955
617.38	10.884
617.71	12.132
618.04	12.019
618.37	12.478
618.70	12.508
619.03	12.237
619.36	12.288
619.69	11.620
620.03	12.775
620.36	13.436
620.69	13.288
621.02	13.127
621.35	13.782
621.68	13.474
622.01	12.693
622.34	13.011
622.67	13.308
623.00	11.592
623.33	12.866
623.66	11.794
623.99	13.328
624.32	11.769
624.65	13.136
624.99	12.323
625.32	10.717
625.65	13.148
625.98	13.759
626.31	12.286
626.64	14.204
626.97	13.466
627.30	12.884
627.63	12.879
627.96	13.793
628.29	13.823
628.62	14.456
628.95	15.283
629.28	14.142
629.61	14.390
629.94	12.476
630.26	14.204
630.59	14.776
630.92	13.602
631.25	13.228
631.58	14.915
631.91	13.489
632.24	13.819
632.57	14.586
