SpectraSuite Data File
++++++++++++++++++++++++++++++++++++
Date: Wed May 13 19:21:12 PDT 2015
User: schluterlab
Dark Spectrum Present: Yes
Reference Spectrum Present: Yes
Number of Sampled Component Spectra: 1
Spectrometers: USB2E3373
Integration Time (usec): 3000 (USB2E3373)
Spectra Averaged: 3 (USB2E3373)
Boxcar Smoothing: 0 (USB2E3373)
Correct for Electrical Dark: No (USB2E3373)
Strobe/Lamp Enabled: No (USB2E3373)
Correct for Detector Non-linearity: No (USB2E3373)
Correct for Stray Light: No (USB2E3373)
Number of Pixels in Processed Spectrum: 2048
>>>>>Begin Processed Spectral Data<<<<<
178.53	0.000
178.91	-1525.000
179.29	-1300.000
179.67	-288.889
180.04	-1300.000
180.42	3050.000
180.80	1280.000
181.18	-1200.000
181.56	828.571
181.94	0.000
182.31	-771.429
182.69	2166.667
183.07	-662.500
183.45	-611.111
183.83	563.636
184.20	-370.000
184.58	3050.000
184.96	5900.000
185.34	-960.000
185.72	-675.000
186.09	-2550.000
186.47	3200.000
186.85	2500.000
187.23	5000.000
187.61	-1633.333
187.98	1675.000
188.36	600.000
188.74	545.455
189.12	-1000.000
189.49	630.000
189.87	-6000.000
190.25	-1450.000
190.63	485.714
191.00	507.692
191.38	916.667
191.76	-1400.000
192.14	1725.000
192.51	737.500
192.89	1150.000
193.27	750.000
193.65	-1275.000
194.02	550.000
194.40	960.000
194.78	650.000
195.15	533.333
195.53	600.000
195.91	-2150.000
196.29	418.750
196.66	378.947
197.04	-310.000
197.42	0.000
197.79	670.000
198.17	-4400.000
198.55	728.571
198.92	862.500
199.30	1060.000
199.68	0.000
200.05	444.444
200.43	800.000
200.81	4800.000
201.18	1833.333
201.56	-1966.667
201.94	655.556
202.31	722.222
202.69	525.000
203.07	640.000
203.44	0.000
203.82	1500.000
204.19	742.857
204.57	500.000
204.95	850.000
205.32	1600.000
205.70	572.727
206.08	471.429
206.45	2300.000
206.83	425.000
207.20	950.000
207.58	1080.000
207.96	377.778
208.33	750.000
208.71	-966.667
209.08	842.857
209.46	766.667
209.84	581.818
210.21	-1966.667
210.59	1425.000
210.96	-612.500
211.34	2650.000
211.71	640.000
212.09	983.333
212.46	0.000
212.84	2133.333
213.22	1450.000
213.59	-6600.000
213.97	1083.333
214.34	928.571
214.72	654.545
215.09	880.000
215.47	-3200.000
215.84	-2500.000
216.22	2066.667
216.59	464.286
216.97	1400.000
217.34	545.455
217.72	-833.333
218.09	0.000
218.47	-6100.000
218.84	677.778
219.22	957.143
219.59	2000.000
219.97	-771.429
220.34	960.000
220.72	-1933.333
221.09	442.857
221.47	1575.000
221.84	-900.000
222.22	0.000
222.59	1525.000
222.97	-2600.000
223.34	1260.000
223.72	507.692
224.09	1360.000
224.46	2500.000
224.84	-5600.000
225.21	-1200.000
225.59	-5700.000
225.96	640.000
226.34	350.000
226.71	3150.000
227.08	650.000
227.46	660.000
227.83	-1150.000
228.21	-2850.000
228.58	644.444
228.95	-2100.000
229.33	-2700.000
229.70	1566.667
230.08	1014.286
230.45	-1020.000
230.82	400.000
231.20	1000.000
231.57	785.714
231.95	558.333
232.32	290.909
232.69	518.182
233.07	685.714
233.44	392.308
233.81	-1700.000
234.19	326.316
234.56	450.000
234.93	416.667
235.31	454.545
235.68	361.538
236.05	342.857
236.43	206.061
236.80	315.789
237.17	5100.000
237.55	266.667
237.92	232.143
238.29	261.905
238.67	187.097
239.04	210.345
239.41	125.000
239.79	115.217
240.16	161.905
240.53	129.545
240.91	92.157
241.28	94.000
241.65	116.000
242.02	88.406
242.40	101.613
242.77	86.667
243.14	64.516
243.51	77.528
243.89	65.882
244.26	60.000
244.63	61.290
245.00	71.277
245.38	53.465
245.75	55.140
246.12	53.211
246.49	55.474
246.87	56.000
247.24	51.538
247.61	49.286
247.98	43.137
248.36	42.568
248.73	37.580
249.10	41.401
249.47	41.243
249.84	38.503
250.22	32.620
250.59	31.953
250.96	37.374
251.33	34.123
251.70	35.644
252.08	29.048
252.45	29.148
252.82	30.000
253.19	27.234
253.56	29.412
253.94	30.290
254.31	28.125
254.68	31.154
255.05	23.616
255.42	25.610
255.79	27.206
256.16	26.715
256.54	24.735
256.91	28.470
257.28	23.381
257.65	23.102
258.02	24.534
258.39	22.397
258.76	24.080
259.14	26.190
259.51	22.188
259.88	18.012
260.25	25.680
260.62	21.387
260.99	20.807
261.36	22.823
261.73	21.490
262.10	17.151
262.47	20.845
262.85	18.942
263.22	14.815
263.59	24.501
263.96	19.231
264.33	23.238
264.70	22.105
265.07	18.926
265.44	19.949
265.81	18.005
266.18	18.844
266.55	20.976
266.92	20.393
267.29	19.444
267.66	17.431
268.03	18.182
268.40	19.626
268.77	17.184
269.14	18.919
269.51	17.607
269.88	19.114
270.25	17.381
270.62	16.629
270.99	18.710
271.36	17.811
271.73	15.888
272.10	16.957
272.47	19.785
272.84	17.532
273.21	17.191
273.58	16.376
273.95	16.771
274.32	16.942
274.69	15.846
275.06	16.929
275.43	17.447
275.80	15.230
276.17	15.275
276.54	18.503
276.91	16.206
277.28	15.625
277.65	15.474
278.02	16.149
278.39	18.359
278.76	14.909
279.13	17.170
279.50	16.574
279.87	16.534
280.23	14.571
280.60	13.733
280.97	15.712
281.34	14.690
281.71	15.636
282.08	15.547
282.45	13.818
282.82	14.210
283.19	12.478
283.56	16.140
283.92	16.582
284.29	14.109
284.66	13.430
285.03	12.839
285.40	14.789
285.77	14.310
286.14	13.299
286.51	15.000
286.87	14.017
287.24	16.124
287.61	15.088
287.98	12.987
288.35	15.055
288.72	13.551
289.08	14.397
289.45	13.839
289.82	13.659
290.19	12.402
290.56	12.864
290.93	11.782
291.29	12.730
291.66	13.717
292.03	15.698
292.40	14.244
292.77	11.834
293.13	12.388
293.50	12.682
293.87	11.704
294.24	11.407
294.60	10.626
294.97	12.645
295.34	12.976
295.71	12.216
296.08	11.823
296.44	11.142
296.81	10.568
297.18	11.111
297.55	8.839
297.91	10.950
298.28	11.379
298.65	11.880
299.02	10.540
299.38	9.695
299.75	10.512
300.12	9.323
300.48	11.500
300.85	10.727
301.22	10.701
301.59	10.732
301.95	10.705
302.32	10.526
302.69	11.708
303.05	9.333
303.42	9.259
303.79	10.193
304.15	9.557
304.52	10.197
304.89	10.801
305.25	9.861
305.62	9.966
305.99	9.799
306.35	9.284
306.72	9.417
307.09	10.766
307.45	10.923
307.82	9.487
308.19	10.706
308.55	9.385
308.92	10.097
309.29	9.820
309.65	9.756
310.02	9.514
310.38	9.892
310.75	10.348
311.12	10.542
311.48	10.031
311.85	9.119
312.22	9.469
312.58	9.148
312.95	10.137
313.31	8.738
313.68	9.563
314.05	10.848
314.41	8.945
314.78	9.265
315.14	9.732
315.51	9.475
315.87	8.614
316.24	10.129
316.61	8.674
316.97	9.002
317.34	7.534
317.70	8.987
318.07	8.758
318.43	8.904
318.80	9.278
319.16	9.228
319.53	8.724
319.89	9.333
320.26	9.100
320.62	9.722
320.99	10.606
321.35	9.192
321.72	9.138
322.08	10.069
322.45	10.249
322.81	10.562
323.18	10.405
323.54	8.163
323.91	9.717
324.27	10.038
324.64	9.692
325.00	7.394
325.37	11.101
325.73	9.785
326.10	9.444
326.46	8.961
326.83	10.526
327.19	9.821
327.56	9.146
327.92	8.836
328.29	10.115
328.65	9.484
329.01	9.116
329.38	8.788
329.74	8.864
330.11	9.142
330.47	10.285
330.84	11.397
331.20	9.654
331.56	9.358
331.93	9.722
332.29	10.470
332.66	11.062
333.02	9.689
333.38	11.292
333.75	10.695
334.11	10.587
334.48	10.470
334.84	10.386
335.20	9.727
335.57	9.610
335.93	9.286
336.29	8.425
336.66	10.550
337.02	8.688
337.38	9.167
337.75	8.824
338.11	9.758
338.47	9.300
338.84	9.074
339.20	8.349
339.56	10.766
339.93	8.727
340.29	10.145
340.65	9.804
341.02	10.122
341.38	10.498
341.74	8.860
342.11	8.821
342.47	10.308
342.83	9.675
343.20	10.216
343.56	9.099
343.92	9.561
344.28	8.163
344.65	10.060
345.01	9.175
345.37	8.748
345.73	9.560
346.10	9.719
346.46	9.068
346.82	9.967
347.19	8.271
347.55	8.785
347.91	9.385
348.27	10.189
348.63	9.365
349.00	8.981
349.36	9.278
349.72	9.783
350.08	9.724
350.45	10.171
350.81	9.423
351.17	9.157
351.53	9.500
351.89	8.333
352.26	9.787
352.62	9.944
352.98	9.481
353.34	9.203
353.70	8.920
354.07	8.710
354.43	8.651
354.79	8.447
355.15	8.540
355.51	9.512
355.87	9.388
356.24	8.713
356.60	8.340
356.96	9.010
357.32	8.994
357.68	9.134
358.04	8.314
358.40	9.976
358.77	7.981
359.13	8.919
359.49	8.549
359.85	7.778
360.21	7.735
360.57	9.650
360.93	9.538
361.29	8.844
361.66	8.514
362.02	8.731
362.38	9.506
362.74	8.557
363.10	7.994
363.46	7.483
363.82	8.314
364.18	8.223
364.54	9.212
364.90	9.136
365.26	8.382
365.62	8.473
365.98	7.962
366.35	7.521
366.71	8.966
367.07	8.376
367.43	8.563
367.79	8.494
368.15	9.052
368.51	7.340
368.87	8.208
369.23	8.193
369.59	8.762
369.95	8.162
370.31	8.333
370.67	7.826
371.03	8.539
371.39	7.945
371.75	8.235
372.11	7.895
372.47	9.531
372.83	8.862
373.19	7.876
373.55	7.539
373.91	8.395
374.27	7.835
374.63	7.855
374.99	9.040
375.35	8.095
375.71	8.019
376.07	8.505
376.42	7.428
376.78	8.748
377.14	7.531
377.50	8.079
377.86	7.114
378.22	8.281
378.58	7.268
378.94	7.731
379.30	7.188
379.66	7.297
380.02	8.170
380.38	6.800
380.74	7.743
381.09	7.579
381.45	7.867
381.81	7.002
382.17	8.153
382.53	6.792
382.89	8.457
383.25	7.942
383.61	7.869
383.97	7.692
384.32	7.611
384.68	7.001
385.04	7.867
385.40	7.616
385.76	7.740
386.12	6.801
386.48	8.181
386.83	7.826
387.19	8.658
387.55	7.483
387.91	7.437
388.27	6.928
388.62	8.666
388.98	6.511
389.34	8.198
389.70	8.032
390.06	8.428
390.42	7.782
390.77	7.634
391.13	8.296
391.49	7.487
391.85	7.193
392.20	6.814
392.56	7.891
392.92	7.357
393.28	7.219
393.64	7.494
393.99	7.453
394.35	7.878
394.71	6.713
395.07	6.854
395.42	7.169
395.78	6.743
396.14	8.194
396.50	8.835
396.85	7.502
397.21	7.275
397.57	7.626
397.92	7.212
398.28	6.726
398.64	8.005
399.00	7.387
399.35	7.050
399.71	7.581
400.07	8.220
400.42	8.037
400.78	7.841
401.14	7.317
401.49	7.701
401.85	7.381
402.21	7.545
402.57	7.650
402.92	7.818
403.28	6.996
403.63	7.735
403.99	6.433
404.35	7.576
404.70	6.894
405.06	7.746
405.42	8.297
405.77	7.257
406.13	7.506
406.49	7.451
406.84	7.620
407.20	7.033
407.55	7.403
407.91	8.200
408.27	6.892
408.62	7.646
408.98	7.904
409.34	7.196
409.69	7.484
410.05	6.629
410.40	7.156
410.76	7.467
411.11	8.082
411.47	7.093
411.83	7.697
412.18	7.545
412.54	7.347
412.89	8.193
413.25	7.556
413.60	7.906
413.96	7.407
414.31	7.776
414.67	8.302
415.03	7.748
415.38	8.312
415.74	7.267
416.09	7.642
416.45	8.166
416.80	7.204
417.16	8.378
417.51	7.764
417.87	8.028
418.22	8.202
418.58	8.715
418.93	8.047
419.29	8.020
419.64	7.683
420.00	7.988
420.35	7.536
420.71	8.249
421.06	7.160
421.42	8.421
421.77	7.904
422.12	7.243
422.48	6.098
422.83	7.804
423.19	7.348
423.54	8.125
423.90	8.058
424.25	7.873
424.61	8.036
424.96	8.047
425.31	8.029
425.67	7.640
426.02	7.086
426.38	6.899
426.73	8.192
427.09	7.295
427.44	7.533
427.79	7.763
428.15	8.095
428.50	7.782
428.85	8.999
429.21	7.731
429.56	7.206
429.92	7.650
430.27	6.604
430.62	6.759
430.98	7.525
431.33	7.577
431.68	8.168
432.04	7.508
432.39	7.025
432.74	8.618
433.10	7.357
433.45	8.397
433.80	7.151
434.16	7.212
434.51	7.263
434.86	7.868
435.22	6.948
435.57	7.720
435.92	7.431
436.28	8.126
436.63	8.278
436.98	7.155
437.34	8.050
437.69	8.343
438.04	7.364
438.39	7.642
438.75	8.600
439.10	7.486
439.45	7.497
439.81	8.036
440.16	8.244
440.51	7.967
440.86	8.454
441.22	7.453
441.57	8.121
441.92	7.677
442.27	7.804
442.63	8.110
442.98	8.563
443.33	8.261
443.68	7.847
444.03	8.394
444.39	7.205
444.74	7.630
445.09	8.032
445.44	7.436
445.79	8.214
446.15	9.158
446.50	7.970
446.85	7.760
447.20	8.108
447.55	8.208
447.91	8.384
448.26	8.069
448.61	8.253
448.96	8.693
449.31	8.549
449.66	8.610
450.02	8.301
450.37	8.333
450.72	7.727
451.07	8.166
451.42	8.328
451.77	9.571
452.12	9.065
452.47	8.769
452.83	7.401
453.18	8.374
453.53	8.287
453.88	7.442
454.23	8.249
454.58	8.661
454.93	9.091
455.28	8.042
455.63	8.677
455.98	9.345
456.34	8.857
456.69	9.267
457.04	8.421
457.39	8.533
457.74	8.067
458.09	8.626
458.44	8.951
458.79	8.026
459.14	8.860
459.49	8.698
459.84	7.812
460.19	8.014
460.54	8.970
460.89	9.051
461.24	9.350
461.59	9.994
461.94	8.693
462.29	8.902
462.64	8.934
462.99	8.458
463.34	9.600
463.69	9.068
464.04	9.449
464.39	8.638
464.74	8.913
465.09	9.168
465.44	7.756
465.79	8.613
466.14	8.155
466.49	8.343
466.84	8.873
467.19	8.871
467.54	9.250
467.89	8.884
468.24	9.191
468.59	9.280
468.94	8.674
469.29	9.447
469.64	9.772
469.99	9.743
470.34	9.181
470.68	9.842
471.03	9.116
471.38	9.937
471.73	9.793
472.08	10.132
472.43	8.982
472.78	9.414
473.13	9.884
473.48	9.426
473.83	8.902
474.17	8.339
474.52	8.623
474.87	8.990
475.22	9.054
475.57	8.598
475.92	8.497
476.27	8.343
476.61	8.935
476.96	7.861
477.31	8.634
477.66	8.972
478.01	8.625
478.36	9.519
478.70	8.255
479.05	8.626
479.40	8.444
479.75	8.236
480.10	8.549
480.45	8.187
480.79	7.597
481.14	8.659
481.49	8.306
481.84	7.910
482.19	8.542
482.53	8.761
482.88	8.236
483.23	7.664
483.58	8.144
483.92	8.294
484.27	7.625
484.62	7.543
484.97	7.529
485.31	7.500
485.66	6.686
486.01	5.951
486.36	5.752
486.70	5.930
487.05	6.518
487.40	6.563
487.75	6.928
488.09	7.067
488.44	7.805
488.79	7.884
489.13	7.945
489.48	8.116
489.83	7.639
490.17	8.374
490.52	7.972
490.87	7.960
491.22	8.413
491.56	7.699
491.91	7.818
492.26	8.360
492.60	8.387
492.95	7.717
493.30	8.318
493.64	8.259
493.99	8.217
494.34	7.863
494.68	8.608
495.03	8.459
495.37	8.516
495.72	7.895
496.07	9.142
496.41	7.743
496.76	8.223
497.11	8.510
497.45	8.337
497.80	8.541
498.14	8.068
498.49	8.927
498.84	8.437
499.18	8.143
499.53	8.262
499.87	7.829
500.22	8.620
500.56	8.981
500.91	8.125
501.26	8.819
501.60	8.306
501.95	8.341
502.29	8.622
502.64	7.821
502.98	7.994
503.33	8.547
503.67	7.935
504.02	8.372
504.36	8.844
504.71	8.305
505.06	8.771
505.40	8.362
505.75	8.293
506.09	8.017
506.44	7.992
506.78	8.670
507.13	8.430
507.47	9.394
507.82	8.815
508.16	8.663
508.51	8.980
508.85	8.391
509.19	9.082
509.54	8.673
509.88	8.758
510.23	8.946
510.57	8.875
510.92	8.441
511.26	8.993
511.61	9.803
511.95	8.925
512.30	8.802
512.64	9.672
512.98	8.414
513.33	8.672
513.67	8.324
514.02	7.955
514.36	9.011
514.70	8.744
515.05	8.924
515.39	9.422
515.74	9.403
516.08	10.285
516.42	9.046
516.77	9.142
517.11	9.101
517.46	9.255
517.80	8.769
518.14	8.859
518.49	9.510
518.83	9.261
519.17	9.296
519.52	8.885
519.86	9.355
520.20	9.942
520.55	9.455
520.89	10.036
521.23	9.891
521.58	9.304
521.92	9.982
522.26	9.213
522.61	9.595
522.95	9.085
523.29	9.251
523.64	9.756
523.98	9.735
524.32	9.409
524.66	10.343
525.01	9.988
525.35	9.418
525.69	9.360
526.04	10.156
526.38	9.579
526.72	9.571
527.06	9.102
527.41	8.787
527.75	9.904
528.09	9.505
528.43	9.879
528.78	10.080
529.12	9.455
529.46	9.614
529.80	9.963
530.15	10.280
530.49	10.338
530.83	10.380
531.17	10.313
531.51	11.025
531.86	9.806
532.20	10.235
532.54	10.698
532.88	9.371
533.22	9.619
533.57	10.617
533.91	10.175
534.25	9.660
534.59	10.616
534.93	10.351
535.27	9.354
535.62	10.379
535.96	10.107
536.30	9.409
536.64	10.238
536.98	9.754
537.32	9.546
537.66	10.533
538.01	10.072
538.35	10.537
538.69	10.849
539.03	9.812
539.37	8.498
539.71	8.879
540.05	9.412
540.39	9.635
540.73	9.120
541.07	10.578
541.42	10.176
541.76	10.516
542.10	10.931
542.44	10.066
542.78	10.079
543.12	9.341
543.46	10.754
543.80	10.345
544.14	10.013
544.48	10.476
544.82	10.199
545.16	9.759
545.50	9.383
545.84	10.753
546.18	10.505
546.52	11.012
546.86	9.966
547.20	10.991
547.54	9.953
547.88	11.033
548.22	10.149
548.56	10.503
548.90	9.859
549.24	9.966
549.58	9.482
549.92	9.959
550.26	10.511
550.60	10.650
550.94	10.915
551.28	9.949
551.62	10.568
551.96	10.947
552.30	10.580
552.64	10.953
552.98	10.847
553.32	10.654
553.66	10.498
554.00	11.942
554.34	11.180
554.68	11.087
555.02	11.142
555.36	11.204
555.69	10.419
556.03	10.700
556.37	9.891
556.71	11.050
557.05	9.874
557.39	10.147
557.73	10.303
558.07	11.313
558.41	10.709
558.75	10.287
559.08	11.111
559.42	11.187
559.76	11.397
560.10	10.778
560.44	11.251
560.78	9.714
561.12	10.488
561.45	10.626
561.79	9.954
562.13	9.926
562.47	10.383
562.81	9.763
563.15	10.569
563.48	11.340
563.82	10.502
564.16	9.810
564.50	9.961
564.84	9.798
565.17	10.875
565.51	10.735
565.85	10.089
566.19	10.081
566.52	10.640
566.86	10.428
567.20	10.377
567.54	9.760
567.88	8.908
568.21	10.000
568.55	9.505
568.89	9.533
569.23	8.957
569.56	8.826
569.90	8.679
570.24	8.396
570.57	8.296
570.91	7.919
571.25	8.122
571.59	7.923
571.92	7.488
572.26	8.377
572.60	8.018
572.93	8.036
573.27	8.844
573.61	8.068
573.95	8.010
574.28	7.714
574.62	7.629
574.96	7.551
575.29	7.832
575.63	7.825
575.97	7.732
576.30	8.125
576.64	7.506
576.98	7.171
577.31	7.440
577.65	7.535
577.98	7.459
578.32	7.129
578.66	7.589
578.99	7.418
579.33	7.456
579.67	7.638
580.00	7.528
580.34	7.594
580.67	7.516
581.01	7.758
581.35	7.445
581.68	7.513
582.02	7.032
582.35	7.306
582.69	7.637
583.02	7.679
583.36	7.770
583.70	8.017
584.03	7.941
584.37	8.485
584.70	7.889
585.04	8.415
585.37	7.992
585.71	8.083
586.04	7.900
586.38	8.307
586.72	8.451
587.05	7.933
587.39	7.784
587.72	8.323
588.06	8.058
588.39	8.368
588.73	7.950
589.06	8.570
589.40	8.148
589.73	8.413
590.07	9.075
590.40	8.623
590.73	9.485
591.07	9.280
591.40	8.857
591.74	9.524
592.07	9.380
592.41	9.219
592.74	8.652
593.08	8.894
593.41	8.194
593.75	8.495
594.08	8.247
594.41	8.837
594.75	8.133
595.08	9.055
595.42	8.862
595.75	8.547
596.09	9.576
596.42	9.194
596.75	9.244
597.09	10.346
597.42	9.022
597.75	9.185
598.09	9.391
598.42	9.622
598.76	8.756
599.09	8.666
599.42	9.025
599.76	9.004
600.09	8.525
600.42	8.692
600.76	9.143
601.09	8.707
601.42	8.866
601.76	9.184
602.09	8.972
602.42	9.395
602.76	9.754
603.09	9.009
603.42	8.747
603.76	8.651
604.09	8.724
604.42	9.091
604.76	10.164
605.09	9.262
605.42	9.149
605.75	9.065
606.09	8.825
606.42	8.623
606.75	9.374
607.09	9.920
607.42	9.029
607.75	8.776
608.08	8.945
608.42	9.368
608.75	9.423
609.08	9.759
609.41	8.901
609.75	9.957
610.08	9.614
610.41	9.451
610.74	9.272
611.07	9.783
611.41	9.715
611.74	10.206
612.07	10.145
612.40	10.388
612.73	10.526
613.07	10.453
613.40	10.216
613.73	9.649
614.06	9.570
614.39	9.858
614.72	10.263
615.06	10.189
615.39	9.926
615.72	9.458
616.05	9.410
616.38	10.617
616.71	10.333
617.05	10.660
617.38	10.403
617.71	10.270
618.04	10.757
618.37	10.585
618.70	11.077
619.03	11.250
619.36	10.794
619.69	11.127
620.03	10.783
620.36	11.497
620.69	11.575
621.02	11.431
621.35	11.590
621.68	11.137
622.01	11.687
622.34	12.330
622.67	11.559
623.00	11.299
623.33	11.222
623.66	11.508
623.99	11.635
624.32	10.984
624.65	11.441
624.99	10.127
625.32	11.586
625.65	10.969
625.98	12.298
626.31	11.897
626.64	13.143
626.97	12.635
627.30	11.638
627.63	11.567
627.96	12.532
628.29	12.336
628.62	12.351
628.95	13.491
629.28	12.226
629.61	13.199
629.94	12.952
630.26	11.630
630.59	11.821
630.92	12.644
631.25	12.537
631.58	12.613
631.91	13.387
632.24	12.869
632.57	13.221
632.90	14.145
633.23	13.870
633.56	13.785
633.89	14.270
634.22	14.188
634.55	14.556
634.88	12.695
635.20	13.620
635.53	15.181
635.86	14.480
636.19	14.353
636.52	13.379
636.85	14.777
637.18	14.055
637.51	15.957
637.83	12.577
638.16	14.578
638.49	13.980
638.82	16.308
639.15	15.500
639.48	15.835
639.81	15.550
640.13	15.495
640.46	14.765
640.79	14.663
641.12	12.655
641.45	15.363
641.77	15.169
642.10	16.228
642.43	14.715
642.76	16.099
643.09	15.337
643.41	15.023
643.74	17.284
644.07	16.159
644.40	15.798
644.73	17.008
645.05	18.225
645.38	15.482
645.71	15.781
646.04	17.608
646.36	19.032
646.69	18.395
647.02	16.156
647.35	17.698
