SpectraSuite Data File
++++++++++++++++++++++++++++++++++++
Date: Tue May 12 19:53:07 PDT 2015
User: schluterlab
Dark Spectrum Present: Yes
Reference Spectrum Present: Yes
Number of Sampled Component Spectra: 1
Spectrometers: USB2E3373
Integration Time (usec): 3000 (USB2E3373)
Spectra Averaged: 3 (USB2E3373)
Boxcar Smoothing: 0 (USB2E3373)
Correct for Electrical Dark: No (USB2E3373)
Strobe/Lamp Enabled: No (USB2E3373)
Correct for Detector Non-linearity: No (USB2E3373)
Correct for Stray Light: No (USB2E3373)
Number of Pixels in Processed Spectrum: 2048
>>>>>Begin Processed Spectral Data<<<<<
178.53	0.000
178.91	-90.000
179.29	-183.333
179.67	666.667
180.04	0.000
180.42	-420.000
180.80	-466.667
181.18	1350.000
181.56	-750.000
181.94	466.667
182.31	1600.000
182.69	-85.714
183.07	0.000
183.45	300.000
183.83	380.000
184.20	316.667
184.58	1150.000
184.96	483.333
185.34	-400.000
185.72	-114.286
186.09	-283.333
186.47	-1900.000
186.85	-80.000
187.23	250.000
187.61	-242.857
187.98	-380.000
188.36	800.000
188.74	-125.000
189.12	-77.778
189.49	-160.000
189.87	475.000
190.25	211.111
190.63	966.667
191.00	320.000
191.38	-533.333
191.76	380.000
192.14	-185.714
192.51	-130.000
192.89	-220.000
193.27	-100.000
193.65	-200.000
194.02	-150.000
194.40	1000.000
194.78	-287.500
195.15	-300.000
195.53	566.667
195.91	380.000
196.29	-450.000
196.66	-400.000
197.04	-314.286
197.42	220.000
197.79	-225.000
198.17	-200.000
198.55	-200.000
198.92	-77.778
199.30	500.000
199.68	-300.000
200.05	-1200.000
200.43	-50.000
200.81	-108.333
201.18	366.667
201.56	-950.000
201.94	-2200.000
202.31	-125.000
202.69	-66.667
203.07	-50.000
203.44	-750.000
203.82	0.000
204.19	337.500
204.57	-733.333
204.95	254.545
205.32	280.000
205.70	625.000
206.08	-2300.000
206.45	-200.000
206.83	2500.000
207.20	-66.667
207.58	-76.923
207.96	700.000
208.33	733.333
208.71	833.333
209.08	1050.000
209.46	-88.889
209.84	766.667
210.21	-866.667
210.59	550.000
210.96	288.889
211.34	-500.000
211.71	1350.000
212.09	-380.000
212.46	-300.000
212.84	-262.500
213.22	257.143
213.59	-75.000
213.97	0.000
214.34	-600.000
214.72	-1800.000
215.09	850.000
215.47	-46.667
215.84	-212.500
216.22	-1300.000
216.59	2000.000
216.97	-108.333
217.34	-250.000
217.72	-55.556
218.09	500.000
218.47	-57.895
218.84	-275.000
219.22	-57.143
219.59	-90.000
219.97	-160.000
220.34	366.667
220.72	163.636
221.09	-750.000
221.47	0.000
221.84	900.000
222.22	-500.000
222.59	-550.000
222.97	-39.130
223.34	166.667
223.72	257.143
224.09	-250.000
224.46	176.923
224.84	-93.333
225.21	-500.000
225.59	-225.000
225.96	-10.000
226.34	333.333
226.71	230.000
227.08	-161.538
227.46	-357.143
227.83	-50.000
228.21	-1100.000
228.58	366.667
228.95	-78.947
229.33	-62.500
229.70	-200.000
230.08	-188.889
230.45	-766.667
230.82	-1100.000
231.20	-38.095
231.57	-480.000
231.95	-600.000
232.32	200.000
232.69	-700.000
233.07	-37.500
233.44	-137.500
233.81	-19.355
234.19	-320.000
234.56	-88.889
234.93	-300.000
235.31	-22.222
235.68	-37.037
236.05	-38.462
236.43	-100.000
236.80	-54.545
237.17	-114.286
237.55	-160.000
237.92	-9.302
238.29	-22.581
238.67	-53.571
239.04	-22.857
239.41	-37.255
239.79	-30.000
240.16	-42.500
240.53	-25.862
240.91	-4.110
241.28	-7.042
241.65	-1.563
242.02	-31.579
242.40	-18.667
242.77	-5.263
243.14	-8.235
243.51	-7.527
243.89	-13.333
244.26	-2.778
244.63	-2.041
245.00	-8.036
245.38	-4.202
245.75	-4.237
246.12	4.688
246.49	0.800
246.87	-0.820
247.24	-7.746
247.61	3.974
247.98	2.247
248.36	2.516
248.73	1.705
249.10	1.667
249.47	3.646
249.84	6.091
250.22	-2.083
250.59	-2.247
250.96	0.000
251.33	5.660
251.70	6.881
252.08	6.061
252.45	5.306
252.82	2.110
253.19	3.891
253.56	6.667
253.94	7.724
254.31	8.993
254.68	4.861
255.05	12.252
255.42	4.727
255.79	5.298
256.16	6.597
256.54	7.273
256.91	7.372
257.28	6.169
257.65	4.262
258.02	9.610
258.39	10.272
258.76	4.281
259.14	3.824
259.51	7.606
259.88	8.934
260.25	1.420
260.62	4.775
260.99	7.242
261.36	2.586
261.73	6.400
262.10	9.809
262.47	4.132
262.85	7.455
263.22	5.914
263.59	6.702
263.96	5.222
264.33	2.695
264.70	6.634
265.07	4.680
265.44	10.070
265.81	6.506
266.18	2.342
266.55	4.762
266.92	8.036
267.29	8.222
267.66	2.045
268.03	9.892
268.40	4.577
268.77	5.791
269.14	5.042
269.51	5.204
269.88	7.692
270.25	4.008
270.62	7.143
270.99	5.263
271.36	5.298
271.73	4.375
272.10	2.282
272.47	4.400
272.84	2.335
273.21	3.132
273.58	4.898
273.95	4.183
274.32	6.383
274.69	6.654
275.06	2.439
275.43	2.200
275.80	4.207
276.17	2.569
276.54	6.464
276.91	3.071
277.28	4.449
277.65	3.025
278.02	5.303
278.39	4.356
278.76	2.421
279.13	5.725
279.50	5.054
279.87	6.415
280.23	3.643
280.60	5.830
280.97	2.988
281.34	3.390
281.71	3.020
282.08	3.757
282.45	3.704
282.82	4.040
283.19	4.377
283.56	4.949
283.92	4.581
284.29	4.061
284.66	2.655
285.03	0.858
285.40	4.500
285.77	5.255
286.14	5.071
286.51	2.412
286.87	5.835
287.24	2.564
287.61	4.012
287.98	5.790
288.35	3.876
288.72	3.823
289.08	2.516
289.45	3.900
289.82	4.348
290.19	4.242
290.56	6.078
290.93	4.579
291.29	5.816
291.66	4.635
292.03	5.308
292.40	5.899
292.77	4.082
293.13	3.818
293.50	5.372
293.87	4.438
294.24	5.478
294.60	6.557
294.97	4.155
295.34	4.658
295.71	3.606
296.08	4.235
296.44	4.216
296.81	3.493
297.18	6.727
297.55	3.769
297.91	4.315
298.28	4.604
298.65	6.468
299.02	5.179
299.38	4.719
299.75	5.019
300.12	4.317
300.48	4.695
300.85	3.667
301.22	5.048
301.59	3.771
301.95	4.512
302.32	3.767
302.69	3.805
303.05	5.313
303.42	5.193
303.79	3.596
304.15	4.643
304.52	4.804
304.89	4.397
305.25	5.161
305.62	4.886
305.99	6.607
306.35	5.928
306.72	6.209
307.09	6.311
307.45	5.394
307.82	5.977
308.19	6.601
308.55	6.857
308.92	6.250
309.29	5.544
309.65	6.914
310.02	7.128
310.38	7.463
310.75	6.865
311.12	7.325
311.48	8.428
311.85	7.092
312.22	7.128
312.58	8.056
312.95	8.727
313.31	8.555
313.68	9.533
314.05	10.228
314.41	9.136
314.78	9.749
315.14	10.578
315.51	10.129
315.87	12.109
316.24	11.672
316.61	12.427
316.97	10.980
317.34	11.866
317.70	12.325
318.07	13.308
318.43	12.665
318.80	14.299
319.16	12.768
319.53	14.906
319.89	14.489
320.26	14.454
320.62	15.601
320.99	16.531
321.35	15.711
321.72	16.566
322.08	16.436
322.45	17.160
322.81	18.128
323.18	17.066
323.54	19.716
323.91	19.165
324.27	18.901
324.64	19.494
325.00	20.291
325.37	20.054
325.73	19.708
326.10	21.454
326.46	20.399
326.83	21.724
327.19	22.969
327.56	25.111
327.92	22.135
328.29	22.760
328.65	25.330
329.01	24.862
329.38	23.508
329.74	25.348
330.11	24.977
330.47	25.233
330.84	25.752
331.20	25.416
331.56	25.189
331.93	26.258
332.29	25.717
332.66	27.125
333.02	26.741
333.38	28.768
333.75	27.722
334.11	27.034
334.48	25.492
334.84	25.352
335.20	26.858
335.57	26.885
335.93	27.349
336.29	28.611
336.66	27.505
337.02	27.561
337.38	28.396
337.75	29.182
338.11	28.715
338.47	28.969
338.84	29.466
339.20	28.964
339.56	27.959
339.93	28.108
340.29	28.015
340.65	29.589
341.02	29.495
341.38	28.155
341.74	29.093
342.11	28.559
342.47	29.808
342.83	29.055
343.20	29.885
343.56	30.682
343.92	30.971
344.28	30.360
344.65	28.425
345.01	29.965
345.37	30.513
345.73	30.405
346.10	30.251
346.46	28.818
346.82	30.671
347.19	30.109
347.55	30.102
347.91	29.320
348.27	31.845
348.63	31.374
349.00	31.386
349.36	30.833
349.72	31.281
350.08	30.687
350.45	32.221
350.81	32.205
351.17	31.878
351.53	31.804
351.89	33.247
352.26	31.789
352.62	31.807
352.98	32.636
353.34	32.331
353.70	30.864
354.07	32.619
354.43	31.636
354.79	32.787
355.15	32.365
355.51	32.763
355.87	33.972
356.24	33.578
356.60	32.721
356.96	32.938
357.32	34.403
357.68	34.447
358.04	34.684
358.40	33.061
358.77	34.297
359.13	33.815
359.49	33.520
359.85	34.452
360.21	34.179
360.57	36.045
360.93	36.421
361.29	35.748
361.66	35.174
362.02	36.028
362.38	36.208
362.74	36.280
363.10	35.445
363.46	36.117
363.82	37.136
364.18	36.488
364.54	37.557
364.90	37.926
365.26	37.407
365.62	37.774
365.98	39.055
366.35	38.805
366.71	37.715
367.07	39.114
367.43	39.134
367.79	37.645
368.15	38.992
368.51	40.449
368.87	40.896
369.23	41.257
369.59	40.000
369.95	39.046
370.31	40.303
370.67	40.752
371.03	42.105
371.39	41.767
371.75	41.233
372.11	40.593
372.47	41.351
372.83	41.782
373.19	43.072
373.55	42.440
373.91	43.258
374.27	43.635
374.63	42.784
374.99	43.704
375.35	44.267
375.71	45.265
376.07	44.735
376.42	44.744
376.78	44.739
377.14	45.461
377.50	46.033
377.86	45.822
378.22	46.433
378.58	47.434
378.94	46.103
379.30	45.367
379.66	46.479
380.02	46.726
380.38	47.964
380.74	48.104
381.09	47.776
381.45	48.889
381.81	48.788
382.17	48.795
382.53	50.427
382.89	49.711
383.25	48.763
383.61	49.332
383.97	50.227
384.32	49.871
384.68	53.129
385.04	50.859
385.40	51.374
385.76	51.866
386.12	52.871
386.48	52.642
386.83	52.600
387.19	52.810
387.55	54.663
387.91	52.648
388.27	53.743
388.62	54.339
388.98	55.280
389.34	54.262
389.70	55.321
390.06	55.050
390.42	56.457
390.77	58.350
391.13	57.059
391.49	58.154
391.85	56.687
392.20	58.482
392.56	56.778
392.92	57.885
393.28	57.630
393.64	59.341
393.99	58.377
394.35	58.793
394.71	59.139
395.07	59.151
395.42	58.921
395.78	60.148
396.14	61.226
396.50	61.514
396.85	60.872
397.21	58.926
397.57	60.632
397.92	61.514
398.28	62.530
398.64	61.460
399.00	61.405
399.35	63.834
399.71	61.138
400.07	62.508
400.42	64.487
400.78	64.107
401.14	63.826
401.49	64.335
401.85	62.921
402.21	63.959
402.57	63.297
402.92	66.003
403.28	64.889
403.63	65.128
403.99	64.927
404.35	65.541
404.70	66.118
405.06	67.762
405.42	67.014
405.77	65.577
406.13	66.308
406.49	68.265
406.84	68.804
407.20	67.224
407.55	69.205
407.91	69.790
408.27	68.551
408.62	67.717
408.98	68.597
409.34	68.886
409.69	68.562
410.05	68.264
410.40	68.593
410.76	68.431
411.11	70.524
411.47	69.048
411.83	69.028
412.18	68.979
412.54	70.634
412.89	69.301
413.25	71.912
413.60	72.194
413.96	70.939
414.31	69.598
414.67	72.384
415.03	71.923
415.38	75.000
415.74	71.122
416.09	71.192
416.45	71.904
416.80	72.670
417.16	72.496
417.51	73.699
417.87	72.640
418.22	74.532
418.58	74.292
418.93	73.436
419.29	73.881
419.64	75.687
420.00	74.591
420.35	74.262
420.71	74.456
421.06	76.055
421.42	75.345
421.77	75.213
422.12	74.365
422.48	75.443
422.83	76.170
423.19	76.765
423.54	76.298
423.90	76.143
424.25	77.462
424.61	78.194
424.96	76.843
425.31	77.295
425.67	77.091
426.02	77.888
426.38	76.255
426.73	76.947
427.09	76.625
427.44	77.593
427.79	77.599
428.15	77.869
428.50	77.073
428.85	77.421
429.21	78.900
429.56	77.845
429.92	78.637
430.27	78.400
430.62	78.042
430.98	75.336
431.33	79.978
431.68	78.446
432.04	78.769
432.39	78.907
432.74	80.266
433.10	79.260
433.45	79.481
433.80	78.750
434.16	78.884
434.51	78.484
434.86	80.604
435.22	78.114
435.57	81.926
435.92	78.762
436.28	79.826
436.63	80.799
436.98	80.556
437.34	81.830
437.69	80.926
438.04	81.070
438.39	81.266
438.75	79.569
439.10	81.012
439.45	83.119
439.81	80.508
440.16	82.870
440.51	80.359
440.86	83.081
441.22	79.809
441.57	79.658
441.92	81.999
442.27	82.343
442.63	81.772
442.98	83.985
443.33	81.962
443.68	81.143
444.03	81.237
444.39	82.353
444.74	81.740
445.09	82.409
445.44	81.866
445.79	82.956
446.15	82.041
446.50	83.690
446.85	82.068
447.20	82.823
447.55	81.210
447.91	81.599
448.26	82.493
448.61	82.538
448.96	82.259
449.31	81.495
449.66	81.780
450.02	81.598
450.37	81.835
450.72	82.047
451.07	82.465
451.42	83.004
451.77	81.526
452.12	82.206
452.47	83.266
452.83	80.946
453.18	82.377
453.53	83.867
453.88	83.791
454.23	82.428
454.58	82.572
454.93	82.493
455.28	82.756
455.63	80.637
455.98	82.995
456.34	81.849
456.69	82.735
457.04	82.152
457.39	82.147
457.74	83.439
458.09	81.829
458.44	82.281
458.79	80.860
459.14	82.111
459.49	82.229
459.84	82.283
460.19	80.238
460.54	80.682
460.89	82.000
461.24	82.662
461.59	83.344
461.94	80.408
462.29	81.892
462.64	81.685
462.99	84.119
463.34	79.341
463.69	81.413
464.04	82.104
464.39	81.093
464.74	80.857
465.09	81.029
465.44	79.664
465.79	80.927
466.14	79.893
466.49	79.655
466.84	79.423
467.19	78.882
467.54	78.714
467.89	79.033
468.24	79.609
468.59	79.319
468.94	80.229
469.29	81.176
469.64	81.109
469.99	80.029
470.34	79.632
470.68	80.000
471.03	80.073
471.38	79.432
471.73	79.869
472.08	80.142
472.43	80.775
472.78	79.768
473.13	79.649
473.48	83.057
473.83	81.308
474.17	80.053
474.52	80.040
474.87	80.492
475.22	79.161
475.57	79.083
475.92	80.898
476.27	79.566
476.61	79.137
476.96	78.601
477.31	78.196
477.66	79.895
478.01	79.223
478.36	77.765
478.70	80.507
479.05	79.977
479.40	78.828
479.75	82.053
480.10	79.816
480.45	79.529
480.79	80.384
481.14	79.652
481.49	78.869
481.84	79.394
482.19	77.707
482.53	79.363
482.88	78.851
483.23	78.342
483.58	77.475
483.92	77.286
484.27	77.832
484.62	80.009
484.97	77.329
485.31	76.334
485.66	76.036
486.01	74.393
486.36	76.884
486.70	77.911
487.05	78.542
487.40	77.266
487.75	75.981
488.09	74.185
488.44	75.778
488.79	75.229
489.13	76.101
489.48	75.839
489.83	75.451
490.17	76.699
490.52	76.195
490.87	77.992
491.22	76.282
491.56	77.619
491.91	77.209
492.26	79.092
492.60	77.755
492.95	78.439
493.30	78.463
493.64	76.471
493.99	78.080
494.34	77.952
494.68	76.115
495.03	75.304
495.37	76.939
495.72	77.162
496.07	76.065
496.41	75.840
496.76	75.979
497.11	77.203
497.45	77.750
497.80	76.116
498.14	76.769
498.49	76.188
498.84	75.786
499.18	75.402
499.53	76.220
499.87	74.859
500.22	77.039
500.56	76.138
500.91	76.350
501.26	75.538
501.60	74.159
501.95	77.584
502.29	76.501
502.64	74.664
502.98	74.306
503.33	74.838
503.67	74.987
504.02	75.587
504.36	75.706
504.71	74.468
505.06	75.629
505.40	77.105
505.75	75.935
506.09	76.327
506.44	76.180
506.78	75.857
507.13	75.733
507.47	76.510
507.82	74.386
508.16	75.780
508.51	75.602
508.85	76.868
509.19	74.877
509.54	75.467
509.88	75.432
510.23	76.461
510.57	75.355
510.92	75.624
511.26	75.646
511.61	75.000
511.95	76.403
512.30	76.000
512.64	76.540
512.98	75.605
513.33	73.916
513.67	76.407
514.02	75.120
514.36	75.030
514.70	76.138
515.05	77.439
515.39	77.039
515.74	76.629
516.08	74.451
516.42	77.750
516.77	77.143
517.11	76.147
517.46	76.702
517.80	76.771
518.14	77.293
518.49	78.331
518.83	77.237
519.17	77.378
519.52	76.765
519.86	77.201
520.20	75.987
520.55	76.762
520.89	77.868
521.23	75.818
521.58	76.521
521.92	75.501
522.26	76.838
522.61	78.089
522.95	77.740
523.29	76.923
523.64	77.001
523.98	76.882
524.32	78.788
524.66	77.090
525.01	77.251
525.35	75.718
525.69	75.912
526.04	77.942
526.38	78.136
526.72	76.389
527.06	77.075
527.41	77.888
527.75	78.607
528.09	76.662
528.43	77.605
528.78	76.799
529.12	77.192
529.46	76.478
529.80	76.378
530.15	77.554
530.49	77.615
530.83	78.597
531.17	77.260
531.51	77.231
531.86	74.370
532.20	74.170
532.54	75.827
532.88	76.145
533.22	77.514
533.57	74.069
533.91	77.495
534.25	77.054
534.59	77.235
534.93	75.688
535.27	75.421
535.62	75.152
535.96	75.715
536.30	75.087
536.64	77.039
536.98	76.254
537.32	77.530
537.66	74.340
538.01	75.552
538.35	74.400
538.69	74.452
539.03	75.775
539.37	74.587
539.71	76.449
540.05	75.470
540.39	75.672
540.73	75.165
541.07	76.471
541.42	74.626
541.76	75.755
542.10	74.605
542.44	74.277
542.78	73.387
543.12	73.863
543.46	74.292
543.80	73.338
544.14	74.480
544.48	73.614
544.82	74.237
545.16	73.768
545.50	74.381
545.84	73.372
546.18	73.783
546.52	74.942
546.86	73.451
547.20	75.606
547.54	73.920
547.88	72.080
548.22	71.449
548.56	74.700
548.90	73.053
549.24	73.099
549.58	72.355
549.92	72.857
550.26	71.892
550.60	75.099
550.94	72.302
551.28	74.390
551.62	74.038
551.96	73.003
552.30	73.101
552.64	72.427
552.98	71.322
553.32	73.106
553.66	70.789
554.00	72.432
554.34	73.438
554.68	73.126
555.02	71.905
555.36	71.406
555.69	72.175
556.03	71.471
556.37	70.218
556.71	71.267
557.05	71.406
557.39	71.165
557.73	70.047
558.07	70.501
558.41	70.231
558.75	73.776
559.08	72.170
559.42	72.408
559.76	71.778
560.10	69.764
560.44	72.288
560.78	69.497
561.12	70.924
561.45	71.726
561.79	71.219
562.13	70.348
562.47	71.330
562.81	70.281
563.15	69.886
563.48	69.588
563.82	69.287
564.16	69.086
564.50	68.052
564.84	69.313
565.17	69.027
565.51	67.769
565.85	68.451
566.19	69.241
566.52	69.104
566.86	70.014
567.20	68.064
567.54	67.964
567.88	67.051
568.21	69.226
568.55	66.214
568.89	67.363
569.23	66.767
569.56	66.115
569.90	66.381
570.24	65.327
570.57	64.823
570.91	65.357
571.25	64.910
571.59	65.082
571.92	62.791
572.26	62.296
572.60	64.432
572.93	63.621
573.27	61.681
573.61	61.777
573.95	62.716
574.28	62.841
574.62	60.902
574.96	62.243
575.29	60.558
575.63	61.729
575.97	61.205
576.30	61.538
576.64	60.832
576.98	61.216
577.31	61.062
577.65	61.874
577.98	60.419
578.32	60.910
578.66	60.838
578.99	61.516
579.33	60.138
579.67	60.068
580.00	59.865
580.34	59.202
580.67	59.613
581.01	59.950
581.35	59.650
581.68	59.671
582.02	59.110
582.35	59.751
582.69	59.368
583.02	59.150
583.36	59.684
583.70	59.676
584.03	58.848
584.37	59.463
584.70	59.007
585.04	58.304
585.37	58.421
585.71	58.736
586.04	59.166
586.38	58.513
586.72	58.905
587.05	59.361
587.39	58.312
587.72	58.127
588.06	59.181
588.39	58.954
588.73	59.463
589.06	58.287
589.40	58.747
589.73	59.162
590.07	58.459
590.40	59.233
590.73	59.184
591.07	58.182
591.40	58.429
591.74	58.582
592.07	60.411
592.41	59.185
592.74	58.798
593.08	58.077
593.41	57.593
593.75	57.937
594.08	58.527
594.41	59.005
594.75	58.575
595.08	57.265
595.42	57.116
595.75	57.500
596.09	57.286
596.42	57.886
596.75	58.318
597.09	56.437
597.42	58.048
597.75	57.880
598.09	57.350
598.42	56.886
598.76	57.286
599.09	56.471
599.42	55.862
599.76	56.650
600.09	56.979
600.42	55.703
600.76	55.543
601.09	56.510
601.42	55.918
601.76	56.899
602.09	56.556
602.42	56.969
602.76	56.239
603.09	56.745
603.42	55.920
603.76	55.686
604.09	56.767
604.42	55.646
604.76	56.276
605.09	55.125
605.42	56.256
605.75	55.596
606.09	55.822
606.42	55.162
606.75	54.751
607.09	56.950
607.42	56.081
607.75	55.418
608.08	54.490
608.42	55.529
608.75	55.078
609.08	54.720
609.41	55.054
609.75	54.871
610.08	54.625
610.41	54.198
610.74	54.702
611.07	55.262
611.41	54.925
611.74	54.244
612.07	54.967
612.40	54.986
612.73	54.861
613.07	54.610
613.40	55.779
613.73	54.296
614.06	53.279
614.39	54.833
614.72	54.250
615.06	53.904
615.39	54.446
615.72	53.583
616.05	54.841
616.38	54.626
616.71	53.918
617.05	53.015
617.38	53.419
617.71	54.409
618.04	54.271
618.37	55.199
618.70	55.435
619.03	55.402
619.36	55.155
619.69	53.810
620.03	55.530
620.36	55.631
620.69	52.402
621.02	55.344
621.35	55.319
621.68	57.516
622.01	55.882
622.34	53.350
622.67	52.867
623.00	55.528
623.33	53.622
623.66	55.618
623.99	55.821
624.32	54.249
624.65	54.297
624.99	54.141
625.32	53.791
625.65	53.002
625.98	54.333
626.31	54.719
626.64	54.865
626.97	56.250
627.30	56.111
627.63	55.535
627.96	54.749
628.29	55.163
628.62	55.155
628.95	55.016
629.28	54.236
629.61	55.590
629.94	56.120
630.26	54.603
630.59	53.822
630.92	53.109
631.25	53.631
631.58	55.116
631.91	55.125
632.24	56.213
632.57	55.410
632.90	57.319
633.23	56.774
633.56	54.465
633.89	55.673
634.22	55.128
634.55	56.373
634.88	53.681
635.20	56.712
