SpectraSuite Data File
++++++++++++++++++++++++++++++++++++
Date: Wed May 13 19:46:51 PDT 2015
User: schluterlab
Dark Spectrum Present: Yes
Reference Spectrum Present: Yes
Number of Sampled Component Spectra: 1
Spectrometers: USB2E3373
Integration Time (usec): 3000 (USB2E3373)
Spectra Averaged: 3 (USB2E3373)
Boxcar Smoothing: 0 (USB2E3373)
Correct for Electrical Dark: No (USB2E3373)
Strobe/Lamp Enabled: No (USB2E3373)
Correct for Detector Non-linearity: No (USB2E3373)
Correct for Stray Light: No (USB2E3373)
Number of Pixels in Processed Spectrum: 2048
>>>>>Begin Processed Spectral Data<<<<<
178.53	0.000
178.91	-1250.000
179.29	-1075.000
179.67	-227.778
180.04	-1050.000
180.42	2300.000
180.80	1180.000
181.18	-975.000
181.56	557.143
181.94	0.000
182.31	-642.857
182.69	1833.333
183.07	-650.000
183.45	-544.444
183.83	618.182
184.20	-430.000
184.58	2650.000
184.96	5300.000
185.34	-880.000
185.72	-612.500
186.09	-2200.000
186.47	2250.000
186.85	2700.000
187.23	4500.000
187.61	-1400.000
187.98	1675.000
188.36	554.545
188.74	536.364
189.12	-980.000
189.49	600.000
189.87	-4800.000
190.25	-1375.000
190.63	392.857
191.00	384.615
191.38	883.333
191.76	-1400.000
192.14	1475.000
192.51	675.000
192.89	1233.333
193.27	750.000
193.65	-1075.000
194.02	520.000
194.40	1040.000
194.78	560.000
195.15	500.000
195.53	590.000
195.91	-2350.000
196.29	281.250
196.66	331.579
197.04	-340.000
197.42	0.000
197.79	610.000
198.17	-4600.000
198.55	771.429
198.92	725.000
199.30	840.000
199.68	0.000
200.05	383.333
200.43	771.429
200.81	4500.000
201.18	1700.000
201.56	-1733.333
201.94	544.444
202.31	588.889
202.69	508.333
203.07	480.000
203.44	0.000
203.82	1175.000
204.19	714.286
204.57	442.857
204.95	737.500
205.32	1633.333
205.70	590.909
206.08	400.000
206.45	2700.000
206.83	325.000
207.20	1066.667
207.58	820.000
207.96	372.222
208.33	775.000
208.71	-916.667
209.08	800.000
209.46	600.000
209.84	463.636
210.21	-1733.333
210.59	1550.000
210.96	-612.500
211.34	2700.000
211.71	610.000
212.09	700.000
212.46	0.000
212.84	1600.000
213.22	1550.000
213.59	-4200.000
213.97	816.667
214.34	814.286
214.72	572.727
215.09	1200.000
215.47	-2300.000
215.84	-2700.000
216.22	1366.667
216.59	435.714
216.97	1175.000
217.34	454.545
217.72	-800.000
218.09	0.000
218.47	-4600.000
218.84	777.778
219.22	900.000
219.59	1600.000
219.97	-642.857
220.34	820.000
220.72	-1700.000
221.09	400.000
221.47	1475.000
221.84	-850.000
222.22	0.000
222.59	1650.000
222.97	-2900.000
223.34	1320.000
223.72	461.538
224.09	1020.000
224.46	2200.000
224.84	-5800.000
225.21	-780.000
225.59	-4700.000
225.96	560.000
226.34	310.000
226.71	2350.000
227.08	575.000
227.46	660.000
227.83	-1275.000
228.21	-2500.000
228.58	566.667
228.95	-2250.000
229.33	-2000.000
229.70	1800.000
230.08	800.000
230.45	-900.000
230.82	500.000
231.20	916.667
231.57	628.571
231.95	533.333
232.32	277.273
232.69	409.091
233.07	728.571
233.44	361.538
233.81	-1866.667
234.19	326.316
234.56	450.000
234.93	358.333
235.31	527.273
235.68	392.308
236.05	342.857
236.43	175.758
236.80	236.842
237.17	5200.000
237.55	252.381
237.92	242.857
238.29	242.857
238.67	219.355
239.04	227.586
239.41	150.000
239.79	128.261
240.16	164.286
240.53	150.000
240.91	109.804
241.28	122.000
241.65	128.000
242.02	108.696
242.40	96.774
242.77	121.667
243.14	84.946
243.51	89.888
243.89	88.235
244.26	78.889
244.63	82.796
245.00	74.468
245.38	75.248
245.75	73.832
246.12	65.138
246.49	67.883
246.87	75.200
247.24	74.615
247.61	60.714
247.98	56.863
248.36	56.081
248.73	64.968
249.10	61.146
249.47	54.237
249.84	52.941
250.22	52.941
250.59	59.172
250.96	55.051
251.33	57.820
251.70	53.465
252.08	55.714
252.45	44.395
252.82	47.391
253.19	53.191
253.56	47.843
253.94	54.357
254.31	47.266
254.68	47.692
255.05	46.494
255.42	45.935
255.79	49.632
256.16	46.931
256.54	44.523
256.91	44.840
257.28	45.683
257.65	45.545
258.02	42.547
258.39	44.164
258.76	40.803
259.14	43.452
259.51	41.945
259.88	40.683
260.25	43.807
260.62	42.486
260.99	43.789
261.36	40.240
261.73	40.688
262.10	46.221
262.47	43.380
262.85	39.276
263.22	43.305
263.59	41.880
263.96	39.560
264.33	39.164
264.70	41.316
265.07	38.363
265.44	41.414
265.81	38.686
266.18	41.960
266.55	41.463
266.92	37.838
267.29	38.889
267.66	38.073
268.03	38.409
268.40	38.551
268.77	38.663
269.14	37.387
269.51	39.278
269.88	36.131
270.25	38.375
270.62	38.652
270.99	40.215
271.36	37.554
271.73	39.019
272.10	36.957
272.47	39.355
272.84	37.013
273.21	38.365
273.58	33.843
273.95	34.382
274.32	35.331
274.69	37.687
275.06	34.646
275.43	37.234
275.80	36.273
276.17	36.864
276.54	35.967
276.91	35.178
277.28	35.156
277.65	35.590
278.02	34.161
278.39	37.500
278.76	35.818
279.13	37.170
279.50	35.754
279.87	35.657
280.23	36.727
280.60	35.203
280.97	35.490
281.34	33.274
281.71	35.091
282.08	36.660
282.45	35.273
282.82	35.346
283.19	32.264
283.56	35.088
283.92	36.717
284.29	32.628
284.66	35.390
285.03	35.443
285.40	32.746
285.77	33.165
286.14	31.779
286.51	33.000
286.87	35.385
287.24	37.134
287.61	32.103
287.98	33.442
288.35	31.220
288.72	32.087
289.08	32.551
289.45	32.619
289.82	30.244
290.19	30.141
290.56	29.403
290.93	29.758
291.29	29.908
291.66	29.351
292.03	32.558
292.40	30.543
292.77	30.325
293.13	28.955
293.50	29.446
293.87	29.333
294.24	28.741
294.60	27.802
294.97	31.105
295.34	29.196
295.71	26.705
296.08	27.493
296.44	26.823
296.81	26.552
297.18	28.862
297.55	24.406
297.91	27.309
298.28	27.979
298.65	28.851
299.02	27.800
299.38	25.896
299.75	24.528
300.12	25.287
300.48	24.250
300.85	26.880
301.22	25.096
301.59	26.894
301.95	26.574
302.32	24.647
302.69	25.090
303.05	25.212
303.42	24.691
303.79	25.934
304.15	24.009
304.52	23.059
304.89	23.810
305.25	23.898
305.62	24.349
305.99	24.911
306.35	24.609
306.72	24.215
307.09	24.639
307.45	24.662
307.82	24.330
308.19	24.062
308.55	25.890
308.92	24.060
309.29	23.337
309.65	24.178
310.02	24.419
310.38	23.441
310.75	24.287
311.12	24.360
311.48	24.556
311.85	25.157
312.22	24.454
312.58	23.701
312.95	26.082
313.31	24.660
313.68	26.403
314.05	26.923
314.41	26.131
314.78	25.881
315.14	26.117
315.51	25.953
315.87	25.743
316.24	27.408
316.61	27.778
316.97	26.321
317.34	27.397
317.70	28.394
318.07	28.200
318.43	29.746
318.80	30.928
319.16	29.567
319.53	29.831
319.89	30.952
320.26	32.100
320.62	32.738
320.99	32.727
321.35	33.838
321.72	33.470
322.08	34.452
322.45	35.224
322.81	35.659
323.18	36.994
323.54	36.827
323.91	40.000
324.27	39.388
324.64	39.795
325.00	41.479
325.37	43.221
325.73	44.704
326.10	43.160
326.46	46.147
326.83	47.800
327.19	48.249
327.56	49.303
327.92	50.919
328.29	52.529
328.65	52.026
329.01	53.339
329.38	54.209
329.74	53.647
330.11	55.796
330.47	56.933
330.84	57.537
331.20	57.104
331.56	55.780
331.93	60.370
332.29	59.539
332.66	60.088
333.02	59.872
333.38	61.156
333.75	61.319
334.11	60.676
334.48	61.846
334.84	63.235
335.20	62.364
335.57	61.378
335.93	62.054
336.29	63.095
336.66	63.390
337.02	61.176
337.38	63.889
337.75	62.834
338.11	63.921
338.47	65.193
338.84	65.261
339.20	65.321
339.56	66.150
339.93	64.455
340.29	65.580
340.65	65.686
341.02	66.667
341.38	65.391
341.74	64.737
342.11	64.891
342.47	67.225
342.83	64.640
343.20	64.589
343.56	64.785
343.92	67.456
344.28	67.517
344.65	66.724
345.01	64.815
345.37	67.667
345.73	66.244
346.10	66.240
346.46	67.542
346.82	67.133
347.19	67.419
347.55	67.898
347.91	68.770
348.27	68.776
348.63	68.896
349.00	66.909
349.36	69.540
349.72	65.998
350.08	67.828
350.45	68.023
350.81	68.481
351.17	68.720
351.53	67.649
351.89	69.389
352.26	67.324
352.62	68.324
352.98	68.233
353.34	68.694
353.70	69.231
354.07	70.403
354.43	69.365
354.79	70.475
355.15	69.274
355.51	70.024
355.87	72.082
356.24	71.336
356.60	69.928
356.96	72.566
357.32	72.445
357.68	70.157
358.04	71.180
358.40	71.496
358.77	71.049
359.13	71.350
359.49	71.529
359.85	71.667
360.21	72.488
360.57	72.529
360.93	72.231
361.29	72.714
361.66	71.981
362.02	73.209
362.38	73.460
362.74	72.098
363.10	72.317
363.46	73.147
363.82	72.789
364.18	72.907
364.54	74.220
364.90	74.646
365.26	73.235
365.62	73.703
365.98	74.580
366.35	73.926
366.71	75.127
367.07	74.581
367.43	76.488
367.79	76.731
368.15	76.006
368.51	74.346
368.87	76.374
369.23	74.982
369.59	77.046
369.95	74.485
370.31	75.214
370.67	74.710
371.03	77.603
371.39	78.426
371.75	75.441
372.11	75.960
372.47	78.519
372.83	77.233
373.19	74.639
373.55	77.088
373.91	79.013
374.27	75.189
374.63	78.036
374.99	79.025
375.35	77.111
375.71	76.971
376.07	78.326
376.42	78.680
376.78	78.396
377.14	77.951
377.50	77.682
377.86	77.593
378.22	78.003
378.58	77.506
378.94	77.498
379.30	79.580
379.66	80.076
380.02	79.300
380.38	79.174
380.74	79.412
381.09	78.606
381.45	80.025
381.81	80.651
382.17	79.299
382.53	79.560
382.89	80.432
383.25	79.425
383.61	81.537
383.97	78.862
384.32	79.164
384.68	79.678
385.04	80.824
385.40	79.071
385.76	80.958
386.12	79.793
386.48	79.736
386.83	80.821
387.19	81.694
387.55	79.283
387.91	79.565
388.27	79.277
388.62	80.639
388.98	80.037
389.34	79.349
389.70	80.380
390.06	79.975
390.42	80.220
390.77	80.980
391.13	82.578
391.49	79.124
391.85	80.904
392.20	80.126
392.56	81.313
392.92	79.576
393.28	79.822
393.64	79.796
393.99	79.291
394.35	80.955
394.71	79.862
395.07	78.754
395.42	81.397
395.78	79.389
396.14	80.012
396.50	81.704
396.85	80.928
397.21	78.483
397.57	79.727
397.92	79.808
398.28	79.877
398.64	78.554
399.00	80.134
399.35	79.019
399.71	78.299
400.07	78.770
400.42	79.877
400.78	79.976
401.14	79.756
401.49	79.642
401.85	78.947
402.21	78.683
402.57	78.593
402.92	80.958
403.28	80.137
403.63	79.022
403.99	79.618
404.35	78.061
404.70	78.297
405.06	79.557
405.42	79.414
405.77	78.114
406.13	76.637
406.49	79.539
406.84	77.023
407.20	78.723
407.55	78.941
407.91	80.667
408.27	78.622
408.62	76.520
408.98	78.002
409.34	79.766
409.69	78.516
410.05	78.563
410.40	78.471
410.76	78.734
411.11	76.116
411.47	77.316
411.83	78.375
412.18	78.046
412.54	78.705
412.89	76.988
413.25	78.808
413.60	78.073
413.96	76.928
414.31	77.643
414.67	78.264
415.03	77.219
415.38	76.997
415.74	77.749
416.09	78.184
416.45	78.983
416.80	79.180
417.16	79.692
417.51	77.505
417.87	77.392
418.22	77.981
418.58	77.598
418.93	78.808
419.29	76.830
419.64	77.204
420.00	75.976
420.35	77.101
420.71	79.259
421.06	76.850
421.42	76.784
421.77	77.074
422.12	76.811
422.48	77.118
422.83	78.334
423.19	75.635
423.54	78.990
423.90	77.855
424.25	77.164
424.61	76.429
424.96	79.009
425.31	76.467
425.67	75.899
426.02	77.486
426.38	80.159
426.73	78.174
427.09	79.088
427.44	79.126
427.79	77.918
428.15	79.405
428.50	77.999
428.85	78.665
429.21	78.189
429.56	78.434
429.92	77.051
430.27	76.564
430.62	78.648
430.98	77.426
431.33	78.402
431.68	78.272
432.04	77.689
432.39	79.726
432.74	79.473
433.10	80.192
433.45	79.592
433.80	78.326
434.16	80.075
434.51	79.211
434.86	79.875
435.22	79.377
435.57	80.973
435.92	80.749
436.28	81.257
436.63	78.642
436.98	80.309
437.34	80.501
437.69	80.980
438.04	80.663
438.39	80.836
438.75	81.929
439.10	80.056
439.45	79.398
439.81	81.208
440.16	80.011
440.51	80.609
440.86	81.992
441.22	80.200
441.57	79.936
441.92	81.986
442.27	80.893
442.63	79.568
442.98	81.746
443.33	78.967
443.68	80.692
444.03	80.137
444.39	80.185
444.74	81.656
445.09	80.216
445.44	79.661
445.79	81.098
446.15	79.672
446.50	80.452
446.85	81.192
447.20	80.571
447.55	81.519
447.91	80.254
448.26	81.135
448.61	81.572
448.96	83.333
449.31	81.834
449.66	79.685
450.02	79.164
450.37	81.463
450.72	80.541
451.07	81.414
451.42	79.939
451.77	80.857
452.12	78.984
452.47	79.415
452.83	81.294
453.18	78.667
453.53	82.808
453.88	80.803
454.23	80.992
454.58	82.193
454.93	83.090
455.28	80.112
455.63	81.675
455.98	82.560
456.34	81.972
456.69	83.469
457.04	80.495
457.39	80.070
457.74	80.847
458.09	81.311
458.44	80.445
458.79	78.742
459.14	80.756
459.49	79.977
459.84	81.219
460.19	80.377
460.54	78.241
460.89	80.856
461.24	80.996
461.59	81.116
461.94	79.840
462.29	80.475
462.64	80.728
462.99	79.636
463.34	80.267
463.69	80.988
464.04	79.072
464.39	78.377
464.74	80.154
465.09	78.046
465.44	77.618
465.79	78.244
466.14	77.340
466.49	79.422
466.84	78.634
467.19	79.360
467.54	79.250
467.89	78.451
468.24	79.581
468.59	79.609
468.94	79.108
469.29	79.177
469.64	80.656
469.99	80.785
470.34	80.317
470.68	79.382
471.03	78.639
471.38	80.264
471.73	78.548
472.08	80.592
472.43	78.832
472.78	79.197
473.13	79.140
473.48	78.839
473.83	78.110
474.17	78.531
474.52	77.047
474.87	78.984
475.22	77.887
475.57	75.873
475.92	78.704
476.27	77.734
476.61	77.551
476.96	76.965
477.31	76.452
477.66	78.173
478.01	76.999
478.36	78.265
478.70	76.636
479.05	77.529
479.40	77.636
479.75	76.665
480.10	76.740
480.45	75.440
480.79	75.299
481.14	76.663
481.49	77.029
481.84	75.812
482.19	76.511
482.53	75.826
482.88	75.198
483.23	77.383
483.58	75.296
483.92	75.867
484.27	74.597
484.62	74.397
484.97	75.601
485.31	75.479
485.66	73.279
486.01	71.555
486.36	70.255
486.70	69.400
487.05	70.771
487.40	71.987
487.75	73.001
488.09	73.279
488.44	73.949
488.79	74.864
489.13	75.477
489.48	74.470
489.83	74.752
490.17	75.493
490.52	74.579
490.87	75.667
491.22	75.171
491.56	72.756
491.91	74.267
492.26	73.358
492.60	73.502
492.95	73.761
493.30	72.430
493.64	74.102
493.99	73.073
494.34	74.376
494.68	74.267
495.03	74.765
495.37	72.452
495.72	74.269
496.07	73.828
496.41	72.743
496.76	72.999
497.11	71.724
497.45	73.358
497.80	73.944
498.14	72.899
498.49	74.146
498.84	72.771
499.18	73.476
499.53	72.745
499.87	73.439
500.22	71.879
500.56	74.126
500.91	72.404
501.26	73.257
501.60	73.659
501.95	70.715
502.29	73.477
502.64	72.952
502.98	72.604
503.33	70.750
503.67	71.647
504.02	71.562
504.36	71.736
504.71	72.154
505.06	71.807
505.40	71.172
505.75	70.974
506.09	70.700
506.44	73.557
506.78	71.651
507.13	73.296
507.47	72.121
507.82	71.884
508.16	72.290
508.51	72.907
508.85	71.847
509.19	72.245
509.54	70.459
509.88	71.870
510.23	72.134
510.57	71.827
510.92	70.741
511.26	70.915
511.61	71.421
511.95	71.294
512.30	70.414
512.64	71.091
512.98	72.508
513.33	70.985
513.67	70.224
514.02	71.104
514.36	72.802
514.70	71.057
515.05	71.166
515.39	71.845
515.74	72.072
516.08	71.996
516.42	71.199
516.77	71.795
517.11	69.756
517.46	70.542
517.80	72.822
518.14	71.048
518.49	72.462
518.83	70.000
519.17	70.901
519.52	72.100
519.86	71.420
520.20	72.312
520.55	71.275
520.89	72.932
521.23	72.618
521.58	70.888
521.92	72.015
522.26	70.348
522.61	71.838
522.95	71.271
523.29	70.298
523.64	71.524
523.98	71.965
524.32	70.205
524.66	68.791
525.01	71.140
525.35	70.198
525.69	69.643
526.04	70.280
526.38	69.005
526.72	68.712
527.06	71.312
527.41	68.750
527.75	70.932
528.09	70.906
528.43	71.638
528.78	69.269
529.12	69.273
529.46	70.361
529.80	71.101
530.15	70.654
530.49	69.600
530.83	70.506
531.17	70.431
531.51	71.984
531.86	69.742
532.20	72.099
532.54	71.108
532.88	70.282
533.22	68.894
533.57	69.568
533.91	67.670
534.25	68.894
534.59	70.104
534.93	68.709
535.27	69.342
535.62	68.437
535.96	68.927
536.30	69.866
536.64	70.637
536.98	69.078
537.32	68.466
537.66	69.667
538.01	69.190
538.35	69.619
538.69	69.623
539.03	68.031
539.37	67.540
539.71	67.012
540.05	66.863
540.39	69.900
540.73	67.400
541.07	70.604
541.42	68.689
541.76	67.613
542.10	68.047
542.44	69.603
542.78	68.775
543.12	67.434
543.46	68.131
543.80	67.469
544.14	67.073
544.48	69.079
544.82	67.223
545.16	68.315
545.50	67.995
545.84	67.742
546.18	68.687
546.52	68.961
546.86	70.241
547.20	68.982
547.54	67.201
547.88	67.538
548.22	66.687
548.56	67.547
548.90	66.069
549.24	68.283
549.58	68.827
549.92	67.788
550.26	70.170
550.60	67.151
550.94	69.437
551.28	67.374
551.62	69.950
551.96	69.193
552.30	67.918
552.64	68.289
552.98	68.203
553.32	68.105
553.66	68.166
554.00	68.154
554.34	68.944
554.68	67.740
555.02	67.278
555.36	65.484
555.69	65.291
556.03	66.555
556.37	66.303
556.71	65.621
557.05	67.717
557.39	67.040
557.73	66.055
558.07	69.471
558.41	68.524
558.75	67.157
559.08	67.860
559.42	69.010
559.76	66.691
560.10	67.380
560.44	66.737
560.78	66.134
561.12	66.623
561.45	66.428
561.79	66.183
562.13	65.929
562.47	66.462
562.81	66.876
563.15	65.819
563.48	65.782
563.82	66.145
564.16	66.122
564.50	65.885
564.84	64.981
565.17	66.538
565.51	65.751
565.85	65.736
566.19	63.932
566.52	65.168
566.86	63.773
567.20	64.858
567.54	65.011
567.88	63.064
568.21	63.862
568.55	62.892
568.89	63.035
569.23	62.032
569.56	60.972
569.90	61.585
570.24	60.782
570.57	59.504
570.91	58.920
571.25	58.740
571.59	59.323
571.92	58.871
572.26	59.157
572.60	59.760
572.93	58.651
573.27	59.036
573.61	59.241
573.95	59.509
574.28	57.362
574.62	58.163
574.96	57.157
575.29	57.953
575.63	57.749
575.97	57.225
576.30	57.276
576.64	57.367
576.98	57.535
577.31	57.232
577.65	57.937
577.98	57.519
578.32	56.493
578.66	57.379
578.99	57.247
579.33	57.420
579.67	57.431
580.00	57.636
580.34	57.594
580.67	57.268
581.01	57.297
581.35	57.271
581.68	56.407
582.02	56.341
582.35	56.835
582.69	56.888
583.02	57.230
583.36	58.335
583.70	58.666
584.03	57.550
584.37	57.997
584.70	58.934
585.04	57.118
585.37	56.943
585.71	57.848
586.04	57.260
586.38	58.124
586.72	58.603
587.05	58.299
587.39	57.150
587.72	57.434
588.06	57.631
588.39	58.080
588.73	57.554
589.06	58.866
589.40	59.394
589.73	60.225
590.07	58.541
590.40	58.129
590.73	59.875
591.07	59.422
591.40	59.595
591.74	59.481
592.07	58.595
592.41	59.157
592.74	57.303
593.08	57.828
593.41	57.134
593.75	56.621
594.08	57.325
594.41	57.335
594.75	57.264
595.08	58.053
595.42	57.758
595.75	57.550
596.09	58.731
596.42	58.743
596.75	58.084
597.09	59.524
597.42	57.968
597.75	58.473
598.09	56.913
598.42	57.517
598.76	57.357
599.09	56.670
599.42	56.041
599.76	57.687
600.09	57.523
600.42	56.684
600.76	56.429
601.09	55.847
601.42	56.963
601.76	57.268
602.09	57.352
602.42	57.763
602.76	57.799
603.09	56.688
603.42	57.985
603.76	56.860
604.09	57.580
604.42	57.766
604.76	57.908
605.09	56.400
605.42	56.691
605.75	56.747
606.09	57.544
606.42	58.030
606.75	57.735
607.09	57.304
607.42	56.397
607.75	56.920
608.08	57.924
608.42	57.149
608.75	56.943
609.08	56.290
609.41	57.687
609.75	57.075
610.08	56.739
610.41	57.169
610.74	57.947
611.07	58.202
611.41	57.507
611.74	58.472
612.07	59.006
612.40	58.080
612.73	58.263
613.07	59.106
613.40	58.820
613.73	56.424
614.06	57.742
614.39	56.791
614.72	57.526
615.06	56.197
615.39	57.484
615.72	56.800
616.05	56.619
616.38	59.088
616.71	59.145
617.05	59.423
617.38	59.110
617.71	57.538
618.04	58.774
618.37	57.422
618.70	59.303
619.03	59.803
619.36	60.760
619.69	59.366
620.03	59.890
620.36	59.559
620.69	60.616
621.02	59.513
621.35	59.749
621.68	58.879
622.01	59.830
622.34	60.136
622.67	59.544
623.00	58.988
623.33	58.041
623.66	58.470
623.99	59.647
624.32	59.344
624.65	58.545
624.99	58.428
625.32	59.739
625.65	58.527
625.98	59.877
626.31	60.031
626.64	61.714
626.97	61.264
627.30	60.515
627.63	59.311
627.96	60.387
628.29	59.755
628.62	60.567
628.95	62.453
629.28	61.314
629.61	60.678
629.94	63.810
630.26	61.201
630.59	61.201
630.92	61.111
