SpectraSuite Data File
++++++++++++++++++++++++++++++++++++
Date: Wed May 13 19:13:56 PDT 2015
User: schluterlab
Dark Spectrum Present: Yes
Reference Spectrum Present: Yes
Number of Sampled Component Spectra: 1
Spectrometers: USB2E3373
Integration Time (usec): 3000 (USB2E3373)
Spectra Averaged: 3 (USB2E3373)
Boxcar Smoothing: 0 (USB2E3373)
Correct for Electrical Dark: No (USB2E3373)
Strobe/Lamp Enabled: No (USB2E3373)
Correct for Detector Non-linearity: No (USB2E3373)
Correct for Stray Light: No (USB2E3373)
Number of Pixels in Processed Spectrum: 2048
>>>>>Begin Processed Spectral Data<<<<<
178.53	0.000
178.91	-1275.000
179.29	-1475.000
179.67	-261.111
180.04	-1225.000
180.42	3100.000
180.80	1140.000
181.18	-925.000
181.56	957.143
181.94	0.000
182.31	-685.714
182.69	1833.333
183.07	-725.000
183.45	-622.222
183.83	572.727
184.20	-540.000
184.58	2500.000
184.96	5400.000
185.34	-1020.000
185.72	-700.000
186.09	-2650.000
186.47	2700.000
186.85	3350.000
187.23	5100.000
187.61	-1966.667
187.98	1500.000
188.36	681.818
188.74	654.545
189.12	-920.000
189.49	640.000
189.87	-5200.000
190.25	-1200.000
190.63	471.429
191.00	446.154
191.38	966.667
191.76	-1175.000
192.14	1675.000
192.51	637.500
192.89	916.667
193.27	637.500
193.65	-1300.000
194.02	560.000
194.40	820.000
194.78	630.000
195.15	558.333
195.53	650.000
195.91	-2500.000
196.29	425.000
196.66	336.842
197.04	-350.000
197.42	0.000
197.79	620.000
198.17	-4800.000
198.55	771.429
198.92	637.500
199.30	1100.000
199.68	0.000
200.05	394.444
200.43	800.000
200.81	5900.000
201.18	2066.667
201.56	-1666.667
201.94	677.778
202.31	655.556
202.69	416.667
203.07	630.000
203.44	0.000
203.82	1400.000
204.19	828.571
204.57	471.429
204.95	775.000
205.32	1866.667
205.70	545.455
206.08	407.143
206.45	2700.000
206.83	406.250
207.20	800.000
207.58	1040.000
207.96	344.444
208.33	787.500
208.71	-883.333
209.08	857.143
209.46	611.111
209.84	518.182
210.21	-1433.333
210.59	1625.000
210.96	-587.500
211.34	2800.000
211.71	660.000
212.09	850.000
212.46	0.000
212.84	1866.667
213.22	1525.000
213.59	-5000.000
213.97	866.667
214.34	914.286
214.72	654.545
215.09	1160.000
215.47	-1900.000
215.84	-2700.000
216.22	2000.000
216.59	421.429
216.97	1475.000
217.34	536.364
217.72	-750.000
218.09	0.000
218.47	-5900.000
218.84	755.556
219.22	771.429
219.59	1800.000
219.97	-657.143
220.34	1220.000
220.72	-1900.000
221.09	478.571
221.47	1625.000
221.84	-983.333
222.22	0.000
222.59	1400.000
222.97	-2700.000
223.34	1180.000
223.72	469.231
224.09	1320.000
224.46	2800.000
224.84	-5800.000
225.21	-1080.000
225.59	-5300.000
225.96	660.000
226.34	340.000
226.71	2750.000
227.08	875.000
227.46	620.000
227.83	-1050.000
228.21	-2250.000
228.58	722.222
228.95	-2750.000
229.33	-2900.000
229.70	1900.000
230.08	985.714
230.45	-820.000
230.82	475.000
231.20	933.333
231.57	700.000
231.95	508.333
232.32	259.091
232.69	472.727
233.07	828.571
233.44	438.462
233.81	-1933.333
234.19	326.316
234.56	441.667
234.93	433.333
235.31	454.545
235.68	438.462
236.05	350.000
236.43	196.970
236.80	352.632
237.17	4700.000
237.55	285.714
237.92	210.714
238.29	285.714
238.67	187.097
239.04	220.690
239.41	152.778
239.79	110.870
240.16	150.000
240.53	163.636
240.91	129.412
241.28	138.000
241.65	106.000
242.02	108.696
242.40	100.000
242.77	110.000
243.14	76.344
243.51	93.258
243.89	90.588
244.26	77.778
244.63	77.419
245.00	75.532
245.38	79.208
245.75	77.570
246.12	66.055
246.49	70.073
246.87	68.800
247.24	66.923
247.61	60.714
247.98	58.170
248.36	51.351
248.73	54.777
249.10	62.420
249.47	50.847
249.84	52.941
250.22	51.872
250.59	54.438
250.96	48.990
251.33	50.711
251.70	51.980
252.08	43.810
252.45	40.807
252.82	43.478
253.19	43.830
253.56	44.314
253.94	41.909
254.31	42.187
254.68	42.308
255.05	41.697
255.42	43.902
255.79	39.706
256.16	40.433
256.54	40.636
256.91	40.925
257.28	32.734
257.65	35.314
258.02	41.615
258.39	36.278
258.76	37.458
259.14	37.202
259.51	39.514
259.88	32.298
260.25	33.837
260.62	32.659
260.99	36.025
261.36	35.736
261.73	34.670
262.10	36.047
262.47	38.873
262.85	35.655
263.22	31.909
263.59	36.182
263.96	32.143
264.33	30.809
264.70	35.789
265.07	33.504
265.44	32.828
265.81	32.360
266.18	31.407
266.55	30.732
266.92	33.415
267.29	32.407
267.66	31.193
268.03	30.455
268.40	31.542
268.77	29.117
269.14	30.180
269.51	32.957
269.88	32.401
270.25	30.700
270.62	30.112
270.99	33.763
271.36	31.545
271.73	32.710
272.10	30.000
272.47	32.688
272.84	31.602
273.21	30.189
273.58	30.568
273.95	27.254
274.32	29.545
274.69	28.694
275.06	30.315
275.43	31.489
275.80	29.860
276.17	29.939
276.54	30.146
276.91	30.040
277.28	29.883
277.65	27.273
278.02	28.986
278.39	30.859
278.76	29.455
279.13	26.604
279.50	27.374
279.87	27.888
280.23	29.940
280.60	27.273
280.97	29.575
281.34	27.788
281.71	29.273
282.08	30.134
282.45	28.364
282.82	28.242
283.19	26.381
283.56	27.368
283.92	26.904
284.29	27.337
284.66	29.220
285.03	26.401
285.40	27.641
285.77	26.263
286.14	25.389
286.51	28.000
286.87	26.667
287.24	26.221
287.61	27.608
287.98	25.812
288.35	25.357
288.72	24.766
289.08	23.005
289.45	25.371
289.82	25.366
290.19	24.333
290.56	25.268
290.93	24.622
291.29	25.920
291.66	25.074
292.03	26.163
292.40	25.551
292.77	23.669
293.13	23.731
293.50	25.073
293.87	22.074
294.24	23.556
294.60	20.233
294.97	23.401
295.34	23.836
295.71	23.438
296.08	21.225
296.44	23.246
296.81	22.985
297.18	23.442
297.55	20.053
297.91	20.976
298.28	23.025
298.65	22.977
299.02	22.661
299.38	21.381
299.75	20.620
300.12	18.135
300.48	20.875
300.85	19.359
301.22	21.274
301.59	19.949
301.95	20.025
302.32	20.154
302.69	20.789
303.05	19.879
303.42	20.370
303.79	19.706
304.15	18.765
304.52	18.888
304.89	18.118
305.25	17.749
305.62	18.347
305.99	19.126
306.35	18.568
306.72	20.291
307.09	20.533
307.45	18.806
307.82	17.746
308.19	18.985
308.55	18.231
308.92	18.260
309.29	16.895
309.65	17.922
310.02	18.288
310.38	17.742
310.75	18.057
311.12	18.936
311.48	18.600
311.85	19.497
312.22	18.730
312.58	17.879
312.95	18.796
313.31	17.573
313.68	18.711
314.05	20.020
314.41	17.487
314.78	18.530
315.14	18.967
315.51	18.023
315.87	18.515
316.24	17.180
316.61	18.616
316.97	19.178
317.34	18.591
317.70	19.312
318.07	19.249
318.43	18.395
318.80	19.306
319.16	18.362
319.53	18.480
319.89	20.000
320.26	20.600
320.62	20.833
320.99	19.495
321.35	20.000
321.72	19.610
322.08	20.237
322.45	21.294
322.81	20.446
323.18	21.484
323.54	21.243
323.91	21.226
324.27	22.467
324.64	21.622
325.00	22.453
325.37	23.203
325.73	23.339
326.10	22.771
326.46	21.864
326.83	23.296
327.19	24.167
327.56	22.909
327.92	23.185
328.29	24.312
328.65	25.875
329.01	24.549
329.38	25.624
329.74	25.300
330.11	24.317
330.47	25.253
330.84	25.092
331.20	24.499
331.56	25.138
331.93	25.000
332.29	25.998
332.66	26.372
333.02	25.960
333.38	26.378
333.75	25.668
334.11	26.512
334.48	25.022
334.84	26.379
335.20	25.909
335.57	25.839
335.93	25.179
336.29	25.641
336.66	26.510
337.02	26.335
337.38	26.759
337.75	26.827
338.11	27.216
338.47	27.716
338.84	26.856
339.20	26.055
339.56	28.193
339.93	26.091
340.29	25.906
340.65	26.916
341.02	27.836
341.38	27.224
341.74	26.228
342.11	27.598
342.47	27.577
342.83	27.997
343.20	28.139
343.56	26.285
343.92	26.930
344.28	28.486
344.65	27.429
345.01	26.515
345.37	26.244
345.73	27.411
346.10	26.769
346.46	26.271
346.82	26.524
347.19	26.901
347.55	27.668
347.91	27.994
348.27	27.527
348.63	27.341
349.00	26.780
349.36	27.668
349.72	27.346
350.08	26.418
350.45	28.397
350.81	26.320
351.17	27.310
351.53	26.945
351.89	26.320
352.26	27.940
352.62	27.105
352.98	27.877
353.34	26.541
353.70	26.841
354.07	26.532
354.43	26.984
354.79	26.549
355.15	25.778
355.51	27.898
355.87	28.490
356.24	28.176
356.60	27.666
356.96	28.238
357.32	28.863
357.68	26.772
358.04	27.791
358.40	28.820
358.77	27.700
359.13	27.072
359.49	27.765
359.85	27.857
360.21	26.555
360.57	28.171
360.93	28.077
361.29	27.967
361.66	27.012
362.02	27.761
362.38	28.593
362.74	28.497
363.10	27.757
363.46	28.026
363.82	28.118
364.18	28.561
364.54	28.380
364.90	28.612
365.26	28.382
365.62	29.364
365.98	27.977
366.35	27.077
366.71	28.778
367.07	28.478
367.43	28.665
367.79	28.622
368.15	29.598
368.51	28.198
368.87	29.408
369.23	29.700
369.59	30.196
369.95	29.338
370.31	29.131
370.67	29.275
371.03	30.187
371.39	28.353
371.75	28.088
372.11	29.445
372.47	29.765
372.83	30.476
373.19	30.058
373.55	30.155
373.91	30.633
374.27	29.691
374.63	30.109
374.99	30.297
375.35	29.449
375.71	29.061
376.07	30.110
376.42	29.574
376.78	30.683
377.14	30.461
377.50	30.728
377.86	29.920
378.22	30.088
378.58	30.201
378.94	30.421
379.30	30.471
379.66	30.457
380.02	30.651
380.38	30.480
380.74	31.633
381.09	31.540
381.45	32.207
381.81	31.204
382.17	31.083
382.53	30.943
382.89	31.358
383.25	31.270
383.61	31.413
383.97	31.207
384.32	30.692
384.68	30.421
385.04	32.084
385.40	30.898
385.76	32.002
386.12	31.801
386.48	32.473
386.83	32.713
387.19	32.529
387.55	33.148
387.91	32.648
388.27	32.679
388.62	33.497
388.98	32.678
389.34	32.979
389.70	33.476
390.06	34.284
390.42	32.944
390.77	34.924
391.13	34.461
391.49	33.503
391.85	33.355
392.20	32.871
392.56	34.280
392.92	33.902
393.28	32.722
393.64	33.393
393.99	34.514
394.35	33.871
394.71	33.877
395.07	33.146
395.42	34.240
395.78	34.796
396.14	34.761
396.50	35.589
396.85	35.283
397.21	34.710
397.57	35.648
397.92	34.976
398.28	34.361
398.64	34.827
399.00	36.038
399.35	35.251
399.71	34.317
400.07	34.536
400.42	35.644
400.78	35.706
401.14	35.793
401.49	35.522
401.85	35.693
402.21	35.629
402.57	34.300
402.92	36.129
403.28	35.540
403.63	35.829
403.99	36.369
404.35	36.545
404.70	35.911
405.06	36.342
405.42	37.118
405.77	36.000
406.13	35.835
406.49	36.842
406.84	36.326
407.20	36.348
407.55	35.929
407.91	37.133
408.27	37.971
408.62	36.183
408.98	36.826
409.34	37.331
409.69	37.806
410.05	36.989
410.40	37.859
410.76	36.918
411.11	38.420
411.47	36.422
411.83	37.752
412.18	37.291
412.54	38.730
412.89	36.928
413.25	37.839
413.60	38.233
413.96	37.948
414.31	38.518
414.67	38.910
415.03	38.411
415.38	39.433
415.74	38.650
416.09	39.778
416.45	38.220
416.80	39.194
417.16	39.812
417.51	39.283
417.87	38.086
418.22	39.369
418.58	39.251
418.93	39.189
419.29	39.784
419.64	39.924
420.00	39.817
420.35	38.957
420.71	40.227
421.06	39.797
421.42	39.006
421.77	38.677
422.12	39.416
422.48	39.288
422.83	40.303
423.19	39.724
423.54	40.279
423.90	39.536
424.25	40.257
424.61	39.583
424.96	40.117
425.31	39.812
425.67	39.719
426.02	39.771
426.38	41.636
426.73	39.497
427.09	40.547
427.44	40.886
427.79	40.483
428.15	40.238
428.50	40.257
428.85	41.061
429.21	40.585
429.56	40.695
429.92	40.614
430.27	39.772
430.62	39.529
430.98	40.737
431.33	39.897
431.68	41.885
432.04	39.776
432.39	41.176
432.74	41.173
433.10	41.313
433.45	42.157
433.80	40.854
434.16	41.400
434.51	41.211
434.86	41.847
435.22	42.135
435.57	40.912
435.92	41.369
436.28	42.171
436.63	43.157
436.98	42.301
437.34	42.397
437.69	41.482
438.04	43.170
438.39	42.149
438.75	41.778
439.10	41.620
439.45	41.440
439.81	41.571
440.16	41.954
440.51	41.476
440.86	43.254
441.22	42.269
441.57	42.091
441.92	41.198
442.27	42.411
442.63	41.022
442.98	43.493
443.33	42.500
443.68	43.211
444.03	41.972
444.39	41.870
444.74	42.803
445.09	42.049
445.44	41.662
445.79	41.762
446.15	42.456
446.50	43.026
446.85	42.035
447.20	41.815
447.55	42.155
447.91	41.864
448.26	42.237
448.61	42.284
448.96	42.525
449.31	42.576
449.66	43.331
450.02	41.894
450.37	42.120
450.72	42.922
451.07	41.499
451.42	41.824
451.77	42.572
452.12	42.436
452.47	42.600
452.83	43.939
453.18	42.482
453.53	42.362
453.88	42.882
454.23	41.721
454.58	43.973
454.93	44.183
455.28	41.771
455.63	42.415
455.98	44.226
456.34	43.028
456.69	43.582
457.04	43.282
457.39	41.730
457.74	43.239
458.09	42.381
458.44	41.904
458.79	41.811
459.14	42.269
459.49	43.433
459.84	42.382
460.19	42.015
460.54	42.188
460.89	42.951
461.24	42.077
461.59	43.521
461.94	42.232
462.29	43.680
462.64	41.736
462.99	41.705
463.34	42.667
463.69	41.901
464.04	42.667
464.39	41.971
464.74	42.424
465.09	43.064
465.44	41.717
465.79	41.890
466.14	41.927
466.49	41.324
466.84	42.849
467.19	42.849
467.54	42.875
467.89	42.017
468.24	42.525
468.59	43.101
468.94	41.112
469.29	43.188
469.64	42.972
469.99	42.896
470.34	44.122
470.68	44.397
471.03	43.878
471.38	43.433
471.73	42.771
472.08	44.211
472.43	43.530
472.78	42.989
473.13	42.683
473.48	42.572
473.83	43.659
474.17	42.750
474.52	43.052
474.87	43.841
475.22	42.716
475.57	42.397
475.92	42.220
476.27	42.390
476.61	42.361
476.96	41.891
477.31	41.968
477.66	42.943
478.01	42.446
478.36	42.940
478.70	41.745
479.05	43.184
479.40	42.323
479.75	42.145
480.10	41.054
480.45	41.980
480.79	41.185
481.14	42.564
481.49	42.003
481.84	41.792
482.19	41.981
482.53	41.927
482.88	41.415
483.23	42.196
483.58	41.265
483.92	41.846
484.27	40.479
484.62	41.422
484.97	40.047
485.31	40.925
485.66	39.725
486.01	37.933
486.36	37.383
486.70	36.676
487.05	37.055
487.40	38.432
487.75	39.020
488.09	39.460
488.44	39.360
488.79	41.121
489.13	40.756
489.48	40.742
489.83	40.181
490.17	41.166
490.52	40.213
490.87	39.937
491.22	41.019
491.56	40.547
491.91	40.624
492.26	40.377
492.60	40.876
492.95	39.616
493.30	40.327
493.64	40.224
493.99	40.622
494.34	40.472
494.68	40.339
495.03	40.977
495.37	39.832
495.72	41.033
496.07	39.768
496.41	40.265
496.76	40.062
497.11	39.937
497.45	41.220
497.80	40.643
498.14	40.531
498.49	40.732
498.84	40.316
499.18	40.714
499.53	40.028
499.87	40.261
500.22	39.991
500.56	41.456
500.91	39.952
501.26	40.967
501.60	41.196
501.95	39.551
502.29	41.190
502.64	40.317
502.98	40.907
503.33	39.625
503.67	40.510
504.02	40.271
504.36	39.307
504.71	40.059
505.06	40.771
505.40	40.253
505.75	40.550
506.09	40.136
506.44	40.158
506.78	39.747
507.13	40.989
507.47	39.747
507.82	40.932
508.16	40.476
508.51	40.233
508.85	40.070
509.19	40.612
509.54	39.388
509.88	40.134
510.23	40.103
510.57	41.589
510.92	41.844
511.26	40.185
511.61	39.730
511.95	39.927
512.30	39.820
512.64	41.429
512.98	41.318
513.33	40.739
513.67	40.128
514.02	40.801
514.36	40.688
514.70	41.616
515.05	40.825
515.39	40.437
515.74	41.160
516.08	42.370
516.42	41.065
516.77	41.416
517.11	40.178
517.46	41.309
517.80	41.521
518.14	40.938
518.49	42.299
518.83	41.477
519.17	42.090
519.52	41.143
519.86	41.928
520.20	42.543
520.55	41.173
520.89	41.241
521.23	42.220
521.58	42.077
521.92	42.192
522.26	42.160
522.61	43.053
522.95	41.252
523.29	40.901
523.64	42.073
523.98	42.021
524.32	42.039
524.66	40.649
525.01	40.870
525.35	40.830
525.69	41.379
526.04	40.685
526.38	40.635
526.72	41.350
527.06	42.059
527.41	39.851
527.75	41.801
528.09	42.710
528.43	42.129
528.78	42.163
529.12	39.818
529.46	41.212
529.80	42.079
530.15	43.053
530.49	40.431
530.83	41.899
531.17	42.689
531.51	42.477
531.86	41.613
532.20	42.568
532.54	41.704
532.88	42.362
533.22	40.787
533.57	39.938
533.91	41.421
534.25	40.401
534.59	40.818
534.93	40.631
535.27	40.374
535.62	40.659
535.96	40.866
536.30	40.687
536.64	39.794
536.98	41.473
537.32	40.750
537.66	40.400
538.01	41.080
538.35	40.659
538.69	41.608
539.03	39.571
539.37	39.808
539.71	38.302
540.05	39.935
540.39	40.199
540.73	39.715
541.07	40.623
541.42	41.553
541.76	39.935
542.10	40.686
542.44	40.464
542.78	41.238
543.12	39.859
543.46	40.197
543.80	40.989
544.14	40.051
544.48	39.238
544.82	39.577
545.16	39.688
545.50	39.910
545.84	38.374
546.18	39.731
546.52	41.225
546.86	40.206
547.20	39.312
547.54	38.410
547.88	41.773
548.22	38.667
548.56	38.931
548.90	38.476
549.24	38.316
549.58	39.632
549.92	38.874
550.26	40.270
550.60	39.419
550.94	39.085
551.28	40.746
551.62	39.684
551.96	38.807
552.30	39.795
552.64	39.419
552.98	39.593
553.32	39.514
553.66	39.741
554.00	39.053
554.34	38.578
554.68	39.270
555.02	39.422
555.36	38.900
555.69	38.498
556.03	38.627
556.37	39.222
556.71	38.063
557.05	39.426
557.39	38.558
557.73	40.226
558.07	39.086
558.41	38.857
558.75	38.648
559.08	38.926
559.42	38.398
559.76	38.676
560.10	37.259
560.44	38.365
560.78	36.527
561.12	37.467
561.45	38.005
561.79	37.640
562.13	38.565
562.47	37.978
562.81	39.400
563.15	37.124
563.48	37.268
563.82	37.117
564.16	37.541
564.50	36.068
564.84	37.105
565.17	36.615
565.51	36.230
565.85	36.612
566.19	35.629
566.52	36.415
566.86	36.407
567.20	35.790
567.54	36.016
567.88	35.633
568.21	35.556
568.55	33.974
568.89	34.971
569.23	33.868
569.56	32.308
569.90	33.245
570.24	32.149
570.57	31.928
570.91	31.868
571.25	31.594
571.59	31.870
571.92	31.423
572.26	31.369
572.60	31.471
572.93	31.664
573.27	31.795
573.61	31.323
573.95	31.395
574.28	30.201
574.62	29.932
574.96	30.155
575.29	30.601
575.63	30.285
575.97	30.331
576.30	30.696
576.64	30.478
576.98	29.412
577.31	30.199
577.65	30.141
577.98	30.217
578.32	29.051
578.66	29.497
578.99	30.404
579.33	29.557
579.67	29.263
580.00	29.777
580.34	29.877
580.67	29.757
581.01	29.728
581.35	29.127
581.68	29.198
582.02	28.634
582.35	28.933
582.69	29.259
583.02	29.274
583.36	29.652
583.70	30.045
584.03	30.172
584.37	30.224
584.70	30.225
585.04	29.061
585.37	28.961
585.71	28.947
586.04	29.403
586.38	30.094
586.72	29.854
587.05	28.579
587.39	29.393
587.72	29.709
588.06	28.869
588.39	29.739
588.73	29.598
589.06	29.947
589.40	30.606
589.73	30.729
590.07	29.466
590.40	30.033
590.73	30.172
591.07	31.217
591.40	30.747
591.74	31.126
592.07	30.366
592.41	29.475
592.74	29.551
593.08	29.980
593.41	29.611
593.75	28.732
594.08	29.333
594.41	29.657
594.75	29.723
595.08	29.349
595.42	29.597
595.75	28.989
596.09	30.116
596.42	30.491
596.75	30.688
597.09	30.996
597.42	30.523
597.75	29.970
598.09	28.913
598.42	30.326
598.76	29.591
599.09	29.038
599.42	28.675
599.76	28.807
600.09	28.270
600.42	28.853
600.76	28.357
601.09	28.597
601.42	29.376
601.76	29.639
602.09	28.854
602.42	28.901
602.76	29.303
603.09	29.544
603.42	29.246
603.76	29.116
604.09	29.003
604.42	28.903
604.76	29.819
605.09	28.440
605.42	28.687
605.75	28.435
606.09	28.630
606.42	28.361
606.75	28.121
607.09	29.092
607.42	28.327
607.75	28.608
608.08	28.224
608.42	28.821
608.75	28.674
609.08	28.770
609.41	28.986
609.75	28.442
610.08	29.548
610.41	28.957
610.74	28.051
611.07	28.903
611.41	29.195
611.74	30.015
612.07	29.762
612.40	30.273
612.73	29.000
613.07	29.849
613.40	29.595
613.73	28.841
614.06	28.011
614.39	28.841
614.72	30.053
615.06	29.569
615.39	28.875
615.72	28.579
616.05	28.814
616.38	28.961
616.71	29.988
617.05	29.505
617.38	28.984
617.71	28.589
618.04	29.988
618.37	28.504
618.70	29.745
619.03	30.000
619.36	29.803
619.69	30.211
620.03	29.396
620.36	30.615
620.69	31.096
621.02	31.490
621.35	31.010
621.68	29.673
622.01	31.966
622.34	31.392
622.67	30.570
623.00	29.567
623.33	30.236
623.66	30.307
623.99	31.296
624.32	30.029
624.65	29.025
624.99	30.028
625.32	28.965
625.65	30.128
625.98	31.053
626.31	30.949
626.64	31.755
626.97	31.505
627.30	29.426
627.63	30.845
627.96	30.530
628.29	31.846
628.62	31.382
628.95	32.642
629.28	31.843
629.61	31.622
629.94	31.238
630.26	31.745
630.59	32.412
