SpectraSuite Data File
++++++++++++++++++++++++++++++++++++
Date: Wed May 13 19:27:39 PDT 2015
User: schluterlab
Dark Spectrum Present: Yes
Reference Spectrum Present: Yes
Number of Sampled Component Spectra: 1
Spectrometers: USB2E3373
Integration Time (usec): 3000 (USB2E3373)
Spectra Averaged: 3 (USB2E3373)
Boxcar Smoothing: 0 (USB2E3373)
Correct for Electrical Dark: No (USB2E3373)
Strobe/Lamp Enabled: No (USB2E3373)
Correct for Detector Non-linearity: No (USB2E3373)
Correct for Stray Light: No (USB2E3373)
Number of Pixels in Processed Spectrum: 2048
>>>>>Begin Processed Spectral Data<<<<<
178.53	0.000
178.91	-1225.000
179.29	-1300.000
179.67	-238.889
180.04	-1275.000
180.42	1850.000
180.80	1300.000
181.18	-1125.000
181.56	814.286
181.94	0.000
182.31	-757.143
182.69	1800.000
183.07	-500.000
183.45	-477.778
183.83	563.636
184.20	-380.000
184.58	2650.000
184.96	5700.000
185.34	-1060.000
185.72	-650.000
186.09	-2600.000
186.47	2800.000
186.85	2200.000
187.23	5900.000
187.61	-1866.667
187.98	1200.000
188.36	627.273
188.74	454.545
189.12	-760.000
189.49	550.000
189.87	-5600.000
190.25	-1150.000
190.63	471.429
191.00	423.077
191.38	900.000
191.76	-1300.000
192.14	1375.000
192.51	687.500
192.89	1133.333
193.27	637.500
193.65	-1150.000
194.02	550.000
194.40	1020.000
194.78	640.000
195.15	575.000
195.53	650.000
195.91	-2350.000
196.29	418.750
196.66	326.316
197.04	-500.000
197.42	0.000
197.79	650.000
198.17	-5300.000
198.55	614.286
198.92	737.500
199.30	1060.000
199.68	0.000
200.05	333.333
200.43	857.143
200.81	4400.000
201.18	1966.667
201.56	-1666.667
201.94	488.889
202.31	611.111
202.69	525.000
203.07	610.000
203.44	0.000
203.82	1000.000
204.19	742.857
204.57	435.714
204.95	800.000
205.32	1400.000
205.70	636.364
206.08	378.571
206.45	2600.000
206.83	337.500
207.20	1050.000
207.58	860.000
207.96	333.333
208.33	737.500
208.71	-900.000
209.08	757.143
209.46	677.778
209.84	563.636
210.21	-1466.667
210.59	1525.000
210.96	-587.500
211.34	2300.000
211.71	610.000
212.09	766.667
212.46	0.000
212.84	1633.333
213.22	1475.000
213.59	-5000.000
213.97	916.667
214.34	771.429
214.72	600.000
215.09	1020.000
215.47	-2600.000
215.84	-2650.000
216.22	1666.667
216.59	371.429
216.97	1150.000
217.34	536.364
217.72	-766.667
218.09	0.000
218.47	-4600.000
218.84	611.111
219.22	757.143
219.59	1733.333
219.97	-528.571
220.34	1040.000
220.72	-2066.667
221.09	435.714
221.47	1600.000
221.84	-916.667
222.22	0.000
222.59	1375.000
222.97	-2550.000
223.34	1120.000
223.72	438.462
224.09	1120.000
224.46	2050.000
224.84	-5800.000
225.21	-980.000
225.59	-4400.000
225.96	600.000
226.34	335.000
226.71	2700.000
227.08	775.000
227.46	560.000
227.83	-1125.000
228.21	-2400.000
228.58	622.222
228.95	-2400.000
229.33	-2250.000
229.70	2000.000
230.08	800.000
230.45	-920.000
230.82	466.667
231.20	866.667
231.57	700.000
231.95	433.333
232.32	231.818
232.69	336.364
233.07	771.429
233.44	407.692
233.81	-1633.333
234.19	315.789
234.56	508.333
234.93	450.000
235.31	463.636
235.68	423.077
236.05	335.714
236.43	209.091
236.80	278.947
237.17	4600.000
237.55	266.667
237.92	228.571
238.29	280.952
238.67	190.323
239.04	234.483
239.41	163.889
239.79	128.261
240.16	169.048
240.53	129.545
240.91	98.039
241.28	114.000
241.65	96.000
242.02	120.290
242.40	101.613
242.77	111.667
243.14	81.720
243.51	88.764
243.89	91.765
244.26	67.778
244.63	79.570
245.00	64.894
245.38	78.218
245.75	66.355
246.12	70.642
246.49	73.723
246.87	72.000
247.24	67.692
247.61	60.714
247.98	60.784
248.36	56.757
248.73	63.057
249.10	63.694
249.47	57.062
249.84	57.754
250.22	48.128
250.59	49.704
250.96	52.525
251.33	59.716
251.70	53.465
252.08	50.952
252.45	48.879
252.82	45.217
253.19	47.234
253.56	48.235
253.94	47.303
254.31	43.750
254.68	47.692
255.05	46.125
255.42	45.122
255.79	44.118
256.16	47.653
256.54	45.230
256.91	46.975
257.28	41.007
257.65	41.914
258.02	44.720
258.39	41.956
258.76	41.472
259.14	41.964
259.51	42.249
259.88	37.888
260.25	42.598
260.62	42.775
260.99	39.752
261.36	38.138
261.73	37.536
262.10	38.663
262.47	41.690
262.85	38.719
263.22	35.328
263.59	41.026
263.96	39.560
264.33	38.381
264.70	37.105
265.07	41.176
265.44	38.636
265.81	36.010
266.18	38.945
266.55	37.073
266.92	37.838
267.29	37.269
267.66	34.404
268.03	35.909
268.40	36.916
268.77	33.652
269.14	32.658
269.51	38.600
269.88	35.897
270.25	33.860
270.62	37.753
270.99	35.914
271.36	35.622
271.73	37.150
272.10	35.652
272.47	36.774
272.84	33.983
273.21	35.010
273.58	34.061
273.95	33.543
274.32	30.579
274.69	35.546
275.06	34.252
275.43	34.043
275.80	33.066
276.17	36.456
276.54	36.175
276.91	35.178
277.28	33.789
277.65	34.429
278.02	33.333
278.39	33.984
278.76	32.000
279.13	35.283
279.50	33.706
279.87	32.869
280.23	34.731
280.60	32.882
280.97	32.902
281.34	30.796
281.71	34.727
282.08	31.670
282.45	30.182
282.82	33.037
283.19	31.016
283.56	31.053
283.92	31.641
284.29	32.099
284.66	31.397
285.03	32.188
285.40	29.930
285.77	30.135
286.14	30.570
286.51	32.667
286.87	30.256
287.24	31.107
287.61	29.856
287.98	30.519
288.35	30.111
288.72	29.128
289.08	29.421
289.45	29.984
289.82	29.756
290.19	26.217
290.56	27.871
290.93	26.133
291.29	28.681
291.66	28.466
292.03	29.360
292.40	28.194
292.77	25.740
293.13	30.000
293.50	26.822
293.87	25.926
294.24	26.963
294.60	24.163
294.97	26.744
295.34	28.491
295.71	26.136
296.08	27.208
296.44	24.622
296.81	25.627
297.18	27.371
297.55	25.066
297.91	25.066
298.28	25.033
298.65	26.893
299.02	25.033
299.38	24.037
299.75	22.372
300.12	24.393
300.48	22.750
300.85	23.674
301.22	22.420
301.59	23.864
301.95	24.181
302.32	23.363
302.69	23.895
303.05	23.515
303.42	23.580
303.79	23.216
304.15	22.494
304.52	23.986
304.89	21.951
305.25	22.274
305.62	22.877
305.99	23.967
306.35	21.253
306.72	21.637
307.09	21.976
307.45	22.410
307.82	21.094
308.19	23.289
308.55	22.546
308.92	22.019
309.29	20.486
309.65	20.679
310.02	22.093
310.38	22.258
310.75	20.063
311.12	22.006
311.48	21.526
311.85	23.166
312.22	20.395
312.58	20.790
312.95	20.908
313.31	20.680
313.68	21.102
314.05	22.091
314.41	21.407
314.78	20.645
315.14	19.960
315.51	21.215
315.87	20.495
316.24	20.655
316.61	20.078
316.97	19.961
317.34	19.472
317.70	20.554
318.07	21.078
318.43	21.037
318.80	20.806
319.16	21.092
319.53	18.949
319.89	21.714
320.26	20.900
320.62	22.321
320.99	20.808
321.35	20.808
321.72	20.637
322.08	21.619
322.45	22.090
322.81	22.190
323.18	21.098
323.54	21.521
323.91	20.943
324.27	21.415
324.64	21.156
325.00	21.100
325.37	21.292
325.73	21.903
326.10	21.183
326.46	21.147
326.83	22.088
327.19	20.581
327.56	21.951
327.92	21.085
328.29	22.715
328.65	21.363
329.01	23.014
329.38	21.739
329.74	22.068
330.11	22.714
330.47	22.590
330.84	22.702
331.20	21.311
331.56	21.009
331.93	20.833
332.29	22.005
332.66	22.655
333.02	22.943
333.38	22.042
333.75	22.460
334.11	21.797
334.48	22.626
334.84	22.151
335.20	22.364
335.57	21.215
335.93	21.607
336.29	22.527
336.66	22.092
337.02	20.814
337.38	22.685
337.75	21.836
338.11	21.576
338.47	22.652
338.84	21.998
339.20	22.110
339.56	21.898
339.93	22.000
340.29	21.649
340.65	21.390
341.02	22.688
341.38	22.064
341.74	20.965
342.11	21.135
342.47	21.233
342.83	22.089
343.20	22.165
343.56	20.893
343.92	21.053
344.28	20.833
344.65	20.808
345.01	20.034
345.37	22.041
345.73	21.320
346.10	20.546
346.46	21.271
346.82	21.746
347.19	21.136
347.55	20.279
347.91	20.955
348.27	21.528
348.63	20.903
349.00	20.874
349.36	20.525
349.72	20.209
350.08	20.178
350.45	21.237
350.81	19.903
351.17	20.746
351.53	21.458
351.89	20.462
352.26	21.231
352.62	21.492
352.98	20.502
353.34	20.542
353.70	20.049
354.07	20.323
354.43	19.206
354.79	18.825
355.15	19.473
355.51	20.464
355.87	19.265
356.24	19.625
356.60	19.407
356.96	20.032
357.32	18.316
357.68	19.843
358.04	19.636
358.40	19.240
358.77	19.875
359.13	19.495
359.49	19.373
359.85	18.730
360.21	19.139
360.57	20.623
360.93	20.692
361.29	18.216
361.66	17.879
362.02	19.851
362.38	19.468
362.74	18.527
363.10	18.727
363.46	19.149
363.82	18.670
364.18	19.163
364.54	19.316
364.90	19.263
365.26	18.971
365.62	19.065
365.98	18.481
366.35	18.338
366.71	18.294
367.07	18.572
367.43	18.868
367.79	19.129
368.15	19.899
368.51	17.733
368.87	19.058
369.23	19.020
369.59	19.261
369.95	19.044
370.31	18.447
370.67	18.406
371.03	18.502
371.39	19.388
371.75	18.529
372.11	19.132
372.47	18.328
372.83	19.308
373.19	18.931
373.55	18.034
373.91	19.293
374.27	18.557
374.63	18.036
374.99	18.997
375.35	18.632
375.71	18.711
376.07	18.450
376.42	17.950
376.78	18.555
377.14	17.503
377.50	17.947
377.86	17.354
378.22	17.193
378.58	16.667
378.94	17.285
379.30	16.985
379.66	18.147
380.02	18.919
380.38	17.001
380.74	16.807
381.09	17.910
381.45	18.070
381.81	17.568
382.17	17.516
382.53	18.050
382.89	17.840
383.25	17.136
383.61	17.348
383.97	17.949
384.32	16.781
384.68	17.286
385.04	17.333
385.40	17.337
385.76	16.830
386.12	17.358
386.48	17.810
386.83	17.640
387.19	17.811
387.55	17.316
387.91	17.291
388.27	17.229
388.62	17.025
388.98	17.076
389.34	18.085
389.70	17.413
390.06	17.871
390.42	16.732
390.77	17.494
391.13	18.443
391.49	17.132
391.85	16.614
392.20	15.962
392.56	16.730
392.92	16.539
393.28	15.444
393.64	17.146
393.99	16.921
394.35	16.625
394.71	16.562
395.07	16.698
395.42	17.429
395.78	18.130
396.14	16.760
396.50	17.105
396.85	17.292
397.21	16.893
397.57	17.173
397.92	17.308
398.28	16.087
398.64	16.667
399.00	16.340
399.35	16.638
399.71	16.435
400.07	17.800
400.42	16.871
400.78	15.923
401.14	16.829
401.49	16.239
401.85	16.576
402.21	16.168
402.57	17.582
402.92	17.339
403.28	16.740
403.63	16.708
403.99	15.924
404.35	16.848
404.70	16.067
405.06	15.842
405.42	17.405
405.77	15.429
406.13	16.817
406.49	16.558
406.84	16.243
407.20	15.957
407.55	16.273
407.91	16.800
408.27	16.146
408.62	16.857
408.98	17.034
409.34	15.867
409.69	16.839
410.05	16.914
410.40	16.453
410.76	16.308
411.11	16.224
411.47	17.508
411.83	16.127
412.18	15.832
412.54	16.625
412.89	16.988
413.25	16.647
413.60	16.553
413.96	16.818
414.31	16.282
414.67	16.603
415.03	16.093
415.38	16.753
415.74	17.363
416.09	16.656
416.45	16.399
416.80	16.061
417.16	17.292
417.51	17.054
417.87	16.313
418.22	16.909
418.58	17.172
418.93	16.585
419.29	16.932
419.64	16.814
420.00	16.159
420.35	16.870
420.71	15.780
421.06	15.692
421.42	15.965
421.77	16.928
422.12	15.497
422.48	15.596
422.83	16.191
423.19	15.912
423.54	16.367
423.90	16.754
424.25	16.415
424.61	15.476
424.96	16.327
425.31	15.781
425.67	15.393
426.02	16.000
426.38	16.239
426.73	15.974
427.09	15.866
427.44	16.216
427.79	16.044
428.15	16.607
428.50	16.267
428.85	16.985
429.21	15.461
429.56	15.656
429.92	15.752
430.27	15.641
430.62	15.003
430.98	16.606
431.33	16.186
431.68	16.073
432.04	15.655
432.39	15.762
432.74	16.098
433.10	16.072
433.45	16.385
433.80	15.466
434.16	16.400
434.51	16.316
434.86	16.249
435.22	15.842
435.57	16.292
435.92	16.150
436.28	16.251
436.63	16.943
436.98	15.627
437.34	15.862
437.69	17.386
438.04	15.627
438.39	15.642
438.75	15.747
439.10	16.480
439.45	16.116
439.81	15.952
440.16	15.697
440.51	16.755
440.86	16.445
441.22	16.129
441.57	16.083
441.92	16.223
442.27	16.416
442.63	15.587
442.98	16.958
443.33	16.413
443.68	16.107
444.03	16.447
444.39	15.385
444.74	16.504
445.09	16.226
445.44	16.566
445.79	16.230
446.15	16.517
446.50	16.047
446.85	15.827
447.20	16.063
447.55	16.750
447.91	15.720
448.26	16.639
448.61	15.998
448.96	16.390
449.31	16.423
449.66	16.263
450.02	15.877
450.37	15.590
450.72	16.074
451.07	16.271
451.42	15.623
451.77	17.029
452.12	15.762
452.47	16.231
452.83	16.550
453.18	16.320
453.53	16.574
453.88	16.657
454.23	15.780
454.58	16.596
454.93	17.483
455.28	15.648
455.63	16.566
455.98	16.845
456.34	16.960
456.69	16.155
457.04	16.099
457.39	16.014
457.74	15.844
458.09	17.539
458.44	15.906
458.79	15.510
459.14	15.914
459.49	16.871
459.84	15.568
460.19	15.675
460.54	15.625
460.89	15.414
461.24	17.243
461.59	16.967
461.94	15.845
462.29	15.668
462.64	16.082
462.99	15.810
463.34	17.400
463.69	16.135
464.04	16.754
464.39	16.464
464.74	16.578
465.09	16.043
465.44	15.568
465.79	16.443
466.14	15.545
466.49	15.628
466.84	16.170
467.19	15.812
467.54	16.062
467.89	16.206
468.24	16.289
468.59	16.972
468.94	15.211
469.29	17.159
469.64	16.667
469.99	16.644
470.34	16.777
470.68	17.170
471.03	16.395
471.38	17.165
471.73	16.322
472.08	17.368
472.43	16.332
472.78	16.524
473.13	16.881
473.48	16.604
473.83	16.280
474.17	15.993
474.52	16.749
474.87	16.754
475.22	16.251
475.57	15.583
475.92	15.879
476.27	16.347
476.61	15.830
476.96	15.558
477.31	15.960
477.66	16.028
478.01	15.734
478.36	16.182
478.70	15.421
479.05	15.708
479.40	15.763
479.75	16.014
480.10	15.905
480.45	15.564
480.79	16.006
481.14	15.411
481.49	15.757
481.84	15.821
482.19	15.675
482.53	15.917
482.88	15.914
483.23	15.280
483.58	15.605
483.92	15.792
484.27	14.074
484.62	15.388
484.97	14.899
485.31	15.171
485.66	13.938
486.01	14.001
486.36	13.535
486.70	13.269
487.05	13.848
487.40	13.943
487.75	14.047
488.09	14.437
488.44	14.310
488.79	14.864
489.13	15.241
489.48	15.212
489.83	15.278
490.17	15.300
490.52	15.013
490.87	15.468
491.22	15.598
491.56	15.308
491.91	14.844
492.26	15.434
492.60	15.069
492.95	14.780
493.30	14.720
493.64	15.306
493.99	14.578
494.34	15.125
494.68	15.568
495.03	15.179
495.37	14.705
495.72	14.961
496.07	15.128
496.41	14.513
496.76	15.084
497.11	15.308
497.45	15.370
497.80	15.643
498.14	15.024
498.49	15.415
498.84	15.340
499.18	14.952
499.53	14.625
499.87	15.610
500.22	15.261
500.56	15.583
500.91	14.712
501.26	14.983
501.60	15.187
501.95	15.078
502.29	14.995
502.64	14.944
502.98	14.867
503.33	14.351
503.67	15.220
504.02	15.341
504.36	15.068
504.71	15.095
505.06	14.988
505.40	14.876
505.75	14.754
506.09	14.820
506.44	15.195
506.78	15.149
507.13	14.488
507.47	15.455
507.82	14.995
508.16	15.096
508.51	15.830
508.85	14.598
509.19	15.153
509.54	15.255
509.88	14.889
510.23	15.064
510.57	15.893
510.92	15.173
511.26	15.211
511.61	15.768
511.95	14.823
512.30	15.483
512.64	14.723
512.98	16.184
513.33	15.846
513.67	15.475
514.02	14.989
514.36	15.729
514.70	15.827
515.05	15.505
515.39	15.536
515.74	15.090
516.08	15.875
516.42	15.483
516.77	17.113
517.11	14.761
517.46	15.745
517.80	15.970
518.14	14.129
518.49	15.928
518.83	15.795
519.17	15.589
519.52	15.167
519.86	15.973
520.20	15.665
520.55	15.560
520.89	16.241
521.23	16.104
521.58	15.486
521.92	15.554
522.26	14.521
522.61	15.327
522.95	15.040
523.29	15.338
523.64	14.939
523.98	16.081
524.32	14.355
524.66	15.815
525.01	15.380
525.35	15.551
525.69	15.271
526.04	16.137
526.38	15.619
526.72	15.337
527.06	15.568
527.41	14.913
527.75	15.627
528.09	15.992
528.43	15.934
528.78	16.533
529.12	15.455
529.46	16.167
529.80	15.470
530.15	16.262
530.49	15.754
530.83	15.886
531.17	16.319
531.51	16.148
531.86	15.806
532.20	16.232
532.54	16.656
532.88	16.239
533.22	15.240
533.57	15.741
533.91	16.195
534.25	15.128
534.59	15.619
534.93	15.943
535.27	16.113
535.62	16.239
535.96	16.510
536.30	15.257
536.64	16.549
536.98	15.594
537.32	16.063
537.66	15.267
538.01	16.063
538.35	15.966
538.69	16.209
539.03	15.205
539.37	15.272
539.71	15.036
540.05	15.490
540.39	16.346
540.73	15.265
541.07	15.185
541.42	15.590
541.76	16.903
542.10	16.429
542.44	15.497
542.78	16.930
543.12	15.867
543.46	16.656
543.80	16.721
544.14	15.404
544.48	16.698
544.82	15.330
545.16	15.680
545.50	15.938
545.84	16.331
546.18	16.027
546.52	14.797
546.86	16.976
547.20	16.588
547.54	16.232
547.88	17.283
548.22	16.252
548.56	16.038
548.90	15.109
549.24	15.892
549.58	15.825
549.92	15.797
550.26	15.696
550.60	15.698
550.94	15.634
551.28	15.508
551.62	17.182
551.96	16.351
552.30	16.519
552.64	16.227
552.98	16.271
553.32	16.116
553.66	16.701
554.00	16.953
554.34	16.218
554.68	15.522
555.02	16.079
555.36	16.701
555.69	16.373
556.03	16.151
556.37	16.166
556.71	15.825
557.05	15.896
557.39	15.675
557.73	15.808
558.07	16.751
558.41	15.557
558.75	16.752
559.08	16.555
559.42	16.327
559.76	15.956
560.10	16.131
560.44	15.863
560.78	16.234
561.12	16.359
561.45	16.819
561.79	15.887
562.13	15.560
562.47	15.984
562.81	15.342
563.15	16.321
563.48	16.379
563.82	15.264
564.16	15.762
564.50	16.211
564.84	16.688
565.17	15.701
565.51	16.358
565.85	16.053
566.19	16.093
566.52	16.086
566.86	16.094
567.20	16.450
567.54	16.324
567.88	14.720
568.21	15.979
568.55	15.066
568.89	14.883
569.23	14.394
569.56	14.899
569.90	14.264
570.24	14.137
570.57	14.553
570.91	13.542
571.25	14.052
571.59	13.844
571.92	14.084
572.26	14.038
572.60	14.474
572.93	13.853
573.27	14.286
573.61	14.098
573.95	14.031
574.28	13.668
574.62	13.946
574.96	13.835
575.29	13.409
575.63	13.694
575.97	13.486
576.30	14.233
576.64	13.520
576.98	13.466
577.31	13.470
577.65	13.529
577.98	13.370
578.32	13.384
578.66	13.438
578.99	13.559
579.33	13.604
579.67	13.403
580.00	13.618
580.34	13.977
580.67	13.850
581.01	13.537
581.35	13.602
581.68	13.911
582.02	13.521
582.35	13.689
582.69	13.455
583.02	13.434
583.36	13.950
583.70	14.011
584.03	14.054
584.37	14.229
584.70	14.028
585.04	14.090
585.37	13.840
585.71	14.121
586.04	13.941
586.38	14.289
586.72	14.609
587.05	13.936
587.39	13.615
587.72	14.146
588.06	13.901
588.39	14.074
588.73	14.227
589.06	14.459
589.40	14.613
589.73	14.009
590.07	14.342
590.40	13.665
590.73	14.364
591.07	15.059
591.40	14.635
591.74	15.411
592.07	14.572
592.41	14.800
592.74	14.532
593.08	14.457
593.41	14.268
593.75	14.210
594.08	14.247
594.41	14.210
594.75	13.789
595.08	14.639
595.42	14.361
595.75	14.566
596.09	14.307
596.42	15.167
596.75	14.436
597.09	15.022
597.42	14.418
597.75	14.705
598.09	15.043
598.42	14.691
598.76	13.863
599.09	13.911
599.42	14.156
599.76	14.495
600.09	14.208
600.42	14.646
600.76	14.071
601.09	14.645
601.42	14.155
601.76	14.118
602.09	13.953
602.42	14.411
602.76	14.913
603.09	14.477
603.42	15.150
603.76	14.748
604.09	13.843
604.42	14.472
604.76	15.816
605.09	14.810
605.42	14.493
605.75	14.321
606.09	14.315
606.42	13.935
606.75	14.517
607.09	15.027
607.42	14.463
607.75	14.135
608.08	14.590
608.42	15.105
608.75	14.518
609.08	14.847
609.41	14.374
609.75	14.435
610.08	15.174
610.41	14.479
610.74	14.759
611.07	15.069
611.41	15.407
611.74	15.636
612.07	15.166
612.40	15.687
612.73	14.789
613.07	15.679
613.40	15.745
613.73	14.316
614.06	14.301
614.39	15.260
614.72	15.474
615.06	15.389
615.39	14.703
615.72	14.673
616.05	15.258
616.38	15.120
616.71	15.796
617.05	15.194
617.38	14.913
617.71	15.676
618.04	15.805
618.37	14.666
618.70	16.366
619.03	15.592
619.36	15.071
619.69	15.563
620.03	16.621
620.36	16.243
620.69	16.507
621.02	16.445
621.35	15.348
621.68	15.966
622.01	16.022
622.34	16.641
622.67	16.882
623.00	16.214
623.33	15.654
623.66	16.226
623.99	15.611
624.32	16.405
624.65	15.678
624.99	14.377
625.32	15.134
625.65	15.778
625.98	15.680
626.31	17.729
626.64	16.490
626.97	16.043
627.30	15.711
627.63	17.063
627.96	16.989
628.29	16.448
628.62	17.017
628.95	18.868
629.28	16.150
629.61	17.415
629.94	17.333
630.26	16.873
630.59	16.969
