SpectraSuite Data File
++++++++++++++++++++++++++++++++++++
Date: Tue May 12 19:47:53 PDT 2015
User: schluterlab
Dark Spectrum Present: Yes
Reference Spectrum Present: Yes
Number of Sampled Component Spectra: 1
Spectrometers: USB2E3373
Integration Time (usec): 3000 (USB2E3373)
Spectra Averaged: 3 (USB2E3373)
Boxcar Smoothing: 0 (USB2E3373)
Correct for Electrical Dark: No (USB2E3373)
Strobe/Lamp Enabled: No (USB2E3373)
Correct for Detector Non-linearity: No (USB2E3373)
Correct for Stray Light: No (USB2E3373)
Number of Pixels in Processed Spectrum: 2048
>>>>>Begin Processed Spectral Data<<<<<
178.53	0.000
178.91	-80.000
179.29	-266.667
179.67	666.667
180.04	0.000
180.42	-120.000
180.80	-266.667
181.18	550.000
181.56	-350.000
181.94	250.000
182.31	2000.000
182.69	-71.429
183.07	0.000
183.45	225.000
183.83	360.000
184.20	383.333
184.58	1150.000
184.96	400.000
185.34	-333.333
185.72	7.143
186.09	16.667
186.47	-500.000
186.85	-180.000
187.23	141.667
187.61	-71.429
187.98	-260.000
188.36	550.000
188.74	-250.000
189.12	-111.111
189.49	-40.000
189.87	575.000
190.25	200.000
190.63	933.333
191.00	500.000
191.38	-400.000
191.76	480.000
192.14	-157.143
192.51	-80.000
192.89	-260.000
193.27	-300.000
193.65	-333.333
194.02	-233.333
194.40	900.000
194.78	-100.000
195.15	-328.571
195.53	833.333
195.91	300.000
196.29	-525.000
196.66	-366.667
197.04	-214.286
197.42	380.000
197.79	-137.500
198.17	-83.333
198.55	-900.000
198.92	-133.333
199.30	300.000
199.68	-200.000
200.05	-1000.000
200.43	-22.222
200.81	-100.000
201.18	300.000
201.56	-850.000
201.94	-1800.000
202.31	-83.333
202.69	-100.000
203.07	-125.000
203.44	-400.000
203.82	0.000
204.19	287.500
204.57	-600.000
204.95	245.455
205.32	320.000
205.70	325.000
206.08	-900.000
206.45	-240.000
206.83	1000.000
207.20	-133.333
207.58	-23.077
207.96	366.667
208.33	433.333
208.71	666.667
209.08	850.000
209.46	-33.333
209.84	700.000
210.21	-700.000
210.59	300.000
210.96	288.889
211.34	-425.000
211.71	950.000
212.09	-180.000
212.46	-200.000
212.84	-137.500
213.22	171.429
213.59	-37.500
213.97	0.000
214.34	-850.000
214.72	-1400.000
215.09	550.000
215.47	-53.333
215.84	-62.500
216.22	-1500.000
216.59	1400.000
216.97	-100.000
217.34	-233.333
217.72	-16.667
218.09	500.000
218.47	-10.526
218.84	-187.500
219.22	14.286
219.59	-10.000
219.97	-100.000
220.34	233.333
220.72	45.455
221.09	-950.000
221.47	0.000
221.84	400.000
222.22	-75.000
222.59	-275.000
222.97	-17.391
223.34	126.667
223.72	271.429
224.09	-200.000
224.46	153.846
224.84	-33.333
225.21	-750.000
225.59	-225.000
225.96	10.000
226.34	350.000
226.71	260.000
227.08	-146.154
227.46	-85.714
227.83	-41.667
228.21	-250.000
228.58	383.333
228.95	-42.105
229.33	-75.000
229.70	-183.333
230.08	-200.000
230.45	-766.667
230.82	-1600.000
231.20	19.048
231.57	-440.000
231.95	-433.333
232.32	188.889
232.69	-1250.000
233.07	-50.000
233.44	-187.500
233.81	-25.806
234.19	-420.000
234.56	-77.778
234.93	-366.667
235.31	-18.519
235.68	-44.444
236.05	-50.000
236.43	-142.105
236.80	-77.273
237.17	-135.714
237.55	-50.000
237.92	-6.977
238.29	-48.387
238.67	0.000
239.04	-11.429
239.41	-31.373
239.79	-2.000
240.16	-10.000
240.53	-22.414
240.91	-17.808
241.28	-16.901
241.65	-3.125
242.02	-22.807
242.40	-18.667
242.77	-6.316
243.14	-9.412
243.51	-6.452
243.89	-0.952
244.26	-3.704
244.63	-6.122
245.00	-12.500
245.38	-14.286
245.75	-2.542
246.12	5.469
246.49	-10.400
246.87	-6.557
247.24	-11.268
247.61	-8.609
247.98	-1.124
248.36	-3.145
248.73	-10.795
249.10	0.000
249.47	-0.521
249.84	-3.553
250.22	-7.812
250.59	-3.933
250.96	-3.636
251.33	0.000
251.70	1.835
252.08	0.433
252.45	-2.041
252.82	-2.954
253.19	-1.946
253.56	5.098
253.94	-2.439
254.31	3.957
254.68	-2.083
255.05	2.649
255.42	-2.182
255.79	5.298
256.16	2.431
256.54	3.636
256.91	0.962
257.28	4.545
257.65	0.000
258.02	-0.300
258.39	1.208
258.76	-0.917
259.14	0.882
259.51	4.507
259.88	2.594
260.25	-1.989
260.62	-2.247
260.99	1.114
261.36	-0.575
261.73	2.667
262.10	0.000
262.47	0.551
262.85	2.057
263.22	-0.806
263.59	-0.268
263.96	0.522
264.33	-4.313
264.70	-1.966
265.07	-1.478
265.44	3.044
265.81	2.892
266.18	-0.703
266.55	-2.143
266.92	2.232
267.29	1.556
267.66	-1.364
268.03	2.151
268.40	0.458
268.77	0.668
269.14	0.840
269.51	0.000
269.88	1.068
270.25	-1.266
270.62	0.630
270.99	1.263
271.36	-0.662
271.73	-1.042
272.10	-0.415
272.47	-2.600
272.84	-3.397
273.21	1.670
273.58	0.204
273.95	0.199
274.32	0.774
274.69	-0.196
275.06	1.126
275.43	-3.400
275.80	0.191
276.17	-2.767
276.54	1.901
276.91	-0.192
277.28	1.547
277.65	0.189
278.02	0.000
278.39	2.722
278.76	1.304
279.13	1.431
279.50	1.264
279.87	0.189
280.23	0.729
280.60	-1.237
280.97	-0.351
281.34	0.847
281.71	-1.066
282.08	0.716
282.45	-1.940
282.82	-0.337
283.19	1.010
283.56	-0.683
283.92	0.158
284.29	1.184
284.66	-1.593
285.03	-2.573
285.40	0.167
285.77	-0.164
286.14	1.902
286.51	-0.643
286.87	0.000
287.24	-2.564
287.61	-2.160
287.98	2.034
288.35	0.155
288.72	1.070
289.08	-0.943
289.45	1.248
289.82	-0.466
290.19	-0.455
290.56	1.592
290.93	1.477
291.29	1.135
291.66	0.421
292.03	1.578
292.40	0.432
292.77	-0.146
293.13	1.322
293.50	1.791
293.87	1.526
294.24	1.685
294.60	0.410
294.97	-0.554
295.34	0.548
295.71	-1.942
296.08	0.000
296.44	2.108
296.81	0.129
297.18	0.906
297.55	0.126
297.91	0.508
298.28	0.895
298.65	0.517
299.02	1.110
299.38	-1.658
299.75	2.703
300.12	1.439
300.48	0.117
300.85	0.122
301.22	0.601
301.59	-0.122
301.95	0.732
302.32	1.701
302.69	-0.357
303.05	0.590
303.42	0.725
303.79	1.011
304.15	0.340
304.52	0.894
304.89	-0.225
305.25	0.573
305.62	1.477
305.99	1.120
306.35	0.447
306.72	1.634
307.09	0.000
307.45	1.618
307.82	1.708
308.19	2.640
308.55	1.899
308.92	0.847
309.29	1.464
309.65	2.786
310.02	1.677
310.38	1.812
310.75	2.254
311.12	2.442
311.48	1.850
311.85	1.824
312.22	2.169
312.58	2.417
312.95	1.335
313.31	1.573
313.68	2.979
314.05	2.880
314.41	3.340
314.78	3.216
315.14	3.232
315.51	3.376
315.87	4.395
316.24	3.759
316.61	4.175
316.97	4.118
317.34	4.593
317.70	3.735
318.07	3.279
318.43	5.860
318.80	5.100
319.16	4.753
319.53	3.679
319.89	6.439
320.26	6.588
320.62	5.329
320.99	6.224
321.35	7.016
321.72	8.182
322.08	7.228
322.45	7.495
322.81	7.291
323.18	7.958
323.54	8.057
323.91	7.021
324.27	7.618
324.64	8.247
325.00	9.099
325.37	9.802
325.73	6.843
326.10	9.370
326.46	9.248
326.83	8.883
327.19	10.044
327.56	11.317
327.92	9.722
328.29	10.305
328.65	11.111
329.01	10.000
329.38	10.652
329.74	12.628
330.11	11.929
330.47	12.663
330.84	11.936
331.20	11.922
331.56	12.075
331.93	12.443
332.29	11.841
332.66	13.020
333.02	12.906
333.38	12.776
333.75	12.626
334.11	12.297
334.48	12.880
334.84	11.737
335.20	11.996
335.57	14.078
335.93	11.721
336.29	13.346
336.66	14.026
337.02	12.330
337.38	12.642
337.75	14.364
338.11	12.215
338.47	12.813
338.84	12.983
339.20	13.016
339.56	11.929
339.93	12.613
340.29	13.781
340.65	11.872
341.02	11.426
341.38	14.034
341.74	12.633
342.11	13.086
342.47	12.675
342.83	13.010
343.20	12.644
343.56	12.937
343.92	13.648
344.28	10.806
344.65	12.671
345.01	12.108
345.37	12.821
345.73	12.317
346.10	13.051
346.46	12.425
346.82	13.084
347.19	12.363
347.55	12.670
347.91	11.957
348.27	12.468
348.63	12.273
349.00	12.437
349.36	12.448
349.72	12.562
350.08	12.357
350.45	12.042
350.81	11.148
351.17	11.697
351.53	11.675
351.89	12.263
352.26	11.057
352.62	12.428
352.98	11.883
353.34	11.696
353.70	11.523
354.07	12.603
354.43	11.102
354.79	11.230
355.15	11.864
355.51	12.551
355.87	11.241
356.24	12.990
356.60	10.935
356.96	11.137
357.32	12.181
357.68	11.854
358.04	11.021
358.40	11.948
358.77	11.084
359.13	12.691
359.49	10.560
359.85	12.230
360.21	11.261
360.57	11.483
360.93	13.222
361.29	10.592
361.66	11.278
362.02	12.245
362.38	12.432
362.74	12.375
363.10	12.066
363.46	11.437
363.82	11.256
364.18	11.128
364.54	11.069
364.90	11.481
365.26	12.444
365.62	10.749
365.98	10.795
366.35	12.103
366.71	10.754
367.07	12.103
367.43	10.830
367.79	11.701
368.15	11.193
368.51	11.910
368.87	12.115
369.23	11.658
369.59	12.059
369.95	11.177
370.31	11.894
370.67	11.353
371.03	12.152
371.39	12.764
371.75	11.367
372.11	10.444
372.47	10.765
372.83	11.176
373.19	10.843
373.55	10.853
373.91	10.303
374.27	11.921
374.63	10.972
374.99	11.493
375.35	10.813
375.71	11.478
376.07	11.166
376.42	12.310
376.78	10.662
377.14	10.894
377.50	12.038
377.86	11.560
378.22	11.427
378.58	11.974
378.94	10.871
379.30	10.682
379.66	10.755
380.02	10.617
380.38	10.242
380.74	11.684
381.09	10.991
381.45	10.984
381.81	10.778
382.17	11.466
382.53	11.769
382.89	10.904
383.25	10.336
383.61	10.045
383.97	11.436
384.32	11.677
384.68	11.239
385.04	9.803
385.40	10.479
385.76	11.069
386.12	11.551
386.48	10.372
386.83	10.467
387.19	10.281
387.55	11.010
387.91	9.907
388.27	9.853
388.62	10.298
388.98	10.178
389.34	9.564
389.70	10.962
390.06	10.627
390.42	10.142
390.77	10.463
391.13	10.605
391.49	10.310
391.85	10.778
392.20	9.835
392.56	9.627
392.92	9.462
393.28	9.934
393.64	9.816
393.99	9.156
394.35	9.085
394.71	10.132
395.07	9.947
395.42	9.841
395.78	9.812
396.14	9.860
396.50	9.638
396.85	9.584
397.21	9.314
397.57	9.151
397.92	9.478
398.28	9.952
398.64	8.952
399.00	9.170
399.35	9.144
399.71	9.281
400.07	9.512
400.42	10.192
400.78	9.533
401.14	9.533
401.49	9.931
401.85	9.968
402.21	9.835
402.57	7.985
402.92	8.898
403.28	9.168
403.63	9.551
403.99	8.587
404.35	8.535
404.70	9.246
405.06	8.184
405.42	8.718
405.77	8.561
406.13	9.259
406.49	8.391
406.84	8.966
407.20	8.055
407.55	8.350
407.91	8.182
408.27	7.713
408.62	8.103
408.98	8.430
409.34	8.323
409.69	7.826
410.05	8.096
410.40	7.322
410.76	8.468
411.11	8.080
411.47	8.299
411.83	7.985
412.18	8.639
412.54	7.956
412.89	8.096
413.25	7.900
413.60	8.992
413.96	8.220
414.31	7.903
414.67	8.980
415.03	8.506
415.38	6.476
415.74	8.462
416.09	7.236
416.45	8.139
416.80	7.163
417.16	8.745
417.51	8.536
417.87	8.482
418.22	8.222
418.58	7.464
418.93	7.415
419.29	8.345
419.64	7.898
420.00	7.924
420.35	7.721
420.71	8.259
421.06	7.982
421.42	8.093
421.77	7.917
422.12	7.974
422.48	8.110
422.83	8.389
423.19	8.824
423.54	7.941
423.90	8.035
424.25	8.701
424.61	7.548
424.96	8.907
425.31	7.790
425.67	8.000
426.02	7.826
426.38	6.885
426.73	8.287
427.09	8.011
427.44	8.148
427.79	8.911
428.15	8.561
428.50	8.166
428.85	7.569
429.21	9.205
429.56	8.508
429.92	8.978
430.27	7.787
430.62	8.545
430.98	8.866
431.33	8.065
431.68	8.151
432.04	8.688
432.39	8.556
432.74	8.918
433.10	7.338
433.45	7.536
433.80	8.869
434.16	8.113
434.51	8.919
434.86	7.915
435.22	8.440
435.57	9.103
435.92	7.059
436.28	8.717
436.63	8.706
436.98	8.765
437.34	8.893
437.69	8.951
438.04	8.714
438.39	8.486
438.75	8.062
439.10	9.583
439.45	8.986
439.81	7.746
440.16	7.792
440.51	8.860
440.86	8.586
441.22	8.636
441.57	8.661
441.92	8.945
442.27	8.686
442.63	8.296
442.98	8.741
443.33	9.166
443.68	8.874
444.03	8.557
444.39	8.433
444.74	8.930
445.09	8.619
445.44	8.163
445.79	8.846
446.15	8.455
446.50	8.791
446.85	8.306
447.20	8.534
447.55	7.795
447.91	8.466
448.26	9.733
448.61	8.761
448.96	7.806
449.31	9.042
449.66	8.535
450.02	8.698
450.37	8.931
450.72	7.660
451.07	7.779
451.42	9.420
451.77	8.386
452.12	8.459
452.47	8.062
452.83	8.281
453.18	8.845
453.53	8.491
453.88	8.998
454.23	8.946
454.58	8.551
454.93	7.084
455.28	8.690
455.63	8.317
455.98	9.074
456.34	8.774
456.69	7.312
457.04	8.399
457.39	8.989
457.74	8.217
458.09	7.903
458.44	8.952
458.79	7.833
459.14	8.587
459.49	8.089
459.84	8.205
460.19	7.755
460.54	8.712
460.89	8.353
461.24	8.896
461.59	9.148
461.94	8.218
462.29	8.333
462.64	8.357
462.99	7.469
463.34	8.864
463.69	8.985
464.04	7.826
464.39	8.424
464.74	8.112
465.09	8.553
465.44	7.918
465.79	8.063
466.14	7.220
466.49	8.388
466.84	8.170
467.19	7.667
467.54	7.294
467.89	7.446
468.24	7.513
468.59	7.657
468.94	7.330
469.29	8.512
469.64	8.753
469.99	7.498
470.34	6.931
470.68	8.308
471.03	6.788
471.38	7.405
471.73	7.922
472.08	8.897
472.43	6.985
472.78	6.962
473.13	8.702
473.48	7.746
473.83	8.058
474.17	7.605
474.52	7.971
474.87	8.586
475.22	7.687
475.57	7.521
475.92	8.528
476.27	8.017
476.61	7.920
476.96	8.358
477.31	7.306
477.66	7.612
478.01	7.416
478.36	7.622
478.70	8.000
479.05	7.429
479.40	7.629
479.75	8.245
480.10	8.333
480.45	7.749
480.79	8.044
481.14	7.802
481.49	7.249
481.84	7.475
482.19	7.951
482.53	7.598
482.88	6.965
483.23	8.191
483.58	7.624
483.92	7.739
484.27	7.648
484.62	7.826
484.97	7.162
485.31	7.695
485.66	7.249
486.01	7.184
486.36	7.171
486.70	7.345
487.05	7.084
487.40	7.207
487.75	7.243
488.09	6.830
488.44	6.966
488.79	7.836
489.13	7.606
489.48	7.288
489.83	7.490
490.17	6.751
490.52	7.266
490.87	7.666
491.22	8.185
491.56	7.510
491.91	6.978
492.26	7.241
492.60	8.010
492.95	6.674
493.30	7.475
493.64	6.947
493.99	7.341
494.34	7.197
494.68	6.739
495.03	6.542
495.37	7.197
495.72	7.173
496.07	6.947
496.41	6.868
496.76	6.925
497.11	7.336
497.45	7.785
497.80	6.802
498.14	7.022
498.49	7.475
498.84	6.971
499.18	6.954
499.53	7.632
499.87	7.168
500.22	6.909
500.56	7.221
500.91	7.499
501.26	6.614
501.60	7.339
501.95	6.653
502.29	7.132
502.64	7.118
502.98	7.219
503.33	6.990
503.67	7.044
504.02	7.048
504.36	7.242
504.71	7.128
505.06	7.124
505.40	7.453
505.75	6.477
506.09	6.555
506.44	6.438
506.78	6.478
507.13	6.840
507.47	6.593
507.82	6.752
508.16	6.347
508.51	7.440
508.85	5.989
509.19	6.637
509.54	6.516
509.88	6.732
510.23	6.573
510.57	5.792
510.92	6.633
511.26	6.663
511.61	6.621
511.95	6.131
512.30	7.130
512.64	6.862
512.98	6.911
513.33	6.565
513.67	6.407
514.02	5.889
514.36	6.702
514.70	7.043
515.05	7.134
515.39	6.023
515.74	6.767
516.08	6.277
516.42	6.650
516.77	6.584
517.11	6.544
517.46	6.996
517.80	7.147
518.14	7.780
518.49	6.792
518.83	7.069
519.17	7.134
519.52	6.683
519.86	6.650
520.20	6.561
520.55	7.050
520.89	7.220
521.23	6.947
521.58	6.746
521.92	6.409
522.26	7.079
522.61	7.372
522.95	6.575
523.29	6.478
523.64	6.174
523.98	5.981
524.32	7.071
524.66	6.526
525.01	6.392
525.35	7.182
525.69	6.194
526.04	7.329
526.38	6.032
526.72	6.181
527.06	6.540
527.41	6.166
527.75	6.102
528.09	5.799
528.43	7.371
528.78	6.080
529.12	6.781
529.46	6.512
529.80	5.582
530.15	5.976
530.49	5.858
530.83	5.495
531.17	6.073
531.51	5.924
531.86	6.863
532.20	5.772
532.54	6.763
532.88	5.673
533.22	6.178
533.57	6.276
533.91	6.056
534.25	6.314
534.59	5.777
534.93	6.044
535.27	5.589
535.62	5.739
535.96	5.234
536.30	5.567
536.64	6.438
536.98	6.858
537.32	6.548
537.66	5.938
538.01	5.817
538.35	5.818
538.69	4.954
539.03	6.489
539.37	5.671
539.71	7.246
540.05	5.210
540.39	6.463
540.73	6.227
541.07	6.765
541.42	6.771
541.76	6.115
542.10	5.524
542.44	6.864
542.78	5.059
543.12	5.848
543.46	6.036
543.80	6.076
544.14	6.165
544.48	5.684
544.82	6.317
545.16	6.087
545.50	7.060
545.84	6.584
546.18	6.367
546.52	5.842
546.86	5.356
547.20	5.909
547.54	5.534
547.88	5.912
548.22	5.907
548.56	5.779
548.90	5.895
549.24	6.433
549.58	6.557
549.92	6.015
550.26	6.255
550.60	6.503
550.94	5.079
551.28	5.285
551.62	6.388
551.96	6.310
552.30	4.961
552.64	5.560
552.98	5.572
553.32	5.530
553.66	6.297
554.00	5.328
554.34	6.641
554.68	5.582
555.02	6.190
555.36	4.925
555.69	4.919
556.03	5.322
556.37	5.776
556.71	5.204
557.05	5.156
557.39	5.863
557.73	5.189
558.07	5.869
558.41	5.108
558.75	5.560
559.08	4.936
559.42	5.268
559.76	4.886
560.10	5.460
560.44	6.097
560.78	5.034
561.12	5.409
561.45	5.357
561.79	4.699
562.13	5.782
562.47	5.199
562.81	5.534
563.15	4.259
563.48	4.569
563.82	5.677
564.16	4.136
564.50	5.086
564.84	5.882
565.17	4.793
565.51	5.419
565.85	6.056
566.19	4.384
566.52	5.305
566.86	5.328
567.20	5.589
567.54	4.914
567.88	4.490
568.21	6.331
568.55	5.037
568.89	5.055
569.23	4.920
569.56	5.287
569.90	5.525
570.24	5.201
570.57	5.229
570.91	5.058
571.25	5.475
571.59	5.246
571.92	4.806
572.26	4.752
572.60	5.164
572.93	5.108
573.27	5.191
573.61	4.983
573.95	4.866
574.28	4.662
574.62	4.903
574.96	4.772
575.29	4.801
575.63	4.430
575.97	4.918
576.30	5.032
576.64	4.824
576.98	4.561
577.31	4.801
577.65	4.865
577.98	4.735
578.32	4.956
578.66	4.322
578.99	5.182
579.33	4.475
579.67	4.903
580.00	4.465
580.34	5.262
580.67	4.807
581.01	4.658
581.35	4.870
581.68	4.588
582.02	4.678
582.35	4.724
582.69	4.822
583.02	4.510
583.36	4.760
583.70	4.838
584.03	4.424
584.37	4.653
584.70	4.397
585.04	4.334
585.37	4.881
585.71	4.985
586.04	4.946
586.38	5.039
586.72	4.592
587.05	5.028
587.39	5.082
587.72	4.835
588.06	5.018
588.39	4.557
588.73	4.310
589.06	4.316
589.40	5.174
589.73	4.899
590.07	4.530
590.40	4.666
590.73	4.915
591.07	5.022
591.40	4.751
591.74	4.291
592.07	4.967
592.41	4.171
592.74	4.431
593.08	4.508
593.41	4.731
593.75	4.483
594.08	4.576
594.41	4.748
594.75	4.659
595.08	5.181
595.42	5.295
595.75	5.152
596.09	4.323
596.42	4.059
596.75	5.136
597.09	4.664
597.42	4.552
597.75	4.409
598.09	5.056
598.42	4.259
598.76	4.417
599.09	4.916
599.42	4.563
599.76	4.747
600.09	4.705
600.42	4.453
600.76	4.811
601.09	4.627
601.42	4.630
601.76	4.302
602.09	4.818
602.42	4.516
602.76	4.712
603.09	4.526
603.42	4.429
603.76	4.029
604.09	4.595
604.42	4.723
604.76	4.518
605.09	4.393
605.42	4.882
605.75	4.020
606.09	4.800
606.42	4.506
606.75	4.929
607.09	4.338
607.42	5.278
607.75	4.224
608.08	4.818
608.42	4.219
608.75	4.602
609.08	3.988
609.41	5.029
609.75	5.003
610.08	4.238
610.41	4.631
610.74	4.803
611.07	4.389
611.41	4.015
611.74	5.332
612.07	4.688
612.40	5.292
612.73	3.762
613.07	4.287
613.40	4.140
613.73	4.009
614.06	4.040
614.39	4.804
614.72	3.955
615.06	5.109
615.39	4.503
615.72	4.311
616.05	4.464
616.38	4.033
616.71	4.602
617.05	5.025
617.38	4.452
617.71	4.376
618.04	4.731
618.37	3.532
618.70	4.959
619.03	5.294
619.36	4.050
619.69	3.577
620.03	4.882
620.36	3.930
620.69	4.804
621.02	5.067
621.35	5.191
621.68	3.690
622.01	4.456
622.34	4.020
622.67	3.879
623.00	4.177
623.33	3.937
623.66	5.179
623.99	4.545
624.32	4.051
624.65	3.516
624.99	3.516
625.32	4.423
625.65	3.923
625.98	5.000
626.31	3.117
626.64	4.505
626.97	5.790
627.30	4.537
627.63	4.279
627.96	4.283
628.29	4.398
628.62	5.155
628.95	5.597
629.28	4.649
629.61	4.180
629.94	5.290
630.26	5.021
630.59	5.131
630.92	3.372
631.25	3.352
631.58	4.535
631.91	4.556
632.24	3.550
632.57	5.113
632.90	5.658
633.23	3.871
633.56	4.151
633.89	2.902
634.22	5.513
634.55	4.993
634.88	4.284
635.20	3.836
635.53	5.726
635.86	5.435
636.19	4.775
636.52	5.256
636.85	3.651
637.18	5.699
637.51	3.523
637.83	4.190
638.16	4.267
638.49	2.738
638.82	3.376
639.15	3.286
639.48	4.076
639.81	4.471
640.13	3.828
640.46	5.039
640.79	2.171
641.12	4.186
641.45	4.199
641.77	2.548
642.10	4.397
642.43	5.219
642.76	5.735
643.09	4.498
643.41	3.943
643.74	5.208
644.07	4.056
644.40	4.513
644.73	2.394
645.05	4.008
645.38	4.423
645.71	4.008
646.04	5.019
646.36	2.841
646.69	6.190
647.02	4.688
647.35	5.200
647.67	5.411
648.00	6.408
648.33	2.119
648.66	2.412
648.98	5.763
649.31	3.959
649.64	4.647
649.96	2.703
650.29	2.301
650.62	3.525
650.94	5.730
651.27	3.083
651.60	3.633
