SpectraSuite Data File
++++++++++++++++++++++++++++++++++++
Date: Wed May 13 19:49:32 PDT 2015
User: schluterlab
Dark Spectrum Present: Yes
Reference Spectrum Present: Yes
Number of Sampled Component Spectra: 1
Spectrometers: USB2E3373
Integration Time (usec): 3000 (USB2E3373)
Spectra Averaged: 3 (USB2E3373)
Boxcar Smoothing: 0 (USB2E3373)
Correct for Electrical Dark: No (USB2E3373)
Strobe/Lamp Enabled: No (USB2E3373)
Correct for Detector Non-linearity: No (USB2E3373)
Correct for Stray Light: No (USB2E3373)
Number of Pixels in Processed Spectrum: 2048
>>>>>Begin Processed Spectral Data<<<<<
178.53	0.000
178.91	-1150.000
179.29	-1075.000
179.67	-233.333
180.04	-1550.000
180.42	2450.000
180.80	1120.000
181.18	-1350.000
181.56	728.571
181.94	0.000
182.31	-685.714
182.69	1933.333
183.07	-637.500
183.45	-522.222
183.83	545.455
184.20	-410.000
184.58	2300.000
184.96	6100.000
185.34	-980.000
185.72	-675.000
186.09	-2350.000
186.47	3000.000
186.85	2700.000
187.23	4700.000
187.61	-2033.333
187.98	1275.000
188.36	618.182
188.74	554.545
189.12	-960.000
189.49	540.000
189.87	-5600.000
190.25	-1375.000
190.63	457.143
191.00	446.154
191.38	900.000
191.76	-1100.000
192.14	1450.000
192.51	712.500
192.89	1050.000
193.27	750.000
193.65	-1100.000
194.02	570.000
194.40	1000.000
194.78	570.000
195.15	566.667
195.53	660.000
195.91	-1800.000
196.29	368.750
196.66	289.474
197.04	-340.000
197.42	0.000
197.79	660.000
198.17	-5100.000
198.55	685.714
198.92	700.000
199.30	880.000
199.68	0.000
200.05	361.111
200.43	785.714
200.81	4900.000
201.18	1766.667
201.56	-1933.333
201.94	566.667
202.31	633.333
202.69	550.000
203.07	620.000
203.44	0.000
203.82	1325.000
204.19	800.000
204.57	414.286
204.95	612.500
205.32	1900.000
205.70	590.909
206.08	364.286
206.45	2650.000
206.83	393.750
207.20	1033.333
207.58	860.000
207.96	327.778
208.33	662.500
208.71	-800.000
209.08	800.000
209.46	533.333
209.84	390.909
210.21	-1633.333
210.59	1375.000
210.96	-537.500
211.34	2250.000
211.71	540.000
212.09	750.000
212.46	0.000
212.84	1433.333
213.22	1400.000
213.59	-5600.000
213.97	866.667
214.34	757.143
214.72	572.727
215.09	1140.000
215.47	-2250.000
215.84	-2450.000
216.22	1400.000
216.59	371.429
216.97	1300.000
217.34	536.364
217.72	-800.000
218.09	0.000
218.47	-4500.000
218.84	711.111
219.22	771.429
219.59	1666.667
219.97	-685.714
220.34	1020.000
220.72	-1733.333
221.09	414.286
221.47	1350.000
221.84	-850.000
222.22	0.000
222.59	1400.000
222.97	-3000.000
223.34	980.000
223.72	384.615
224.09	1120.000
224.46	2300.000
224.84	-4800.000
225.21	-1000.000
225.59	-5200.000
225.96	660.000
226.34	345.000
226.71	2700.000
227.08	750.000
227.46	660.000
227.83	-1300.000
228.21	-2650.000
228.58	788.889
228.95	-2400.000
229.33	-2250.000
229.70	1833.333
230.08	814.286
230.45	-980.000
230.82	475.000
231.20	816.667
231.57	600.000
231.95	475.000
232.32	236.364
232.69	418.182
233.07	685.714
233.44	361.538
233.81	-1600.000
234.19	321.053
234.56	408.333
234.93	391.667
235.31	463.636
235.68	315.385
236.05	328.571
236.43	193.939
236.80	294.737
237.17	4300.000
237.55	200.000
237.92	171.429
238.29	238.095
238.67	148.387
239.04	172.414
239.41	141.667
239.79	119.565
240.16	130.952
240.53	118.182
240.91	107.843
241.28	94.000
241.65	114.000
242.02	84.058
242.40	70.968
242.77	70.000
243.14	74.194
243.51	71.910
243.89	63.529
244.26	47.778
244.63	62.366
245.00	59.574
245.38	42.574
245.75	39.252
246.12	38.532
246.49	48.905
246.87	50.400
247.24	50.000
247.61	47.857
247.98	30.719
248.36	26.351
248.73	36.943
249.10	28.025
249.47	34.463
249.84	35.294
250.22	33.155
250.59	31.361
250.96	29.798
251.33	32.701
251.70	28.218
252.08	23.810
252.45	21.076
252.82	27.826
253.19	25.532
253.56	22.353
253.94	26.556
254.31	22.656
254.68	23.462
255.05	25.461
255.42	19.106
255.79	19.853
256.16	21.300
256.54	18.021
256.91	23.488
257.28	15.827
257.65	18.812
258.02	19.255
258.39	19.243
258.76	15.050
259.14	19.345
259.51	17.021
259.88	13.354
260.25	19.033
260.62	17.052
260.99	15.839
261.36	18.619
261.73	14.900
262.10	13.663
262.47	16.901
262.85	17.827
263.22	13.105
263.59	16.239
263.96	18.132
264.33	15.144
264.70	16.316
265.07	16.880
265.44	14.899
265.81	13.625
266.18	14.322
266.55	16.829
266.92	13.514
267.29	15.741
267.66	13.303
268.03	14.091
268.40	12.850
268.77	13.365
269.14	12.613
269.51	15.350
269.88	12.821
270.25	11.738
270.62	12.360
270.99	13.978
271.36	14.807
271.73	9.579
272.10	10.652
272.47	14.194
272.84	12.771
273.21	13.627
273.58	12.009
273.95	12.159
274.32	13.223
274.69	11.991
275.06	11.220
275.43	13.617
275.80	11.623
276.17	10.794
276.54	12.890
276.91	10.672
277.28	12.305
277.65	14.700
278.02	10.145
278.39	12.500
278.76	12.364
279.13	12.642
279.50	11.732
279.87	12.351
280.23	11.178
280.60	9.284
280.97	10.906
281.34	10.619
281.71	12.182
282.08	10.940
282.45	9.455
282.82	11.012
283.19	8.021
283.56	10.351
283.92	11.506
284.29	10.935
284.66	9.982
285.03	10.127
285.40	10.739
285.77	9.428
286.14	9.672
286.51	10.833
286.87	10.256
287.24	10.261
287.61	10.433
287.98	10.065
288.35	9.667
288.72	9.346
289.08	11.111
289.45	10.214
289.82	9.756
290.19	8.634
290.56	9.188
290.93	8.912
291.29	8.742
291.66	8.407
292.03	11.337
292.40	10.720
292.77	8.876
293.13	8.657
293.50	10.350
293.87	8.296
294.24	9.185
294.60	8.297
294.97	8.140
295.34	10.296
295.71	8.097
296.08	6.695
296.44	8.116
296.81	6.869
297.18	8.130
297.55	6.596
297.91	7.520
298.28	9.906
298.65	9.922
299.02	8.827
299.38	7.171
299.75	6.604
300.12	8.046
300.48	8.250
300.85	7.028
301.22	7.261
301.59	7.955
301.95	8.060
302.32	7.060
302.69	6.571
303.05	6.909
303.42	5.926
303.79	7.701
304.15	7.226
304.52	6.721
304.89	7.433
305.25	6.613
305.62	8.381
305.99	7.556
306.35	6.823
306.72	7.399
307.09	7.325
307.45	6.869
307.82	6.585
308.19	8.168
308.55	7.875
308.92	6.660
309.29	6.758
309.65	7.317
310.02	6.554
310.38	7.527
310.75	6.758
311.12	7.574
311.48	6.583
311.85	7.757
312.22	6.972
312.58	7.173
312.95	6.441
313.31	6.214
313.68	7.069
314.05	8.580
314.41	7.538
314.78	7.150
315.14	6.852
315.51	6.488
315.87	8.317
316.24	7.249
316.61	7.018
316.97	6.360
317.34	5.773
317.70	7.457
318.07	7.603
318.43	7.436
318.80	7.591
319.16	7.345
319.53	7.129
319.89	8.286
320.26	8.600
320.62	8.829
320.99	8.283
321.35	8.384
321.72	8.830
322.08	9.279
322.45	9.254
322.81	8.527
323.18	9.249
323.54	9.740
323.91	9.528
324.27	9.943
324.64	7.735
325.00	9.197
325.37	10.282
325.73	9.874
326.10	9.532
326.46	9.229
326.83	10.009
327.19	9.564
327.56	10.540
327.92	10.236
328.29	11.180
328.65	10.589
329.01	12.184
329.38	10.176
329.74	11.080
330.11	10.368
330.47	11.570
330.84	11.489
331.20	10.747
331.56	11.651
331.93	11.296
332.29	10.470
332.66	11.947
333.02	11.243
333.38	11.653
333.75	12.389
334.11	11.833
334.48	10.470
334.84	12.592
335.20	11.091
335.57	11.786
335.93	9.375
336.29	10.531
336.66	11.181
337.02	10.769
337.38	10.741
337.75	9.537
338.11	10.654
338.47	10.497
338.84	10.632
339.20	11.101
339.56	11.040
339.93	11.182
340.29	11.594
340.65	11.408
341.02	11.867
341.38	10.765
341.74	11.140
342.11	11.266
342.47	11.894
342.83	10.873
343.20	11.602
343.56	10.531
343.92	9.825
344.28	10.799
344.65	11.522
345.01	10.269
345.37	11.235
345.73	11.083
346.10	10.571
346.46	11.017
346.82	10.873
347.19	10.276
347.55	10.673
347.91	12.055
348.27	11.339
348.63	10.786
349.00	12.298
349.36	10.427
349.72	10.906
350.08	11.345
350.45	11.066
350.81	10.723
351.17	10.778
351.53	10.156
351.89	9.736
352.26	11.918
352.62	10.986
352.98	11.102
353.34	11.339
353.70	9.820
354.07	11.613
354.43	10.635
354.79	10.619
355.15	9.896
355.51	11.111
355.87	10.939
356.24	11.156
356.60	10.345
356.96	10.861
357.32	11.774
357.68	11.024
358.04	10.926
358.40	11.401
358.77	10.798
359.13	9.471
359.49	11.373
359.85	10.079
360.21	10.128
360.57	11.284
360.93	11.077
361.29	9.599
361.66	10.372
362.02	11.493
362.38	10.342
362.74	9.970
363.10	10.141
363.46	10.051
363.82	10.960
364.18	10.940
364.54	11.070
364.90	10.552
365.26	10.221
365.62	10.519
365.98	10.299
366.35	10.172
366.71	11.208
367.07	10.634
367.43	10.813
367.79	11.206
368.15	11.925
368.51	10.683
368.87	10.778
369.23	10.827
369.59	10.934
369.95	10.515
370.31	10.684
370.67	10.725
371.03	10.712
371.39	11.297
371.75	10.588
372.11	11.664
372.47	10.850
372.83	11.888
373.19	9.971
373.55	11.160
373.91	11.119
374.27	10.859
374.63	10.691
374.99	11.299
375.35	10.188
375.71	10.966
376.07	11.660
376.42	11.142
376.78	11.663
377.14	11.262
377.50	11.854
377.86	10.904
378.22	11.315
378.58	10.965
378.94	10.874
379.30	10.369
379.66	11.421
380.02	11.302
380.38	10.322
380.74	11.345
381.09	10.880
381.45	11.371
381.81	11.978
382.17	11.720
382.53	11.321
382.89	11.173
383.25	11.132
383.61	11.214
383.97	11.507
384.32	12.102
384.68	10.967
385.04	11.924
385.40	11.703
385.76	10.688
386.12	11.917
386.48	11.580
386.83	11.610
387.19	12.925
387.55	11.565
387.91	11.850
388.27	11.711
388.62	11.924
388.98	11.425
389.34	12.328
389.70	12.201
390.06	12.357
390.42	12.905
390.77	12.214
391.13	11.997
391.49	12.056
391.85	11.649
392.20	11.924
392.56	12.374
392.92	12.184
393.28	11.479
393.64	12.110
393.99	12.462
394.35	11.973
394.71	12.986
395.07	12.336
395.42	12.176
395.78	11.959
396.14	13.097
396.50	13.910
396.85	12.524
397.21	12.515
397.57	13.019
397.92	13.101
398.28	12.388
398.64	12.963
399.00	12.815
399.35	11.957
399.71	12.153
400.07	13.010
400.42	13.374
400.78	13.872
401.14	13.049
401.49	13.433
401.85	13.067
402.21	12.814
402.57	12.893
402.92	14.061
403.28	13.117
403.63	14.171
403.99	12.930
404.35	14.061
404.70	13.729
405.06	13.512
405.42	13.537
405.77	13.143
406.13	13.375
406.49	14.193
406.84	13.999
407.20	12.766
407.55	13.529
407.91	14.667
408.27	13.784
408.62	15.051
408.98	14.706
409.34	14.822
409.69	14.065
410.05	14.126
410.40	14.312
410.76	14.277
411.11	15.501
411.47	13.674
411.83	15.089
412.18	14.657
412.54	14.757
412.89	15.000
413.25	15.289
413.60	14.577
413.96	14.815
414.31	15.067
414.67	15.653
415.03	15.430
415.38	15.593
415.74	14.662
416.09	15.937
416.45	15.060
416.80	15.995
417.16	16.287
417.51	15.992
417.87	15.157
418.22	15.899
418.58	15.623
418.93	16.155
419.29	15.913
419.64	16.310
420.00	16.341
420.35	16.290
420.71	15.900
421.06	15.394
421.42	16.023
421.77	16.312
422.12	15.946
422.48	15.219
422.83	16.075
423.19	15.304
423.54	16.309
423.90	16.696
424.25	15.969
424.61	16.310
424.96	16.268
425.31	16.667
425.67	15.618
426.02	16.343
426.38	16.239
426.73	16.033
427.09	16.353
427.44	16.101
427.79	16.446
428.15	16.607
428.50	16.208
428.85	17.521
429.21	16.400
429.56	15.708
429.92	16.356
430.27	15.889
430.62	15.719
430.98	16.399
431.33	15.567
431.68	15.916
432.04	17.252
432.39	15.934
432.74	16.996
433.10	17.431
433.45	16.910
433.80	16.519
434.16	16.827
434.51	16.632
434.86	17.161
435.22	16.732
435.57	17.629
435.92	16.969
436.28	16.963
436.63	17.384
436.98	16.772
437.34	16.756
437.69	17.620
438.04	16.863
438.39	17.493
438.75	16.560
439.10	17.374
439.45	17.060
439.81	17.039
440.16	17.109
440.51	16.813
440.86	17.429
441.22	17.353
441.57	17.463
441.92	16.786
442.27	17.815
442.63	17.325
442.98	18.141
443.33	17.554
443.68	17.295
444.03	16.642
444.39	16.553
444.74	17.424
445.09	17.305
445.44	17.004
445.79	17.120
446.15	17.893
446.50	17.447
446.85	17.061
447.20	17.440
447.55	18.481
447.91	17.044
448.26	17.140
448.61	17.581
448.96	17.719
449.31	18.504
449.66	17.220
450.02	17.326
450.37	16.440
450.72	16.920
451.07	17.855
451.42	17.204
451.77	18.086
452.12	17.725
452.47	17.786
452.83	17.016
453.18	17.848
453.53	18.615
453.88	17.070
454.23	17.753
454.58	18.292
454.93	18.245
455.28	17.519
455.63	18.083
455.98	18.631
456.34	18.279
456.69	17.595
457.04	18.390
457.39	16.832
457.74	17.760
458.09	17.941
458.44	16.990
458.79	16.594
459.14	17.212
459.49	17.688
459.84	17.452
460.19	17.443
460.54	17.188
460.89	17.718
461.24	17.001
461.59	18.420
461.94	18.064
462.29	17.507
462.64	17.486
462.99	17.892
463.34	18.733
463.69	16.948
464.04	18.725
464.39	17.739
464.74	17.409
465.09	17.793
465.44	17.230
465.79	17.282
466.14	17.515
466.49	17.408
466.84	17.572
467.19	18.346
467.54	18.125
467.89	17.167
468.24	18.325
468.59	17.705
468.94	17.960
469.29	17.738
469.64	18.072
469.99	18.606
470.34	18.494
470.68	17.385
471.03	18.299
471.38	18.277
471.73	17.921
472.08	18.882
472.43	17.588
472.78	17.775
473.13	18.485
473.48	17.728
473.83	17.988
474.17	17.548
474.52	18.362
474.87	18.097
475.22	17.992
475.57	16.926
475.92	17.153
476.27	17.644
476.61	17.485
476.96	17.372
477.31	17.582
477.66	17.505
478.01	17.355
478.36	17.345
478.70	16.926
479.05	16.560
479.40	18.168
479.75	17.489
480.10	16.451
480.45	17.040
480.79	16.054
481.14	16.341
481.49	17.133
481.84	16.507
482.19	17.219
482.53	16.606
482.88	16.473
483.23	16.869
483.58	17.106
483.92	17.010
484.27	15.512
484.62	16.509
484.97	15.924
485.31	16.678
485.66	15.487
486.01	14.517
486.36	14.083
486.70	13.543
487.05	14.727
487.40	14.785
487.75	14.869
488.09	15.590
488.44	15.310
488.79	16.420
489.13	16.043
489.48	16.028
489.83	15.969
490.17	16.352
490.52	16.608
490.87	15.830
491.22	16.735
491.56	15.626
491.91	16.566
492.26	16.812
492.60	15.760
492.95	15.575
493.30	15.748
493.64	15.726
493.99	15.785
494.34	16.374
494.68	16.896
495.03	16.823
495.37	15.682
495.72	16.326
496.07	16.288
496.41	15.885
496.76	15.831
497.11	16.254
497.45	16.116
497.80	16.219
498.14	15.942
498.49	16.293
498.84	16.395
499.18	15.762
499.53	16.714
499.87	16.170
500.22	15.921
500.56	17.087
500.91	15.625
501.26	15.884
501.60	16.469
501.95	16.132
502.29	16.448
502.64	16.108
502.98	15.662
503.33	16.225
503.67	15.870
504.02	15.669
504.36	16.706
504.71	15.877
505.06	16.145
505.40	15.751
505.75	15.526
506.09	16.424
506.44	16.379
506.78	16.025
507.13	16.507
507.47	16.111
507.82	16.160
508.16	16.920
508.51	16.844
508.85	16.187
509.19	15.663
509.54	16.122
509.88	16.332
510.23	15.938
510.57	16.047
510.92	17.090
511.26	15.930
511.61	16.442
511.95	15.814
512.30	16.066
512.64	16.067
512.98	16.184
513.33	17.024
513.67	16.275
514.02	15.314
514.36	16.658
514.70	16.547
515.05	16.118
515.39	16.938
515.74	15.935
516.08	17.608
516.42	15.649
516.77	17.224
517.11	15.816
517.46	16.761
517.80	16.260
518.14	15.634
518.49	17.153
518.83	17.614
519.17	16.109
519.52	17.035
519.86	16.600
520.20	18.092
520.55	16.756
520.89	17.579
521.23	17.973
521.58	17.047
521.92	17.636
522.26	16.595
522.61	17.819
522.95	17.127
523.29	16.616
523.64	17.622
523.98	17.683
524.32	16.767
524.66	17.679
525.01	16.973
525.35	17.410
525.69	16.810
526.04	16.698
526.38	16.840
526.72	17.853
527.06	17.765
527.41	16.832
527.75	17.363
528.09	17.662
528.43	17.145
528.78	17.701
529.12	16.909
529.46	17.269
529.80	17.636
530.15	18.193
530.49	17.415
530.83	17.848
531.17	18.277
531.51	17.250
531.86	17.613
532.20	18.253
532.54	18.001
532.88	17.908
533.22	18.114
533.57	17.037
533.91	16.556
534.25	17.375
534.59	16.656
534.93	17.787
535.27	16.838
535.62	17.705
535.96	16.824
536.30	17.228
536.64	17.901
536.98	17.452
537.32	18.367
537.66	17.467
538.01	17.577
538.35	17.518
538.69	18.251
539.03	16.569
539.37	17.125
539.71	16.915
540.05	17.320
540.39	17.874
540.73	18.111
541.07	17.910
541.42	18.069
541.76	18.323
542.10	17.723
542.44	16.755
542.78	18.841
543.12	16.251
543.46	17.902
543.80	17.111
544.14	16.816
544.48	17.524
544.82	17.768
545.16	17.306
545.50	16.838
545.84	17.070
546.18	17.643
546.52	16.999
546.86	16.770
547.20	17.802
547.54	17.635
547.88	17.793
548.22	16.625
548.56	17.862
548.90	16.197
549.24	17.239
549.58	16.917
549.92	17.308
550.26	17.898
550.60	16.943
550.94	17.817
551.28	17.557
551.62	18.692
551.96	17.754
552.30	18.157
552.64	17.039
552.98	16.814
553.32	17.532
553.66	17.519
554.00	17.090
554.34	16.563
554.68	18.598
555.02	17.842
555.36	16.980
555.69	17.794
556.03	15.680
556.37	16.439
556.71	16.439
557.05	16.387
557.39	17.915
557.73	17.361
558.07	17.186
558.41	16.932
558.75	17.487
559.08	17.375
559.42	17.234
559.76	17.426
560.10	16.988
560.44	17.680
560.78	16.567
561.12	16.557
561.45	16.558
561.79	16.348
562.13	16.767
562.47	16.393
562.81	16.946
563.15	16.388
563.48	16.578
563.82	17.025
564.16	15.762
564.50	15.820
564.84	16.308
565.17	15.959
565.51	15.463
565.85	16.497
566.19	16.656
566.52	16.466
566.86	16.215
567.20	16.333
567.54	15.811
567.88	14.938
568.21	14.921
568.55	15.268
568.89	14.543
569.23	14.483
569.56	13.968
569.90	14.000
570.24	13.599
570.57	14.077
570.91	13.413
571.25	13.650
571.59	12.931
571.92	13.479
572.26	13.258
572.60	13.664
572.93	13.403
573.27	13.191
573.61	13.149
573.95	13.075
574.28	12.513
574.62	12.852
574.96	12.378
575.29	13.191
575.63	12.957
575.97	12.861
576.30	13.064
576.64	12.459
576.98	12.251
577.31	12.523
577.65	12.573
577.98	12.203
578.32	12.391
578.66	12.264
578.99	12.417
579.33	12.636
579.67	12.357
580.00	12.515
580.34	12.553
580.67	12.290
581.01	12.593
581.35	12.334
581.68	12.051
582.02	11.702
582.35	12.170
582.69	12.545
583.02	11.802
583.36	12.566
583.70	12.537
584.03	12.696
584.37	13.307
584.70	12.409
585.04	12.109
585.37	12.325
585.71	12.336
586.04	12.829
586.38	12.696
586.72	13.173
587.05	12.415
587.39	12.084
587.72	12.316
588.06	12.460
588.39	12.867
588.73	12.643
589.06	12.777
589.40	12.997
589.73	13.164
590.07	12.776
590.40	12.861
590.73	13.271
591.07	13.228
591.40	13.496
591.74	13.766
592.07	13.831
592.41	13.063
592.74	13.071
593.08	12.758
593.41	12.623
593.75	12.180
594.08	12.705
594.41	12.831
594.75	13.050
595.08	12.276
595.42	12.995
595.75	12.678
596.09	13.218
596.42	13.281
596.75	13.423
597.09	13.939
597.42	12.690
597.75	13.497
598.09	13.217
598.42	12.844
598.76	12.687
599.09	12.657
599.42	12.445
599.76	12.701
600.09	12.131
600.42	12.272
600.76	12.357
601.09	12.386
601.42	12.709
601.76	13.093
602.09	12.490
602.42	13.057
602.76	12.979
603.09	12.628
603.42	12.925
603.76	12.233
604.09	12.447
604.42	12.475
604.76	13.243
605.09	12.888
605.42	12.698
605.75	12.376
606.09	12.403
606.42	12.219
606.75	12.567
607.09	12.767
607.42	11.724
607.75	11.941
608.08	12.419
608.42	12.999
608.75	12.940
609.08	12.442
609.41	12.232
609.75	12.720
610.08	12.724
610.41	12.291
610.74	12.110
611.07	13.291
611.41	12.758
611.74	13.122
612.07	13.251
612.40	13.431
612.73	13.053
613.07	13.039
613.40	13.060
613.73	11.851
614.06	12.527
614.39	12.166
614.72	12.842
615.06	13.761
615.39	12.951
615.72	12.372
616.05	12.653
616.38	13.563
616.71	13.124
617.05	13.251
617.38	13.349
617.71	13.694
618.04	13.221
618.37	13.187
618.70	13.628
619.03	14.013
619.36	13.781
619.69	13.944
620.03	14.423
620.36	14.305
620.69	14.041
621.02	14.676
621.35	14.017
621.68	14.019
622.01	15.325
622.34	13.691
622.67	14.221
623.00	12.766
623.33	13.081
623.66	14.010
623.99	13.697
624.32	13.338
624.65	13.771
624.99	12.890
625.32	12.889
625.65	13.373
625.98	14.374
626.31	13.997
626.64	13.959
626.97	13.799
627.30	13.051
627.63	15.094
627.96	14.971
628.29	14.523
628.62	15.371
628.95	15.660
629.28	15.602
629.61	14.574
629.94	14.762
630.26	14.299
630.59	14.776
630.92	16.092
631.25	14.709
631.58	15.415
631.91	15.112
632.24	14.979
632.57	14.795
632.90	15.351
633.23	15.436
