SpectraSuite Data File
++++++++++++++++++++++++++++++++++++
Date: Wed May 13 19:42:01 PDT 2015
User: schluterlab
Dark Spectrum Present: Yes
Reference Spectrum Present: Yes
Number of Sampled Component Spectra: 1
Spectrometers: USB2E3373
Integration Time (usec): 3000 (USB2E3373)
Spectra Averaged: 3 (USB2E3373)
Boxcar Smoothing: 0 (USB2E3373)
Correct for Electrical Dark: No (USB2E3373)
Strobe/Lamp Enabled: No (USB2E3373)
Correct for Detector Non-linearity: No (USB2E3373)
Correct for Stray Light: No (USB2E3373)
Number of Pixels in Processed Spectrum: 2048
>>>>>Begin Processed Spectral Data<<<<<
178.53	0.000
178.91	-1250.000
179.29	-1325.000
179.67	-344.444
180.04	-1475.000
180.42	2850.000
180.80	1020.000
181.18	-1175.000
181.56	671.429
181.94	0.000
182.31	-685.714
182.69	1866.667
183.07	-537.500
183.45	-511.111
183.83	509.091
184.20	-440.000
184.58	2400.000
184.96	6200.000
185.34	-940.000
185.72	-600.000
186.09	-2350.000
186.47	2450.000
186.85	2150.000
187.23	4500.000
187.61	-1733.333
187.98	1225.000
188.36	590.909
188.74	563.636
189.12	-1040.000
189.49	480.000
189.87	-4900.000
190.25	-1175.000
190.63	464.286
191.00	346.154
191.38	866.667
191.76	-1300.000
192.14	1575.000
192.51	612.500
192.89	766.667
193.27	662.500
193.65	-900.000
194.02	580.000
194.40	980.000
194.78	690.000
195.15	508.333
195.53	650.000
195.91	-2300.000
196.29	368.750
196.66	284.211
197.04	-370.000
197.42	0.000
197.79	670.000
198.17	-4900.000
198.55	742.857
198.92	675.000
199.30	740.000
199.68	0.000
200.05	355.556
200.43	771.429
200.81	5400.000
201.18	1766.667
201.56	-1933.333
201.94	622.222
202.31	622.222
202.69	500.000
203.07	570.000
203.44	0.000
203.82	1000.000
204.19	771.429
204.57	435.714
204.95	812.500
205.32	1500.000
205.70	518.182
206.08	407.143
206.45	2350.000
206.83	325.000
207.20	866.667
207.58	880.000
207.96	383.333
208.33	737.500
208.71	-766.667
209.08	742.857
209.46	500.000
209.84	490.909
210.21	-1700.000
210.59	1300.000
210.96	-562.500
211.34	2600.000
211.71	520.000
212.09	800.000
212.46	0.000
212.84	1866.667
213.22	1475.000
213.59	-5000.000
213.97	883.333
214.34	828.571
214.72	572.727
215.09	1160.000
215.47	-2600.000
215.84	-2450.000
216.22	1833.333
216.59	435.714
216.97	1450.000
217.34	427.273
217.72	-666.667
218.09	0.000
218.47	-5300.000
218.84	655.556
219.22	757.143
219.59	1466.667
219.97	-671.429
220.34	840.000
220.72	-1566.667
221.09	421.429
221.47	1650.000
221.84	-900.000
222.22	0.000
222.59	1325.000
222.97	-2500.000
223.34	1140.000
223.72	430.769
224.09	940.000
224.46	2450.000
224.84	-4800.000
225.21	-1180.000
225.59	-4700.000
225.96	590.000
226.34	340.000
226.71	3150.000
227.08	687.500
227.46	630.000
227.83	-950.000
228.21	-2400.000
228.58	766.667
228.95	-2700.000
229.33	-2500.000
229.70	1833.333
230.08	828.571
230.45	-900.000
230.82	466.667
231.20	1016.667
231.57	628.571
231.95	441.667
232.32	250.000
232.69	436.364
233.07	757.143
233.44	346.154
233.81	-1700.000
234.19	289.474
234.56	483.333
234.93	400.000
235.31	436.364
235.68	300.000
236.05	414.286
236.43	172.727
236.80	236.842
237.17	4400.000
237.55	242.857
237.92	185.714
238.29	247.619
238.67	154.839
239.04	165.517
239.41	152.778
239.79	119.565
240.16	145.238
240.53	138.636
240.91	86.275
241.28	104.000
241.65	94.000
242.02	104.348
242.40	79.032
242.77	86.667
243.14	66.667
243.51	75.281
243.89	67.059
244.26	58.889
244.63	61.290
245.00	57.447
245.38	60.396
245.75	51.402
246.12	48.624
246.49	55.474
246.87	50.400
247.24	43.077
247.61	40.714
247.98	37.255
248.36	40.541
248.73	43.312
249.10	41.401
249.47	34.463
249.84	44.385
250.22	36.364
250.59	35.503
250.96	30.303
251.33	34.597
251.70	39.109
252.08	27.143
252.45	29.148
252.82	30.000
253.19	29.362
253.56	25.490
253.94	29.461
254.31	27.734
254.68	26.538
255.05	26.937
255.42	26.016
255.79	23.162
256.16	26.354
256.54	22.968
256.91	24.911
257.28	24.460
257.65	26.403
258.02	27.329
258.39	22.082
258.76	24.080
259.14	24.405
259.51	21.581
259.88	18.944
260.25	23.867
260.62	23.699
260.99	21.429
261.36	21.622
261.73	21.203
262.10	22.384
262.47	21.408
262.85	22.006
263.22	19.658
263.59	21.368
263.96	19.505
264.33	24.543
264.70	19.211
265.07	21.995
265.44	20.960
265.81	17.032
266.18	20.101
266.55	20.488
266.92	18.428
267.29	21.528
267.66	20.413
268.03	19.318
268.40	20.561
268.77	18.138
269.14	17.117
269.51	20.316
269.88	20.513
270.25	15.801
270.62	21.124
270.99	20.430
271.36	20.601
271.73	18.925
272.10	19.348
272.47	16.989
272.84	19.697
273.21	19.287
273.58	14.847
273.95	18.029
274.32	15.909
274.69	18.630
275.06	16.732
275.43	18.723
275.80	17.836
276.17	16.904
276.54	16.840
276.91	15.810
277.28	17.773
277.65	17.215
278.02	16.977
278.39	18.750
278.76	17.273
279.13	16.604
279.50	14.711
279.87	16.733
280.23	18.563
280.60	17.215
280.97	15.527
281.34	15.398
281.71	17.636
282.08	17.083
282.45	15.091
282.82	15.808
283.19	16.399
283.56	16.140
283.92	15.059
284.29	14.991
284.66	15.245
285.03	13.201
285.40	15.493
285.77	14.478
286.14	13.472
286.51	16.167
286.87	13.504
287.24	15.309
287.61	15.891
287.98	15.584
288.35	12.995
288.72	14.330
289.08	17.058
289.45	12.850
289.82	15.935
290.19	13.344
290.56	14.395
290.93	13.142
291.29	12.117
291.66	14.307
292.03	16.570
292.40	13.950
292.77	12.574
293.13	14.030
293.50	12.974
293.87	13.037
294.24	12.148
294.60	11.645
294.97	13.808
295.34	15.656
295.71	13.210
296.08	13.533
296.44	13.618
296.81	13.474
297.18	12.873
297.55	10.950
297.91	11.609
298.28	13.253
298.65	12.533
299.02	13.175
299.38	11.952
299.75	9.973
300.12	11.367
300.48	11.875
300.85	10.358
301.22	11.465
301.59	10.354
301.95	11.083
302.32	12.709
302.69	11.111
303.05	11.273
303.42	9.753
303.79	10.985
304.15	10.956
304.52	11.124
304.89	11.034
305.25	9.513
305.62	10.646
305.99	12.397
306.35	10.515
306.72	10.874
307.09	10.655
307.45	12.050
307.82	9.821
308.19	10.265
308.55	10.895
308.92	10.419
309.29	10.771
309.65	11.347
310.02	11.628
310.38	11.398
310.75	9.926
311.12	12.078
311.48	11.703
311.85	11.111
312.22	11.030
312.58	9.875
312.95	11.932
313.31	11.650
313.68	10.915
314.05	12.919
314.41	12.161
314.78	11.178
315.14	11.917
315.51	11.740
315.87	12.079
316.24	12.115
316.61	11.501
316.97	12.133
317.34	11.937
317.70	13.480
318.07	14.533
318.43	14.384
318.80	15.370
319.16	14.407
319.53	14.165
319.89	15.524
320.26	15.300
320.62	15.873
320.99	15.758
321.35	17.374
321.72	17.556
322.08	17.966
322.45	18.010
322.81	18.411
323.18	18.979
323.54	19.295
323.91	18.585
324.27	19.885
324.64	19.664
325.00	20.108
325.37	21.201
325.73	21.364
326.10	21.889
326.46	20.520
326.83	23.555
327.19	23.570
327.56	22.997
327.92	23.272
328.29	24.401
328.65	24.586
329.01	24.819
329.38	24.422
329.74	24.284
330.11	25.165
330.47	25.253
330.84	26.930
331.20	25.319
331.56	26.330
331.93	26.759
332.29	26.442
332.66	27.168
333.02	25.960
333.38	28.275
333.75	28.164
334.11	26.779
334.48	27.240
334.84	27.941
335.20	27.909
335.57	27.108
335.93	26.518
336.29	28.022
336.66	27.232
337.02	27.602
337.38	28.333
337.75	26.738
338.11	27.574
338.47	28.085
338.84	27.589
339.20	28.073
339.56	29.197
339.93	27.818
340.29	27.627
340.65	27.807
341.02	28.447
341.38	27.936
341.74	27.982
342.11	27.860
342.47	28.370
342.83	27.825
343.20	27.706
343.56	27.717
343.92	26.842
344.28	27.551
344.65	28.461
345.01	27.104
345.37	26.930
345.73	27.665
346.10	28.900
346.46	28.814
346.82	28.089
347.19	26.817
347.55	28.243
347.91	28.317
348.27	28.431
348.63	28.261
349.00	27.346
349.36	27.176
349.72	27.747
350.08	26.742
350.45	28.560
350.81	28.270
351.17	27.796
351.53	27.518
351.89	27.310
352.26	27.388
352.62	29.110
352.98	28.606
353.34	28.184
353.70	27.823
354.07	28.306
354.43	27.540
354.79	27.595
355.15	27.454
355.51	29.097
355.87	30.122
356.24	28.094
356.60	28.388
356.96	27.997
357.32	27.637
357.68	28.661
358.04	27.553
358.40	27.553
358.77	28.091
359.13	27.072
359.49	27.922
359.85	27.937
360.21	28.947
360.57	29.027
360.93	27.769
361.29	28.193
361.66	27.632
362.02	27.836
362.38	28.213
362.74	28.943
363.10	28.053
363.46	28.100
363.82	28.193
364.18	28.561
364.54	29.495
364.90	29.674
365.26	28.309
365.62	29.511
365.98	28.853
366.35	28.152
366.71	29.140
367.07	28.332
367.43	29.971
367.79	28.551
368.15	29.310
368.51	28.779
368.87	29.265
369.23	29.115
369.59	29.327
369.95	28.603
370.31	29.131
370.67	29.058
371.03	29.738
371.39	29.300
371.75	28.750
372.11	28.236
372.47	29.985
372.83	30.476
373.19	29.335
373.55	29.712
373.91	31.591
374.27	29.072
374.63	29.891
374.99	29.308
375.35	29.030
375.71	29.404
376.07	31.824
376.42	29.917
376.78	30.020
377.14	29.376
377.50	30.397
377.86	30.120
378.22	30.405
378.58	29.637
378.94	29.290
379.30	29.453
379.66	30.520
380.02	30.160
380.38	29.872
380.74	30.432
381.09	30.318
381.45	30.424
381.81	30.958
382.17	31.274
382.53	29.686
382.89	30.185
383.25	30.832
383.61	30.855
383.97	29.894
384.32	31.067
384.68	29.306
385.04	30.424
385.40	30.526
385.76	29.914
386.12	29.534
386.48	30.648
386.83	31.430
387.19	31.602
387.55	30.241
387.91	31.137
388.27	30.717
388.62	30.793
388.98	30.528
389.34	30.163
389.70	30.227
390.06	32.003
390.42	31.777
390.77	30.216
391.13	31.844
391.49	31.853
391.85	30.108
392.20	30.095
392.56	31.061
392.92	30.901
393.28	30.355
393.64	30.276
393.99	30.422
394.35	30.397
394.71	31.054
395.07	30.467
395.42	30.284
395.78	30.598
396.14	30.788
396.50	31.140
396.85	30.451
397.21	30.764
397.57	30.750
397.92	31.731
398.28	30.157
398.64	30.466
399.00	30.778
399.35	29.893
399.71	30.035
400.07	31.283
400.42	31.288
400.78	31.122
401.14	30.427
401.49	31.284
401.85	30.913
402.21	29.281
402.57	30.043
402.92	31.148
403.28	30.543
403.63	30.507
403.99	31.083
404.35	30.424
404.70	30.635
405.06	29.354
405.42	30.443
405.77	29.371
406.13	30.474
406.49	30.810
406.84	30.419
407.20	29.965
407.55	30.249
407.91	30.933
408.27	30.504
408.62	29.500
408.98	29.534
409.34	29.705
409.69	30.323
410.05	29.988
410.40	30.275
410.76	30.167
411.11	29.674
411.47	30.607
411.83	31.338
412.18	30.921
412.54	30.324
412.89	30.361
413.25	29.516
413.60	30.574
413.96	29.083
414.31	30.012
414.67	29.658
415.03	30.728
415.38	30.348
415.74	30.418
416.09	30.242
416.45	29.451
416.80	30.535
417.16	31.233
417.51	30.192
417.87	29.351
418.22	30.599
418.58	30.665
418.93	30.037
419.29	30.999
419.64	30.793
420.00	30.000
420.35	30.319
420.71	29.707
421.06	29.475
421.42	30.292
421.77	30.549
422.12	29.927
422.48	28.980
422.83	29.761
423.19	29.945
423.54	29.832
423.90	30.435
424.25	29.927
424.61	29.821
424.96	30.146
425.31	29.900
425.67	29.157
426.02	30.114
426.38	31.013
426.73	30.252
427.09	30.030
427.44	30.592
427.79	29.385
428.15	30.893
428.50	30.544
428.85	30.513
429.21	29.818
429.56	30.067
429.92	29.441
430.27	29.791
430.62	28.981
430.98	30.306
431.33	29.227
431.68	29.372
432.04	29.286
432.39	31.468
432.74	30.042
433.10	30.390
433.45	30.204
433.80	29.989
434.16	30.182
434.51	30.421
434.86	30.559
435.22	30.072
435.57	30.274
435.92	29.783
436.28	31.613
436.63	30.740
436.98	29.994
437.34	30.352
437.69	31.155
438.04	30.242
438.39	30.866
438.75	31.028
439.10	30.391
439.45	30.342
439.81	30.695
440.16	30.322
440.51	29.174
440.86	30.979
441.22	29.644
441.57	30.149
441.92	30.450
442.27	30.947
442.63	31.122
442.98	31.549
443.33	30.815
443.68	30.872
444.03	31.528
444.39	30.721
444.74	31.006
445.09	31.429
445.44	30.946
445.79	31.123
446.15	30.916
446.50	32.256
446.85	31.244
447.20	30.597
447.55	30.709
447.91	31.054
448.26	31.330
448.61	30.695
448.96	30.842
449.31	32.002
449.66	30.951
450.02	30.362
450.37	30.896
450.72	31.190
451.07	31.079
451.42	30.881
451.77	31.298
452.12	30.196
452.47	32.027
452.83	30.944
453.18	32.641
453.53	31.107
453.88	31.483
454.23	31.620
454.58	31.738
454.93	32.931
455.28	31.234
455.63	31.432
455.98	32.560
456.34	32.035
456.69	31.935
457.04	31.269
457.39	31.268
457.74	31.109
458.09	30.650
458.44	31.300
458.79	30.694
459.14	31.321
459.49	30.590
459.84	31.302
460.19	30.171
460.54	30.093
460.89	31.103
461.24	30.905
461.59	32.191
461.94	30.333
462.29	31.869
462.64	31.142
462.99	30.449
463.34	31.600
463.69	30.519
464.04	31.594
464.39	30.087
464.74	30.600
465.09	30.579
465.44	30.637
465.79	30.705
466.14	30.268
466.49	29.366
466.84	30.940
467.19	30.839
467.54	31.875
467.89	29.952
468.24	31.297
468.59	31.074
468.94	30.666
469.29	30.527
469.64	31.124
469.99	30.785
470.34	31.110
470.68	31.825
471.03	30.204
471.38	31.550
471.73	30.979
472.08	31.447
472.43	30.590
472.78	30.612
473.13	31.065
473.48	30.836
473.83	30.488
474.17	29.869
474.52	30.583
474.87	30.823
475.22	30.760
475.57	29.769
475.92	30.165
476.27	29.200
476.61	30.502
476.96	28.532
477.31	30.037
477.66	29.923
478.01	29.326
478.36	29.931
478.70	29.855
479.05	30.032
479.40	30.092
479.75	29.944
480.10	28.728
480.45	28.367
480.79	29.097
481.14	29.697
481.49	29.663
481.84	28.989
482.19	28.987
482.53	28.899
482.88	28.990
483.23	29.907
483.58	29.163
483.92	28.538
484.27	28.235
484.62	27.802
484.97	28.104
485.31	27.877
485.66	26.229
486.01	25.553
486.36	24.895
486.70	24.689
487.05	25.665
487.40	26.302
487.75	26.177
488.09	27.267
488.44	27.385
488.79	28.174
489.13	27.960
489.48	27.977
489.83	27.795
490.17	28.409
490.52	27.812
490.87	28.675
491.22	27.876
491.56	27.244
491.91	28.292
492.26	28.066
492.60	27.419
492.95	26.988
493.30	27.804
493.64	28.138
493.99	27.205
494.34	27.382
494.68	27.335
495.03	27.914
495.37	27.873
495.72	28.021
496.07	27.935
496.41	26.372
496.76	26.781
497.11	27.060
497.45	27.387
497.80	27.543
498.14	27.343
498.49	27.415
498.84	27.565
499.18	26.619
499.53	26.733
499.87	27.446
500.22	27.131
500.56	27.621
500.91	26.827
501.26	26.648
501.60	27.290
501.95	26.260
502.29	26.242
502.64	26.676
502.98	26.554
503.33	26.645
503.67	26.032
504.02	26.707
504.36	25.456
504.71	26.478
505.06	26.313
505.40	25.863
505.75	26.037
506.09	25.753
506.44	25.654
506.78	26.303
507.13	26.300
507.47	26.818
507.82	26.241
508.16	26.646
508.51	27.296
508.85	26.167
509.19	26.122
509.54	26.173
509.88	25.657
510.23	26.118
510.57	27.296
510.92	26.100
511.26	25.283
511.61	25.934
511.95	25.678
512.30	24.443
512.64	25.470
512.98	25.723
513.33	26.820
513.67	25.560
514.02	25.271
514.36	25.505
514.70	26.010
515.05	25.321
515.39	25.911
515.74	26.239
516.08	26.607
516.42	26.249
516.77	25.920
517.11	25.749
517.46	25.451
517.80	26.249
518.14	25.536
518.49	26.196
518.83	25.455
519.17	25.404
519.52	25.354
519.86	25.898
520.20	26.474
520.55	26.092
520.89	25.547
521.23	27.081
521.58	26.411
521.92	25.658
522.26	24.954
522.61	26.480
522.95	24.739
523.29	26.172
523.64	26.402
523.98	26.124
524.32	24.849
524.66	24.835
525.01	26.654
525.35	23.792
525.69	24.692
526.04	26.168
526.38	25.320
526.72	24.663
527.06	26.051
527.41	24.691
527.75	25.402
528.09	25.498
528.43	25.366
528.78	25.814
529.12	25.939
529.46	24.801
529.80	25.186
530.15	25.919
530.49	23.385
530.83	25.000
531.17	26.305
531.51	26.135
531.86	25.226
532.20	25.880
532.54	25.625
532.88	24.968
533.22	24.922
533.57	25.494
533.91	24.624
534.25	24.605
534.59	23.978
534.93	25.223
535.27	24.080
535.62	24.115
535.96	25.110
536.30	24.539
536.64	25.370
536.98	25.348
537.32	24.490
537.66	25.667
538.01	25.016
538.35	25.016
538.69	24.761
539.03	23.522
539.37	24.217
539.71	22.813
540.05	24.967
540.39	25.050
540.73	24.127
541.07	24.984
541.42	24.918
541.76	26.000
542.10	25.550
542.44	24.371
542.78	24.967
543.12	24.440
543.46	24.656
543.80	25.374
544.14	23.556
544.48	24.508
544.82	23.348
545.16	24.073
545.50	24.100
545.84	24.261
546.18	24.646
546.52	25.189
546.86	23.643
547.20	25.759
547.54	24.716
547.88	24.617
548.22	24.035
548.56	23.774
548.90	24.136
549.24	23.906
549.58	23.329
549.92	24.451
550.26	24.787
550.60	24.896
550.94	24.014
551.28	25.165
551.62	24.802
551.96	24.070
552.30	23.481
552.64	25.017
552.98	24.678
553.32	25.084
553.66	24.744
554.00	24.159
554.34	24.707
554.68	24.392
555.02	24.118
555.36	24.426
555.69	23.410
556.03	23.957
556.37	23.738
556.71	24.557
557.05	23.599
557.39	23.373
557.73	22.936
558.07	24.873
558.41	23.227
558.75	24.100
559.08	23.714
559.42	24.339
559.76	24.706
560.10	23.055
560.44	23.480
560.78	22.954
561.12	23.549
561.45	23.403
561.79	22.742
562.13	23.877
562.47	23.634
562.81	23.501
563.15	22.742
563.48	23.210
563.82	22.309
564.16	23.218
564.50	22.461
564.84	22.377
565.17	23.037
565.51	22.939
565.85	21.954
566.19	22.542
566.52	22.736
566.86	21.097
567.20	22.347
567.54	21.975
567.88	21.890
568.21	20.847
568.55	21.284
568.89	20.623
569.23	20.766
569.56	20.202
569.90	19.132
570.24	19.842
570.57	19.007
570.91	19.328
571.25	19.086
571.59	19.087
571.92	18.635
572.26	19.497
572.60	19.009
572.93	18.921
573.27	18.693
573.61	18.844
573.95	18.941
574.28	17.940
574.62	18.270
574.96	18.017
575.29	17.895
575.63	18.216
575.97	18.589
576.30	18.455
576.64	18.499
576.98	18.036
577.31	17.953
577.65	17.611
577.98	17.411
578.32	17.474
578.66	17.757
578.99	18.101
579.33	18.010
579.67	17.684
580.00	18.341
580.34	18.130
580.67	17.821
581.01	18.170
581.35	17.509
581.68	17.482
582.02	16.775
582.35	17.306
582.69	17.245
583.02	17.556
583.36	17.800
583.70	18.157
584.03	18.156
584.37	18.498
584.70	18.234
585.04	18.102
585.37	17.381
585.71	17.740
586.04	17.758
586.38	18.443
586.72	17.647
587.05	17.658
587.39	17.388
587.72	17.908
588.06	18.010
588.39	18.519
588.73	17.806
589.06	18.448
589.40	18.418
589.73	18.339
590.07	18.078
590.40	17.720
590.73	18.501
591.07	19.862
591.40	18.853
591.74	20.130
592.07	18.979
592.41	19.430
592.74	18.464
593.08	18.055
593.41	17.748
593.75	17.458
594.08	17.700
594.41	17.745
594.75	18.078
595.08	18.003
595.42	18.424
595.75	17.949
596.09	18.137
596.42	18.821
596.75	18.869
597.09	19.481
597.42	17.960
597.75	18.715
598.09	18.043
598.42	19.029
598.76	18.362
599.09	17.142
599.42	17.795
599.76	17.277
600.09	17.413
600.42	17.641
600.76	17.357
601.09	17.486
601.42	17.618
601.76	17.230
602.09	18.103
602.42	18.591
602.76	18.299
603.09	17.939
603.42	18.040
603.76	17.873
604.09	17.294
604.42	18.182
604.76	18.937
605.09	17.955
605.42	17.700
605.75	17.881
606.09	17.609
606.42	17.859
606.75	18.001
607.09	17.832
607.42	17.972
607.75	17.511
608.08	17.846
608.42	17.884
608.75	18.485
609.08	17.669
609.41	18.563
609.75	17.532
610.08	18.379
610.41	18.669
610.74	18.307
611.07	19.565
611.41	19.038
611.74	19.910
612.07	18.634
612.40	18.888
612.73	19.105
613.07	18.696
613.40	19.431
613.73	17.567
614.06	18.172
614.39	18.668
614.72	18.842
615.06	18.487
615.39	17.516
615.72	17.843
616.05	18.341
616.38	18.510
616.71	19.181
617.05	19.199
617.38	19.062
617.71	19.159
618.04	19.471
618.37	18.510
618.70	19.602
619.03	18.882
619.36	19.212
619.69	18.803
620.03	19.849
620.36	20.053
620.69	20.411
621.02	20.059
621.35	19.812
621.68	20.483
622.01	20.046
622.34	19.894
622.67	18.859
623.00	18.562
623.33	19.228
623.66	19.800
623.99	19.219
624.32	18.688
624.65	19.209
624.99	19.263
625.32	18.755
625.65	19.835
625.98	20.061
626.31	19.751
626.64	20.653
626.97	21.363
627.30	20.366
627.63	20.263
627.96	21.110
628.29	20.122
628.62	21.409
628.95	22.925
629.28	21.077
629.61	21.998
629.94	21.429
630.26	20.782
630.59	19.828
630.92	21.839
