SpectraSuite Data File
++++++++++++++++++++++++++++++++++++
Date: Wed May 13 19:26:23 PDT 2015
User: schluterlab
Dark Spectrum Present: Yes
Reference Spectrum Present: Yes
Number of Sampled Component Spectra: 1
Spectrometers: USB2E3373
Integration Time (usec): 3000 (USB2E3373)
Spectra Averaged: 3 (USB2E3373)
Boxcar Smoothing: 0 (USB2E3373)
Correct for Electrical Dark: No (USB2E3373)
Strobe/Lamp Enabled: No (USB2E3373)
Correct for Detector Non-linearity: No (USB2E3373)
Correct for Stray Light: No (USB2E3373)
Number of Pixels in Processed Spectrum: 2048
>>>>>Begin Processed Spectral Data<<<<<
178.53	0.000
178.91	-1275.000
179.29	-1275.000
179.67	-238.889
180.04	-1250.000
180.42	2550.000
180.80	1080.000
181.18	-1175.000
181.56	914.286
181.94	0.000
182.31	-642.857
182.69	1800.000
183.07	-487.500
183.45	-522.222
183.83	536.364
184.20	-400.000
184.58	2900.000
184.96	5900.000
185.34	-900.000
185.72	-625.000
186.09	-2500.000
186.47	2300.000
186.85	3100.000
187.23	4700.000
187.61	-1633.333
187.98	1375.000
188.36	563.636
188.74	509.091
189.12	-940.000
189.49	560.000
189.87	-5400.000
190.25	-1350.000
190.63	485.714
191.00	461.538
191.38	850.000
191.76	-1200.000
192.14	1450.000
192.51	637.500
192.89	1016.667
193.27	700.000
193.65	-1200.000
194.02	570.000
194.40	1080.000
194.78	580.000
195.15	491.667
195.53	540.000
195.91	-2550.000
196.29	381.250
196.66	331.579
197.04	-400.000
197.42	0.000
197.79	600.000
198.17	-5400.000
198.55	828.571
198.92	762.500
199.30	840.000
199.68	0.000
200.05	322.222
200.43	771.429
200.81	5300.000
201.18	1666.667
201.56	-1566.667
201.94	633.333
202.31	688.889
202.69	416.667
203.07	490.000
203.44	0.000
203.82	1375.000
204.19	785.714
204.57	464.286
204.95	687.500
205.32	1700.000
205.70	500.000
206.08	364.286
206.45	2300.000
206.83	412.500
207.20	933.333
207.58	800.000
207.96	322.222
208.33	675.000
208.71	-783.333
209.08	771.429
209.46	600.000
209.84	436.364
210.21	-1566.667
210.59	1175.000
210.96	-412.500
211.34	2650.000
211.71	560.000
212.09	650.000
212.46	0.000
212.84	1733.333
213.22	1325.000
213.59	-4900.000
213.97	800.000
214.34	957.143
214.72	618.182
215.09	940.000
215.47	-2450.000
215.84	-2900.000
216.22	1933.333
216.59	414.286
216.97	1200.000
217.34	509.091
217.72	-666.667
218.09	0.000
218.47	-4600.000
218.84	700.000
219.22	771.429
219.59	1700.000
219.97	-600.000
220.34	820.000
220.72	-1633.333
221.09	414.286
221.47	1450.000
221.84	-933.333
222.22	0.000
222.59	1575.000
222.97	-2550.000
223.34	1040.000
223.72	446.154
224.09	1040.000
224.46	2800.000
224.84	-4900.000
225.21	-1140.000
225.59	-5400.000
225.96	640.000
226.34	275.000
226.71	2600.000
227.08	625.000
227.46	550.000
227.83	-1225.000
228.21	-2350.000
228.58	600.000
228.95	-2350.000
229.33	-2400.000
229.70	1766.667
230.08	814.286
230.45	-740.000
230.82	458.333
231.20	816.667
231.57	671.429
231.95	508.333
232.32	259.091
232.69	418.182
233.07	685.714
233.44	284.615
233.81	-1766.667
234.19	294.737
234.56	433.333
234.93	383.333
235.31	445.455
235.68	346.154
236.05	400.000
236.43	193.939
236.80	257.895
237.17	4300.000
237.55	276.190
237.92	200.000
238.29	257.143
238.67	148.387
239.04	196.552
239.41	130.556
239.79	102.174
240.16	114.286
240.53	138.636
240.91	100.000
241.28	96.000
241.65	86.000
242.02	89.855
242.40	67.742
242.77	78.333
243.14	69.892
243.51	75.281
243.89	69.412
244.26	51.111
244.63	48.387
245.00	52.128
245.38	47.525
245.75	46.729
246.12	44.954
246.49	47.445
246.87	47.200
247.24	56.923
247.61	38.571
247.98	41.830
248.36	29.054
248.73	38.217
249.10	36.943
249.47	29.944
249.84	37.433
250.22	32.086
250.59	26.627
250.96	30.303
251.33	29.858
251.70	31.188
252.08	25.238
252.45	25.561
252.82	24.348
253.19	25.957
253.56	27.059
253.94	30.705
254.31	24.219
254.68	24.615
255.05	25.830
255.42	23.171
255.79	23.162
256.16	28.881
256.54	20.141
256.91	20.641
257.28	17.986
257.65	21.452
258.02	18.944
258.39	17.666
258.76	19.398
259.14	23.512
259.51	16.717
259.88	17.702
260.25	21.450
260.62	16.763
260.99	18.944
261.36	21.622
261.73	17.192
262.10	15.116
262.47	18.310
262.85	15.599
263.22	13.675
263.59	16.524
263.96	17.582
264.33	17.493
264.70	16.579
265.07	19.437
265.44	18.939
265.81	15.815
266.18	17.085
266.55	12.683
266.92	14.988
267.29	18.056
267.66	15.367
268.03	15.682
268.40	17.290
268.77	13.842
269.14	14.865
269.51	16.704
269.88	16.084
270.25	13.318
270.62	15.730
270.99	14.839
271.36	14.807
271.73	14.486
272.10	13.913
272.47	12.688
272.84	14.719
273.21	14.675
273.58	11.572
273.95	11.950
274.32	13.017
274.69	12.848
275.06	11.614
275.43	15.319
275.80	11.022
276.17	12.424
276.54	14.345
276.91	14.625
277.28	13.086
277.65	11.992
278.02	11.387
278.39	14.258
278.76	13.636
279.13	15.849
279.50	13.408
279.87	13.944
280.23	13.573
280.60	10.445
280.97	10.906
281.34	12.743
281.71	13.091
282.08	12.668
282.45	11.273
282.82	12.611
283.19	8.913
283.56	11.404
283.92	13.367
284.29	9.700
284.66	11.071
285.03	10.850
285.40	10.563
285.77	12.121
286.14	11.054
286.51	11.667
286.87	12.650
287.24	12.866
287.61	12.199
287.98	12.825
288.35	9.826
288.72	10.592
289.08	12.050
289.45	12.356
289.82	8.943
290.19	8.634
290.56	10.873
290.93	10.574
291.29	10.429
291.66	9.735
292.03	12.645
292.40	12.922
292.77	9.911
293.13	10.896
293.50	9.621
293.87	9.630
294.24	8.148
294.60	9.170
294.97	10.029
295.34	10.719
295.71	11.080
296.08	8.689
296.44	8.528
296.81	8.983
297.18	10.434
297.55	7.388
297.91	8.443
298.28	11.111
298.65	10.705
299.02	10.145
299.38	8.367
299.75	7.143
300.12	8.685
300.48	7.125
300.85	10.234
301.22	7.261
301.59	7.323
301.95	9.572
302.32	8.472
302.69	8.722
303.05	7.152
303.42	7.037
303.79	8.834
304.15	6.061
304.52	7.532
304.89	7.433
305.25	8.005
305.62	9.400
305.99	8.383
306.35	9.508
306.72	8.520
307.09	8.435
307.45	8.784
307.82	6.920
308.19	8.389
308.55	7.551
308.92	7.948
309.29	6.125
309.65	6.999
310.02	7.188
310.38	7.097
310.75	6.336
311.12	8.086
311.48	7.628
311.85	7.338
312.22	7.804
312.58	6.549
312.95	7.920
313.31	6.505
313.68	7.173
314.05	8.481
314.41	7.437
314.78	7.150
315.14	7.249
315.51	7.003
315.87	7.426
316.24	7.249
316.61	8.090
316.97	7.828
317.34	5.773
317.70	6.883
318.07	7.218
318.43	6.947
318.80	7.498
319.16	7.250
319.53	7.129
319.89	7.333
320.26	9.400
320.62	7.837
320.99	7.273
321.35	7.475
321.72	7.084
322.08	8.292
322.45	8.259
322.81	7.946
323.18	7.900
323.54	7.978
323.91	8.113
324.27	7.839
324.64	6.990
325.00	7.394
325.37	8.826
325.73	8.259
326.10	7.944
326.46	7.168
326.83	8.283
327.19	7.515
327.56	7.056
327.92	8.311
328.29	8.962
328.65	7.551
329.01	7.671
329.38	8.048
329.74	7.479
330.11	8.577
330.47	7.346
330.84	9.099
331.20	7.377
331.56	8.532
331.93	7.407
332.29	8.163
332.66	8.761
333.02	8.135
333.38	8.311
333.75	8.913
334.11	7.473
334.48	7.720
334.84	8.548
335.20	6.909
335.57	7.797
335.93	6.518
336.29	8.608
336.66	8.115
337.02	7.602
337.38	7.778
337.75	8.021
338.11	7.878
338.47	7.274
338.84	8.158
339.20	7.156
339.56	8.029
339.93	8.091
340.29	8.243
340.65	7.665
341.02	7.766
341.38	8.185
341.74	7.105
342.11	7.074
342.47	7.137
342.83	8.134
343.20	7.879
343.56	7.498
343.92	7.281
344.28	7.143
344.65	7.825
345.01	6.650
345.37	7.118
345.73	6.768
346.10	7.417
346.46	7.881
346.82	7.743
347.19	6.850
347.55	7.553
347.91	8.010
348.27	6.574
348.63	7.943
349.00	6.715
349.36	7.389
349.72	7.458
350.08	7.131
350.45	7.242
350.81	7.555
351.17	6.726
351.53	6.143
351.89	6.436
352.26	7.814
352.62	7.458
352.98	7.050
353.34	6.820
353.70	6.301
354.07	7.581
354.43	6.746
354.79	7.160
355.15	6.305
355.51	7.034
355.87	6.286
356.24	7.573
356.60	6.897
356.96	6.597
357.32	6.214
357.68	6.457
358.04	7.284
358.40	8.234
358.77	6.808
359.13	6.393
359.49	6.667
359.85	5.873
360.21	5.821
360.57	7.082
360.93	6.538
361.29	6.878
361.66	5.882
362.02	6.791
362.38	6.996
362.74	6.473
363.10	5.625
363.46	5.649
363.82	6.652
364.18	7.416
364.54	7.429
364.90	6.870
365.26	6.471
365.62	6.939
365.98	5.551
366.35	5.946
366.71	6.435
367.07	5.535
367.43	7.475
367.79	6.638
368.15	7.184
368.51	5.959
368.87	6.353
369.23	5.779
369.59	5.720
369.95	6.176
370.31	6.695
370.67	6.449
371.03	6.517
371.39	6.487
371.75	5.809
372.11	5.832
372.47	6.672
372.83	5.908
373.19	6.142
373.55	5.987
373.91	6.701
374.27	6.117
374.63	5.527
374.99	6.497
375.35	5.932
375.71	6.100
376.07	6.790
376.42	6.190
376.78	6.494
377.14	5.699
377.50	6.623
377.86	5.386
378.22	6.321
378.58	5.138
378.94	5.531
379.30	5.789
379.66	6.028
380.02	6.327
380.38	5.707
380.74	5.942
381.09	5.807
381.45	6.085
381.81	6.020
382.17	6.624
382.53	5.283
382.89	5.864
383.25	5.629
383.61	5.266
383.97	5.503
384.32	5.614
384.68	5.143
385.04	5.532
385.40	4.954
385.76	6.081
386.12	5.311
386.48	5.979
386.83	5.709
387.19	5.813
387.55	5.690
387.91	5.139
388.27	6.070
388.62	6.085
388.98	5.405
389.34	5.319
389.70	6.131
390.06	6.210
390.42	5.447
390.77	6.043
391.13	5.743
391.49	5.711
391.85	6.047
392.20	4.669
392.56	5.366
392.92	6.004
393.28	4.615
393.64	5.635
393.99	6.231
394.35	5.521
394.71	5.395
395.07	5.358
395.42	5.253
395.78	5.153
396.14	5.835
396.50	5.576
396.85	6.230
397.21	4.932
397.57	5.952
397.92	5.589
398.28	4.596
398.64	5.615
399.00	5.764
399.35	5.133
399.71	5.440
400.07	5.855
400.42	6.135
400.78	4.946
401.14	4.817
401.49	6.030
401.85	5.142
402.21	5.210
402.57	5.120
402.92	5.170
403.28	5.247
403.63	5.446
403.99	5.096
404.35	5.455
404.70	5.576
405.06	4.892
405.42	5.178
405.77	4.914
406.13	5.418
406.49	4.908
406.84	5.198
407.20	5.378
407.55	5.488
407.91	5.600
408.27	4.914
408.62	5.719
408.98	5.331
409.34	5.351
409.69	5.742
410.05	5.452
410.40	5.749
410.76	4.839
411.11	5.850
411.47	5.751
411.83	5.620
412.18	5.628
412.54	5.542
412.89	6.024
413.25	5.077
413.60	4.941
413.96	4.918
414.31	5.772
414.67	6.337
415.03	5.497
415.38	6.121
415.74	5.595
416.09	5.225
416.45	5.556
416.80	5.420
417.16	5.429
417.51	6.370
417.87	4.945
418.22	6.246
418.58	6.520
418.93	6.081
419.29	5.856
419.64	6.108
420.00	5.793
420.35	5.971
420.71	6.515
421.06	5.489
421.42	5.731
421.77	5.381
422.12	5.109
422.48	4.803
422.83	5.300
423.19	5.912
423.54	4.875
423.90	5.681
424.25	5.695
424.61	5.595
424.96	5.481
425.31	5.482
425.67	4.719
426.02	5.143
426.38	5.861
426.73	5.266
427.09	4.620
427.44	4.945
427.79	4.888
428.15	6.190
428.50	4.857
428.85	5.959
429.21	4.970
429.56	4.821
429.92	5.083
430.27	5.015
430.62	4.967
430.98	5.397
431.33	5.412
431.68	5.707
432.04	5.431
432.39	5.368
432.74	4.967
433.10	4.924
433.45	5.364
433.80	5.155
434.16	5.128
434.51	4.737
434.86	6.214
435.22	5.670
435.57	5.532
435.92	5.500
436.28	5.279
436.63	5.905
436.98	5.094
437.34	5.844
437.69	5.134
438.04	5.453
438.39	5.731
438.75	5.404
439.10	5.698
439.45	5.844
439.81	4.894
440.16	5.703
440.51	5.917
440.86	6.138
441.22	5.006
441.57	5.467
441.92	5.425
442.27	5.490
442.63	5.371
442.98	5.972
443.33	5.707
443.68	5.059
444.03	5.515
444.39	4.430
444.74	5.411
445.09	5.337
445.44	5.577
445.79	4.998
446.15	6.194
446.50	5.008
446.85	5.087
447.20	4.946
447.55	5.025
447.91	5.792
448.26	5.732
448.61	5.257
448.96	5.371
449.31	5.906
449.66	5.571
450.02	5.515
450.37	4.592
450.72	5.584
451.07	4.997
451.42	5.046
451.77	5.402
452.12	5.947
452.47	5.348
452.83	5.478
453.18	5.746
453.53	5.813
453.88	5.316
454.23	5.798
454.58	6.541
454.93	5.404
455.28	5.549
455.63	5.158
455.98	5.595
456.34	5.905
456.69	6.011
457.04	5.697
457.39	5.377
457.74	5.340
458.09	6.038
458.44	5.587
458.79	4.826
459.14	5.530
459.49	5.954
459.84	5.485
460.19	5.009
460.54	5.671
460.89	5.266
461.24	6.011
461.59	6.973
461.94	5.795
462.29	6.647
462.64	6.063
462.99	5.595
463.34	6.667
463.69	6.066
464.04	6.261
464.39	6.435
464.74	5.882
465.09	5.489
465.44	5.208
465.79	5.369
466.14	5.364
466.49	5.061
466.84	6.130
467.19	6.035
467.54	5.750
467.89	5.822
468.24	6.108
468.59	5.983
468.94	5.681
469.29	5.591
469.64	6.627
469.99	5.819
470.34	5.614
470.68	6.968
471.03	5.170
471.38	5.976
471.73	6.462
472.08	6.645
472.43	5.716
472.78	5.859
473.13	7.060
473.48	6.055
473.83	6.220
474.17	4.916
474.52	5.893
474.87	6.480
475.22	5.340
475.57	5.051
475.92	4.833
476.27	4.961
476.61	5.295
476.96	5.333
477.31	5.651
477.66	5.142
478.01	4.966
478.36	5.870
478.70	4.569
479.05	5.485
479.40	5.783
479.75	5.287
480.10	4.722
480.45	4.902
480.79	5.065
481.14	4.599
481.49	5.600
481.84	4.801
482.19	4.861
482.53	5.000
482.88	5.258
483.23	5.000
483.58	5.732
483.92	4.733
484.27	4.619
484.62	4.612
484.97	4.296
485.31	4.521
485.66	3.712
486.01	3.408
486.36	3.126
486.70	3.148
487.05	3.608
487.40	3.550
487.75	3.642
488.09	4.246
488.44	3.803
488.79	4.340
489.13	4.851
489.48	4.486
489.83	4.359
490.17	4.910
490.52	4.872
490.87	4.568
491.22	4.775
491.56	4.100
491.91	5.072
492.26	5.007
492.60	5.115
492.95	4.397
493.30	4.720
493.64	4.853
493.99	4.782
494.34	4.903
494.68	5.037
495.03	5.216
495.37	5.072
495.72	4.776
496.07	5.383
496.41	4.513
496.76	5.057
497.11	4.863
497.45	4.984
497.80	4.846
498.14	4.783
498.49	4.683
498.84	4.986
499.18	4.619
499.53	4.938
499.87	5.405
500.22	5.464
500.56	5.291
500.91	4.712
501.26	5.405
501.60	5.505
501.95	4.675
502.29	5.436
502.64	5.168
502.98	4.909
503.33	4.936
503.67	5.058
504.02	4.958
504.36	5.335
504.71	5.423
505.06	4.771
505.40	5.056
505.75	4.773
506.09	5.053
506.44	4.983
506.78	5.358
507.13	5.149
507.47	5.404
507.82	5.471
508.16	5.117
508.51	5.987
508.85	4.667
509.19	4.592
509.54	4.898
509.88	5.255
510.23	5.090
510.57	5.831
510.92	5.179
511.26	5.704
511.61	5.602
511.95	4.854
512.30	4.719
512.64	5.159
512.98	5.305
513.33	5.728
513.67	5.283
514.02	4.870
514.36	5.898
514.70	5.645
515.05	5.243
515.39	5.104
515.74	5.574
516.08	5.981
516.42	5.716
516.77	5.797
517.11	5.050
517.46	6.377
517.80	6.039
518.14	4.574
518.49	6.126
518.83	6.023
519.17	6.293
519.52	5.659
519.86	5.362
520.20	6.127
520.55	6.344
520.89	6.448
521.23	5.971
521.58	6.062
521.92	6.001
522.26	5.003
522.61	5.545
522.95	5.709
523.29	5.173
523.64	5.915
523.98	6.531
524.32	6.092
524.66	6.615
525.01	6.495
525.35	6.010
525.69	5.603
526.04	5.483
526.38	6.589
526.72	5.890
527.06	6.403
527.41	4.455
527.75	6.045
528.09	6.166
528.43	6.055
528.78	6.392
529.12	5.818
529.46	6.430
529.80	6.188
530.15	6.044
530.49	6.277
530.83	6.456
531.17	6.136
531.51	6.809
531.86	5.935
532.20	6.780
532.54	6.662
532.88	6.483
533.22	6.059
533.57	6.420
533.91	5.479
534.25	6.440
534.59	6.040
534.93	6.365
535.27	6.397
535.62	6.593
535.96	6.780
536.30	6.167
536.64	6.246
536.98	6.503
537.32	5.991
537.66	5.867
538.01	6.320
538.35	5.624
538.69	5.999
539.03	6.498
539.37	5.367
539.71	4.601
540.05	6.340
540.39	5.714
540.73	6.404
541.07	6.814
541.42	6.719
541.76	6.839
542.10	6.727
542.44	6.358
542.78	6.917
543.12	5.246
543.46	6.754
543.80	6.636
544.14	5.777
544.48	6.476
544.82	6.030
545.16	6.116
545.50	5.463
545.84	6.989
546.18	6.465
546.52	6.676
546.86	5.086
547.20	7.417
547.54	6.613
547.88	7.270
548.22	6.476
548.56	6.667
548.90	6.018
549.24	5.724
549.58	6.889
549.92	6.868
550.26	6.605
550.60	6.846
550.94	6.690
551.28	5.633
551.62	6.254
551.96	5.895
552.30	6.894
552.64	7.370
552.98	6.780
553.32	6.878
553.66	6.339
554.00	6.932
554.34	6.142
554.68	6.938
555.02	7.264
555.36	6.263
555.69	6.225
556.03	6.595
556.37	5.798
556.71	5.662
557.05	6.092
557.39	7.348
557.73	6.987
558.07	6.672
558.41	5.933
558.75	6.980
559.08	7.010
559.42	6.425
559.76	6.765
560.10	6.495
560.44	6.289
560.78	6.986
561.12	6.596
561.45	7.106
561.79	6.790
562.13	6.304
562.47	6.694
562.81	6.206
563.15	6.355
563.48	6.631
563.82	6.262
564.16	5.625
564.50	5.859
564.84	6.890
565.17	6.113
565.51	5.304
565.85	5.901
566.19	5.260
566.52	6.143
566.86	5.787
567.20	6.073
567.54	4.966
567.88	5.432
568.21	5.820
568.55	5.410
568.89	5.447
569.23	5.169
569.56	5.020
569.90	4.792
570.24	4.234
570.57	4.556
570.91	4.331
571.25	4.231
571.59	4.418
571.92	4.032
572.26	4.044
572.60	4.234
572.93	4.138
573.27	4.791
573.61	4.383
573.95	4.444
574.28	3.869
574.62	3.839
574.96	3.728
575.29	3.855
575.63	4.141
575.97	3.879
576.30	4.195
576.64	3.791
576.98	3.597
577.31	3.743
577.65	3.713
577.98	3.418
578.32	3.356
578.66	3.774
578.99	3.812
579.33	3.873
579.67	3.624
580.00	3.572
580.34	3.987
580.67	3.971
581.01	4.138
581.35	3.559
581.68	3.534
582.02	3.288
582.35	3.472
582.69	3.506
583.02	3.725
583.36	3.874
583.70	3.846
584.03	3.945
584.37	4.295
584.70	4.049
585.04	3.767
585.37	4.124
585.71	4.206
586.04	4.131
586.38	4.310
586.72	4.198
587.05	3.885
587.39	3.905
587.72	4.226
588.06	3.949
588.39	4.060
588.73	3.989
589.06	4.300
589.40	4.242
589.73	4.259
590.07	4.342
590.40	4.640
590.73	4.762
591.07	5.250
591.40	5.061
591.74	5.152
592.07	5.192
592.41	5.374
592.74	4.494
593.08	4.497
593.41	4.397
593.75	4.247
594.08	4.693
594.41	4.701
594.75	4.769
595.08	4.832
595.42	4.904
595.75	4.345
596.09	4.807
596.42	5.069
596.75	5.403
597.09	5.368
597.42	4.722
597.75	5.132
598.09	5.130
598.42	4.897
598.76	4.540
599.09	4.903
599.42	4.476
599.76	4.868
600.09	4.663
600.42	4.492
600.76	4.107
601.09	4.517
601.42	4.566
601.76	4.630
602.09	4.862
602.42	5.414
602.76	5.200
603.09	4.996
603.42	4.608
603.76	4.535
604.09	4.653
604.42	4.566
604.76	5.230
605.09	5.199
605.42	5.259
605.75	4.512
606.09	4.636
606.42	4.700
606.75	5.226
607.09	5.776
607.42	4.407
607.75	4.810
608.08	4.690
608.42	5.199
608.75	5.230
609.08	5.550
609.41	5.426
609.75	4.621
610.08	5.325
610.41	4.702
610.74	4.683
611.07	5.682
611.41	5.447
611.74	5.530
612.07	5.435
612.40	5.771
612.73	6.158
613.07	5.981
613.40	6.108
613.73	5.506
614.06	5.538
614.39	5.087
614.72	5.947
615.06	5.410
615.39	4.830
615.72	5.879
616.05	5.369
616.38	5.837
616.71	6.235
617.05	5.418
617.38	5.713
617.71	5.766
618.04	6.250
618.37	6.682
618.70	7.156
619.03	6.513
619.36	6.382
619.69	6.901
620.03	7.005
620.36	7.487
620.69	6.849
621.02	6.490
621.35	6.500
621.68	6.464
622.01	6.037
622.34	7.337
622.67	5.856
623.00	6.016
623.33	6.433
623.66	6.219
623.99	5.965
624.32	7.418
624.65	6.073
624.99	6.161
625.32	5.865
625.65	6.762
625.98	6.072
626.31	7.621
626.64	6.939
626.97	6.816
627.30	6.401
627.63	8.039
627.96	6.728
628.29	7.262
628.62	8.692
628.95	9.623
629.28	7.299
629.61	8.983
629.94	8.095
630.26	7.626
630.59	7.245
630.92	7.375
631.25	6.515
631.58	7.708
631.91	8.925
632.24	7.806
632.57	8.080
632.90	8.882
633.23	8.389
633.56	8.475
633.89	7.814
634.22	8.854
634.55	10.296
634.88	8.144
635.20	10.155
635.53	9.157
635.86	9.035
636.19	8.471
636.52	9.458
636.85	8.247
637.18	8.065
637.51	10.520
637.83	7.522
638.16	10.614
638.49	9.698
638.82	9.861
639.15	10.500
639.48	10.349
639.81	9.249
640.13	11.458
640.46	10.067
640.79	8.454
641.12	7.978
641.45	9.358
641.77	10.015
642.10	9.064
642.43	9.309
642.76	10.372
643.09	10.429
643.41	11.229
643.74	12.037
644.07	10.366
644.40	10.583
644.73	13.701
645.05	13.154
645.38	10.900
645.71	10.306
646.04	11.628
646.36	12.187
646.69	12.040
647.02	10.544
647.35	10.997
647.67	11.504
648.00	13.008
648.33	11.056
648.66	11.061
648.98	12.294
649.31	10.015
649.64	10.613
649.96	9.985
650.29	12.006
650.62	10.032
650.94	12.480
651.27	13.514
651.60	12.812
651.92	11.182
652.25	10.423
652.58	11.526
