SpectraSuite Data File
++++++++++++++++++++++++++++++++++++
Date: Wed May 13 19:55:34 PDT 2015
User: schluterlab
Dark Spectrum Present: Yes
Reference Spectrum Present: Yes
Number of Sampled Component Spectra: 1
Spectrometers: USB2E3373
Integration Time (usec): 3000 (USB2E3373)
Spectra Averaged: 3 (USB2E3373)
Boxcar Smoothing: 0 (USB2E3373)
Correct for Electrical Dark: No (USB2E3373)
Strobe/Lamp Enabled: No (USB2E3373)
Correct for Detector Non-linearity: No (USB2E3373)
Correct for Stray Light: No (USB2E3373)
Number of Pixels in Processed Spectrum: 2048
>>>>>Begin Processed Spectral Data<<<<<
178.53	0.000
178.91	-1400.000
179.29	-1475.000
179.67	-238.889
180.04	-950.000
180.42	2500.000
180.80	1020.000
181.18	-1150.000
181.56	571.429
181.94	0.000
182.31	-614.286
182.69	1700.000
183.07	-737.500
183.45	-544.444
183.83	545.455
184.20	-490.000
184.58	2600.000
184.96	5800.000
185.34	-840.000
185.72	-637.500
186.09	-2350.000
186.47	2900.000
186.85	2700.000
187.23	5000.000
187.61	-1766.667
187.98	1350.000
188.36	554.545
188.74	554.545
189.12	-1040.000
189.49	560.000
189.87	-5700.000
190.25	-1100.000
190.63	371.429
191.00	476.923
191.38	766.667
191.76	-1425.000
192.14	1500.000
192.51	637.500
192.89	783.333
193.27	837.500
193.65	-1300.000
194.02	560.000
194.40	1120.000
194.78	570.000
195.15	575.000
195.53	620.000
195.91	-2300.000
196.29	356.250
196.66	289.474
197.04	-400.000
197.42	0.000
197.79	640.000
198.17	-4500.000
198.55	628.571
198.92	700.000
199.30	920.000
199.68	0.000
200.05	383.333
200.43	942.857
200.81	4300.000
201.18	1633.333
201.56	-1333.333
201.94	522.222
202.31	655.556
202.69	408.333
203.07	550.000
203.44	0.000
203.82	1300.000
204.19	800.000
204.57	392.857
204.95	700.000
205.32	1700.000
205.70	545.455
206.08	392.857
206.45	2600.000
206.83	343.750
207.20	900.000
207.58	1000.000
207.96	350.000
208.33	650.000
208.71	-816.667
209.08	814.286
209.46	577.778
209.84	472.727
210.21	-1733.333
210.59	1450.000
210.96	-525.000
211.34	2600.000
211.71	610.000
212.09	800.000
212.46	0.000
212.84	1466.667
213.22	1250.000
213.59	-4200.000
213.97	966.667
214.34	800.000
214.72	627.273
215.09	1060.000
215.47	-2100.000
215.84	-2800.000
216.22	1700.000
216.59	414.286
216.97	1425.000
217.34	472.727
217.72	-716.667
218.09	0.000
218.47	-5500.000
218.84	666.667
219.22	928.571
219.59	1733.333
219.97	-542.857
220.34	1000.000
220.72	-1800.000
221.09	392.857
221.47	1450.000
221.84	-1000.000
222.22	0.000
222.59	1425.000
222.97	-2550.000
223.34	1300.000
223.72	453.846
224.09	1040.000
224.46	2100.000
224.84	-4800.000
225.21	-1140.000
225.59	-5000.000
225.96	710.000
226.34	375.000
226.71	2550.000
227.08	700.000
227.46	570.000
227.83	-1225.000
228.21	-2750.000
228.58	677.778
228.95	-2900.000
229.33	-2500.000
229.70	1200.000
230.08	814.286
230.45	-900.000
230.82	408.333
231.20	933.333
231.57	657.143
231.95	391.667
232.32	286.364
232.69	481.818
233.07	685.714
233.44	361.538
233.81	-1433.333
234.19	236.842
234.56	500.000
234.93	366.667
235.31	500.000
235.68	307.692
236.05	400.000
236.43	181.818
236.80	221.053
237.17	4000.000
237.55	214.286
237.92	203.571
238.29	247.619
238.67	158.065
239.04	165.517
239.41	150.000
239.79	117.391
240.16	114.286
240.53	125.000
240.91	113.725
241.28	116.000
241.65	100.000
242.02	95.652
242.40	109.677
242.77	85.000
243.14	74.194
243.51	66.292
243.89	64.706
244.26	65.556
244.63	45.161
245.00	51.064
245.38	46.535
245.75	54.206
246.12	46.789
246.49	53.285
246.87	53.600
247.24	47.692
247.61	37.857
247.98	42.484
248.36	44.595
248.73	35.032
249.10	43.312
249.47	35.593
249.84	36.364
250.22	37.433
250.59	32.544
250.96	31.818
251.33	32.227
251.70	34.158
252.08	28.571
252.45	26.009
252.82	22.609
253.19	27.660
253.56	25.490
253.94	21.577
254.31	23.828
254.68	29.231
255.05	24.723
255.42	25.203
255.79	22.059
256.16	26.354
256.54	22.615
256.91	19.573
257.28	17.626
257.65	20.462
258.02	21.118
258.39	20.820
258.76	18.395
259.14	18.750
259.51	17.629
259.88	18.634
260.25	19.033
260.62	17.919
260.99	21.429
261.36	19.820
261.73	22.350
262.10	18.605
262.47	17.183
262.85	17.827
263.22	16.809
263.59	18.519
263.96	18.407
264.33	18.799
264.70	17.368
265.07	17.903
265.44	15.909
265.81	15.085
266.18	15.578
266.55	15.610
266.92	14.496
267.29	14.815
267.66	16.055
268.03	14.773
268.40	14.720
268.77	12.172
269.14	14.189
269.51	13.770
269.88	15.851
270.25	14.673
270.62	15.281
270.99	16.129
271.36	15.021
271.73	13.318
272.10	12.826
272.47	15.269
272.84	13.203
273.21	13.836
273.58	13.537
273.95	13.417
274.32	12.397
274.69	12.420
275.06	11.811
275.43	14.468
275.80	13.026
276.17	12.424
276.54	14.553
276.91	12.253
277.28	12.891
277.65	13.346
278.02	11.594
278.39	13.867
278.76	13.636
279.13	13.774
279.50	12.291
279.87	15.139
280.23	13.373
280.60	9.671
280.97	10.721
281.34	13.628
281.71	13.818
282.08	13.052
282.45	10.364
282.82	12.611
283.19	10.160
283.56	10.877
283.92	11.337
284.29	12.169
284.66	9.074
285.03	10.850
285.40	12.500
285.77	11.448
286.14	10.881
286.51	11.167
286.87	12.991
287.24	11.889
287.61	11.396
287.98	12.013
288.35	10.777
288.72	11.059
289.08	12.363
289.45	11.697
289.82	10.081
290.19	7.849
290.56	9.954
290.93	9.063
291.29	8.896
291.66	9.292
292.03	11.919
292.40	12.041
292.77	9.320
293.13	11.045
293.50	9.767
293.87	9.630
294.24	8.741
294.60	7.860
294.97	8.285
295.34	10.014
295.71	10.795
296.08	8.689
296.44	10.591
296.81	8.454
297.18	9.621
297.55	7.784
297.91	9.235
298.28	10.710
298.65	11.097
299.02	10.145
299.38	9.031
299.75	6.469
300.12	7.280
300.48	8.750
300.85	8.878
301.22	9.427
301.59	8.712
301.95	8.816
302.32	8.858
302.69	9.558
303.05	8.485
303.42	9.259
303.79	9.626
304.15	7.809
304.52	7.184
304.89	8.595
305.25	8.237
305.62	8.834
305.99	9.327
306.35	7.830
306.72	9.529
307.09	9.323
307.45	9.459
307.82	7.254
308.19	8.499
308.55	9.493
308.92	8.056
309.29	8.659
309.65	8.696
310.02	10.148
310.38	8.280
310.75	9.293
311.12	9.110
311.48	9.300
311.85	9.329
312.22	9.157
312.58	9.563
312.95	9.926
313.31	7.573
313.68	8.940
314.05	10.750
314.41	11.156
314.78	9.668
315.14	10.924
315.51	10.505
315.87	10.693
316.24	10.526
316.61	10.721
316.97	10.861
317.34	9.980
317.70	11.281
318.07	11.550
318.43	11.742
318.80	11.715
319.16	12.053
319.53	11.632
319.89	12.286
320.26	13.300
320.62	12.500
320.99	14.040
321.35	12.828
321.72	14.066
322.08	13.919
322.45	15.025
322.81	15.504
323.18	14.258
323.54	14.935
323.91	14.717
324.27	15.392
324.64	14.911
325.00	15.509
325.37	16.288
325.73	17.145
326.10	16.064
326.46	17.115
326.83	17.860
327.19	17.848
327.56	16.638
327.92	16.885
328.29	18.101
328.65	18.785
329.01	18.773
329.38	18.039
329.74	19.114
330.11	18.379
330.47	19.100
330.84	20.772
331.20	18.852
331.56	18.807
331.93	20.370
332.29	20.053
332.66	20.708
333.02	19.744
333.38	19.874
333.75	20.856
334.11	20.107
334.48	19.698
334.84	20.129
335.20	21.000
335.57	18.767
335.93	20.089
336.29	18.864
336.66	21.461
337.02	20.090
337.38	19.815
337.75	20.053
338.11	19.785
338.47	21.179
338.84	20.348
339.20	20.459
339.56	21.442
339.93	19.909
340.29	20.380
340.65	19.608
341.02	20.855
341.38	19.929
341.74	19.561
342.11	21.310
342.47	19.912
342.83	20.377
343.20	21.472
343.56	20.219
343.92	21.579
344.28	20.068
344.65	21.668
345.01	18.855
345.37	20.412
345.73	20.389
346.10	20.290
346.46	21.441
346.82	20.428
347.19	19.799
347.55	20.525
347.91	20.955
348.27	22.021
348.63	21.572
349.00	20.874
349.36	21.018
349.72	21.331
350.08	21.637
350.45	20.667
350.81	21.527
351.17	21.880
351.53	21.949
351.89	21.040
352.26	22.099
352.62	22.454
352.98	21.880
353.34	20.049
353.70	20.458
354.07	22.581
354.43	21.746
354.79	20.515
355.15	20.591
355.51	22.942
355.87	22.286
356.24	21.987
356.60	22.053
356.96	22.204
357.32	22.404
357.68	22.126
358.04	22.249
358.40	23.199
358.77	22.300
359.13	22.415
359.49	23.451
359.85	21.270
360.21	22.488
360.57	23.035
360.93	22.308
361.29	22.298
361.66	22.291
362.02	23.881
362.38	23.726
362.74	23.214
363.10	22.206
363.46	22.010
363.82	22.147
364.18	23.201
364.54	23.848
364.90	24.008
365.26	23.309
365.62	23.667
365.98	22.498
366.35	23.352
366.71	23.283
367.07	23.671
367.43	23.803
367.79	24.554
368.15	25.647
368.51	24.055
368.87	23.983
369.23	24.579
369.59	24.765
369.95	24.118
370.31	25.000
370.67	24.783
371.03	26.067
371.39	26.239
371.75	25.000
372.11	24.822
372.47	25.733
372.83	27.017
373.19	25.289
373.55	26.016
373.91	27.025
374.27	24.674
374.63	25.382
374.99	26.130
375.35	26.378
375.71	26.799
376.07	27.229
376.42	25.860
376.78	25.514
377.14	26.391
377.50	27.020
377.86	25.199
378.22	26.865
378.58	26.754
378.94	26.650
379.30	26.527
379.66	26.904
380.02	27.703
380.38	26.958
380.74	27.071
381.09	27.506
381.45	27.597
381.81	28.133
382.17	28.089
382.53	28.365
382.89	28.210
383.25	28.080
383.61	29.678
383.97	28.393
384.32	29.757
384.68	28.686
385.04	29.010
385.40	28.669
385.76	29.115
386.12	30.311
386.48	30.648
386.83	30.981
387.19	30.550
387.55	30.365
387.91	31.318
388.27	30.656
388.62	31.653
388.98	31.081
389.34	31.227
389.70	31.637
390.06	32.256
390.42	30.869
390.77	31.170
391.13	32.227
391.49	31.980
391.85	32.400
392.20	32.114
392.56	31.439
392.92	32.784
393.28	31.775
393.64	32.734
393.99	32.804
394.35	33.313
394.71	32.873
395.07	32.212
395.42	34.302
395.78	33.397
396.14	34.389
396.50	34.712
396.85	34.202
397.21	34.217
397.57	33.664
397.92	34.075
398.28	33.408
398.64	33.931
399.00	33.800
399.35	33.672
399.71	34.606
400.07	34.299
400.42	35.031
400.78	36.369
401.14	34.451
401.49	35.284
401.85	35.451
402.21	35.449
402.57	37.076
402.92	36.696
403.28	36.665
403.63	35.705
403.99	36.815
404.35	36.848
404.70	36.271
405.06	36.168
405.42	37.056
405.77	36.457
406.13	36.738
406.49	37.020
406.84	37.212
407.20	36.702
407.55	37.779
407.91	39.600
408.27	37.779
408.62	38.110
408.98	37.255
409.34	38.130
409.69	39.484
410.05	38.228
410.40	38.899
410.76	39.307
411.11	38.782
411.47	38.530
411.83	39.279
412.18	38.837
412.54	39.415
412.89	39.096
413.25	40.024
413.60	40.025
413.96	39.041
414.31	39.550
414.67	41.825
415.03	40.464
415.38	41.366
415.74	40.450
416.09	42.129
416.45	41.700
416.80	42.036
417.16	41.287
417.51	42.137
417.87	42.325
418.22	42.713
418.58	42.156
418.93	41.953
419.29	42.266
419.64	42.191
420.00	42.683
420.35	43.478
420.71	43.933
421.06	42.542
421.42	43.801
421.77	42.937
422.12	42.617
422.48	42.795
422.83	44.380
423.19	44.254
423.54	44.748
423.90	46.087
424.25	45.226
424.61	44.464
424.96	44.665
425.31	45.736
425.67	44.888
426.02	45.371
426.38	46.947
426.73	45.758
427.09	48.146
427.44	46.061
427.79	46.118
428.15	46.726
428.50	47.104
428.85	46.126
429.21	46.825
429.56	47.175
429.92	46.452
430.27	46.971
430.62	46.697
430.98	47.950
431.33	47.320
431.68	48.482
432.04	46.965
432.39	48.943
432.74	48.893
433.10	49.519
433.45	49.155
433.80	49.224
434.16	49.145
434.51	48.105
434.86	49.430
435.22	49.972
435.57	50.760
435.92	49.444
436.28	50.652
436.63	51.104
436.98	50.029
437.34	51.222
437.69	51.925
438.04	50.759
438.39	51.104
438.75	51.947
439.10	51.285
439.45	51.063
439.81	51.903
440.16	50.480
440.51	51.845
440.86	53.040
441.22	51.724
441.57	51.062
441.92	52.098
442.27	51.830
442.63	50.448
442.98	51.549
443.33	51.196
443.68	51.884
444.03	51.489
444.39	51.363
444.74	52.814
445.09	51.806
445.44	52.652
445.79	51.806
446.15	51.456
446.50	52.504
446.85	52.261
447.20	50.943
447.55	52.820
447.91	52.344
448.26	52.476
448.61	53.646
448.96	53.267
449.31	53.150
449.66	53.517
450.02	53.593
450.37	53.458
450.72	53.243
451.07	53.626
451.42	54.103
451.77	53.905
452.12	53.406
452.47	53.856
452.83	53.904
453.18	53.423
453.53	54.484
453.88	53.574
454.23	54.453
454.58	53.907
454.93	54.355
455.28	53.242
455.63	54.794
455.98	55.655
456.34	55.151
456.69	55.229
457.04	53.932
457.39	54.062
457.74	54.266
458.09	53.537
458.44	54.561
458.79	52.657
459.14	54.910
459.49	54.232
459.84	54.183
460.19	54.449
460.54	52.894
460.89	53.867
461.24	55.252
461.59	55.142
461.94	54.192
462.29	55.015
462.64	53.861
462.99	54.196
463.34	55.667
463.69	54.597
464.04	54.667
464.39	54.551
464.74	53.773
465.09	54.343
465.44	53.463
465.79	54.418
466.14	53.804
466.49	52.280
466.84	55.633
467.19	54.134
467.54	55.625
467.89	54.502
468.24	54.450
468.59	55.311
468.94	53.818
469.29	55.913
469.64	55.756
469.99	55.548
470.34	55.945
470.68	56.394
471.03	55.510
471.38	56.845
471.73	55.896
472.08	56.974
472.43	54.899
472.78	54.444
473.13	56.483
473.48	54.806
473.83	54.878
474.17	55.134
474.52	55.335
474.87	55.166
475.22	54.440
475.57	53.788
475.92	53.532
476.27	54.171
476.61	53.558
476.96	54.480
477.31	54.736
477.66	55.580
478.01	53.581
478.36	55.209
478.70	52.700
479.05	54.579
479.40	54.248
479.75	54.296
480.10	55.169
480.45	53.879
480.79	52.795
481.14	54.550
481.49	53.678
481.84	53.544
482.19	54.021
482.53	52.706
482.88	53.420
483.23	54.766
483.58	53.458
483.92	54.030
484.27	51.547
484.62	53.233
484.97	52.227
485.31	52.911
485.66	50.393
486.01	49.208
486.36	47.374
486.70	47.877
487.05	48.805
487.40	50.230
487.75	50.356
488.09	51.714
488.44	51.501
488.79	53.490
489.13	53.056
489.48	53.263
489.83	52.827
490.17	53.398
490.52	52.879
490.87	53.822
491.22	53.297
491.56	52.437
491.91	53.094
492.26	52.274
492.60	53.180
492.95	52.526
493.30	52.570
493.64	52.776
493.99	51.718
494.34	52.914
494.68	53.984
495.03	53.524
495.37	52.210
495.72	53.801
496.07	52.251
496.41	50.796
496.76	51.583
497.11	52.229
497.45	52.585
497.80	53.263
498.14	51.739
498.49	52.000
498.84	53.356
499.18	52.333
499.53	52.279
499.87	51.584
500.22	52.096
500.56	53.689
500.91	52.163
501.26	52.489
501.60	52.871
501.95	51.192
502.29	52.296
502.64	52.700
502.98	51.987
503.33	51.005
503.67	51.833
504.02	51.731
504.36	51.521
504.71	52.565
505.06	52.771
505.40	52.844
505.75	51.350
506.09	51.895
506.44	51.949
506.78	52.898
507.13	53.357
507.47	53.535
507.82	52.229
508.16	52.533
508.51	52.664
508.85	52.185
509.19	52.449
509.54	52.449
509.88	51.211
510.23	52.288
510.57	52.580
510.92	52.408
511.26	51.901
511.61	52.023
511.95	52.244
512.30	51.432
512.64	52.660
512.98	52.626
513.33	52.677
513.67	51.227
514.02	51.948
514.36	52.867
514.70	53.459
515.05	53.486
515.39	52.888
515.74	53.322
516.08	53.270
516.42	53.219
516.77	53.958
517.11	51.609
517.46	54.458
517.80	53.426
518.14	52.924
518.49	53.501
518.83	52.670
519.17	53.753
519.52	52.518
519.86	53.223
520.20	53.353
520.55	53.920
520.89	54.380
521.23	53.378
521.58	53.481
521.92	53.399
522.26	51.922
522.61	54.953
522.95	53.653
523.29	53.987
523.64	53.902
523.98	54.837
524.32	53.197
524.66	53.397
525.01	53.738
525.35	53.532
525.69	53.633
526.04	53.769
526.38	52.410
526.72	52.147
527.06	53.170
527.41	51.176
527.75	53.826
528.09	54.656
528.43	53.601
528.78	53.719
529.12	52.606
529.46	51.194
529.80	53.465
530.15	52.523
530.49	52.000
530.83	53.418
531.17	54.308
531.51	54.021
531.86	53.032
532.20	55.150
532.54	52.659
532.88	52.439
533.22	51.280
533.57	51.790
533.91	51.114
534.25	52.491
534.59	51.678
534.93	50.863
535.27	51.298
535.62	51.160
535.96	53.296
536.30	51.875
536.64	52.994
536.98	53.218
537.32	51.679
537.66	51.600
538.01	52.074
538.35	52.553
538.69	51.946
539.03	52.372
539.37	51.438
539.71	50.486
540.05	51.373
540.39	51.296
540.73	50.906
541.07	52.304
541.42	52.316
541.76	51.613
542.10	51.423
542.44	51.192
542.78	51.054
543.12	49.584
543.46	50.885
543.80	51.204
544.14	50.706
544.48	49.778
544.82	50.481
545.16	50.943
545.50	50.514
545.84	51.277
546.18	51.313
546.52	50.585
546.86	50.515
547.20	50.641
547.54	49.633
547.88	50.765
548.22	49.066
548.56	49.748
548.90	49.168
549.24	49.024
549.58	50.614
549.92	51.099
550.26	51.349
550.60	48.755
550.94	50.000
551.28	50.841
551.62	51.330
551.96	49.614
552.30	49.625
552.64	50.237
552.98	49.492
553.32	48.685
553.66	50.988
554.00	50.103
554.34	49.551
554.68	51.144
555.02	49.929
555.36	50.244
555.69	48.579
556.03	48.856
556.37	48.022
556.71	47.544
557.05	49.510
557.39	49.895
557.73	47.989
558.07	50.109
558.41	49.421
558.75	48.935
559.08	49.515
559.42	50.189
559.76	49.265
560.10	48.608
560.44	48.218
560.78	47.705
561.12	47.955
561.45	48.566
561.79	47.132
562.13	48.156
562.47	48.702
562.81	48.815
563.15	47.023
563.48	48.408
563.82	48.337
564.16	46.566
564.50	47.656
564.84	46.334
565.17	46.010
565.51	47.348
565.85	46.764
566.19	45.585
566.52	46.295
566.86	45.148
567.20	45.401
567.54	46.290
567.88	43.889
568.21	44.921
568.55	43.529
568.89	44.309
569.23	42.424
569.56	41.862
569.90	42.151
570.24	40.976
570.57	39.782
570.91	39.819
571.25	39.654
571.59	39.264
571.92	39.804
572.26	40.439
572.60	39.880
572.93	39.310
573.27	40.225
573.61	39.308
573.95	39.535
574.28	38.467
574.62	38.557
574.96	38.256
575.29	38.288
575.63	38.491
575.97	38.297
576.30	38.370
576.64	38.185
576.98	38.162
577.31	37.639
577.65	37.785
577.98	37.394
578.32	36.755
578.66	37.149
578.99	37.594
579.33	37.449
579.67	37.631
580.00	37.809
580.34	38.087
580.67	37.674
581.01	37.239
581.35	36.695
581.68	36.935
582.02	36.435
582.35	36.420
582.69	36.706
583.02	36.744
583.36	37.261
583.70	37.413
584.03	37.722
584.37	37.813
584.70	37.173
585.04	36.595
585.37	36.533
585.71	36.748
586.04	36.531
586.38	37.356
586.72	37.586
587.05	37.109
587.39	36.332
587.72	36.434
588.06	36.846
588.39	36.845
588.73	37.225
589.06	38.174
589.40	38.384
589.73	38.015
590.07	37.972
590.40	38.034
590.73	38.642
591.07	39.113
591.40	38.170
591.74	39.524
592.07	38.918
592.41	38.528
592.74	37.603
593.08	36.742
593.41	36.096
593.75	36.040
594.08	36.574
594.41	36.691
594.75	37.301
595.08	36.936
595.42	36.637
595.75	37.464
596.09	36.876
596.42	38.075
596.75	38.286
597.09	38.182
597.42	37.184
597.75	37.818
598.09	37.391
598.42	37.758
598.76	35.752
599.09	35.614
599.42	35.699
599.76	35.725
600.09	34.936
600.42	34.843
600.76	35.679
601.09	35.665
601.42	36.187
601.76	35.484
602.09	36.364
602.42	36.107
602.76	36.276
603.09	36.507
603.42	36.431
603.76	35.252
604.09	35.944
604.42	36.445
604.76	36.482
605.09	36.348
605.42	35.913
605.75	35.099
606.09	35.462
606.42	35.063
606.75	35.628
607.09	34.994
607.42	35.216
607.75	34.599
608.08	35.302
608.42	36.755
608.75	36.384
609.08	35.615
609.41	36.268
609.75	35.303
610.08	36.334
610.41	36.499
610.74	35.714
611.07	36.512
611.41	35.525
611.74	36.350
612.07	36.180
612.40	36.044
612.73	36.316
613.07	35.614
613.40	35.966
613.73	34.557
614.06	36.613
614.39	34.819
614.72	36.211
615.06	35.977
615.39	35.085
615.72	34.765
616.05	34.024
616.38	35.075
616.71	36.698
617.05	36.808
617.38	36.560
617.71	36.396
618.04	35.937
618.37	34.713
618.70	36.217
619.03	36.250
619.36	35.981
619.69	37.113
620.03	37.431
620.36	36.096
620.69	37.192
621.02	37.611
621.35	36.492
621.68	37.539
622.01	37.307
622.34	36.838
622.67	37.262
623.00	35.583
623.33	36.383
623.66	37.098
623.99	36.819
624.32	36.020
624.65	36.864
624.99	36.473
625.32	36.495
625.65	36.890
625.98	37.510
626.31	36.625
626.64	37.306
626.97	37.656
627.30	36.908
627.63	38.392
627.96	37.511
628.29	38.583
628.62	38.701
628.95	38.491
629.28	37.774
629.61	39.047
629.94	39.143
630.26	38.608
630.59	37.750
630.92	37.644
631.25	37.315
631.58	37.437
631.91	38.641
