SpectraSuite Data File
++++++++++++++++++++++++++++++++++++
Date: Wed May 13 19:17:03 PDT 2015
User: schluterlab
Dark Spectrum Present: Yes
Reference Spectrum Present: Yes
Number of Sampled Component Spectra: 1
Spectrometers: USB2E3373
Integration Time (usec): 3000 (USB2E3373)
Spectra Averaged: 3 (USB2E3373)
Boxcar Smoothing: 0 (USB2E3373)
Correct for Electrical Dark: No (USB2E3373)
Strobe/Lamp Enabled: No (USB2E3373)
Correct for Detector Non-linearity: No (USB2E3373)
Correct for Stray Light: No (USB2E3373)
Number of Pixels in Processed Spectrum: 2048
>>>>>Begin Processed Spectral Data<<<<<
178.53	0.000
178.91	-1525.000
179.29	-1500.000
179.67	-261.111
180.04	-1625.000
180.42	3000.000
180.80	1160.000
181.18	-1375.000
181.56	642.857
181.94	0.000
182.31	-742.857
182.69	1600.000
183.07	-600.000
183.45	-522.222
183.83	627.273
184.20	-530.000
184.58	2350.000
184.96	6000.000
185.34	-1100.000
185.72	-725.000
186.09	-2650.000
186.47	3150.000
186.85	2700.000
187.23	5800.000
187.61	-2200.000
187.98	1625.000
188.36	645.455
188.74	554.545
189.12	-1120.000
189.49	580.000
189.87	-5800.000
190.25	-1375.000
190.63	457.143
191.00	453.846
191.38	866.667
191.76	-1500.000
192.14	1450.000
192.51	712.500
192.89	1016.667
193.27	800.000
193.65	-1225.000
194.02	690.000
194.40	1020.000
194.78	570.000
195.15	616.667
195.53	760.000
195.91	-2450.000
196.29	375.000
196.66	321.053
197.04	-370.000
197.42	0.000
197.79	670.000
198.17	-5200.000
198.55	728.571
198.92	775.000
199.30	900.000
199.68	0.000
200.05	377.778
200.43	814.286
200.81	4500.000
201.18	1900.000
201.56	-1800.000
201.94	600.000
202.31	611.111
202.69	516.667
203.07	630.000
203.44	0.000
203.82	1325.000
204.19	785.714
204.57	492.857
204.95	700.000
205.32	1600.000
205.70	536.364
206.08	400.000
206.45	2800.000
206.83	343.750
207.20	983.333
207.58	980.000
207.96	316.667
208.33	775.000
208.71	-800.000
209.08	842.857
209.46	666.667
209.84	600.000
210.21	-1733.333
210.59	1900.000
210.96	-600.000
211.34	3250.000
211.71	760.000
212.09	883.333
212.46	0.000
212.84	2200.000
213.22	1600.000
213.59	-6000.000
213.97	933.333
214.34	885.714
214.72	590.909
215.09	1280.000
215.47	-2900.000
215.84	-2750.000
216.22	1966.667
216.59	428.571
216.97	1350.000
217.34	500.000
217.72	-900.000
218.09	0.000
218.47	-5600.000
218.84	677.778
219.22	800.000
219.59	1866.667
219.97	-714.286
220.34	1060.000
220.72	-2000.000
221.09	471.429
221.47	1575.000
221.84	-1033.333
222.22	0.000
222.59	1325.000
222.97	-3200.000
223.34	1440.000
223.72	530.769
224.09	1200.000
224.46	2500.000
224.84	-5100.000
225.21	-1140.000
225.59	-5000.000
225.96	760.000
226.34	375.000
226.71	3100.000
227.08	737.500
227.46	530.000
227.83	-1275.000
228.21	-2800.000
228.58	755.556
228.95	-2600.000
229.33	-2550.000
229.70	1733.333
230.08	900.000
230.45	-780.000
230.82	508.333
231.20	1066.667
231.57	685.714
231.95	558.333
232.32	309.091
232.69	554.545
233.07	885.714
233.44	453.846
233.81	-1966.667
234.19	305.263
234.56	550.000
234.93	450.000
235.31	600.000
235.68	469.231
236.05	485.714
236.43	206.061
236.80	315.789
237.17	6200.000
237.55	314.286
237.92	250.000
238.29	371.429
238.67	222.581
239.04	279.310
239.41	211.111
239.79	156.522
240.16	204.762
240.53	150.000
240.91	152.941
241.28	156.000
241.65	160.000
242.02	139.130
242.40	141.935
242.77	143.333
243.14	109.677
243.51	124.719
243.89	135.294
244.26	111.111
244.63	126.882
245.00	105.319
245.38	101.980
245.75	105.607
246.12	103.670
246.49	100.000
246.87	110.400
247.24	96.154
247.61	92.143
247.98	90.196
248.36	95.946
248.73	86.624
249.10	97.452
249.47	87.571
249.84	85.561
250.22	87.166
250.59	90.533
250.96	81.313
251.33	83.412
251.70	89.109
252.08	81.905
252.45	82.511
252.82	78.696
253.19	80.000
253.56	75.686
253.94	81.743
254.31	78.125
254.68	79.615
255.05	76.384
255.42	78.862
255.79	80.147
256.16	75.090
256.54	75.972
256.91	77.580
257.28	75.899
257.65	74.917
258.02	72.360
258.39	71.924
258.76	75.251
259.14	71.726
259.51	67.173
259.88	71.429
260.25	71.299
260.62	71.965
260.99	74.534
261.36	71.471
261.73	69.914
262.10	72.093
262.47	72.958
262.85	68.802
263.22	71.795
263.59	70.370
263.96	69.505
264.33	67.624
264.70	66.579
265.07	65.985
265.44	68.939
265.81	63.260
266.18	68.844
266.55	64.634
266.92	68.796
267.29	66.204
267.66	63.761
268.03	62.500
268.40	63.551
268.77	66.348
269.14	65.766
269.51	63.883
269.88	65.268
270.25	67.043
270.62	62.921
270.99	65.161
271.36	64.378
271.73	64.486
272.10	61.304
272.47	63.871
272.84	64.502
273.21	61.845
273.58	62.009
273.95	61.845
274.32	61.570
274.69	65.953
275.06	58.858
275.43	63.617
275.80	61.924
276.17	64.766
276.54	62.370
276.91	62.055
277.28	60.547
277.65	58.607
278.02	62.733
278.39	61.719
278.76	60.909
279.13	60.755
279.50	57.914
279.87	60.956
280.23	63.473
280.60	62.863
280.97	57.486
281.34	62.301
281.71	58.182
282.08	61.612
282.45	58.909
282.82	58.259
283.19	56.863
283.56	58.596
283.92	59.898
284.29	56.790
284.66	58.076
285.03	58.228
285.40	57.923
285.77	56.902
286.14	55.268
286.51	57.667
286.87	57.607
287.24	56.189
287.61	55.377
287.98	55.032
288.35	55.468
288.72	54.206
289.08	51.956
289.45	56.343
289.82	55.772
290.19	51.805
290.56	52.986
290.93	53.776
291.29	53.681
291.66	51.622
292.03	53.634
292.40	52.570
292.77	51.331
293.13	51.194
293.50	51.749
293.87	49.778
294.24	51.111
294.60	48.326
294.97	47.820
295.34	49.647
295.71	48.153
296.08	47.293
296.44	47.180
296.81	46.764
297.18	47.290
297.55	44.195
297.91	44.327
298.28	47.657
298.65	45.953
299.02	47.431
299.38	45.817
299.75	44.609
300.12	44.317
300.48	44.625
300.85	43.280
301.22	43.822
301.59	43.182
301.95	44.584
302.32	45.315
302.69	43.011
303.05	44.727
303.42	42.469
303.79	42.809
304.15	41.142
304.52	43.453
304.89	42.973
305.25	41.299
305.62	40.883
305.99	42.031
306.35	41.499
306.72	42.489
307.09	41.731
307.45	42.342
307.82	38.616
308.19	41.391
308.55	41.532
308.92	41.568
309.29	40.866
309.65	40.721
310.02	39.746
310.38	40.753
310.75	40.655
311.12	38.997
311.48	40.857
311.85	40.881
312.22	39.022
312.58	39.397
312.95	40.971
313.31	38.350
313.68	40.541
314.05	41.617
314.41	40.704
314.78	40.081
315.14	39.424
315.51	40.783
315.87	39.010
316.24	38.729
316.61	37.622
316.97	37.769
317.34	37.867
317.70	37.763
318.07	37.055
318.43	40.215
318.80	38.332
319.16	38.795
319.53	36.961
319.89	38.095
320.26	39.200
320.62	38.889
320.99	38.687
321.35	38.283
321.72	38.706
322.08	39.487
322.45	40.597
322.81	38.469
323.18	38.343
323.54	37.291
323.91	36.415
324.27	36.807
324.64	36.906
325.00	35.257
325.37	37.307
325.73	37.433
326.10	36.187
326.46	35.215
326.83	36.670
327.19	36.635
327.56	37.282
327.92	37.095
328.29	37.533
328.65	37.017
329.01	36.372
329.38	36.355
329.74	36.288
330.11	36.004
330.47	36.915
330.84	36.489
331.20	35.610
331.56	35.229
331.93	36.389
332.29	34.871
332.66	35.398
333.02	34.186
333.38	34.598
333.75	35.294
334.11	35.320
334.48	34.605
334.84	36.213
335.20	35.364
335.57	34.270
335.93	34.821
336.29	36.081
336.66	34.716
337.02	34.027
337.38	35.833
337.75	33.244
338.11	34.378
338.47	34.807
338.84	35.014
339.20	33.394
339.56	34.945
339.93	33.545
340.29	33.514
340.65	32.620
341.02	34.991
341.38	33.541
341.74	33.333
342.11	33.886
342.47	32.775
342.83	32.534
343.20	34.719
343.56	33.361
343.92	32.632
344.28	33.333
344.65	33.362
345.01	31.650
345.37	30.961
345.73	34.772
346.10	33.504
346.46	32.203
346.82	32.043
347.19	33.166
347.55	31.034
347.91	32.282
348.27	33.361
348.63	32.943
349.00	31.634
349.36	32.430
349.72	32.237
350.08	31.118
350.45	32.303
350.81	32.169
351.17	31.767
351.53	31.695
351.89	30.858
352.26	32.044
352.62	31.355
352.98	31.767
353.34	32.293
353.70	31.424
354.07	31.290
354.43	31.429
354.79	29.847
355.15	31.205
355.51	31.575
355.87	31.429
356.24	31.026
356.60	30.634
356.96	30.813
357.32	31.398
357.68	30.945
358.04	31.196
358.40	30.008
358.77	29.577
359.13	30.229
359.49	30.667
359.85	29.444
360.21	30.144
360.57	31.751
360.93	31.231
361.29	30.159
361.66	30.186
362.02	29.552
362.38	30.114
362.74	29.092
363.10	28.127
363.46	28.026
363.82	30.008
364.18	29.295
364.54	29.718
364.90	30.028
365.26	29.265
365.62	30.460
365.98	28.926
366.35	28.653
366.71	29.212
367.07	27.240
367.43	29.898
367.79	28.337
368.15	29.526
368.51	29.869
368.87	29.408
369.23	28.603
369.59	28.675
369.95	28.456
370.31	30.057
370.67	28.986
371.03	29.663
371.39	29.009
371.75	28.309
372.11	28.521
372.47	27.859
372.83	29.539
373.19	28.324
373.55	28.529
373.91	30.560
374.27	28.041
374.63	28.291
374.99	28.602
375.35	27.983
375.71	28.376
376.07	28.464
376.42	28.473
376.78	28.628
377.14	27.205
377.50	27.285
377.86	26.729
378.22	28.192
378.58	27.444
378.94	26.461
379.30	28.308
379.66	27.792
380.02	27.580
380.38	27.322
380.74	28.211
381.09	26.834
381.45	27.597
381.81	27.641
382.17	27.006
382.53	27.358
382.89	27.531
383.25	27.267
383.61	28.129
383.97	27.017
384.32	27.074
384.68	26.456
385.04	26.368
385.40	26.563
385.76	26.536
386.12	26.554
386.48	26.746
386.83	27.838
387.19	28.077
387.55	26.407
387.91	26.179
388.27	27.223
388.62	26.859
388.98	26.290
389.34	26.533
389.70	26.609
390.06	26.933
390.42	26.394
390.77	26.654
391.13	27.250
391.49	26.523
391.85	26.289
392.20	25.804
392.56	26.894
392.92	26.368
393.28	26.095
393.64	26.859
393.99	25.412
394.35	25.993
394.71	26.788
395.07	25.483
395.42	26.082
395.78	26.399
396.14	26.443
396.50	26.566
396.85	26.256
397.21	26.202
397.57	25.294
397.92	25.901
398.28	25.224
398.64	26.822
399.00	26.245
399.35	25.832
399.71	25.694
400.07	25.784
400.42	26.074
400.78	26.236
401.14	25.366
401.49	25.493
401.85	25.227
402.21	25.329
402.57	25.170
402.92	25.914
403.28	25.859
403.63	24.876
403.99	25.987
404.35	25.758
404.70	24.760
405.06	24.985
405.42	25.203
405.77	24.800
406.13	24.266
406.49	25.133
406.84	25.103
407.20	24.409
407.55	25.080
407.91	25.733
408.27	24.952
408.62	25.226
408.98	24.939
409.34	25.461
409.69	25.097
410.05	24.969
410.40	25.138
410.76	24.492
411.11	26.055
411.47	24.984
411.83	24.740
412.18	24.490
412.54	25.342
412.89	25.120
413.25	24.085
413.60	25.139
413.96	23.983
414.31	24.119
414.67	25.158
415.03	24.437
415.38	26.095
415.74	25.016
416.09	25.865
416.45	24.766
416.80	25.446
417.16	25.201
417.51	25.415
417.87	24.277
418.22	25.174
418.58	25.242
418.93	24.631
419.29	25.525
419.64	25.252
420.00	24.817
420.35	24.928
420.71	24.866
421.06	24.403
421.42	24.620
421.77	24.776
422.12	23.807
422.48	23.475
422.83	24.403
423.19	25.028
423.54	24.782
423.90	24.580
424.25	23.841
424.61	23.869
424.96	25.015
425.31	24.363
425.67	23.371
426.02	24.229
426.38	25.397
426.73	23.757
427.09	24.316
427.44	23.692
427.79	23.807
428.15	22.857
428.50	24.634
428.85	24.970
429.21	24.130
429.56	23.743
429.92	24.560
430.27	24.181
430.62	23.861
430.98	24.442
431.33	24.175
431.68	24.241
432.04	23.908
432.39	24.329
432.74	23.878
433.10	23.316
433.45	24.665
433.80	24.058
434.16	24.145
434.51	24.263
434.86	24.515
435.22	24.125
435.57	23.951
435.92	24.342
436.28	24.555
436.63	23.951
436.98	23.068
437.34	24.448
437.69	24.154
438.04	23.721
438.39	23.343
438.75	24.695
439.10	23.464
439.45	24.557
439.81	24.290
440.16	23.998
440.51	23.726
440.86	24.204
441.22	23.915
441.57	23.832
441.92	24.309
442.27	24.112
442.63	23.486
442.98	24.169
443.33	24.457
443.68	23.077
444.03	23.670
444.39	23.856
444.74	23.755
445.09	24.043
445.44	23.455
445.79	23.454
446.15	23.610
446.50	23.425
446.85	24.152
447.20	23.457
447.55	24.400
447.91	23.662
448.26	23.873
448.61	23.516
448.96	24.031
449.31	24.241
449.66	23.579
450.02	23.175
450.37	23.469
450.72	23.463
451.07	24.071
451.42	24.195
451.77	24.193
452.12	23.961
452.47	24.005
452.83	23.019
453.18	23.594
453.53	24.861
453.88	23.390
454.23	24.029
454.58	24.228
454.93	24.285
455.28	23.878
455.63	23.544
455.98	24.345
456.34	24.058
456.69	24.546
457.04	24.087
457.39	23.144
457.74	23.738
458.09	24.324
458.44	23.945
458.79	22.668
459.14	24.379
459.49	23.001
459.84	23.324
460.19	23.159
460.54	24.306
460.89	23.368
461.24	23.983
461.59	24.811
461.94	23.305
462.29	23.620
462.64	23.612
462.99	23.097
463.34	24.267
463.69	24.015
464.04	23.478
464.39	23.594
464.74	23.589
465.09	23.341
465.44	23.324
465.79	23.154
466.14	22.934
466.49	22.914
466.84	23.351
467.19	23.476
467.54	24.000
467.89	22.749
468.24	22.978
468.59	23.810
468.94	23.702
469.29	23.201
469.64	24.364
469.99	22.801
470.34	22.457
470.68	22.629
471.03	23.265
471.38	24.392
471.73	22.851
472.08	23.553
472.43	22.990
472.78	22.449
473.13	23.427
473.48	23.096
473.83	23.415
474.17	23.335
474.52	22.457
474.87	23.584
475.22	21.997
475.57	22.622
475.92	22.836
476.27	22.492
476.61	22.614
476.96	22.485
477.31	21.978
477.66	22.976
478.01	22.373
478.36	22.739
478.70	22.222
479.05	22.737
479.40	22.671
479.75	22.623
480.10	22.266
480.45	22.132
480.79	22.265
481.14	22.603
481.49	22.734
481.84	21.902
482.19	22.444
482.53	22.523
482.88	21.964
483.23	21.495
483.58	22.020
483.92	22.165
484.27	20.915
484.62	21.724
484.97	21.679
485.31	22.568
485.66	22.026
486.01	21.408
486.36	20.802
486.70	20.553
487.05	20.816
487.40	20.863
487.75	21.550
488.09	21.686
488.44	21.948
488.79	22.242
489.13	22.422
489.48	21.778
489.83	21.839
490.17	22.271
490.52	21.701
490.87	21.981
491.22	20.919
491.56	21.321
491.91	21.591
492.26	21.314
492.60	21.429
492.95	20.486
493.30	21.636
493.64	21.092
493.99	20.381
494.34	21.138
494.68	21.612
495.03	21.852
495.37	21.591
495.72	21.491
496.07	21.810
496.41	21.239
496.76	21.460
497.11	21.882
497.45	21.518
497.80	20.969
498.14	21.159
498.49	21.073
498.84	21.189
499.18	21.190
499.53	21.368
499.87	21.016
500.22	21.526
500.56	21.553
500.91	21.106
501.26	21.479
501.60	22.117
501.95	20.944
502.29	21.368
502.64	21.834
502.98	21.272
503.33	20.430
503.67	21.624
504.02	21.235
504.36	21.198
504.71	21.593
505.06	21.398
505.40	21.001
505.75	21.408
506.09	20.505
506.44	20.622
506.78	21.042
507.13	21.201
507.47	20.960
507.82	21.327
508.16	20.871
508.51	21.766
508.85	20.556
509.19	20.765
509.54	20.918
509.88	20.814
510.23	20.308
510.57	22.291
510.92	20.508
511.26	20.349
511.61	21.629
511.95	20.877
512.30	20.361
512.64	21.225
512.98	20.847
513.33	20.557
513.67	20.704
514.02	19.968
514.36	21.081
514.70	20.753
515.05	20.468
515.39	21.705
515.74	21.622
516.08	21.241
516.42	21.421
516.77	21.237
517.11	20.588
517.46	21.163
517.80	21.254
518.14	20.266
518.49	20.653
518.83	20.739
519.17	21.016
519.52	20.543
519.86	20.936
520.20	20.983
520.55	21.903
520.89	21.107
521.23	21.472
521.58	21.429
521.92	21.433
522.26	19.951
522.61	21.121
522.95	20.872
523.29	20.816
523.64	21.524
523.98	20.764
524.32	21.110
524.66	20.385
525.01	21.017
525.35	20.384
525.69	20.259
526.04	21.246
526.38	20.500
526.72	21.656
527.06	20.653
527.41	20.545
527.75	22.379
528.09	20.873
528.43	20.841
528.78	21.020
529.12	20.303
529.46	20.882
529.80	20.668
530.15	21.745
530.49	20.923
530.83	21.582
531.17	22.258
531.51	22.438
531.86	20.645
532.20	22.555
532.54	21.461
532.88	21.887
533.22	20.987
533.57	21.420
533.91	20.530
534.25	21.264
534.59	20.805
534.93	20.880
535.27	21.424
535.62	20.818
535.96	22.159
536.30	20.153
536.64	21.829
536.98	21.102
537.32	21.001
537.66	21.400
538.01	21.922
538.35	21.719
538.69	22.719
539.03	21.313
539.37	21.086
539.71	19.961
540.05	21.242
540.39	20.864
540.73	21.281
541.07	21.739
541.42	21.331
541.76	22.387
542.10	22.316
542.44	21.325
542.78	21.805
543.12	21.113
543.46	22.033
543.80	21.275
544.14	20.796
544.48	21.079
544.82	20.847
545.16	21.080
545.50	21.144
545.84	22.513
546.18	21.818
546.52	21.886
546.86	21.787
547.20	21.982
547.54	22.779
547.88	22.513
548.22	21.606
548.56	22.138
548.90	21.127
549.24	20.471
549.58	21.760
549.92	21.909
550.26	22.017
550.60	21.923
550.94	21.338
551.28	20.775
551.62	22.070
551.96	21.754
552.30	22.116
552.64	22.110
552.98	22.237
553.32	22.117
553.66	22.427
554.00	21.208
554.34	22.084
554.68	21.960
555.02	21.580
555.36	21.573
555.69	21.719
556.03	22.207
556.37	21.010
556.71	21.078
557.05	20.588
557.39	21.484
557.73	21.877
558.07	22.625
558.41	21.635
558.75	23.218
559.08	22.446
559.42	21.240
559.76	22.132
560.10	22.056
560.44	21.244
560.78	21.424
561.12	21.438
561.45	22.686
561.79	21.424
562.13	22.066
562.47	21.790
562.81	21.688
563.15	22.341
563.48	21.485
563.82	22.244
564.16	21.714
564.50	20.898
564.84	21.808
565.17	20.914
565.51	21.661
565.85	21.701
566.19	20.789
566.52	22.039
566.86	21.278
567.20	22.524
567.54	22.260
567.88	21.184
568.21	22.275
568.55	21.689
568.89	21.304
569.23	21.480
569.56	21.943
569.90	20.642
570.24	21.600
570.57	21.625
570.91	21.008
571.25	21.093
571.59	21.443
571.92	21.515
572.26	21.837
572.60	21.922
572.93	21.559
573.27	21.946
573.61	21.552
573.95	21.886
574.28	21.558
574.62	21.331
574.96	21.171
575.29	21.169
575.63	21.519
575.97	21.427
576.30	21.880
576.64	21.759
576.98	21.439
577.31	21.465
577.65	21.433
577.98	21.773
578.32	21.207
578.66	21.908
578.99	21.570
579.33	21.375
579.67	21.211
580.00	21.626
580.34	21.571
580.67	21.437
581.01	22.172
581.35	21.865
581.68	21.313
582.02	21.515
582.35	21.230
582.69	21.471
583.02	21.281
583.36	21.374
583.70	21.978
584.03	22.126
584.37	22.161
584.70	22.518
585.04	22.162
585.37	21.878
585.71	21.687
586.04	21.672
586.38	22.179
586.72	21.983
587.05	21.842
587.39	21.398
587.72	21.773
588.06	21.932
588.39	21.811
588.73	21.825
589.06	22.530
589.40	21.852
589.73	22.175
590.07	21.601
590.40	21.812
590.73	22.053
591.07	22.344
591.40	22.396
591.74	23.030
592.07	22.644
592.41	22.613
592.74	21.685
593.08	22.152
593.41	22.208
593.75	21.299
594.08	21.958
594.41	22.305
594.75	21.959
595.08	21.868
595.42	22.732
595.75	22.080
596.09	22.193
596.42	22.908
596.75	23.090
597.09	22.597
597.42	22.049
597.75	22.337
598.09	22.913
598.42	21.950
598.76	21.970
599.09	21.855
599.42	21.834
599.76	21.596
600.09	21.384
600.42	21.877
600.76	21.607
601.09	21.931
601.42	21.537
601.76	21.973
602.09	21.779
602.42	22.572
602.76	22.491
603.09	22.345
603.42	22.452
603.76	22.370
604.09	22.179
604.42	22.177
604.76	22.143
605.09	22.412
605.42	22.274
605.75	22.765
606.09	21.757
606.42	22.068
606.75	22.148
607.09	22.562
607.42	21.823
607.75	22.110
608.08	22.406
608.42	22.322
608.75	21.821
609.08	21.924
609.41	22.132
609.75	21.820
610.08	22.243
610.41	21.788
610.74	22.044
611.07	22.480
611.41	22.031
611.74	23.027
612.07	22.205
612.40	22.718
612.73	22.211
613.07	22.845
613.40	22.643
613.73	21.342
614.06	22.581
614.39	22.286
614.72	22.789
615.06	22.374
615.39	22.452
615.72	22.751
616.05	21.903
616.38	22.846
616.71	22.922
617.05	22.850
617.38	22.249
617.71	22.462
618.04	22.596
618.37	22.590
618.70	22.589
619.03	23.026
619.36	22.403
619.69	22.535
620.03	22.802
620.36	23.128
620.69	23.219
621.02	23.820
621.35	22.083
621.68	23.442
622.01	22.446
622.34	23.374
622.67	23.422
623.00	21.497
623.33	21.587
623.66	21.944
623.99	24.080
624.32	23.395
624.65	22.034
624.99	21.813
625.32	22.954
625.65	22.164
625.98	22.675
626.31	23.095
626.64	22.857
626.97	21.945
627.30	22.278
627.63	22.806
627.96	25.063
628.29	22.572
628.62	23.147
628.95	24.057
629.28	23.175
629.61	23.740
629.94	23.524
630.26	22.974
