SpectraSuite Data File
++++++++++++++++++++++++++++++++++++
Date: Wed May 13 19:21:15 PDT 2015
User: schluterlab
Dark Spectrum Present: Yes
Reference Spectrum Present: Yes
Number of Sampled Component Spectra: 1
Spectrometers: USB2E3373
Integration Time (usec): 3000 (USB2E3373)
Spectra Averaged: 3 (USB2E3373)
Boxcar Smoothing: 0 (USB2E3373)
Correct for Electrical Dark: No (USB2E3373)
Strobe/Lamp Enabled: No (USB2E3373)
Correct for Detector Non-linearity: No (USB2E3373)
Correct for Stray Light: No (USB2E3373)
Number of Pixels in Processed Spectrum: 2048
>>>>>Begin Processed Spectral Data<<<<<
178.53	0.000
178.91	-1325.000
179.29	-1400.000
179.67	-233.333
180.04	-1450.000
180.42	2850.000
180.80	1020.000
181.18	-1250.000
181.56	642.857
181.94	0.000
182.31	-857.143
182.69	2000.000
183.07	-762.500
183.45	-466.667
183.83	627.273
184.20	-520.000
184.58	2900.000
184.96	6000.000
185.34	-1020.000
185.72	-750.000
186.09	-2500.000
186.47	3500.000
186.85	2400.000
187.23	5600.000
187.61	-1766.667
187.98	1350.000
188.36	600.000
188.74	509.091
189.12	-920.000
189.49	630.000
189.87	-5000.000
190.25	-1200.000
190.63	485.714
191.00	384.615
191.38	1016.667
191.76	-1325.000
192.14	1450.000
192.51	675.000
192.89	1183.333
193.27	800.000
193.65	-1400.000
194.02	580.000
194.40	1020.000
194.78	680.000
195.15	558.333
195.53	700.000
195.91	-2450.000
196.29	381.250
196.66	421.053
197.04	-380.000
197.42	0.000
197.79	720.000
198.17	-5100.000
198.55	628.571
198.92	650.000
199.30	940.000
199.68	0.000
200.05	327.778
200.43	900.000
200.81	5300.000
201.18	1833.333
201.56	-1800.000
201.94	577.778
202.31	566.667
202.69	450.000
203.07	610.000
203.44	0.000
203.82	1350.000
204.19	985.714
204.57	464.286
204.95	700.000
205.32	1966.667
205.70	554.545
206.08	400.000
206.45	2700.000
206.83	375.000
207.20	1116.667
207.58	960.000
207.96	377.778
208.33	925.000
208.71	-766.667
209.08	700.000
209.46	700.000
209.84	545.455
210.21	-1733.333
210.59	1525.000
210.96	-637.500
211.34	2750.000
211.71	690.000
212.09	866.667
212.46	0.000
212.84	1700.000
213.22	1375.000
213.59	-5400.000
213.97	933.333
214.34	914.286
214.72	618.182
215.09	1280.000
215.47	-2350.000
215.84	-2750.000
216.22	1766.667
216.59	457.143
216.97	1650.000
217.34	500.000
217.72	-750.000
218.09	0.000
218.47	-5200.000
218.84	700.000
219.22	814.286
219.59	2033.333
219.97	-657.143
220.34	1040.000
220.72	-1866.667
221.09	450.000
221.47	1475.000
221.84	-1166.667
222.22	0.000
222.59	1525.000
222.97	-2900.000
223.34	1240.000
223.72	384.615
224.09	1140.000
224.46	2600.000
224.84	-5000.000
225.21	-900.000
225.59	-5300.000
225.96	660.000
226.34	330.000
226.71	3150.000
227.08	675.000
227.46	590.000
227.83	-1075.000
228.21	-2900.000
228.58	588.889
228.95	-2550.000
229.33	-2950.000
229.70	1866.667
230.08	828.571
230.45	-780.000
230.82	466.667
231.20	1083.333
231.57	828.571
231.95	483.333
232.32	281.818
232.69	490.909
233.07	657.143
233.44	338.462
233.81	-2066.667
234.19	321.053
234.56	383.333
234.93	483.333
235.31	463.636
235.68	353.846
236.05	300.000
236.43	163.636
236.80	263.158
237.17	4200.000
237.55	238.095
237.92	221.429
238.29	228.571
238.67	177.419
239.04	193.103
239.41	147.222
239.79	117.391
240.16	130.952
240.53	134.091
240.91	123.529
241.28	98.000
241.65	106.000
242.02	75.362
242.40	80.645
242.77	88.333
243.14	59.140
243.51	68.539
243.89	62.353
244.26	48.889
244.63	64.516
245.00	53.191
245.38	56.436
245.75	51.402
246.12	48.624
246.49	53.285
246.87	56.000
247.24	45.385
247.61	42.857
247.98	39.869
248.36	32.432
248.73	35.032
249.10	35.032
249.47	36.158
249.84	37.433
250.22	34.225
250.59	30.769
250.96	32.828
251.33	30.806
251.70	33.168
252.08	30.476
252.45	28.700
252.82	26.957
253.19	25.106
253.56	27.059
253.94	30.290
254.31	26.172
254.68	26.154
255.05	21.402
255.42	24.797
255.79	22.794
256.16	21.300
256.54	16.254
256.91	22.776
257.28	16.187
257.65	15.512
258.02	22.050
258.39	20.820
258.76	18.060
259.14	18.452
259.51	16.717
259.88	17.391
260.25	19.940
260.62	19.075
260.99	17.391
261.36	20.120
261.73	13.181
262.10	14.244
262.47	18.873
262.85	16.156
263.22	13.675
263.59	17.379
263.96	13.462
264.33	16.188
264.70	14.737
265.07	16.624
265.44	15.404
265.81	16.302
266.18	15.075
266.55	12.683
266.92	14.005
267.29	13.657
267.66	13.073
268.03	14.773
268.40	15.654
268.77	12.411
269.14	14.414
269.51	13.544
269.88	14.918
270.25	15.576
270.62	12.809
270.99	14.839
271.36	14.163
271.73	11.215
272.10	14.348
272.47	15.484
272.84	11.905
273.21	13.208
273.58	10.917
273.95	11.950
274.32	10.331
274.69	14.133
275.06	10.433
275.43	12.766
275.80	10.220
276.17	10.998
276.54	11.642
276.91	11.660
277.28	12.109
277.65	11.412
278.02	11.387
278.39	13.281
278.76	11.091
279.13	12.642
279.50	12.104
279.87	9.163
280.23	12.176
280.60	10.445
280.97	9.982
281.34	10.973
281.71	14.000
282.08	10.365
282.45	10.545
282.82	11.368
283.19	8.021
283.56	11.053
283.92	9.814
284.29	11.993
284.66	10.708
285.03	10.127
285.40	12.500
285.77	8.754
286.14	10.017
286.51	9.667
286.87	12.137
287.24	10.912
287.61	9.952
287.98	11.201
288.35	10.618
288.72	9.346
289.08	9.546
289.45	9.885
289.82	9.268
290.19	8.320
290.56	8.729
290.93	7.553
291.29	7.975
291.66	9.292
292.03	11.483
292.40	10.426
292.77	8.284
293.13	9.552
293.50	8.892
293.87	8.889
294.24	7.852
294.60	8.588
294.97	8.721
295.34	10.578
295.71	7.670
296.08	8.547
296.44	9.354
296.81	7.794
297.18	9.350
297.55	5.673
297.91	7.784
298.28	8.568
298.65	8.486
299.02	8.037
299.38	7.570
299.75	6.199
300.12	6.513
300.48	7.250
300.85	7.645
301.22	6.752
301.59	7.449
301.95	6.927
302.32	7.702
302.69	7.407
303.05	7.515
303.42	6.296
303.79	7.248
304.15	5.944
304.52	6.257
304.89	5.807
305.25	6.613
305.62	8.607
305.99	7.792
306.35	7.159
306.72	7.287
307.09	7.103
307.45	7.883
307.82	5.469
308.19	7.616
308.55	7.012
308.92	6.660
309.29	6.019
309.65	6.999
310.02	6.554
310.38	6.774
310.75	6.653
311.12	7.062
311.48	5.747
311.85	7.547
312.22	6.556
312.58	5.094
312.95	5.808
313.31	6.117
313.68	5.405
314.05	8.876
314.41	8.342
314.78	5.841
315.14	6.951
315.51	6.900
315.87	6.634
316.24	7.150
316.61	6.335
316.97	6.849
317.34	5.479
317.70	6.501
318.07	5.775
318.43	5.773
318.80	7.310
319.16	5.932
319.53	6.098
319.89	6.762
320.26	6.600
320.62	6.349
320.99	7.071
321.35	6.566
321.72	5.955
322.08	6.713
322.45	7.264
322.81	6.492
323.18	7.611
323.54	7.421
323.91	7.453
324.27	7.170
324.64	5.965
325.00	5.951
325.37	6.278
325.73	7.899
326.10	6.531
326.46	7.079
326.83	7.075
327.19	7.430
327.56	6.969
327.92	5.949
328.29	7.986
328.65	7.827
329.01	7.220
329.38	7.401
329.74	7.572
330.11	6.880
330.47	7.254
330.84	8.548
331.20	6.284
331.56	7.890
331.93	6.389
332.29	8.163
332.66	7.611
333.02	6.947
333.38	7.859
333.75	8.645
334.11	8.007
334.48	7.542
334.84	6.526
335.20	6.364
335.57	6.528
335.93	6.250
336.29	6.868
336.66	6.943
337.02	6.697
337.38	7.130
337.75	6.774
338.11	6.535
338.47	6.630
338.84	7.516
339.20	6.514
339.56	7.938
339.93	6.000
340.29	7.609
340.65	6.863
341.02	7.068
341.38	7.206
341.74	7.105
342.11	7.162
342.47	6.960
342.83	7.363
343.20	8.052
343.56	6.655
343.92	7.368
344.28	6.548
344.65	7.309
345.01	6.229
345.37	7.033
345.73	6.853
346.10	6.905
346.46	7.373
346.82	7.496
347.19	5.764
347.55	6.897
347.91	6.634
348.27	7.642
348.63	6.773
349.00	6.149
349.36	6.158
349.72	7.298
350.08	6.645
350.45	7.160
350.81	6.255
351.17	7.131
351.53	6.634
351.89	6.353
352.26	7.498
352.62	7.298
352.98	6.888
353.34	7.313
353.70	6.056
354.07	6.452
354.43	7.143
354.79	6.195
355.15	6.864
355.51	7.354
355.87	7.592
356.24	7.329
356.60	6.496
356.96	6.436
357.32	6.214
357.68	6.535
358.04	6.334
358.40	6.334
358.77	6.338
359.13	6.077
359.49	6.196
359.85	5.000
360.21	5.263
360.57	6.848
360.93	6.000
361.29	6.425
361.66	6.424
362.02	6.418
362.38	6.236
362.74	5.283
363.10	5.255
363.46	5.723
363.82	5.896
364.18	5.653
364.54	6.761
364.90	6.161
365.26	6.029
365.62	5.405
365.98	6.647
366.35	5.158
366.71	6.508
367.07	5.608
367.43	6.168
367.79	6.210
368.15	7.112
368.51	5.669
368.87	5.924
369.23	5.779
369.59	5.938
369.95	6.250
370.31	5.983
370.67	6.522
371.03	5.843
371.39	6.195
371.75	5.956
372.11	6.259
372.47	7.111
372.83	6.340
373.19	5.780
373.55	6.208
373.91	6.701
374.27	5.292
374.63	5.745
374.99	6.992
375.35	5.164
375.71	5.552
376.07	6.790
376.42	6.052
376.78	6.030
377.14	5.834
377.50	6.358
377.86	5.253
378.22	5.942
378.58	4.825
378.94	5.154
379.30	4.644
379.66	5.901
380.02	5.713
380.38	5.343
380.74	5.702
381.09	5.807
381.45	6.146
381.81	6.327
382.17	5.223
382.53	5.157
382.89	6.358
383.25	5.066
383.61	5.390
383.97	5.691
384.32	5.926
384.68	5.762
385.04	5.593
385.40	5.387
385.76	5.713
386.12	4.922
386.48	5.223
386.83	5.645
387.19	6.494
387.55	5.751
387.91	5.925
388.27	5.457
388.62	5.778
388.98	5.528
389.34	5.945
389.70	6.131
390.06	6.147
390.42	5.577
390.77	6.361
391.13	4.786
391.49	6.218
391.85	5.220
392.20	5.047
392.56	5.934
392.92	6.180
393.28	4.556
393.64	5.635
393.99	6.536
394.35	5.397
394.71	5.709
395.07	4.424
395.42	5.253
395.78	5.344
396.14	5.711
396.50	5.952
396.85	5.404
397.21	5.549
397.57	5.332
397.92	5.709
398.28	5.157
398.64	6.272
399.00	5.036
399.35	5.076
399.71	5.845
400.07	6.091
400.42	5.706
400.78	6.092
401.14	5.244
401.49	5.791
401.85	5.626
402.21	5.329
402.57	5.182
402.92	5.422
403.28	5.746
403.63	5.260
403.99	4.777
404.35	6.000
404.70	5.036
405.06	5.475
405.42	5.490
405.77	5.314
406.13	5.756
406.49	5.441
406.84	5.966
407.20	4.905
407.55	5.743
407.91	5.733
408.27	5.552
408.62	6.141
408.98	5.821
409.34	6.027
409.69	4.968
410.05	5.266
410.40	6.055
410.76	5.376
411.11	6.212
411.47	5.304
411.83	5.925
412.18	5.133
412.54	5.168
412.89	5.482
413.25	5.549
413.60	5.435
413.96	5.647
414.31	4.921
414.67	6.464
415.03	5.762
415.38	7.410
415.74	6.045
416.09	5.944
416.45	5.890
416.80	5.684
417.16	6.032
417.51	6.171
417.87	5.716
418.22	5.615
418.58	6.262
418.93	5.835
419.29	5.920
419.64	6.675
420.00	5.610
420.35	5.913
420.71	5.559
421.06	5.251
421.42	6.023
421.77	5.886
422.12	5.278
422.48	5.019
422.83	5.708
423.19	5.746
423.54	5.804
423.90	5.681
424.25	6.142
424.61	6.488
424.96	5.773
425.31	6.035
425.67	5.899
426.02	6.171
426.38	6.044
426.73	5.266
427.09	6.261
427.44	5.520
427.79	5.635
428.15	6.310
428.50	5.851
428.85	6.615
429.21	5.301
429.56	5.340
429.92	5.586
430.27	5.214
430.62	5.223
430.98	5.708
431.33	5.567
431.68	5.812
432.04	6.656
432.39	5.939
432.74	5.625
433.10	6.055
433.45	5.714
433.80	5.377
434.16	6.197
434.51	6.000
434.86	6.271
435.22	5.503
435.57	5.897
435.92	6.085
436.28	6.168
436.63	7.064
436.98	5.552
437.34	6.619
437.69	6.184
438.04	5.958
438.39	6.209
438.75	6.217
439.10	6.536
439.45	6.494
439.81	6.526
440.16	6.437
440.51	6.678
440.86	6.485
441.22	5.395
441.57	5.998
441.92	6.295
442.27	6.028
442.63	5.582
442.98	7.042
443.33	6.141
443.68	6.144
444.03	6.442
444.39	5.258
444.74	6.006
445.09	6.469
445.44	6.452
445.79	6.235
446.15	6.511
446.50	6.031
446.85	6.423
447.20	6.680
447.55	6.198
447.91	6.398
448.26	6.010
448.61	6.501
448.96	6.700
449.31	6.693
449.66	7.203
450.02	6.128
450.37	6.236
450.72	6.373
451.07	6.459
451.42	6.018
451.77	6.694
452.12	7.564
452.47	7.090
452.83	6.352
453.18	7.274
453.53	7.483
453.88	6.556
454.23	6.455
454.58	7.753
454.93	7.438
455.28	6.983
455.63	6.978
455.98	7.321
456.34	7.224
456.69	7.201
457.04	7.616
457.39	7.247
457.74	6.849
458.09	8.223
458.44	6.956
458.79	6.182
459.14	7.167
459.49	7.180
459.84	7.036
460.19	6.659
460.54	7.118
460.89	6.747
461.24	7.711
461.59	8.019
461.94	7.028
462.29	8.071
462.64	6.701
462.99	7.352
463.34	8.533
463.69	7.880
464.04	7.478
464.39	7.826
464.74	7.427
465.09	6.634
465.44	7.091
465.79	7.047
466.14	7.444
466.49	6.674
466.84	7.823
467.19	7.906
467.54	8.125
467.89	7.803
468.24	7.621
468.59	8.120
468.94	7.636
469.29	7.584
469.64	8.501
469.99	7.984
470.34	7.860
470.68	7.328
471.03	7.891
471.38	7.227
471.73	8.261
472.08	9.145
472.43	8.417
472.78	7.176
473.13	8.344
473.48	7.553
473.83	8.171
474.17	7.592
474.52	8.002
474.87	7.764
475.22	7.371
475.57	7.469
475.92	7.329
476.27	7.441
476.61	7.336
476.96	7.697
477.31	6.803
477.66	7.604
478.01	6.743
478.36	7.403
478.70	7.113
479.05	6.656
479.40	7.267
479.75	7.168
480.10	7.107
480.45	6.901
480.79	6.928
481.14	6.751
481.49	6.882
481.84	6.950
482.19	6.906
482.53	7.248
482.88	7.352
483.23	7.056
483.58	7.416
483.92	7.357
484.27	6.318
484.62	6.466
484.97	6.543
485.31	6.712
485.66	5.851
486.01	5.158
486.36	4.963
486.70	5.234
487.05	5.390
487.40	5.516
487.75	5.641
488.09	5.884
488.44	5.937
488.79	6.257
489.13	6.761
489.48	6.036
489.83	6.431
490.17	6.927
490.52	7.042
490.87	7.010
491.22	7.049
491.56	6.287
491.91	7.120
492.26	6.798
492.60	6.728
492.95	6.688
493.30	6.916
493.64	7.000
493.99	7.057
494.34	6.938
494.68	6.960
495.03	7.707
495.37	7.073
495.72	6.481
496.07	7.378
496.41	6.903
496.76	7.036
497.11	6.394
497.45	7.173
497.80	7.006
498.14	6.329
498.49	7.024
498.84	7.335
499.18	7.143
499.53	6.980
499.87	7.409
500.22	7.065
500.56	7.573
500.91	6.731
501.26	6.923
501.60	7.784
501.95	7.195
502.29	7.404
502.64	7.263
502.98	7.574
503.33	6.901
503.67	6.868
504.02	6.782
504.36	7.908
504.71	7.621
505.06	7.614
505.40	7.146
505.75	7.425
506.09	7.240
506.44	7.203
506.78	7.550
507.13	7.370
507.47	7.677
507.82	7.599
508.16	7.396
508.51	8.168
508.85	7.299
509.19	7.755
509.54	7.449
509.88	7.316
510.23	7.147
510.57	8.359
510.92	8.286
511.26	8.068
511.61	7.624
511.95	7.359
512.30	7.741
512.64	8.383
512.98	8.253
513.33	8.030
513.67	8.111
514.02	6.981
514.36	7.482
514.70	7.914
515.05	7.474
515.39	8.188
515.74	7.939
516.08	8.273
516.42	8.324
516.77	8.473
517.11	7.769
517.46	8.239
517.80	8.188
518.14	7.180
518.49	8.810
518.83	8.750
519.17	7.968
519.52	8.546
519.86	8.214
520.20	8.497
520.55	9.037
520.89	8.637
521.23	8.444
521.58	8.583
521.92	8.757
522.26	8.542
522.61	8.598
522.95	7.796
523.29	7.851
523.64	8.598
523.98	8.996
524.32	7.780
524.66	9.381
525.01	8.088
525.35	8.240
525.69	8.128
526.04	8.224
526.38	8.115
526.72	9.080
527.06	8.537
527.41	7.921
527.75	8.875
528.09	8.606
528.43	8.987
528.78	9.281
529.12	8.121
529.46	8.941
529.80	9.282
530.15	9.159
530.49	8.123
530.83	9.304
531.17	8.159
531.51	9.922
531.86	8.194
532.20	8.866
532.54	9.673
532.88	8.922
533.22	7.995
533.57	9.198
533.91	8.188
534.25	8.991
534.59	8.786
534.93	9.399
535.27	8.630
535.62	8.974
535.96	8.475
536.30	8.519
536.64	10.109
536.98	9.224
537.32	9.612
537.66	8.733
538.01	8.953
538.35	9.050
538.69	9.572
539.03	8.642
539.37	8.243
539.71	8.166
540.05	9.346
540.39	9.568
540.73	9.120
541.07	9.929
541.42	8.937
541.76	10.194
542.10	9.250
542.44	8.742
542.78	10.079
543.12	8.509
543.46	9.836
543.80	9.564
544.14	9.178
544.48	10.095
544.82	9.557
545.16	9.499
545.50	8.740
545.84	9.476
546.18	9.495
546.52	10.048
546.86	9.141
547.20	10.047
547.54	9.419
547.88	10.587
548.22	9.900
548.56	9.623
548.90	8.899
549.24	9.024
549.58	10.300
549.92	9.547
550.26	10.227
550.60	10.235
550.94	9.718
551.28	9.437
551.62	10.640
551.96	9.895
552.30	10.512
552.64	9.601
552.98	9.627
553.32	10.519
553.66	10.702
554.00	10.707
554.34	9.386
554.68	10.730
555.02	10.367
555.36	9.882
555.69	9.878
556.03	10.296
556.37	10.095
556.71	9.482
557.05	9.874
557.39	11.127
557.73	10.021
558.07	10.877
558.41	10.347
558.75	10.140
559.08	10.291
559.42	9.826
559.76	10.294
560.10	10.278
560.44	10.203
560.78	9.182
561.12	10.290
561.45	9.909
561.79	10.152
562.13	9.725
562.47	10.451
562.81	10.600
563.15	10.167
563.48	9.947
563.82	10.698
564.16	10.334
564.50	10.091
564.84	9.545
565.17	9.846
565.51	9.712
565.85	10.914
566.19	9.205
566.52	10.196
566.86	9.524
567.20	10.377
567.54	9.817
567.88	9.506
568.21	10.053
568.55	9.100
568.89	9.339
569.23	8.824
569.56	8.543
569.90	8.302
570.24	8.324
570.57	8.126
570.91	8.403
571.25	7.999
571.59	8.277
571.92	7.805
572.26	8.059
572.60	8.018
572.93	8.066
573.27	7.986
573.61	8.068
573.95	8.088
574.28	7.638
574.62	7.775
574.96	7.790
575.29	7.468
575.63	7.825
575.97	7.810
576.30	8.099
576.64	7.784
576.98	7.973
577.31	7.440
577.65	7.709
577.98	7.841
578.32	7.407
578.66	7.987
578.99	7.624
579.33	7.795
579.67	7.638
580.00	7.816
580.34	7.950
580.67	7.752
581.01	8.095
581.35	7.609
581.68	7.737
582.02	7.714
582.35	7.505
582.69	7.959
583.02	7.721
583.36	7.955
583.70	8.167
584.03	8.046
584.37	8.169
584.70	8.177
585.04	8.268
585.37	7.898
585.71	8.130
586.04	7.683
586.38	8.281
586.72	9.224
587.05	8.123
587.39	8.047
587.72	8.168
588.06	8.031
588.39	8.368
588.73	8.331
589.06	8.538
589.40	8.552
589.73	8.905
590.07	8.968
590.40	8.659
590.73	9.251
591.07	9.035
591.40	9.532
591.74	9.827
592.07	9.860
592.41	9.343
592.74	8.689
593.08	8.961
593.41	8.542
593.75	8.869
594.08	9.051
594.41	8.590
594.75	8.725
595.08	9.556
595.42	8.827
595.75	9.188
596.09	9.275
596.42	9.391
596.75	9.371
597.09	10.043
597.42	8.938
597.75	9.314
598.09	9.304
598.42	9.364
598.76	9.688
599.09	9.274
599.42	9.170
599.76	8.931
600.09	8.889
600.42	8.802
600.76	8.750
601.09	8.998
601.42	9.094
601.76	9.336
602.09	8.893
602.42	9.674
602.76	9.311
603.09	9.717
603.42	9.449
603.76	9.299
604.09	8.879
604.42	9.295
604.76	9.321
605.09	10.092
605.42	9.833
605.75	9.934
606.09	9.313
606.42	9.358
606.75	9.457
607.09	9.753
607.42	9.328
607.75	9.367
608.08	9.249
608.42	10.085
608.75	9.423
609.08	9.991
609.41	10.186
609.75	9.671
610.08	9.943
610.41	9.544
610.74	9.792
611.07	10.079
611.41	10.157
611.74	10.910
612.07	10.559
612.40	9.916
612.73	10.421
613.07	11.099
613.40	10.427
613.73	9.911
614.06	9.892
614.39	10.330
614.72	10.737
615.06	10.557
615.39	9.713
615.72	10.685
616.05	10.048
616.38	10.228
616.71	10.748
617.05	10.836
617.38	10.944
617.71	10.150
618.04	11.899
618.37	10.704
618.70	11.014
619.03	11.053
619.36	11.202
619.69	11.479
620.03	11.813
620.36	11.497
620.69	11.986
621.02	12.389
621.35	11.590
621.68	11.215
622.01	11.765
622.34	11.725
622.67	11.179
623.00	11.372
623.33	10.865
623.66	11.580
623.99	11.561
624.32	11.341
624.65	10.946
624.99	10.057
625.32	10.862
625.65	10.293
625.98	11.991
626.31	12.131
626.64	12.490
626.97	12.053
627.30	11.388
627.63	11.731
627.96	12.363
628.29	12.423
628.62	12.717
628.95	14.623
629.28	12.774
629.61	14.390
629.94	13.048
630.26	12.679
630.59	12.679
630.92	11.398
631.25	12.438
631.58	12.813
631.91	12.475
632.24	12.342
632.57	13.326
632.90	14.035
633.23	13.870
633.56	14.463
633.89	13.930
634.22	13.507
634.55	13.846
634.88	12.934
635.20	14.576
635.53	13.494
635.86	13.985
636.19	13.765
636.52	14.418
636.85	14.433
637.18	13.018
637.51	13.948
637.83	12.084
638.16	14.322
638.49	13.602
638.82	14.539
639.15	14.750
639.48	15.212
639.81	15.550
640.13	14.583
640.46	14.362
640.79	15.059
641.12	14.580
641.45	15.782
641.77	15.317
642.10	14.912
642.43	15.165
642.76	13.777
643.09	15.337
643.41	15.326
643.74	18.056
644.07	15.701
644.40	16.871
644.73	17.008
645.05	16.640
645.38	15.166
645.71	15.781
646.04	17.774
646.36	18.197
646.69	16.221
647.02	17.177
647.35	16.667
647.67	17.168
648.00	18.049
648.33	14.851
648.66	16.364
648.98	15.592
649.31	16.592
649.64	15.546
649.96	15.797
