SpectraSuite Data File
++++++++++++++++++++++++++++++++++++
Date: Wed May 13 19:41:26 PDT 2015
User: schluterlab
Dark Spectrum Present: Yes
Reference Spectrum Present: Yes
Number of Sampled Component Spectra: 1
Spectrometers: USB2E3373
Integration Time (usec): 3000 (USB2E3373)
Spectra Averaged: 3 (USB2E3373)
Boxcar Smoothing: 0 (USB2E3373)
Correct for Electrical Dark: No (USB2E3373)
Strobe/Lamp Enabled: No (USB2E3373)
Correct for Detector Non-linearity: No (USB2E3373)
Correct for Stray Light: No (USB2E3373)
Number of Pixels in Processed Spectrum: 2048
>>>>>Begin Processed Spectral Data<<<<<
178.53	0.000
178.91	-1350.000
179.29	-1350.000
179.67	-238.889
180.04	-1375.000
180.42	2750.000
180.80	1180.000
181.18	-1225.000
181.56	742.857
181.94	0.000
182.31	-628.571
182.69	1933.333
183.07	-600.000
183.45	-555.556
183.83	490.909
184.20	-300.000
184.58	2750.000
184.96	4700.000
185.34	-1000.000
185.72	-625.000
186.09	-2450.000
186.47	3000.000
186.85	2700.000
187.23	4900.000
187.61	-1633.333
187.98	1425.000
188.36	509.091
188.74	481.818
189.12	-740.000
189.49	570.000
189.87	-5100.000
190.25	-1300.000
190.63	407.143
191.00	484.615
191.38	833.333
191.76	-1200.000
192.14	1350.000
192.51	762.500
192.89	1133.333
193.27	587.500
193.65	-1425.000
194.02	610.000
194.40	1020.000
194.78	580.000
195.15	525.000
195.53	720.000
195.91	-2200.000
196.29	312.500
196.66	326.316
197.04	-330.000
197.42	0.000
197.79	580.000
198.17	-5100.000
198.55	828.571
198.92	687.500
199.30	840.000
199.68	0.000
200.05	350.000
200.43	900.000
200.81	4900.000
201.18	1766.667
201.56	-1933.333
201.94	488.889
202.31	577.778
202.69	508.333
203.07	630.000
203.44	0.000
203.82	1250.000
204.19	800.000
204.57	471.429
204.95	562.500
205.32	1833.333
205.70	545.455
206.08	442.857
206.45	2750.000
206.83	393.750
207.20	916.667
207.58	860.000
207.96	361.111
208.33	825.000
208.71	-916.667
209.08	800.000
209.46	600.000
209.84	445.455
210.21	-1733.333
210.59	1400.000
210.96	-600.000
211.34	2500.000
211.71	660.000
212.09	783.333
212.46	0.000
212.84	1633.333
213.22	1600.000
213.59	-4300.000
213.97	816.667
214.34	728.571
214.72	581.818
215.09	1020.000
215.47	-2350.000
215.84	-2650.000
216.22	1633.333
216.59	371.429
216.97	1375.000
217.34	527.273
217.72	-583.333
218.09	0.000
218.47	-4700.000
218.84	677.778
219.22	900.000
219.59	1666.667
219.97	-728.571
220.34	1060.000
220.72	-1500.000
221.09	385.714
221.47	1300.000
221.84	-933.333
222.22	0.000
222.59	1450.000
222.97	-2600.000
223.34	1220.000
223.72	384.615
224.09	1240.000
224.46	2250.000
224.84	-4500.000
225.21	-1000.000
225.59	-4000.000
225.96	600.000
226.34	320.000
226.71	3000.000
227.08	600.000
227.46	480.000
227.83	-1025.000
228.21	-2850.000
228.58	577.778
228.95	-1600.000
229.33	-2150.000
229.70	1800.000
230.08	900.000
230.45	-940.000
230.82	466.667
231.20	750.000
231.57	642.857
231.95	458.333
232.32	272.727
232.69	463.636
233.07	642.857
233.44	392.308
233.81	-1800.000
234.19	268.421
234.56	450.000
234.93	341.667
235.31	472.727
235.68	338.462
236.05	350.000
236.43	175.758
236.80	268.421
237.17	3900.000
237.55	261.905
237.92	203.571
238.29	257.143
238.67	164.516
239.04	151.724
239.41	136.111
239.79	104.348
240.16	128.571
240.53	115.909
240.91	98.039
241.28	116.000
241.65	106.000
242.02	89.855
242.40	80.645
242.77	81.667
243.14	64.516
243.51	62.921
243.89	63.529
244.26	65.556
244.63	54.839
245.00	54.255
245.38	56.436
245.75	48.598
246.12	40.367
246.49	58.394
246.87	52.800
247.24	56.154
247.61	37.143
247.98	40.523
248.36	39.189
248.73	38.217
249.10	36.306
249.47	31.073
249.84	40.107
250.22	37.433
250.59	31.953
250.96	32.323
251.33	33.649
251.70	33.168
252.08	28.571
252.45	26.009
252.82	26.957
253.19	29.787
253.56	27.059
253.94	31.120
254.31	29.688
254.68	27.308
255.05	26.937
255.42	25.203
255.79	23.529
256.16	25.993
256.54	22.261
256.91	27.046
257.28	23.022
257.65	21.782
258.02	19.565
258.39	21.767
258.76	23.077
259.14	25.000
259.51	23.100
259.88	19.876
260.25	24.773
260.62	21.676
260.99	20.807
261.36	19.820
261.73	16.905
262.10	19.477
262.47	21.127
262.85	19.220
263.22	16.239
263.59	18.234
263.96	20.055
264.33	20.627
264.70	18.947
265.07	19.437
265.44	20.455
265.81	16.545
266.18	16.834
266.55	16.829
266.92	16.462
267.29	18.750
267.66	13.991
268.03	18.864
268.40	13.785
268.77	16.945
269.14	17.117
269.51	19.639
269.88	17.249
270.25	14.898
270.62	15.281
270.99	17.419
271.36	15.665
271.73	16.589
272.10	17.391
272.47	18.280
272.84	15.801
273.21	14.675
273.58	17.031
273.95	15.094
274.32	15.702
274.69	14.347
275.06	15.748
275.43	15.745
275.80	16.633
276.17	14.460
276.54	15.385
276.91	15.613
277.28	15.039
277.65	16.054
278.02	15.114
278.39	16.406
278.76	14.727
279.13	16.981
279.50	13.780
279.87	14.343
280.23	14.571
280.60	13.733
280.97	12.384
281.34	13.628
281.71	14.909
282.08	14.012
282.45	14.545
282.82	13.321
283.19	12.299
283.56	15.789
283.92	13.367
284.29	13.404
284.66	13.249
285.03	13.924
285.40	12.324
285.77	11.616
286.14	14.508
286.51	14.167
286.87	13.504
287.24	12.704
287.61	13.644
287.98	13.636
288.35	13.788
288.72	11.526
289.08	13.928
289.45	11.697
289.82	11.870
290.19	11.146
290.56	11.332
290.93	11.480
291.29	10.429
291.66	10.177
292.03	11.919
292.40	13.510
292.77	11.243
293.13	12.836
293.50	10.496
293.87	10.519
294.24	9.630
294.60	9.607
294.97	10.756
295.34	10.860
295.71	12.500
296.08	9.544
296.44	11.279
296.81	10.568
297.18	12.602
297.55	7.916
297.91	9.499
298.28	12.450
298.65	11.227
299.02	9.223
299.38	9.562
299.75	8.625
300.12	11.494
300.48	10.500
300.85	9.618
301.22	10.064
301.59	9.470
301.95	8.564
302.32	9.628
302.69	10.036
303.05	8.606
303.42	8.395
303.79	9.626
304.15	8.508
304.52	9.386
304.89	9.872
305.25	9.397
305.62	9.966
305.99	8.973
306.35	8.613
306.72	9.753
307.09	8.990
307.45	9.910
307.82	7.924
308.19	9.713
308.55	10.572
308.92	9.023
309.29	8.131
309.65	7.529
310.02	9.725
310.38	9.140
310.75	7.603
311.12	9.621
311.48	10.240
311.85	9.539
312.22	9.573
312.58	8.940
312.95	9.187
313.31	8.641
313.68	8.732
314.05	9.467
314.41	8.744
314.78	9.063
315.14	8.739
315.51	9.681
315.87	9.208
316.24	9.335
316.61	8.772
316.97	8.415
317.34	8.806
317.70	8.987
318.07	9.432
318.43	9.491
318.80	10.028
319.16	8.004
319.53	9.006
319.89	10.190
320.26	9.100
320.62	9.325
320.99	9.697
321.35	9.798
321.72	10.062
322.08	10.760
322.45	11.244
322.81	10.756
323.18	9.923
323.54	10.575
323.91	11.698
324.27	10.899
324.64	8.854
325.00	9.197
325.37	10.737
325.73	10.323
326.10	10.591
326.46	9.857
326.83	10.267
327.19	11.102
327.56	10.105
327.92	10.149
328.29	10.736
328.65	11.418
329.01	10.469
329.38	10.268
329.74	11.080
330.11	10.556
330.47	11.478
330.84	12.040
331.20	10.656
331.56	10.917
331.93	9.259
332.29	11.535
332.66	11.327
333.02	11.243
333.38	10.930
333.75	10.784
334.11	11.121
334.48	11.003
334.84	11.213
335.20	10.364
335.57	10.607
335.93	10.625
336.29	10.623
336.66	11.001
337.02	10.769
337.38	11.667
337.75	10.250
338.11	10.922
338.47	9.484
338.84	10.724
339.20	9.633
339.56	11.040
339.93	9.727
340.29	9.601
340.65	10.873
341.02	10.646
341.38	11.566
341.74	10.175
342.11	10.830
342.47	10.044
342.83	9.760
343.20	10.216
343.56	10.615
343.92	10.263
344.28	10.799
344.65	10.576
345.01	8.754
345.37	9.863
345.73	10.491
346.10	9.633
346.46	10.339
346.82	10.379
347.19	9.774
347.55	10.099
347.91	9.790
348.27	10.518
348.63	9.950
349.00	10.194
349.36	9.852
349.72	10.505
350.08	8.995
350.45	9.601
350.81	9.586
351.17	10.292
351.53	9.337
351.89	9.323
352.26	10.260
352.62	10.425
352.98	10.211
353.34	9.121
353.70	8.838
354.07	9.597
354.43	9.444
354.79	9.413
355.15	9.497
355.51	10.072
355.87	9.469
356.24	10.016
356.60	9.543
356.96	9.171
357.32	8.667
357.68	9.370
358.04	9.739
358.40	9.422
358.77	8.998
359.13	8.287
359.49	9.333
359.85	7.698
360.21	8.772
360.57	10.039
360.93	9.231
361.29	9.297
361.66	9.056
362.02	8.881
362.38	9.278
362.74	9.077
363.10	8.660
363.46	8.070
363.82	8.163
364.18	8.664
364.54	9.881
364.90	9.348
365.26	8.456
365.62	8.766
365.98	7.816
366.35	7.593
366.71	9.400
367.07	8.886
367.43	8.345
367.79	8.922
368.15	9.555
368.51	7.849
368.87	8.922
369.23	7.901
369.59	8.182
369.95	8.529
370.31	8.547
370.67	7.971
371.03	9.064
371.39	8.236
371.75	8.235
372.11	8.464
372.47	8.944
372.83	8.501
373.19	8.165
373.55	7.908
373.91	9.794
374.27	7.560
374.63	7.491
374.99	8.686
375.35	7.746
375.71	7.814
376.07	8.779
376.42	7.909
376.78	8.748
377.14	8.277
377.50	7.947
377.86	7.513
378.22	8.534
378.58	7.331
378.94	7.354
379.30	7.888
379.66	7.931
380.02	8.354
380.38	7.347
380.74	7.743
381.09	8.007
381.45	7.621
381.81	8.661
382.17	8.344
382.53	7.673
382.89	8.025
383.25	7.567
383.61	7.807
383.97	8.130
384.32	7.548
384.68	7.249
385.04	7.990
385.40	7.554
385.76	8.047
386.12	7.642
386.48	8.181
386.83	8.339
387.19	8.349
387.55	8.472
387.91	7.134
388.27	7.541
388.62	8.605
388.98	7.924
389.34	7.822
389.70	7.725
390.06	8.238
390.42	7.393
390.77	8.588
391.13	7.466
391.49	8.058
391.85	7.575
392.20	6.435
392.56	8.460
392.92	7.357
393.28	6.864
393.64	7.494
393.99	7.819
394.35	7.258
394.71	7.967
395.07	6.667
395.42	6.799
395.78	7.188
396.14	7.821
396.50	7.707
396.85	7.819
397.21	7.213
397.57	8.431
397.92	7.272
398.28	6.839
398.64	8.065
399.00	7.387
399.35	7.050
399.71	7.407
400.07	7.569
400.42	7.730
400.78	7.660
401.14	7.012
401.49	6.985
401.85	7.320
402.21	7.305
402.57	7.588
402.92	8.260
403.28	7.495
403.63	6.559
403.99	6.943
404.35	7.697
404.70	7.434
405.06	7.455
405.42	7.486
405.77	6.171
406.13	7.449
406.49	7.392
406.84	7.265
407.20	6.678
407.55	7.020
407.91	7.333
408.27	7.594
408.62	7.766
408.98	6.985
409.34	7.134
409.69	7.032
410.05	7.249
410.40	7.584
410.76	7.168
411.11	8.203
411.47	6.901
411.83	7.697
412.18	7.112
412.54	7.347
412.89	7.048
413.25	7.143
413.60	7.165
413.96	7.043
414.31	7.594
414.67	7.668
415.03	7.417
415.38	8.247
415.74	8.296
416.09	7.642
416.45	7.296
416.80	7.403
417.16	7.708
417.51	7.498
417.87	6.872
418.22	8.139
418.58	7.876
418.93	8.292
419.29	7.829
419.64	8.060
420.00	7.744
420.35	8.406
420.71	7.770
421.06	7.041
421.42	7.778
421.77	7.791
422.12	7.019
422.48	6.746
422.83	7.630
423.19	7.348
423.54	7.197
423.90	7.826
424.25	7.091
424.61	7.202
424.96	6.939
425.31	7.807
425.67	7.191
426.02	7.543
426.38	7.631
426.73	7.665
427.09	7.599
427.44	7.706
427.79	7.073
428.15	7.857
428.50	8.133
428.85	8.045
429.21	7.234
429.56	7.102
429.92	6.945
430.27	6.852
430.62	7.168
430.98	7.421
431.33	7.216
431.68	7.487
432.04	7.774
432.39	6.739
432.74	7.660
433.10	7.810
433.45	7.988
433.80	7.483
434.16	7.318
434.51	7.105
434.86	7.754
435.22	7.282
435.57	8.085
435.92	6.788
436.28	7.651
436.63	8.609
436.98	7.613
437.34	8.050
437.69	8.401
438.04	7.813
438.39	7.642
438.75	8.425
439.10	8.380
439.45	8.146
439.81	7.734
440.16	7.284
440.51	7.850
440.86	8.743
441.22	7.508
441.57	8.227
441.92	7.625
442.27	7.858
442.63	7.267
442.98	8.451
443.33	7.500
443.68	8.157
444.03	6.930
444.39	6.962
444.74	7.792
445.09	7.709
445.44	7.108
445.79	7.373
446.15	8.629
446.50	8.239
446.85	7.348
447.20	8.414
447.55	8.487
447.91	7.612
448.26	8.125
448.61	7.349
448.96	8.638
449.31	8.324
449.66	7.822
450.02	7.465
450.37	7.766
450.72	8.404
451.07	7.617
451.42	8.146
451.77	8.925
452.12	8.372
452.47	8.209
452.83	8.042
453.18	8.374
453.53	8.472
453.88	7.265
454.23	7.830
454.58	8.964
454.93	8.709
455.28	8.791
455.63	6.917
455.98	9.226
456.34	8.606
456.69	8.015
457.04	8.050
457.39	7.773
457.74	7.835
458.09	7.993
458.44	8.324
458.79	8.351
459.14	7.957
459.49	8.640
459.84	7.424
460.19	7.837
460.54	8.102
460.89	8.173
461.24	7.772
461.59	9.355
461.94	8.076
462.29	9.021
462.64	9.445
462.99	8.523
463.34	9.533
463.69	8.380
464.04	8.696
464.39	8.696
464.74	9.210
465.09	8.444
465.44	8.366
465.79	8.893
466.14	8.593
466.49	7.508
466.84	9.340
467.19	8.871
467.54	8.750
467.89	8.463
468.24	8.610
468.59	9.524
468.94	8.064
469.29	8.162
469.64	8.635
469.99	9.202
470.34	8.851
470.68	9.339
471.03	8.980
471.38	8.756
471.73	9.527
472.08	9.737
472.43	8.606
472.78	9.217
473.13	9.564
473.48	9.051
473.83	8.659
474.17	8.774
474.52	8.747
474.87	9.515
475.22	8.938
475.57	8.436
475.92	7.594
476.27	8.455
476.61	8.274
476.96	8.521
477.31	8.163
477.66	8.260
478.01	8.468
478.36	9.043
478.70	7.996
479.05	8.360
479.40	7.728
479.75	8.541
480.10	8.002
480.45	8.234
480.79	7.597
481.14	8.708
481.49	8.401
481.84	7.819
482.19	7.996
482.53	8.440
482.88	8.143
483.23	8.224
483.58	8.872
483.92	8.060
484.27	7.102
484.62	8.190
484.97	7.726
485.31	7.432
485.66	6.809
486.01	6.098
486.36	6.171
486.70	6.589
487.05	6.676
487.40	6.691
487.75	7.229
488.09	7.340
488.44	7.605
488.79	8.535
489.13	8.136
489.48	7.912
489.83	8.028
490.17	7.672
490.52	7.573
490.87	7.779
491.22	7.913
491.56	7.790
491.91	8.329
492.26	7.947
492.60	8.525
492.95	7.998
493.30	8.271
493.64	7.793
493.99	7.707
494.34	8.187
494.68	8.654
495.03	8.553
495.37	8.283
495.72	8.674
496.07	8.817
496.41	7.566
496.76	8.223
497.11	7.969
497.45	8.151
497.80	9.261
498.14	8.551
498.49	8.439
498.84	8.533
499.18	8.190
499.53	8.784
499.87	8.201
500.22	8.950
500.56	8.981
500.91	8.077
501.26	8.440
501.60	9.065
501.95	8.433
502.29	8.294
502.64	8.845
502.98	8.088
503.33	8.318
503.67	8.631
504.02	7.671
504.36	8.517
504.71	9.038
505.06	8.627
505.40	8.994
505.75	8.438
506.09	9.086
506.44	8.387
506.78	8.329
507.13	8.279
507.47	8.788
507.82	9.068
508.16	9.169
508.51	8.676
508.85	8.143
509.19	8.724
509.54	8.571
509.88	9.067
510.23	8.946
510.57	9.340
510.92	9.477
511.26	8.582
511.61	9.544
511.95	8.612
512.30	8.431
512.64	9.081
512.98	9.003
513.33	9.475
513.67	9.232
514.02	8.929
514.36	9.558
514.70	9.463
515.05	8.589
515.39	9.310
515.74	9.628
516.08	9.335
516.42	9.878
516.77	8.863
517.11	8.935
517.46	9.481
517.80	9.466
518.14	8.859
518.49	9.102
518.83	9.261
519.17	9.584
519.52	9.508
519.86	9.698
520.20	9.769
520.55	9.874
520.89	10.036
521.23	9.831
521.58	9.304
521.92	10.288
522.26	8.969
522.61	9.097
522.95	9.945
523.29	9.799
523.64	9.939
523.98	8.872
524.32	9.831
524.66	10.283
525.01	10.355
525.35	9.913
525.69	10.037
526.04	9.969
526.38	10.250
526.72	10.613
527.06	10.421
527.41	9.901
527.75	9.968
528.09	10.083
528.43	9.943
528.78	10.264
529.12	9.212
529.46	10.472
529.80	9.839
530.15	10.218
530.49	9.723
530.83	10.253
531.17	10.640
531.51	11.025
531.86	10.129
532.20	10.691
532.54	10.698
532.88	10.719
533.22	10.493
533.57	10.432
533.91	9.633
534.25	10.632
534.59	10.250
534.93	10.589
535.27	10.803
535.62	11.050
535.96	11.237
536.30	10.426
536.64	10.947
536.98	10.816
537.32	9.875
537.66	9.733
538.01	10.665
538.35	10.666
538.69	11.040
539.03	10.071
539.37	9.968
539.71	9.721
540.05	10.458
540.39	10.033
540.73	10.026
541.07	10.707
541.42	10.568
541.76	11.677
542.10	10.802
542.44	10.464
542.78	10.935
543.12	10.493
543.46	11.213
543.80	11.061
544.14	10.398
544.48	11.238
544.82	10.455
545.16	11.516
545.50	10.411
545.84	10.484
546.18	10.774
546.52	11.287
546.86	10.859
547.20	11.733
547.54	10.955
547.88	12.691
548.22	10.897
548.56	10.440
548.90	10.371
549.24	9.832
549.58	11.392
549.92	11.058
550.26	10.085
550.60	11.065
550.94	10.563
551.28	10.241
551.62	12.221
551.96	10.456
552.30	11.126
552.64	11.765
552.98	11.119
553.32	11.126
553.66	11.588
554.00	11.668
554.34	10.628
554.68	11.946
555.02	11.072
555.36	11.969
555.69	10.961
556.03	10.767
556.37	10.982
556.71	10.778
557.05	10.994
557.39	10.917
557.73	10.515
558.07	11.893
558.41	10.420
558.75	11.683
559.08	12.081
559.42	10.809
559.76	11.544
560.10	10.921
560.44	10.622
560.78	10.912
561.12	10.422
561.45	11.147
561.79	10.811
562.13	10.932
562.47	10.519
562.81	11.088
563.15	10.836
563.48	11.472
563.82	10.894
564.16	10.334
564.50	10.286
564.84	10.493
565.17	10.360
565.51	10.607
565.85	10.723
566.19	10.645
566.52	10.703
566.86	9.946
567.20	10.908
567.54	10.046
567.88	9.560
568.21	10.635
568.55	10.061
568.89	9.776
569.23	9.180
569.56	9.433
569.90	9.434
570.24	9.006
570.57	9.045
570.91	8.630
571.25	8.277
571.59	8.660
571.92	8.525
572.26	8.579
572.60	8.979
572.93	8.666
573.27	8.755
573.61	8.291
573.95	8.630
574.28	8.116
574.62	8.090
574.96	8.029
575.29	8.244
575.63	8.435
575.97	8.123
576.30	8.444
576.64	8.592
576.98	7.997
577.31	7.925
577.65	8.187
577.98	7.760
578.32	7.744
578.66	8.134
578.99	8.446
579.33	8.061
579.67	8.003
580.00	8.391
580.34	8.068
580.67	8.012
581.01	8.208
581.35	7.813
581.68	7.625
582.02	7.731
582.35	7.830
582.69	8.168
583.02	8.098
583.36	8.416
583.70	8.042
584.03	8.281
584.37	8.959
584.70	8.386
585.04	8.317
585.37	8.388
585.71	8.177
586.04	8.432
586.38	8.725
586.72	9.058
587.05	8.449
587.39	7.810
587.72	8.658
588.06	8.271
588.39	8.889
588.73	8.742
589.06	8.850
589.40	8.923
589.73	9.187
590.07	9.146
590.40	8.623
590.73	9.329
591.07	9.809
591.40	9.743
591.74	9.827
592.07	9.599
592.41	9.301
592.74	8.764
593.08	8.694
593.41	8.763
593.75	8.932
594.08	8.515
594.41	8.696
594.75	8.762
595.08	8.697
595.42	9.072
595.75	9.259
596.09	9.839
596.42	9.627
596.75	9.160
597.09	10.173
597.42	8.769
597.75	9.659
598.09	9.696
598.42	9.278
598.76	8.593
599.09	8.666
599.42	8.879
599.76	8.931
600.09	8.816
600.42	8.766
600.76	8.393
601.09	8.561
601.42	8.714
601.76	8.994
602.09	8.933
602.42	9.275
602.76	9.633
603.09	9.205
603.42	9.215
603.76	9.108
604.09	9.345
604.42	8.724
604.76	9.447
605.09	9.218
605.42	9.448
605.75	9.189
606.09	8.581
606.42	8.868
606.75	9.125
607.09	9.125
607.42	9.157
607.75	8.481
608.08	9.032
608.42	9.592
608.75	9.378
609.08	9.112
609.41	9.281
609.75	9.385
610.08	9.708
610.41	9.218
610.74	8.893
611.07	9.140
611.41	9.470
611.74	10.055
612.07	9.834
612.40	10.178
612.73	9.737
613.07	10.022
613.40	9.689
613.73	8.862
614.06	9.462
614.39	9.701
614.72	9.158
615.06	9.979
615.39	9.130
615.72	9.202
616.05	9.516
616.38	9.783
616.71	10.511
617.05	9.953
617.38	9.982
617.71	9.970
618.04	10.938
618.37	10.171
618.70	10.268
619.03	11.184
619.36	10.455
619.69	10.493
620.03	10.714
620.36	10.495
620.69	11.712
621.02	11.726
621.35	10.728
621.68	10.047
622.01	11.455
622.34	11.195
622.67	10.418
623.00	10.345
623.33	10.650
623.66	10.936
623.99	10.383
624.32	10.200
624.65	10.381
624.99	9.278
625.32	9.703
625.65	11.645
625.98	11.145
626.31	11.742
626.64	11.102
626.97	11.139
627.30	11.804
627.63	11.239
627.96	10.681
628.29	12.248
628.62	12.077
628.95	13.868
629.28	10.949
629.61	11.824
629.94	12.381
630.26	11.439
630.59	10.867
630.92	11.207
631.25	11.056
631.58	11.712
631.91	10.953
632.24	10.865
632.57	12.382
632.90	10.197
633.23	12.975
633.56	13.107
633.89	12.231
634.22	13.394
634.55	12.663
634.88	12.695
635.20	13.142
635.53	14.217
635.86	12.376
636.19	12.824
636.52	11.880
636.85	11.798
637.18	13.134
637.51	13.239
637.83	11.344
638.16	13.427
638.49	13.476
638.82	13.906
639.15	13.750
639.48	13.466
639.81	14.075
640.13	13.281
640.46	14.631
640.79	15.324
641.12	12.242
641.45	13.268
641.77	13.844
642.10	13.889
642.43	12.763
642.76	13.932
643.09	14.417
643.41	15.478
643.74	16.204
644.07	13.720
644.40	16.718
644.73	15.906
645.05	16.957
645.38	13.586
645.71	15.620
646.04	13.787
646.36	17.195
646.69	17.224
