SpectraSuite Data File
++++++++++++++++++++++++++++++++++++
Date: Wed May 13 19:45:03 PDT 2015
User: schluterlab
Dark Spectrum Present: Yes
Reference Spectrum Present: Yes
Number of Sampled Component Spectra: 1
Spectrometers: USB2E3373
Integration Time (usec): 3000 (USB2E3373)
Spectra Averaged: 3 (USB2E3373)
Boxcar Smoothing: 0 (USB2E3373)
Correct for Electrical Dark: No (USB2E3373)
Strobe/Lamp Enabled: No (USB2E3373)
Correct for Detector Non-linearity: No (USB2E3373)
Correct for Stray Light: No (USB2E3373)
Number of Pixels in Processed Spectrum: 2048
>>>>>Begin Processed Spectral Data<<<<<
178.53	0.000
178.91	-1350.000
179.29	-1075.000
179.67	-250.000
180.04	-1275.000
180.42	2550.000
180.80	1060.000
181.18	-1375.000
181.56	700.000
181.94	0.000
182.31	-757.143
182.69	1600.000
183.07	-625.000
183.45	-566.667
183.83	527.273
184.20	-500.000
184.58	2300.000
184.96	5800.000
185.34	-840.000
185.72	-512.500
186.09	-2350.000
186.47	2500.000
186.85	2450.000
187.23	5700.000
187.61	-1866.667
187.98	1550.000
188.36	563.636
188.74	554.545
189.12	-980.000
189.49	550.000
189.87	-5400.000
190.25	-1250.000
190.63	457.143
191.00	376.923
191.38	783.333
191.76	-1125.000
192.14	1475.000
192.51	750.000
192.89	866.667
193.27	500.000
193.65	-950.000
194.02	450.000
194.40	1100.000
194.78	480.000
195.15	541.667
195.53	670.000
195.91	-2150.000
196.29	443.750
196.66	363.158
197.04	-470.000
197.42	0.000
197.79	720.000
198.17	-5400.000
198.55	657.143
198.92	687.500
199.30	940.000
199.68	0.000
200.05	350.000
200.43	871.429
200.81	4500.000
201.18	1633.333
201.56	-1833.333
201.94	644.444
202.31	533.333
202.69	433.333
203.07	620.000
203.44	0.000
203.82	1400.000
204.19	828.571
204.57	435.714
204.95	675.000
205.32	1700.000
205.70	600.000
206.08	364.286
206.45	2600.000
206.83	331.250
207.20	900.000
207.58	760.000
207.96	294.444
208.33	700.000
208.71	-816.667
209.08	728.571
209.46	533.333
209.84	463.636
210.21	-1333.333
210.59	1325.000
210.96	-562.500
211.34	2600.000
211.71	630.000
212.09	800.000
212.46	0.000
212.84	1700.000
213.22	1375.000
213.59	-4500.000
213.97	966.667
214.34	885.714
214.72	618.182
215.09	1020.000
215.47	-2250.000
215.84	-2750.000
216.22	1833.333
216.59	442.857
216.97	1250.000
217.34	409.091
217.72	-750.000
218.09	0.000
218.47	-5900.000
218.84	588.889
219.22	728.571
219.59	1466.667
219.97	-657.143
220.34	1060.000
220.72	-2033.333
221.09	414.286
221.47	1425.000
221.84	-1033.333
222.22	0.000
222.59	1500.000
222.97	-2250.000
223.34	1300.000
223.72	446.154
224.09	1000.000
224.46	2200.000
224.84	-3500.000
225.21	-1100.000
225.59	-4700.000
225.96	660.000
226.34	315.000
226.71	3350.000
227.08	600.000
227.46	520.000
227.83	-1225.000
228.21	-2050.000
228.58	600.000
228.95	-2150.000
229.33	-1700.000
229.70	1766.667
230.08	642.857
230.45	-820.000
230.82	433.333
231.20	866.667
231.57	714.286
231.95	525.000
232.32	240.909
232.69	381.818
233.07	671.429
233.44	369.231
233.81	-1633.333
234.19	305.263
234.56	433.333
234.93	450.000
235.31	418.182
235.68	338.462
236.05	407.143
236.43	160.606
236.80	236.842
237.17	5000.000
237.55	209.524
237.92	210.714
238.29	242.857
238.67	177.419
239.04	172.414
239.41	166.667
239.79	108.696
240.16	126.190
240.53	134.091
240.91	84.314
241.28	100.000
241.65	100.000
242.02	89.855
242.40	80.645
242.77	78.333
243.14	68.817
243.51	84.270
243.89	54.118
244.26	57.778
244.63	58.065
245.00	50.000
245.38	58.416
245.75	45.794
246.12	45.872
246.49	51.095
246.87	50.400
247.24	46.923
247.61	40.714
247.98	45.098
248.36	31.757
248.73	35.032
249.10	43.949
249.47	30.508
249.84	41.176
250.22	34.225
250.59	34.911
250.96	36.364
251.33	32.227
251.70	35.644
252.08	31.905
252.45	31.390
252.82	26.957
253.19	31.064
253.56	25.490
253.94	28.216
254.31	30.078
254.68	28.462
255.05	29.889
255.42	23.577
255.79	25.368
256.16	28.520
256.54	24.382
256.91	24.199
257.28	17.986
257.65	25.413
258.02	24.845
258.39	21.136
258.76	21.070
259.14	23.512
259.51	20.973
259.88	20.186
260.25	17.825
260.62	22.832
260.99	21.739
261.36	22.823
261.73	21.490
262.10	18.605
262.47	20.282
262.85	22.841
263.22	16.809
263.59	24.217
263.96	17.582
264.33	20.888
264.70	20.789
265.07	22.251
265.44	21.465
265.81	17.518
266.18	18.844
266.55	20.732
266.92	20.639
267.29	20.602
267.66	18.349
268.03	19.318
268.40	18.692
268.77	16.945
269.14	19.820
269.51	19.187
269.88	20.746
270.25	16.027
270.62	17.079
270.99	20.215
271.36	18.455
271.73	16.589
272.10	16.304
272.47	17.849
272.84	17.316
273.21	17.400
273.58	16.157
273.95	17.191
274.32	17.562
274.69	17.131
275.06	17.323
275.43	18.511
275.80	17.836
276.17	16.497
276.54	17.672
276.91	16.206
277.28	14.258
277.65	17.215
278.02	14.700
278.39	17.187
278.76	16.727
279.13	17.170
279.50	15.829
279.87	14.542
280.23	16.766
280.60	15.861
280.97	17.006
281.34	14.690
281.71	16.909
282.08	17.466
282.45	16.000
282.82	14.210
283.19	15.330
283.56	14.737
283.92	16.751
284.29	16.049
284.66	15.245
285.03	14.105
285.40	13.908
285.77	15.488
286.14	14.335
286.51	14.667
286.87	14.188
287.24	14.332
287.61	13.965
287.98	15.097
288.35	15.848
288.72	14.953
289.08	15.180
289.45	14.003
289.82	15.447
290.19	14.914
290.56	13.323
290.93	13.142
291.29	14.571
291.66	14.012
292.03	14.244
292.40	15.125
292.77	11.391
293.13	13.582
293.50	14.140
293.87	12.148
294.24	12.444
294.60	11.645
294.97	12.500
295.34	14.810
295.71	13.068
296.08	12.536
296.44	11.967
296.81	11.096
297.18	13.008
297.55	10.026
297.91	11.873
298.28	11.245
298.65	12.663
299.02	11.726
299.38	11.155
299.75	11.051
300.12	11.750
300.48	11.625
300.85	11.467
301.22	10.064
301.59	11.490
301.95	11.839
302.32	11.168
302.69	13.262
303.05	11.879
303.42	11.358
303.79	11.552
304.15	11.072
304.52	11.008
304.89	11.266
305.25	11.369
305.62	11.778
305.99	11.924
306.35	10.179
306.72	10.987
307.09	11.099
307.45	12.050
307.82	10.268
308.19	11.479
308.55	11.435
308.92	11.278
309.29	10.665
309.65	10.074
310.02	11.416
310.38	11.398
310.75	10.032
311.12	11.771
311.48	12.121
311.85	12.159
312.22	11.759
312.58	10.915
312.95	12.038
313.31	11.165
313.68	12.682
314.05	14.004
314.41	12.864
314.78	13.092
315.14	12.810
315.51	12.770
315.87	13.465
316.24	14.002
316.61	13.353
316.97	14.286
317.34	13.503
317.70	15.296
318.07	14.918
318.43	15.558
318.80	15.745
319.16	14.878
319.53	15.572
319.89	16.857
320.26	17.700
320.62	17.560
320.99	17.273
321.35	17.475
321.72	19.507
322.08	19.348
322.45	19.403
322.81	19.186
323.18	20.906
323.54	20.872
323.91	20.660
324.27	21.702
324.64	20.130
325.00	19.657
325.37	21.474
325.73	22.531
326.10	23.301
326.46	22.133
326.83	24.763
327.19	23.484
327.56	23.606
327.92	23.185
328.29	24.845
328.65	26.059
329.01	26.625
329.38	25.439
329.74	26.131
330.11	27.427
330.47	26.171
330.84	26.930
331.20	26.776
331.56	26.606
331.93	26.944
332.29	26.886
332.66	27.699
333.02	25.594
333.38	28.184
333.75	27.184
334.11	27.313
334.48	27.684
334.84	28.309
335.20	27.818
335.57	27.017
335.93	27.143
336.29	26.832
336.66	28.494
337.02	27.602
337.38	28.148
337.75	27.629
338.11	27.753
338.47	27.901
338.84	28.048
339.20	27.339
339.56	29.015
339.93	27.455
340.29	28.170
340.65	27.629
341.02	27.138
341.38	28.470
341.74	27.193
342.11	28.384
342.47	27.048
342.83	27.654
343.20	27.965
343.56	28.644
343.92	27.895
344.28	28.231
344.65	28.633
345.01	28.367
345.37	27.616
345.73	27.665
346.10	28.303
346.46	27.373
346.82	29.077
347.19	26.817
347.55	27.586
347.91	28.398
348.27	29.581
348.63	29.097
349.00	27.508
349.36	27.504
349.72	28.148
350.08	26.742
350.45	28.804
350.81	27.539
351.17	28.363
351.53	28.829
351.89	27.888
352.26	28.335
352.62	28.308
352.98	28.606
353.34	28.595
353.70	28.887
354.07	27.823
354.43	27.778
354.79	26.951
355.15	28.651
355.51	29.576
355.87	28.980
356.24	28.502
356.60	27.426
356.96	29.123
357.32	28.209
357.68	28.976
358.04	28.662
358.40	28.187
358.77	29.343
359.13	29.045
359.49	29.333
359.85	26.667
360.21	28.389
360.57	29.805
360.93	29.000
361.29	28.118
361.66	26.703
362.02	29.552
362.38	29.354
362.74	29.911
363.10	28.053
363.46	29.054
363.82	29.101
364.18	29.515
364.54	30.238
364.90	28.895
365.26	29.412
365.62	29.072
365.98	29.145
366.35	29.728
366.71	30.369
367.07	29.497
367.43	30.116
367.79	30.050
368.15	30.891
368.51	28.997
368.87	30.407
369.23	29.773
369.59	30.340
369.95	29.485
370.31	30.413
370.67	29.638
371.03	32.135
371.39	31.706
371.75	31.765
372.11	30.156
372.47	31.818
372.83	31.916
373.19	30.202
373.55	30.820
373.91	32.327
374.27	32.096
374.63	31.200
374.99	32.486
375.35	31.752
375.71	31.666
376.07	32.236
376.42	31.568
376.78	31.809
377.14	32.632
377.50	32.914
377.86	31.383
378.22	31.353
378.58	30.702
378.94	32.055
379.30	31.934
379.66	33.249
380.02	32.310
380.38	31.694
380.74	32.953
381.09	33.985
381.45	33.620
381.81	33.170
382.17	34.076
382.53	32.767
382.89	34.815
383.25	34.209
383.61	34.263
383.97	34.334
384.32	33.500
384.68	34.263
385.04	33.620
385.40	33.932
385.76	34.767
386.12	35.363
386.48	35.179
386.83	35.728
387.19	34.818
387.55	35.374
387.91	34.401
388.27	35.316
388.62	35.526
388.98	36.425
389.34	36.671
389.70	36.481
390.06	36.058
390.42	36.381
390.77	36.323
391.13	36.503
391.49	37.817
391.85	37.365
392.20	35.899
392.56	37.437
392.92	38.081
393.28	36.864
393.64	38.189
393.99	37.141
394.35	37.903
394.71	39.084
395.07	37.321
395.42	39.308
395.78	39.249
396.14	39.106
396.50	39.850
396.85	40.051
397.21	38.656
397.57	38.748
397.92	39.303
398.28	38.341
398.64	39.606
399.00	39.619
399.35	39.707
399.71	39.641
400.07	39.858
400.42	41.043
400.78	40.048
401.14	41.341
401.49	42.030
401.85	41.198
402.21	40.419
402.57	41.456
402.92	41.551
403.28	42.286
403.63	42.265
403.99	41.975
404.35	42.182
404.70	42.266
405.06	42.516
405.42	43.231
405.77	41.886
406.13	42.551
406.49	43.465
406.84	43.178
407.20	42.849
407.55	43.906
407.91	44.600
408.27	44.990
408.62	44.070
408.98	45.159
409.34	44.465
409.69	45.871
410.05	45.477
410.40	44.404
410.76	44.982
411.11	45.296
411.47	46.518
411.83	45.754
412.18	46.073
412.54	46.638
412.89	47.048
413.25	46.812
413.60	46.881
413.96	46.448
414.31	48.177
414.67	48.923
415.03	47.351
415.38	48.260
415.74	48.424
416.09	49.771
416.45	49.665
416.80	49.504
417.16	49.196
417.51	49.701
417.87	48.812
418.22	49.716
418.58	50.742
418.93	50.307
419.29	50.477
419.64	51.134
420.00	50.854
420.35	49.797
420.71	51.285
421.06	50.239
421.42	50.468
421.77	51.177
422.12	50.983
422.48	51.700
422.83	52.825
423.19	51.105
423.54	52.002
423.90	51.652
424.25	51.424
424.61	51.964
424.96	53.353
425.31	53.322
425.67	51.798
426.02	53.257
426.38	53.968
426.73	53.540
427.09	52.523
427.44	53.076
427.79	53.364
428.15	54.048
428.50	52.955
428.85	55.542
429.21	53.451
429.56	53.292
429.92	53.850
430.27	54.071
430.62	53.303
430.98	54.177
431.33	53.814
431.68	53.351
432.04	53.514
432.39	54.940
432.74	54.279
433.10	54.952
433.45	55.743
433.80	55.820
434.16	54.647
434.51	55.053
434.86	54.504
435.22	56.142
435.57	56.231
435.92	55.705
436.28	56.465
436.63	57.064
436.98	55.695
437.34	57.782
437.69	56.126
438.04	56.886
438.39	57.373
438.75	57.467
439.10	57.430
439.45	57.497
439.81	57.764
440.16	56.465
440.51	56.473
440.86	58.193
441.22	56.785
441.57	57.113
441.92	57.472
442.27	57.804
442.63	56.925
442.98	58.873
443.33	56.467
443.68	57.563
444.03	57.052
444.39	56.816
444.74	58.442
445.09	57.790
445.44	57.900
445.79	57.249
446.15	56.644
446.50	56.812
446.85	58.479
447.20	56.757
447.55	59.129
447.91	59.239
448.26	57.707
448.61	59.186
448.96	58.084
449.31	58.099
449.66	57.963
450.02	58.273
450.37	57.880
450.72	58.263
451.07	58.135
451.42	57.508
451.77	59.190
452.12	58.025
452.47	59.453
452.83	59.732
453.18	58.802
453.53	60.977
453.88	59.835
454.23	59.653
454.58	59.176
454.93	60.140
455.28	59.601
455.63	59.466
455.98	61.310
456.34	59.925
456.69	59.674
457.04	60.681
457.39	58.971
457.74	58.561
458.09	59.574
458.44	59.179
458.79	59.653
459.14	60.384
459.49	58.144
459.84	58.393
460.19	57.985
460.54	57.350
460.89	60.395
461.24	59.138
461.59	59.849
461.94	59.125
462.29	61.009
462.64	59.221
462.99	59.011
463.34	60.200
463.69	59.787
464.04	59.304
464.39	58.551
464.74	59.239
465.09	59.469
465.44	57.784
465.79	58.166
466.14	58.292
466.49	59.010
466.84	59.895
467.19	59.203
467.54	59.937
467.89	58.764
468.24	59.511
468.59	61.111
468.94	57.911
469.29	59.576
469.64	60.442
469.99	60.893
470.34	60.172
470.68	61.063
471.03	60.136
471.38	62.752
471.73	61.825
472.08	62.105
472.43	60.302
472.78	61.027
473.13	59.692
473.48	61.236
473.83	59.817
474.17	58.867
474.52	60.546
474.87	59.895
475.22	60.766
475.57	59.162
475.92	59.267
476.27	58.174
476.61	60.618
476.96	59.593
477.31	58.974
477.66	59.683
478.01	59.017
478.36	60.391
478.70	58.619
479.05	60.490
479.40	59.621
479.75	59.939
480.10	59.394
480.45	58.115
480.79	58.098
481.14	59.736
481.49	59.658
481.84	58.802
482.19	59.246
482.53	58.303
482.88	59.376
483.23	59.346
483.58	58.644
483.92	59.841
484.27	57.342
484.62	58.621
484.97	58.415
485.31	58.904
485.66	56.244
486.01	55.380
486.36	53.271
486.70	53.459
487.05	53.992
487.40	55.567
487.75	55.668
488.09	56.021
488.44	56.371
488.79	58.047
489.13	57.219
489.48	58.524
489.83	58.610
490.17	59.535
490.52	59.477
490.87	58.797
491.22	58.799
491.56	58.907
491.91	59.981
492.26	59.486
492.60	58.986
492.95	59.074
493.30	59.299
493.64	60.569
493.99	58.682
494.34	59.389
494.68	60.531
495.03	59.680
495.37	60.168
495.72	59.649
496.07	59.814
496.41	58.053
496.76	59.147
497.11	58.847
497.45	60.224
497.80	60.365
498.14	59.179
498.49	59.122
498.84	60.403
499.18	58.476
499.53	58.642
499.87	59.320
500.22	59.114
500.56	61.117
500.91	59.663
501.26	58.464
501.60	60.228
501.95	59.487
502.29	59.653
502.64	59.823
502.98	59.420
503.33	57.770
503.67	59.397
504.02	59.214
504.36	59.803
504.71	59.502
505.06	60.627
505.40	59.358
505.75	58.968
506.09	59.427
506.44	61.125
506.78	60.010
507.13	61.686
507.47	59.899
507.82	60.638
508.16	60.588
508.51	60.528
508.85	59.384
509.19	61.276
509.54	60.102
509.88	61.257
510.23	59.897
510.57	62.332
510.92	60.901
511.26	59.455
511.61	60.840
511.95	59.864
512.30	60.127
512.64	61.204
512.98	62.272
513.33	62.259
513.67	60.085
514.02	60.552
514.36	62.370
514.70	62.203
515.05	62.632
515.39	61.862
515.74	62.500
516.08	62.884
516.42	61.432
516.77	62.486
517.11	61.987
517.46	62.302
517.80	63.763
518.14	61.494
518.49	63.711
518.83	62.784
519.17	63.395
519.52	62.818
519.86	61.323
520.20	62.543
520.55	64.512
520.89	63.625
521.23	64.415
521.58	63.385
521.92	63.686
522.26	61.684
522.61	64.237
522.95	64.088
523.29	64.090
523.64	63.476
523.98	64.202
524.32	63.088
524.66	63.560
525.01	62.929
525.35	63.011
525.69	63.424
526.04	64.237
526.38	63.636
526.72	63.129
527.06	65.223
527.41	62.748
527.75	63.859
528.09	66.024
528.43	64.245
528.78	63.553
529.12	62.970
529.46	64.483
529.80	64.913
530.15	63.427
530.49	62.708
530.83	64.620
531.17	66.319
531.51	65.175
531.86	64.903
532.20	65.385
532.54	64.510
532.88	65.212
533.22	64.647
533.57	63.272
533.91	63.937
534.25	62.697
534.59	63.575
534.93	63.236
535.27	62.945
535.62	63.065
535.96	63.340
536.30	64.272
536.64	65.615
536.98	65.428
537.32	64.055
537.66	64.400
538.01	64.055
538.35	63.478
538.69	65.348
539.03	63.353
539.37	63.195
539.71	63.513
540.05	64.837
540.39	64.651
540.73	64.424
541.07	66.126
541.42	65.819
541.76	63.742
542.10	64.360
542.44	65.894
542.78	65.679
543.12	63.212
543.46	65.180
543.80	64.671
544.14	63.864
544.48	65.270
544.82	63.695
545.16	63.565
545.50	63.689
545.84	63.642
546.18	65.118
546.52	64.969
546.86	66.392
547.20	64.801
547.54	64.529
547.88	64.987
548.22	62.453
548.56	62.956
548.90	63.828
549.24	64.781
549.58	65.348
549.92	65.041
550.26	66.761
550.60	65.560
550.94	65.845
551.28	66.203
551.62	65.852
551.96	64.772
552.30	66.826
552.64	64.165
552.98	64.203
553.32	65.745
553.66	64.554
554.00	65.889
554.34	63.699
554.68	66.237
555.02	64.669
555.36	64.440
555.69	63.194
556.03	65.343
556.37	65.075
556.71	63.097
557.05	64.636
557.39	64.381
557.73	64.926
558.07	65.772
558.41	65.412
558.75	65.393
559.08	65.697
559.42	66.667
559.76	66.250
560.10	64.954
560.44	66.108
560.78	64.870
561.12	65.172
561.45	63.885
561.79	64.865
562.13	64.588
562.47	65.710
562.81	64.923
563.15	63.411
563.48	64.390
563.82	63.731
564.16	62.982
564.50	62.305
564.84	63.843
565.17	62.677
565.51	63.450
565.85	62.563
566.19	62.555
566.52	63.965
566.86	62.508
567.20	62.441
567.54	62.900
567.88	61.488
568.21	61.005
568.55	61.173
568.89	61.138
569.23	58.422
569.56	58.097
569.90	57.057
570.24	56.799
570.57	56.137
570.91	55.171
571.25	55.960
571.59	55.287
571.92	55.213
572.26	54.882
572.60	55.345
572.93	55.262
573.27	55.250
573.61	55.528
573.95	54.625
574.28	54.221
574.62	54.397
574.96	53.787
575.29	53.492
575.63	53.354
575.97	53.345
576.30	54.063
576.64	53.955
576.98	53.670
577.31	53.304
577.65	52.682
577.98	52.996
578.32	52.681
578.66	53.040
578.99	53.161
579.33	52.917
579.67	52.615
580.00	53.105
580.34	53.465
580.67	52.423
581.01	52.845
581.35	52.383
581.68	52.018
582.02	51.513
582.35	51.863
582.69	52.265
583.02	51.936
583.36	53.470
583.70	52.947
584.03	53.631
584.37	53.333
584.70	53.370
585.04	52.226
585.37	52.260
585.71	52.491
586.04	52.573
586.38	54.284
586.72	52.969
587.05	53.002
587.39	52.744
587.72	52.976
588.06	53.175
588.39	53.388
588.73	53.359
589.06	54.222
589.40	54.613
589.73	54.910
590.07	55.125
590.40	55.133
590.73	55.933
591.07	55.840
591.40	57.402
591.74	56.234
592.07	55.541
592.41	55.643
592.74	54.007
593.08	54.264
593.41	53.527
593.75	53.186
594.08	53.000
594.41	54.118
594.75	54.159
595.08	53.185
595.42	53.765
595.75	54.879
596.09	54.825
596.42	54.892
596.75	55.424
597.09	55.758
597.42	53.499
597.75	54.765
598.09	54.652
598.42	54.768
598.76	54.033
599.09	53.858
599.42	52.620
599.76	52.782
600.09	52.532
600.42	53.068
600.76	52.893
601.09	52.459
601.42	53.767
601.76	53.055
602.09	53.676
602.42	54.299
602.76	53.930
603.09	53.462
603.42	53.651
603.76	53.011
604.09	53.819
604.42	53.934
604.76	54.323
605.09	53.779
605.42	52.843
605.75	53.767
606.09	52.948
606.42	53.903
606.75	52.966
607.09	53.077
607.42	54.129
607.75	52.532
608.08	53.495
608.42	54.460
608.75	53.111
609.08	53.747
609.41	53.832
609.75	54.169
610.08	53.676
610.41	53.492
610.74	54.494
611.07	53.755
611.41	53.091
611.74	55.053
612.07	54.969
612.40	54.879
612.73	55.579
613.07	55.119
613.40	54.766
613.73	54.274
614.06	55.000
614.39	53.749
614.72	54.211
615.06	53.729
615.39	54.777
615.72	53.016
616.05	53.535
616.38	53.530
616.71	56.413
617.05	56.596
617.38	56.645
617.71	56.036
618.04	56.010
618.37	54.524
618.70	56.129
619.03	56.711
619.36	55.669
619.69	57.817
620.03	58.310
620.36	56.952
620.69	57.466
621.02	58.776
621.35	57.557
621.68	58.100
622.01	58.282
622.34	57.867
622.67	58.023
623.00	56.787
623.33	56.612
623.66	57.613
623.99	57.953
624.32	57.561
624.65	56.638
624.99	56.516
625.32	58.364
625.65	58.527
625.98	57.494
626.31	57.154
626.64	59.184
626.97	59.102
627.30	58.853
627.63	59.147
627.96	59.798
628.29	59.230
628.62	60.293
628.95	61.415
629.28	61.131
629.61	60.770
629.94	61.048
630.26	59.485
630.59	58.818
630.92	58.333
