SpectraSuite Data File
++++++++++++++++++++++++++++++++++++
Date: Tue May 12 19:35:11 PDT 2015
User: schluterlab
Dark Spectrum Present: Yes
Reference Spectrum Present: Yes
Number of Sampled Component Spectra: 1
Spectrometers: USB2E3373
Integration Time (usec): 3000 (USB2E3373)
Spectra Averaged: 3 (USB2E3373)
Boxcar Smoothing: 0 (USB2E3373)
Correct for Electrical Dark: No (USB2E3373)
Strobe/Lamp Enabled: No (USB2E3373)
Correct for Detector Non-linearity: No (USB2E3373)
Correct for Stray Light: No (USB2E3373)
Number of Pixels in Processed Spectrum: 2048
>>>>>Begin Processed Spectral Data<<<<<
178.53	0.000
178.91	10.000
179.29	-50.000
179.67	66.667
180.04	0.000
180.42	40.000
180.80	-400.000
181.18	700.000
181.56	50.000
181.94	183.333
182.31	-200.000
182.69	-57.143
183.07	0.000
183.45	150.000
183.83	20.000
184.20	100.000
184.58	700.000
184.96	216.667
185.34	133.333
185.72	-50.000
186.09	-16.667
186.47	-700.000
186.85	-40.000
187.23	191.667
187.61	28.571
187.98	-180.000
188.36	250.000
188.74	150.000
189.12	22.222
189.49	-110.000
189.87	150.000
190.25	66.667
190.63	233.333
191.00	200.000
191.38	-100.000
191.76	220.000
192.14	14.286
192.51	-50.000
192.89	-220.000
193.27	-20.000
193.65	-333.333
194.02	-83.333
194.40	100.000
194.78	-50.000
195.15	-157.143
195.53	200.000
195.91	120.000
196.29	-275.000
196.66	33.333
197.04	-171.429
197.42	180.000
197.79	-300.000
198.17	25.000
198.55	0.000
198.92	-55.556
199.30	550.000
199.68	25.000
200.05	-500.000
200.43	38.889
200.81	-100.000
201.18	233.333
201.56	0.000
201.94	-100.000
202.31	-8.333
202.69	122.222
203.07	-25.000
203.44	-150.000
203.82	0.000
204.19	287.500
204.57	-300.000
204.95	136.364
205.32	280.000
205.70	300.000
206.08	-500.000
206.45	-20.000
206.83	1300.000
207.20	-44.444
207.58	46.154
207.96	400.000
208.33	633.333
208.71	400.000
209.08	600.000
209.46	88.889
209.84	466.667
210.21	0.000
210.59	300.000
210.96	144.444
211.34	-450.000
211.71	650.000
212.09	-220.000
212.46	-62.500
212.84	-125.000
213.22	-42.857
213.59	-12.500
213.97	0.000
214.34	-250.000
214.72	-700.000
215.09	400.000
215.47	6.667
215.84	-12.500
216.22	-400.000
216.59	800.000
216.97	33.333
217.34	50.000
217.72	11.111
218.09	125.000
218.47	0.000
218.84	-162.500
219.22	-28.571
219.59	10.000
219.97	-70.000
220.34	133.333
220.72	36.364
221.09	-150.000
221.47	0.000
221.84	250.000
222.22	50.000
222.59	-550.000
222.97	21.739
223.34	66.667
223.72	171.429
224.09	-66.667
224.46	92.308
224.84	13.333
225.21	-500.000
225.59	-125.000
225.96	35.000
226.34	233.333
226.71	180.000
227.08	-7.692
227.46	-71.429
227.83	0.000
228.21	-900.000
228.58	266.667
228.95	-26.316
229.33	50.000
229.70	-116.667
230.08	-100.000
230.45	-566.667
230.82	-1300.000
231.20	4.762
231.57	-100.000
231.95	-233.333
232.32	155.556
232.69	-700.000
233.07	43.750
233.44	-175.000
233.81	25.806
234.19	-20.000
234.56	-33.333
234.93	-116.667
235.31	33.333
235.68	-18.519
236.05	-38.462
236.43	0.000
236.80	-63.636
237.17	-100.000
237.55	-75.000
237.92	-4.651
238.29	3.226
238.67	7.143
239.04	-5.714
239.41	-7.843
239.79	2.000
240.16	-10.000
240.53	-10.345
240.91	-1.370
241.28	-12.676
241.65	-12.500
242.02	-3.509
242.40	-8.000
242.77	2.105
243.14	2.353
243.51	0.000
243.89	-16.190
244.26	1.852
244.63	1.020
245.00	-12.500
245.38	-16.807
245.75	0.847
246.12	3.125
246.49	-2.400
246.87	-6.557
247.24	-14.085
247.61	-4.636
247.98	-2.247
248.36	-8.176
248.73	-3.409
249.10	-3.889
249.47	-5.729
249.84	-5.584
250.22	-3.125
250.59	-10.112
250.96	-2.727
251.33	2.358
251.70	-2.294
252.08	-2.597
252.45	-4.082
252.82	-10.549
253.19	0.389
253.56	1.176
253.94	-5.285
254.31	3.957
254.68	-0.694
255.05	0.331
255.42	-6.182
255.79	0.662
256.16	-0.694
256.54	1.818
256.91	2.885
257.28	0.974
257.65	-4.918
258.02	-0.300
258.39	1.813
258.76	-2.446
259.14	-5.294
259.51	1.972
259.88	-2.017
260.25	-2.841
260.62	-1.124
260.99	-1.671
261.36	-2.299
261.73	0.267
262.10	0.000
262.47	0.275
262.85	1.542
263.22	-5.108
263.59	0.000
263.96	-1.828
264.33	-6.199
264.70	-1.229
265.07	-0.493
265.44	0.000
265.81	1.928
266.18	-2.108
266.55	-4.048
266.92	-0.446
267.29	-2.000
267.66	-1.136
268.03	0.215
268.40	-2.975
268.77	-1.782
269.14	-1.681
269.51	-1.810
269.88	-1.496
270.25	-2.743
270.62	0.210
270.99	-0.421
271.36	-2.649
271.73	-0.417
272.10	-0.622
272.47	0.400
272.84	-3.822
273.21	-2.505
273.58	-1.224
273.95	0.398
274.32	0.387
274.69	-0.587
275.06	-0.750
275.43	-3.400
275.80	-1.338
276.17	-3.360
276.54	1.331
276.91	0.000
277.28	-0.193
277.65	-2.079
278.02	-0.189
278.39	-0.181
278.76	0.745
279.13	0.537
279.50	0.181
279.87	-0.755
280.23	1.275
280.60	-1.590
280.97	-0.703
281.34	-1.186
281.71	0.533
282.08	-2.147
282.45	-2.469
282.82	-1.852
283.19	-1.515
283.56	1.536
283.92	0.790
284.29	-0.338
284.66	-2.301
285.03	-3.087
285.40	-0.833
285.77	0.328
286.14	0.317
286.51	-1.608
286.87	-0.648
287.24	-2.244
287.61	-1.235
287.98	-0.469
288.35	-1.395
288.72	0.306
289.08	-1.887
289.45	-0.936
289.82	-2.174
290.19	0.606
290.56	1.302
290.93	-0.591
291.29	-0.851
291.66	0.140
292.03	0.717
292.40	-2.014
292.77	-1.603
293.13	-1.028
293.50	0.000
293.87	-0.555
294.24	-0.140
294.60	0.546
294.97	-1.524
295.34	-0.959
295.71	-2.080
296.08	0.546
296.44	0.922
296.81	-2.070
297.18	-0.776
297.55	-1.256
297.91	-0.381
298.28	-0.384
298.65	-0.906
299.02	-0.740
299.38	-1.020
299.75	0.129
300.12	-0.120
300.48	-0.704
300.85	-1.956
301.22	1.202
301.59	-1.095
301.95	-0.366
302.32	-1.094
302.69	-1.427
303.05	-2.125
303.42	-1.087
303.79	-2.584
304.15	-0.453
304.52	-0.894
304.89	-1.466
305.25	-0.344
305.62	-0.455
305.99	-1.120
306.35	-1.454
306.72	0.000
307.09	-1.632
307.45	-0.324
307.82	-1.387
308.19	-0.440
308.55	0.105
308.92	-0.847
309.29	-0.418
309.65	-0.516
310.02	-0.629
310.38	-1.493
310.75	-1.025
311.12	-0.610
311.48	1.131
311.85	-1.520
312.22	-0.620
312.58	0.302
312.95	-0.616
313.31	-0.197
313.68	-1.490
314.05	1.291
314.41	-0.589
314.78	-1.809
315.14	-0.098
315.51	-0.099
315.87	0.195
316.24	-0.593
316.61	0.388
316.97	-0.588
317.34	0.096
317.70	0.000
318.07	-0.386
318.43	-0.662
318.80	0.091
319.16	-0.280
319.53	0.566
319.89	-0.379
320.26	-0.688
320.62	0.581
320.99	0.510
321.35	0.395
321.72	1.313
322.08	0.297
322.45	-0.493
322.81	1.379
323.18	0.288
323.54	0.379
323.91	-0.190
324.27	-0.193
324.64	-0.469
325.00	-0.637
325.37	1.349
325.73	-0.547
326.10	1.051
326.46	0.544
326.83	0.176
327.19	0.611
327.56	0.619
327.92	-0.347
328.29	0.806
328.65	0.377
329.01	-0.275
329.38	0.643
329.74	0.650
330.11	0.000
330.47	0.372
330.84	0.940
331.20	0.924
331.56	-0.283
331.93	-0.274
332.29	-0.648
332.66	0.814
333.02	1.114
333.38	0.368
333.75	0.549
334.11	0.904
334.48	-0.089
334.84	0.000
335.20	0.716
335.57	2.452
335.93	-0.372
336.29	-0.274
336.66	-0.364
337.02	0.725
337.38	-0.755
337.75	0.636
338.11	0.729
338.47	0.557
338.84	-0.276
339.20	2.200
339.56	0.000
339.93	0.811
340.29	0.635
340.65	1.005
341.02	0.177
341.38	1.942
341.74	1.690
342.11	0.973
342.47	0.350
342.83	-0.347
343.20	0.265
343.56	0.262
343.92	1.925
344.28	-0.172
344.65	0.171
345.01	-0.174
345.37	1.368
345.73	0.345
346.10	0.691
346.46	-0.173
346.82	0.340
347.19	0.168
347.55	0.935
347.91	0.328
348.27	0.253
348.63	-0.432
349.00	0.751
349.36	0.660
349.72	0.657
350.08	1.391
350.45	0.732
350.81	0.248
351.17	-0.082
351.53	1.047
351.89	-0.259
352.26	0.488
352.62	0.327
352.98	0.000
353.34	0.668
353.70	-0.412
354.07	1.071
354.43	-0.584
354.79	0.000
355.15	0.081
355.51	0.570
355.87	0.999
356.24	1.961
356.60	-0.334
356.96	0.395
357.32	0.988
357.68	0.318
358.04	-0.486
358.40	1.146
358.77	0.080
359.13	1.767
359.49	-0.800
359.85	0.480
360.21	0.555
360.57	0.159
360.93	1.346
361.29	0.000
361.66	0.315
362.02	-0.078
362.38	1.399
362.74	0.461
363.10	0.603
363.46	0.828
363.82	-0.383
364.18	0.681
364.54	0.382
364.90	0.593
365.26	1.043
365.62	0.227
365.98	1.199
366.35	0.303
366.71	1.344
367.07	1.328
367.43	0.650
367.79	-0.218
368.15	0.371
368.51	0.599
368.87	1.101
369.23	0.984
369.59	1.250
369.95	0.000
370.31	-0.152
370.67	0.075
371.03	0.851
371.39	0.378
371.75	0.371
372.11	0.963
372.47	0.520
372.83	0.804
373.19	0.828
373.55	0.599
373.91	0.455
374.27	1.545
374.63	0.147
374.99	0.220
375.35	0.073
375.71	0.359
376.07	1.060
376.42	0.207
376.78	-0.488
377.14	0.628
377.50	0.205
377.86	0.209
378.22	0.330
378.58	1.184
378.94	0.262
379.30	0.322
379.66	1.152
380.02	0.826
380.38	0.509
380.74	1.057
381.09	0.000
381.45	1.079
381.81	0.319
382.17	1.564
382.53	0.789
382.89	0.321
383.25	0.507
383.61	-0.127
383.97	0.325
384.32	1.032
384.68	0.702
385.04	-0.191
385.40	0.383
385.76	0.506
386.12	0.528
386.48	0.130
386.83	-0.066
387.19	0.511
387.55	0.194
387.91	-0.125
388.27	0.000
388.62	0.130
388.98	0.382
389.34	-0.260
389.70	-0.128
390.06	0.858
390.42	0.203
390.77	1.073
391.13	0.520
391.49	0.674
391.85	0.532
392.20	-0.198
392.56	-0.327
392.92	0.495
393.28	0.658
393.64	-0.253
393.99	-0.065
394.35	0.000
394.71	0.397
395.07	0.531
395.42	0.381
395.78	0.134
396.14	0.067
396.50	0.453
396.85	0.595
397.21	0.129
397.57	-0.329
397.92	0.127
398.28	0.719
398.64	0.127
399.00	0.580
399.35	0.352
399.71	0.419
400.07	0.371
400.42	1.154
400.78	0.704
401.14	0.568
401.49	0.874
401.85	0.063
402.21	1.396
402.57	-0.515
402.92	0.598
403.28	0.390
403.63	1.346
403.99	0.528
404.35	0.255
404.70	0.000
405.06	0.310
405.42	0.716
405.77	0.059
406.13	-0.179
406.49	-0.505
406.84	1.183
407.20	0.496
407.55	0.868
407.91	-0.140
408.27	0.066
408.62	0.000
408.98	0.837
409.34	0.960
409.69	0.067
410.05	0.518
410.40	-0.450
410.76	0.623
411.11	0.776
411.47	1.020
411.83	-0.064
412.18	0.065
412.54	0.388
412.89	0.324
413.25	0.627
413.60	0.510
413.96	0.065
414.31	-0.319
414.67	0.675
415.03	0.346
415.38	0.070
415.74	1.410
416.09	-0.345
416.45	0.212
416.80	-0.070
417.16	0.212
417.51	0.486
417.87	0.479
418.22	-0.334
418.58	-0.138
418.93	0.903
419.29	0.611
419.64	0.755
420.00	0.917
420.35	0.439
420.71	0.000
421.06	0.130
421.42	0.439
421.77	0.609
422.12	0.827
422.48	0.343
422.83	0.486
423.19	1.059
423.54	-0.061
423.90	0.062
424.25	0.544
424.61	0.387
424.96	1.106
425.31	0.483
425.67	0.242
426.02	0.683
426.38	-0.386
426.73	1.184
427.09	0.197
427.44	0.617
427.79	1.114
428.15	0.571
428.50	0.503
428.85	0.641
429.21	1.315
429.56	0.221
429.92	0.865
430.27	0.587
430.62	0.649
430.98	1.075
431.33	0.445
431.68	0.766
432.04	0.863
432.39	0.059
432.74	0.380
433.10	0.546
433.45	0.190
433.80	0.774
434.16	0.978
434.51	1.003
434.86	0.242
435.22	0.233
435.57	0.858
435.92	-0.248
436.28	0.436
436.63	0.775
436.98	0.185
437.34	1.024
437.69	0.000
438.04	0.180
438.39	0.587
438.75	0.615
439.10	1.071
439.45	0.899
439.81	0.508
440.16	0.309
440.51	0.558
440.86	0.442
441.22	0.476
441.57	1.140
441.92	0.387
442.27	1.371
442.63	0.564
442.98	0.795
443.33	1.234
443.68	0.444
444.03	0.619
444.39	0.208
444.74	0.515
445.09	0.177
445.44	0.292
445.79	0.593
446.15	0.350
446.50	1.215
446.85	1.045
447.20	0.328
447.55	0.756
447.91	0.882
448.26	1.246
448.61	0.181
448.96	1.064
449.31	0.301
449.66	0.545
450.02	0.651
450.37	1.033
450.72	-0.239
451.07	0.066
451.42	1.449
451.77	-0.189
452.12	0.564
452.47	0.339
452.83	0.498
453.18	0.203
453.53	0.653
453.88	0.766
454.23	1.150
454.58	0.783
454.93	-0.341
455.28	0.611
455.63	0.715
455.98	0.444
456.34	0.335
456.69	0.609
457.04	0.525
457.39	1.061
457.74	0.632
458.09	0.187
458.44	0.552
458.79	-0.236
459.14	1.014
459.49	0.510
459.84	0.832
460.19	1.063
460.54	0.316
460.89	0.118
461.24	0.714
461.59	1.009
461.94	0.920
462.29	0.188
462.64	0.836
462.99	0.798
463.34	0.293
463.69	0.617
464.04	1.026
464.39	1.093
464.74	0.454
465.09	1.736
465.44	1.020
465.79	1.564
466.14	0.298
466.49	1.130
466.84	1.167
467.19	1.429
467.54	0.597
467.89	0.849
468.24	0.253
468.59	0.589
468.94	0.202
469.29	0.346
469.64	0.438
469.99	0.433
470.34	-0.283
470.68	-0.615
471.03	0.073
471.38	0.598
471.73	1.163
472.08	1.139
472.43	0.692
472.78	-0.073
473.13	0.632
473.48	0.484
473.83	1.057
474.17	0.200
474.52	1.139
474.87	1.326
475.22	1.144
475.57	0.881
475.92	0.910
476.27	0.904
476.61	0.887
476.96	0.830
477.31	0.457
477.66	1.278
478.01	-0.412
478.36	0.573
478.70	1.127
479.05	0.290
479.40	0.774
479.75	0.785
480.10	1.082
480.45	1.361
480.79	1.142
481.14	0.738
481.49	1.183
481.84	0.556
482.19	0.341
482.53	0.980
482.88	0.610
483.23	1.307
483.58	0.990
483.92	0.553
484.27	0.920
484.62	1.037
484.97	0.703
485.31	1.237
485.66	0.888
486.01	1.173
486.36	0.853
486.70	0.701
487.05	0.908
487.40	0.927
487.75	0.945
488.09	0.752
488.44	0.707
488.79	1.032
489.13	0.540
489.48	0.618
489.83	0.832
490.17	0.656
490.52	0.478
490.87	1.236
491.22	0.888
491.56	1.038
491.91	0.653
492.26	1.071
492.60	1.378
492.95	0.924
493.30	0.105
493.64	0.862
493.99	0.873
494.34	1.115
494.68	0.694
495.03	-0.051
495.37	1.014
495.72	0.527
496.07	0.659
496.41	0.198
496.76	1.003
497.11	0.739
497.45	1.105
497.80	1.194
498.14	1.109
498.49	0.961
498.84	0.786
499.18	0.882
499.53	1.350
499.87	0.870
500.22	0.727
500.56	1.518
500.91	2.045
501.26	0.630
501.60	1.427
501.95	1.279
502.29	1.334
502.64	1.444
502.98	0.252
503.33	0.649
503.67	0.817
504.02	1.532
504.36	1.027
504.71	0.479
505.06	1.125
505.40	1.340
505.75	1.369
506.09	0.325
506.44	1.341
506.78	0.910
507.13	0.217
507.47	0.997
507.82	0.670
508.16	1.114
508.51	1.204
508.85	0.934
509.19	0.878
509.54	0.623
509.88	0.575
510.23	1.685
510.57	0.568
510.92	0.170
511.26	-0.230
511.61	1.256
511.95	0.521
512.30	1.217
512.64	1.466
512.98	1.477
513.33	0.117
513.67	0.120
514.02	0.661
514.36	0.771
514.70	1.579
515.05	1.037
515.39	0.439
515.74	1.128
516.08	0.251
516.42	0.932
516.77	1.056
517.11	1.162
517.46	1.124
517.80	0.957
518.14	1.518
518.49	0.776
518.83	0.324
519.17	1.285
519.52	1.374
519.86	1.330
520.20	1.401
520.55	1.958
520.89	0.742
521.23	1.536
521.58	2.249
521.92	1.001
522.26	1.581
522.61	1.024
522.95	1.164
523.29	0.472
523.64	0.882
523.98	0.672
524.32	0.875
524.66	0.816
525.01	0.962
525.35	0.684
525.69	1.032
526.04	2.396
526.38	1.165
526.72	1.181
527.06	1.125
527.41	0.921
527.75	1.220
528.09	0.354
528.43	1.063
528.78	0.699
529.12	0.616
529.46	1.130
529.80	0.749
530.15	1.251
530.49	1.883
530.83	-0.072
531.17	0.565
531.51	1.213
531.86	1.891
532.20	1.082
532.54	0.576
532.88	0.145
533.22	0.575
533.57	0.897
533.91	0.551
534.25	1.086
534.59	1.100
534.93	1.276
535.27	0.404
535.62	0.135
535.96	1.326
536.30	1.253
536.64	1.001
536.98	0.590
537.32	1.190
537.66	1.173
538.01	0.810
538.35	1.527
538.69	0.212
539.03	0.865
539.37	0.431
539.71	1.449
540.05	1.230
540.39	0.726
540.73	1.172
541.07	0.294
541.42	1.426
541.76	0.216
542.10	1.004
542.44	2.529
542.78	0.513
543.12	0.217
543.46	1.118
543.80	1.716
544.14	1.434
544.48	1.333
544.82	0.639
545.16	1.014
545.50	2.038
545.84	1.902
546.18	0.375
546.52	1.076
546.86	0.918
547.20	1.667
547.54	0.531
547.88	1.068
548.22	0.703
548.56	1.268
548.90	0.491
549.24	1.096
549.58	2.235
549.92	1.880
550.26	1.853
550.60	0.634
550.94	0.079
551.28	1.301
551.62	0.655
551.96	1.278
552.30	1.163
552.64	1.277
552.98	1.560
553.32	0.682
553.66	1.669
554.00	1.158
554.34	0.859
554.68	0.239
555.02	0.079
555.36	0.159
555.69	1.460
556.03	1.700
556.37	1.275
556.71	0.905
557.05	1.484
557.39	0.000
557.73	1.808
558.07	1.330
558.41	0.718
558.75	1.245
559.08	0.851
559.42	0.418
559.76	0.421
560.10	1.059
560.44	0.238
560.78	1.052
561.12	0.826
561.45	1.265
561.79	0.220
562.13	0.593
562.47	0.382
562.81	0.758
563.15	0.076
563.48	0.300
563.82	1.019
564.16	0.943
564.50	0.788
564.84	1.417
565.17	1.216
565.51	1.619
565.85	2.324
566.19	1.809
566.52	1.075
566.86	1.708
567.20	0.466
567.54	0.957
567.88	1.092
568.21	0.879
568.55	1.019
568.89	0.714
569.23	1.104
569.56	1.287
569.90	1.242
570.24	1.458
570.57	1.091
570.91	1.310
571.25	1.653
571.59	1.508
571.92	1.426
572.26	1.327
572.60	1.219
572.93	1.343
573.27	1.363
573.61	1.486
573.95	1.443
574.28	0.938
574.62	1.382
574.96	0.965
575.29	1.110
575.63	1.281
575.97	1.188
576.30	1.157
576.64	1.158
576.98	1.307
577.31	1.041
577.65	1.318
577.98	1.287
578.32	1.073
578.66	1.213
578.99	1.368
579.33	1.432
579.67	1.487
580.00	1.558
580.34	1.525
580.67	1.577
581.01	1.395
581.35	1.526
581.68	1.502
582.02	1.288
582.35	1.266
582.69	1.621
583.02	1.144
583.36	1.390
583.70	1.517
584.03	1.169
584.37	1.770
584.70	1.333
585.04	0.996
585.37	1.482
585.71	1.334
586.04	1.450
586.38	1.471
586.72	1.236
587.05	1.804
587.39	1.522
587.72	1.806
588.06	1.682
588.39	1.169
588.73	0.968
589.06	1.120
589.40	1.760
589.73	1.421
590.07	1.239
590.40	1.463
590.73	1.916
591.07	1.385
591.40	1.416
591.74	1.539
592.07	0.955
592.41	1.781
592.74	1.619
593.08	1.315
593.41	0.960
593.75	1.719
594.08	1.359
594.41	1.432
594.75	1.214
595.08	1.208
595.42	1.802
595.75	1.667
596.09	1.641
596.42	1.268
596.75	1.773
597.09	1.353
597.42	1.126
597.75	1.548
598.09	1.358
598.42	1.893
598.76	1.230
599.09	1.681
599.42	1.692
599.76	1.177
600.09	1.661
600.42	1.523
600.76	1.001
601.09	0.902
601.42	1.610
601.76	0.812
602.09	1.508
602.42	1.086
602.76	1.396
603.09	1.567
603.42	1.448
603.76	0.755
604.09	1.462
604.42	1.417
604.76	1.141
605.09	0.520
605.42	1.564
605.75	1.370
606.09	1.244
606.42	1.050
606.75	1.821
607.09	1.026
607.42	1.927
607.75	1.240
608.08	1.310
608.42	1.261
608.75	1.101
609.08	0.959
609.41	1.866
609.75	1.527
610.08	0.724
610.41	0.916
610.74	1.011
611.07	1.322
611.41	0.857
611.74	1.523
612.07	1.172
612.40	1.894
612.73	0.868
613.07	1.116
613.40	1.668
613.73	0.859
614.06	0.644
614.39	1.582
614.72	1.535
615.06	2.468
615.39	2.136
615.72	1.120
616.05	1.101
616.38	1.483
616.71	0.995
617.05	1.570
617.38	1.419
617.71	1.306
618.04	1.051
618.37	0.785
618.70	0.747
619.03	0.653
619.36	1.546
619.69	0.855
620.03	1.449
620.36	1.209
620.69	0.961
621.02	1.188
621.35	0.681
621.68	0.630
622.01	0.446
622.34	1.843
622.67	0.337
623.00	1.556
623.33	1.811
623.66	0.478
623.99	1.435
624.32	1.112
624.65	0.625
624.99	0.234
625.32	1.185
625.65	-0.080
625.98	1.750
626.31	0.693
626.64	1.802
626.97	2.022
627.30	1.019
627.63	1.023
627.96	0.000
628.29	0.574
628.62	0.722
628.95	0.950
629.28	1.033
629.61	0.522
629.94	0.622
630.26	0.837
630.59	1.571
630.92	0.316
631.25	1.341
631.58	0.000
631.91	0.569
632.24	0.118
632.57	0.832
632.90	1.599
633.23	1.032
633.56	0.755
633.89	-0.792
634.22	1.538
634.55	0.920
634.88	0.803
635.20	0.274
635.53	1.257
635.86	1.902
636.19	0.273
636.52	0.943
636.85	-0.391
637.18	1.684
637.51	0.271
637.83	0.000
638.16	1.422
638.49	1.729
638.82	0.703
639.15	-0.429
639.48	0.291
639.81	1.341
640.13	-1.072
640.46	-0.945
640.79	-0.930
641.12	1.085
641.45	0.467
641.77	-0.478
642.10	1.140
642.43	0.673
642.76	0.717
643.09	1.038
643.41	-0.179
643.74	1.215
644.07	-1.235
644.40	0.542
644.73	-0.552
645.05	0.954
645.38	-0.962
645.71	0.000
646.04	2.416
646.36	-1.136
646.69	4.642
647.02	2.539
647.35	1.400
647.67	0.601
648.00	2.524
648.33	-0.385
648.66	0.742
648.98	2.203
649.31	1.205
649.64	0.516
649.96	-0.676
650.29	-2.124
650.62	0.186
650.94	1.294
651.27	1.927
651.60	1.338
651.92	1.527
652.25	-2.294
652.58	0.359
652.90	-1.246
653.23	-1.280
653.56	0.174
653.88	1.642
