SpectraSuite Data File
++++++++++++++++++++++++++++++++++++
Date: Fri May 15 20:53:39 PDT 2015
User: schluterlab
Dark Spectrum Present: Yes
Reference Spectrum Present: Yes
Number of Sampled Component Spectra: 1
Spectrometers: USB2E3373
Integration Time (usec): 3000 (USB2E3373)
Spectra Averaged: 3 (USB2E3373)
Boxcar Smoothing: 0 (USB2E3373)
Correct for Electrical Dark: No (USB2E3373)
Strobe/Lamp Enabled: No (USB2E3373)
Correct for Detector Non-linearity: No (USB2E3373)
Correct for Stray Light: No (USB2E3373)
Number of Pixels in Processed Spectrum: 2048
>>>>>Begin Processed Spectral Data<<<<<
178.53	0.000
178.91	0.000
179.29	62.500
179.67	-150.000
180.04	-28.571
180.42	50.000
180.80	-100.000
181.18	-133.333
181.56	500.000
181.94	-200.000
182.31	1200.000
182.69	-80.000
183.07	-400.000
183.45	80.000
183.83	-0.000
184.20	0.000
184.58	144.444
184.96	150.000
185.34	-0.000
185.72	-50.000
186.09	100.000
186.47	-400.000
186.85	50.000
187.23	133.333
187.61	-100.000
187.98	-266.667
188.36	55.556
188.74	166.667
189.12	0.000
189.49	33.333
189.87	0.000
190.25	28.571
190.63	-100.000
191.00	-266.667
191.38	-26.316
191.76	200.000
192.14	100.000
192.51	-100.000
192.89	-122.222
193.27	-28.571
193.65	183.333
194.02	163.636
194.40	-80.000
194.78	-62.500
195.15	-25.000
195.53	-162.500
195.91	225.000
196.29	-125.000
196.66	146.154
197.04	114.286
197.42	33.333
197.79	-233.333
198.17	-38.462
198.55	1500.000
198.92	-333.333
199.30	400.000
199.68	-320.000
200.05	200.000
200.43	0.000
200.81	-100.000
201.18	-100.000
201.56	2000.000
201.94	-700.000
202.31	100.000
202.69	-220.000
203.07	175.000
203.44	400.000
203.82	0.000
204.19	71.429
204.57	-366.667
204.95	37.500
205.32	40.000
205.70	-14.286
206.08	75.000
206.45	211.111
206.83	78.571
207.20	-128.571
207.58	300.000
207.96	-133.333
208.33	-80.000
208.71	-250.000
209.08	-350.000
209.46	-400.000
209.84	-20.000
210.21	-600.000
210.59	-71.429
210.96	-83.333
211.34	-100.000
211.71	40.000
212.09	-42.857
212.46	-2100.000
212.84	0.000
213.22	120.000
213.59	350.000
213.97	61.538
214.34	-9.091
214.72	-83.333
215.09	375.000
215.47	-46.154
215.84	-18.182
216.22	-100.000
216.59	-12.500
216.97	-300.000
217.34	75.000
217.72	-60.000
218.09	12.500
218.47	175.000
218.84	-100.000
219.22	-77.778
219.59	140.000
219.97	133.333
220.34	100.000
220.72	28.571
221.09	-100.000
221.47	350.000
221.84	-650.000
222.22	-450.000
222.59	-18.182
222.97	16.667
223.34	-266.667
223.72	-64.286
224.09	0.000
224.46	7.143
224.84	100.000
225.21	-30.000
225.59	-26.667
225.96	-350.000
226.34	325.000
226.71	-42.857
227.08	-50.000
227.46	87.500
227.83	-600.000
228.21	11.111
228.58	0.000
228.95	-25.000
229.33	160.000
229.70	-37.500
230.08	-125.000
230.45	-57.143
230.82	0.000
231.20	-26.667
231.57	50.000
231.95	-114.286
232.32	-70.000
232.69	135.714
233.07	-66.667
233.44	180.000
233.81	-90.000
234.19	66.667
234.56	-11.765
234.93	50.000
235.31	0.000
235.68	-40.000
236.05	-69.231
236.43	10.000
236.80	41.176
237.17	34.375
237.55	-20.000
237.92	25.926
238.29	36.111
238.67	23.333
239.04	-20.588
239.41	-7.317
239.79	-10.000
240.16	17.073
240.53	7.895
240.91	19.565
241.28	7.937
241.65	23.214
242.02	20.548
242.40	25.000
242.77	18.644
243.14	0.000
243.51	26.250
243.89	19.540
244.26	16.092
244.63	22.619
245.00	19.588
245.38	21.649
245.75	11.236
246.12	11.207
246.49	23.140
246.87	23.077
247.24	15.126
247.61	8.772
247.98	12.195
248.36	18.750
248.73	15.132
249.10	15.584
249.47	20.886
249.84	19.608
250.22	16.471
250.59	21.569
250.96	20.188
251.33	14.535
251.70	22.941
252.08	17.766
252.45	20.297
252.82	22.613
253.19	19.816
253.56	18.224
253.94	23.423
254.31	15.652
254.68	20.175
255.05	17.323
255.42	18.777
255.79	17.375
256.16	24.514
256.54	22.015
256.91	22.053
257.28	16.729
257.65	19.476
258.02	22.340
258.39	22.896
258.76	23.443
259.14	19.601
259.51	22.977
259.88	18.557
260.25	20.915
260.62	19.792
260.99	21.017
261.36	21.575
261.73	21.519
262.10	22.492
262.47	18.098
262.85	19.436
263.22	16.308
263.59	22.118
263.96	22.050
264.33	20.606
264.70	22.024
265.07	18.452
265.44	22.663
265.81	22.599
266.18	19.945
266.55	20.823
266.92	19.171
267.29	17.755
267.66	21.739
268.03	24.607
268.40	20.627
268.77	21.925
269.14	23.022
269.51	22.365
269.88	21.446
270.25	19.898
270.62	20.244
270.99	16.880
271.36	20.782
271.73	22.770
272.10	20.195
272.47	20.095
272.84	18.812
273.21	21.346
273.58	20.241
273.95	20.366
274.32	19.630
274.69	20.362
275.06	20.536
275.43	19.501
275.80	21.854
276.17	17.701
276.54	20.343
276.91	17.982
277.28	17.686
277.65	20.248
278.02	23.191
278.39	19.256
278.76	19.916
279.13	19.295
279.50	20.378
279.87	19.438
280.23	18.065
280.60	19.493
280.97	21.212
281.34	19.231
281.71	21.561
282.08	19.632
282.45	18.982
282.82	19.305
283.19	19.149
283.56	20.617
283.92	18.786
284.29	18.846
284.66	18.217
285.03	18.664
285.40	20.416
285.77	18.981
286.14	20.036
286.51	21.218
286.87	19.927
287.24	20.442
287.61	17.813
287.98	21.754
288.35	18.718
288.72	20.140
289.08	18.576
289.45	20.035
289.82	18.357
290.19	19.283
290.56	18.010
290.93	19.024
291.29	17.565
291.66	18.110
292.03	18.660
292.40	17.742
292.77	19.139
293.13	16.234
293.50	17.451
293.87	17.405
294.24	18.083
294.60	18.480
294.97	17.708
295.34	17.638
295.71	19.672
296.08	16.592
296.44	15.932
296.81	16.389
297.18	17.536
297.55	18.564
297.91	18.219
298.28	18.470
298.65	18.589
299.02	17.385
299.38	16.963
299.75	18.069
300.12	16.361
300.48	18.445
300.85	17.237
301.22	17.792
301.59	18.158
301.95	19.494
302.32	19.974
302.69	17.537
303.05	17.450
303.42	18.431
303.79	19.276
304.15	19.713
304.52	17.004
304.89	19.415
305.25	19.249
305.62	17.736
305.99	19.649
306.35	18.497
306.72	19.010
307.09	18.928
307.45	21.010
307.82	19.907
308.19	20.209
308.55	19.847
308.92	21.786
309.29	19.553
309.65	20.560
310.02	20.132
310.38	20.856
310.75	21.749
311.12	20.667
311.48	19.724
311.85	21.361
312.22	20.886
312.58	21.656
312.95	21.665
313.31	21.636
313.68	22.408
314.05	22.245
314.41	24.433
314.78	24.330
315.14	24.872
315.51	26.501
315.87	24.693
316.24	25.885
316.61	25.984
316.97	26.885
317.34	24.512
317.70	26.769
318.07	26.827
318.43	28.137
318.80	26.705
319.16	28.320
319.53	30.104
319.89	28.839
320.26	29.453
320.62	29.789
320.99	28.601
321.35	30.832
321.72	31.776
322.08	32.125
322.45	33.096
322.81	32.220
323.18	32.777
323.54	33.591
323.91	34.080
324.27	34.863
324.64	34.831
325.00	35.584
325.37	39.302
325.73	37.262
326.10	39.600
326.46	40.000
326.83	41.382
327.19	41.325
327.56	42.572
327.92	43.134
328.29	43.304
328.65	45.660
329.01	45.037
329.38	46.359
329.74	44.759
330.11	46.339
330.47	46.939
330.84	46.250
331.20	50.856
331.56	47.315
331.93	49.406
332.29	49.679
332.66	48.054
333.02	48.885
333.38	47.938
333.75	50.824
334.11	48.433
334.48	50.499
334.84	51.465
335.20	51.418
335.57	49.955
335.93	51.762
336.29	52.210
336.66	51.408
337.02	51.952
337.38	51.111
337.75	51.636
338.11	50.406
338.47	52.190
338.84	52.865
339.20	52.468
339.56	52.569
339.93	52.193
340.29	52.294
340.65	52.599
341.02	50.798
341.38	51.681
341.74	51.678
342.11	51.213
342.47	53.292
342.83	52.682
343.20	52.091
343.56	53.565
343.92	52.967
344.28	53.117
344.65	54.404
345.01	52.290
345.37	52.733
345.73	53.389
346.10	54.961
346.46	53.154
346.82	52.700
347.19	51.870
347.55	52.130
347.91	53.074
348.27	54.082
348.63	54.344
349.00	52.010
349.36	53.699
349.72	54.146
350.08	53.033
350.45	52.035
350.81	54.236
351.17	52.769
351.53	53.551
351.89	53.179
352.26	51.760
352.62	53.629
352.98	52.450
353.34	53.140
353.70	54.288
354.07	52.984
354.43	52.602
354.79	54.170
355.15	53.333
355.51	53.560
355.87	53.398
356.24	51.958
356.60	53.193
356.96	54.206
357.32	52.316
357.68	52.541
358.04	55.493
358.40	54.984
358.77	54.705
359.13	53.163
359.49	53.082
359.85	53.978
360.21	55.183
360.57	53.711
360.93	53.782
361.29	53.776
361.66	55.408
362.02	55.076
362.38	53.998
362.74	54.656
363.10	54.778
363.46	54.485
363.82	54.771
364.18	53.137
364.54	54.265
364.90	55.771
365.26	53.639
365.62	55.693
365.98	54.765
366.35	55.717
366.71	55.654
367.07	56.096
367.43	54.925
367.79	55.194
368.15	54.487
368.51	55.426
368.87	53.841
369.23	52.852
369.59	55.466
369.95	55.059
370.31	54.263
370.67	55.597
371.03	55.639
371.39	54.559
371.75	54.286
372.11	53.852
372.47	56.213
372.83	54.152
373.19	56.491
373.55	54.513
373.91	54.860
374.27	56.201
374.63	54.917
374.99	54.681
375.35	54.735
375.71	56.014
376.07	55.688
376.42	55.034
376.78	55.772
377.14	55.112
377.50	55.777
377.86	55.221
378.22	56.669
378.58	55.769
378.94	54.820
379.30	54.585
379.66	56.614
380.02	56.714
380.38	55.873
380.74	55.236
381.09	56.196
381.45	55.596
381.81	55.706
382.17	56.345
382.53	55.340
382.89	55.556
383.25	57.436
383.61	56.037
383.97	55.238
384.32	55.097
384.68	55.728
385.04	56.311
385.40	55.632
385.76	57.044
386.12	56.598
386.48	56.960
386.83	55.929
387.19	54.884
387.55	56.462
387.91	55.929
388.27	55.617
388.62	56.702
388.98	55.494
389.34	55.965
389.70	56.308
390.06	54.814
390.42	56.801
390.77	55.788
391.13	55.675
391.49	55.498
391.85	56.920
392.20	56.121
392.56	55.944
392.92	55.843
393.28	57.311
393.64	56.757
393.99	57.680
394.35	56.293
394.71	56.066
395.07	55.563
395.42	56.466
395.78	56.091
396.14	57.125
396.50	58.402
396.85	56.149
397.21	56.078
397.57	56.050
397.92	55.842
398.28	56.494
398.64	55.663
399.00	55.079
399.35	54.571
399.71	54.739
400.07	56.651
400.42	54.896
400.78	55.664
401.14	54.870
401.49	56.522
401.85	54.845
402.21	55.663
402.57	56.125
402.92	56.148
403.28	56.830
403.63	56.179
403.99	54.911
404.35	56.465
404.70	54.048
405.06	54.700
405.42	55.065
405.77	54.736
406.13	55.704
406.49	54.944
406.84	55.257
407.20	55.449
407.55	54.733
407.91	56.350
408.27	55.895
408.62	55.754
408.98	54.590
409.34	54.833
409.69	55.620
410.05	54.557
410.40	55.062
410.76	54.101
411.11	56.437
411.47	56.213
411.83	55.493
412.18	56.692
412.54	54.557
412.89	53.202
413.25	54.994
413.60	55.652
413.96	54.785
414.31	54.146
414.67	54.715
415.03	55.726
415.38	54.243
415.74	55.309
416.09	55.650
416.45	54.288
416.80	55.188
417.16	56.077
417.51	55.563
417.87	53.846
418.22	55.505
418.58	56.054
418.93	55.047
419.29	53.009
419.64	55.930
420.00	55.730
420.35	53.791
420.71	56.197
421.06	55.249
421.42	54.267
421.77	55.780
422.12	54.200
422.48	55.225
422.83	54.408
423.19	54.345
423.54	55.438
423.90	55.124
424.25	55.396
424.61	56.181
424.96	55.110
425.31	56.904
425.67	56.397
426.02	57.067
426.38	57.545
426.73	56.598
427.09	56.646
427.44	56.353
427.79	56.158
428.15	56.675
428.50	55.239
428.85	55.405
429.21	55.631
429.56	56.712
429.92	55.470
430.27	54.336
430.62	54.992
430.98	55.255
431.33	54.890
431.68	55.364
432.04	56.568
432.39	54.478
432.74	54.660
433.10	57.356
433.45	55.795
433.80	56.355
434.16	55.789
434.51	56.129
434.86	54.994
435.22	55.861
435.57	56.644
435.92	55.689
436.28	55.397
436.63	55.733
436.98	56.257
437.34	55.656
437.69	55.456
438.04	56.011
438.39	56.628
438.75	56.527
439.10	54.329
439.45	56.665
439.81	55.474
440.16	56.948
440.51	57.731
440.86	58.127
441.22	56.165
441.57	56.623
441.92	55.771
442.27	56.707
442.63	56.370
442.98	56.577
443.33	56.483
443.68	55.279
444.03	55.489
444.39	56.321
444.74	57.079
445.09	56.292
445.44	56.125
445.79	57.452
446.15	54.405
446.50	56.461
446.85	56.908
447.20	55.318
447.55	56.027
447.91	56.627
448.26	56.972
448.61	56.937
448.96	56.741
449.31	56.185
449.66	56.272
450.02	56.132
450.37	56.965
450.72	55.899
451.07	58.228
451.42	56.305
451.77	56.781
452.12	56.160
452.47	56.085
452.83	56.596
453.18	56.863
453.53	58.976
453.88	58.591
454.23	59.557
454.58	58.438
454.93	56.765
455.28	55.683
455.63	56.727
455.98	58.148
456.34	57.024
456.69	56.989
457.04	57.026
457.39	59.235
457.74	58.404
458.09	55.915
458.44	55.764
458.79	56.639
459.14	56.064
459.49	57.612
459.84	56.007
460.19	57.464
460.54	56.540
460.89	57.273
461.24	56.894
461.59	56.948
461.94	56.667
462.29	56.273
462.64	57.276
462.99	57.007
463.34	57.163
463.69	57.336
464.04	57.627
464.39	56.580
464.74	56.319
465.09	57.143
465.44	57.242
465.79	56.406
466.14	56.613
466.49	55.894
466.84	57.644
467.19	57.134
467.54	56.769
467.89	57.359
468.24	56.022
468.59	57.714
468.94	57.587
469.29	58.295
469.64	57.143
469.99	59.495
470.34	59.317
470.68	59.508
471.03	59.377
471.38	59.843
471.73	58.824
472.08	58.412
472.43	58.792
472.78	58.944
473.13	58.163
473.48	57.850
473.83	58.095
474.17	59.262
474.52	58.456
474.87	58.000
475.22	58.755
475.57	58.611
475.92	57.762
476.27	59.080
476.61	59.491
476.96	57.780
477.31	58.680
477.66	58.539
478.01	60.022
478.36	57.952
478.70	58.891
479.05	59.341
479.40	58.983
479.75	58.081
480.10	57.962
480.45	58.750
480.79	58.459
481.14	59.119
481.49	58.325
481.84	58.012
482.19	57.343
482.53	58.129
482.88	58.711
483.23	57.246
483.58	58.679
483.92	57.938
484.27	57.703
484.62	57.777
484.97	57.214
485.31	55.166
485.66	53.063
486.01	52.072
486.36	51.277
486.70	52.126
487.05	53.406
487.40	54.033
487.75	54.563
488.09	55.284
488.44	55.536
488.79	57.041
489.13	58.413
489.48	56.477
489.83	57.399
490.17	58.022
490.52	58.014
490.87	56.826
491.22	59.121
491.56	58.918
491.91	58.843
492.26	58.726
492.60	58.157
492.95	59.321
493.30	57.694
493.64	60.020
493.99	58.454
494.34	59.272
494.68	58.619
495.03	59.173
495.37	59.666
495.72	59.263
496.07	60.098
496.41	58.774
496.76	57.439
497.11	58.034
497.45	59.427
497.80	59.839
498.14	58.470
498.49	59.015
498.84	58.782
499.18	59.086
499.53	58.978
499.87	58.560
500.22	59.347
500.56	59.203
500.91	59.237
501.26	58.280
501.60	59.272
501.95	59.146
502.29	58.692
502.64	58.349
502.98	59.102
503.33	58.021
503.67	58.602
504.02	60.020
504.36	59.723
504.71	59.444
505.06	59.436
505.40	60.508
505.75	60.876
506.09	58.743
506.44	60.626
506.78	60.051
507.13	59.307
507.47	59.582
507.82	60.417
508.16	59.958
508.51	61.175
508.85	61.329
509.19	60.830
509.54	61.555
509.88	60.949
510.23	60.463
510.57	61.304
510.92	60.288
511.26	61.757
511.61	62.046
511.95	60.822
512.30	61.364
512.64	60.712
512.98	62.156
513.33	62.003
513.67	62.194
514.02	62.529
514.36	62.686
514.70	63.520
515.05	62.456
515.39	62.633
515.74	65.030
516.08	63.598
516.42	64.488
516.77	63.721
517.11	63.680
517.46	64.093
517.80	63.766
518.14	65.462
518.49	63.221
518.83	64.824
519.17	63.675
519.52	64.002
519.86	64.706
520.20	63.973
520.55	64.728
520.89	65.307
521.23	64.915
521.58	65.868
521.92	65.449
522.26	65.647
522.61	66.364
522.95	66.159
523.29	65.248
523.64	66.201
523.98	65.392
524.32	63.918
524.66	67.286
525.01	65.974
525.35	66.170
525.69	67.879
526.04	66.667
526.38	67.185
526.72	65.010
527.06	65.305
527.41	66.161
527.75	64.477
528.09	66.711
528.43	67.792
528.78	66.403
529.12	65.548
529.46	66.147
529.80	65.991
530.15	66.997
530.49	66.330
530.83	67.510
531.17	65.749
531.51	66.211
531.86	64.582
532.20	68.128
532.54	65.078
532.88	67.214
533.22	66.599
533.57	64.089
533.91	66.775
534.25	65.495
534.59	64.657
534.93	64.443
535.27	63.135
535.62	64.614
535.96	64.840
536.30	63.325
536.64	66.023
536.98	65.854
537.32	66.927
537.66	65.708
538.01	66.503
538.35	66.227
538.69	65.180
539.03	63.910
539.37	65.074
539.71	62.918
540.05	63.612
540.39	65.997
540.73	65.900
541.07	65.193
541.42	64.180
541.76	66.208
542.10	64.556
542.44	64.211
542.78	64.006
543.12	63.187
543.46	66.203
543.80	63.983
544.14	63.284
544.48	62.558
544.82	64.935
545.16	65.505
545.50	64.486
545.84	64.943
546.18	65.461
546.52	64.960
546.86	64.630
547.20	66.023
547.54	62.898
547.88	63.859
548.22	61.078
548.56	62.929
548.90	62.803
549.24	64.187
549.58	63.188
549.92	62.974
550.26	63.736
550.60	64.684
550.94	65.795
551.28	65.611
551.62	67.231
551.96	65.789
552.30	64.401
552.64	63.963
552.98	63.291
553.32	63.481
553.66	64.006
554.00	64.453
554.34	63.811
554.68	63.791
555.02	64.881
555.36	66.043
555.69	64.908
556.03	62.241
556.37	64.769
556.71	64.188
557.05	65.996
557.39	63.569
557.73	65.067
558.07	65.234
558.41	64.319
558.75	66.251
559.08	66.509
559.42	65.635
559.76	66.053
560.10	66.361
560.44	64.631
560.78	62.028
561.12	65.021
561.45	64.863
561.79	63.025
562.13	63.591
562.47	64.317
562.81	64.986
563.15	62.764
563.48	64.639
563.82	63.693
564.16	63.092
564.50	60.878
564.84	63.454
565.17	63.447
565.51	64.139
565.85	63.992
566.19	62.599
566.52	62.131
566.86	62.661
567.20	60.959
567.54	61.436
567.88	60.984
568.21	59.502
568.55	59.130
568.89	58.470
569.23	59.124
569.56	55.692
569.90	55.867
570.24	53.926
570.57	54.873
570.91	53.956
571.25	53.403
571.59	52.414
571.92	51.496
572.26	51.540
572.60	51.721
572.93	51.804
573.27	51.379
573.61	51.611
573.95	51.720
574.28	51.006
574.62	49.428
574.96	50.262
575.29	49.975
575.63	48.847
575.97	50.529
576.30	50.801
576.64	49.351
576.98	50.940
577.31	50.381
577.65	49.725
577.98	49.134
578.32	48.676
578.66	48.119
578.99	49.158
579.33	49.288
579.67	48.574
580.00	49.899
580.34	49.478
580.67	49.258
581.01	49.664
581.35	48.557
581.68	48.357
582.02	47.807
582.35	48.097
582.69	48.364
583.02	47.938
583.36	49.089
583.70	50.701
584.03	50.598
584.37	51.383
584.70	50.549
585.04	48.964
585.37	49.140
585.71	48.507
586.04	49.344
586.38	49.667
586.72	50.301
587.05	50.693
587.39	50.266
587.72	50.492
588.06	49.350
588.39	50.128
588.73	50.336
589.06	52.055
589.40	52.195
589.73	51.990
590.07	52.190
590.40	51.780
590.73	54.984
591.07	53.562
591.40	52.894
591.74	54.887
592.07	54.824
592.41	53.843
592.74	52.091
593.08	50.506
593.41	51.993
593.75	50.311
594.08	50.635
594.41	50.728
594.75	51.527
595.08	51.873
595.42	51.233
595.75	52.685
596.09	51.407
596.42	52.832
596.75	53.153
597.09	51.982
597.42	52.936
597.75	54.146
598.09	52.920
598.42	52.211
598.76	51.523
599.09	51.562
599.42	50.512
599.76	51.354
600.09	50.075
600.42	50.758
600.76	51.374
601.09	51.718
601.42	51.547
601.76	50.695
602.09	52.063
602.42	52.780
602.76	52.547
603.09	51.744
603.42	52.801
603.76	51.169
604.09	52.005
604.42	52.411
604.76	52.960
605.09	52.331
605.42	52.686
605.75	51.313
606.09	52.144
606.42	50.250
606.75	52.424
607.09	51.385
607.42	50.953
607.75	51.732
608.08	51.303
608.42	51.348
608.75	53.157
609.08	53.214
609.41	54.213
609.75	53.881
610.08	54.069
610.41	52.754
610.74	53.291
611.07	54.832
611.41	53.607
611.74	55.064
612.07	54.229
612.40	55.635
612.73	56.497
613.07	54.443
613.40	54.923
613.73	54.785
614.06	55.537
614.39	56.402
614.72	54.118
615.06	54.916
615.39	54.421
615.72	53.122
616.05	54.581
616.38	54.644
616.71	55.963
617.05	56.887
617.38	55.940
617.71	55.975
618.04	57.587
618.37	58.449
618.70	58.614
619.03	58.403
619.36	58.755
619.69	59.818
620.03	60.701
620.36	60.300
620.69	58.958
621.02	59.557
621.35	62.822
621.68	63.776
622.01	63.000
622.34	60.575
622.67	62.224
623.00	59.801
623.33	58.841
623.66	59.910
623.99	58.850
624.32	60.532
624.65	58.571
624.99	58.766
625.32	57.847
625.65	60.880
625.98	61.644
626.31	60.682
626.64	62.218
626.97	64.049
627.30	63.135
627.63	62.218
627.96	64.241
628.29	64.755
628.62	66.765
628.95	64.830
629.28	67.238
629.61	64.506
629.94	65.982
630.26	64.526
630.59	67.014
630.92	68.308
631.25	63.795
631.58	67.621
631.91	66.776
632.24	68.693
632.57	70.000
632.90	68.921
633.23	69.176
