SpectraSuite Data File
++++++++++++++++++++++++++++++++++++
Date: Fri May 15 20:58:26 PDT 2015
User: schluterlab
Dark Spectrum Present: Yes
Reference Spectrum Present: Yes
Number of Sampled Component Spectra: 1
Spectrometers: USB2E3373
Integration Time (usec): 3000 (USB2E3373)
Spectra Averaged: 3 (USB2E3373)
Boxcar Smoothing: 0 (USB2E3373)
Correct for Electrical Dark: No (USB2E3373)
Strobe/Lamp Enabled: No (USB2E3373)
Correct for Detector Non-linearity: No (USB2E3373)
Correct for Stray Light: No (USB2E3373)
Number of Pixels in Processed Spectrum: 2048
>>>>>Begin Processed Spectral Data<<<<<
178.53	0.000
178.91	0.000
179.29	50.000
179.67	-400.000
180.04	157.143
180.42	-300.000
180.80	-700.000
181.18	66.667
181.56	-100.000
181.94	-250.000
182.31	800.000
182.69	-20.000
183.07	-300.000
183.45	-160.000
183.83	183.333
184.20	0.000
184.58	122.222
184.96	75.000
185.34	133.333
185.72	-600.000
186.09	69.231
186.47	-1400.000
186.85	266.667
187.23	133.333
187.61	600.000
187.98	-400.000
188.36	33.333
188.74	-66.667
189.12	-23.529
189.49	-16.667
189.87	0.000
190.25	-14.286
190.63	-350.000
191.00	-366.667
191.38	15.789
191.76	650.000
192.14	75.000
192.51	-450.000
192.89	-122.222
193.27	-214.286
193.65	183.333
194.02	100.000
194.40	20.000
194.78	-200.000
195.15	83.333
195.53	-150.000
195.91	425.000
196.29	-25.000
196.66	76.923
197.04	128.571
197.42	-11.111
197.79	-533.333
198.17	-115.385
198.55	1500.000
198.92	-333.333
199.30	-600.000
199.68	-60.000
200.05	-600.000
200.43	0.000
200.81	233.333
201.18	-166.667
201.56	1500.000
201.94	-100.000
202.31	-33.333
202.69	-220.000
203.07	150.000
203.44	0.000
203.82	0.000
204.19	50.000
204.57	-433.333
204.95	237.500
205.32	70.000
205.70	71.429
206.08	50.000
206.45	211.111
206.83	7.143
207.20	-71.429
207.58	200.000
207.96	-300.000
208.33	-120.000
208.71	-100.000
209.08	-300.000
209.46	-1000.000
209.84	-60.000
210.21	-1200.000
210.59	-57.143
210.96	-100.000
211.34	-200.000
211.71	-13.333
212.09	-200.000
212.46	-2100.000
212.84	0.000
213.22	30.000
213.59	300.000
213.97	30.769
214.34	-27.273
214.72	-116.667
215.09	175.000
215.47	7.692
215.84	-63.636
216.22	-166.667
216.59	12.500
216.97	200.000
217.34	-150.000
217.72	-180.000
218.09	-150.000
218.47	125.000
218.84	-600.000
219.22	-100.000
219.59	20.000
219.97	366.667
220.34	100.000
220.72	-57.143
221.09	-125.000
221.47	-250.000
221.84	-150.000
222.22	-750.000
222.59	-45.455
222.97	41.667
223.34	-66.667
223.72	-35.714
224.09	33.333
224.46	57.143
224.84	233.333
225.21	-30.000
225.59	46.667
225.96	-300.000
226.34	200.000
226.71	-114.286
227.08	-100.000
227.46	-37.500
227.83	-50.000
228.21	-33.333
228.58	90.909
228.95	-37.500
229.33	140.000
229.70	6.250
230.08	-175.000
230.45	-85.714
230.82	57.143
231.20	-53.333
231.57	14.286
231.95	0.000
232.32	-50.000
232.69	50.000
233.07	66.667
233.44	-120.000
233.81	-20.000
234.19	44.444
234.56	17.647
234.93	-200.000
235.31	-25.000
235.68	-160.000
236.05	-107.692
236.43	25.000
236.80	41.176
237.17	15.625
237.55	-30.000
237.92	-7.407
238.29	5.556
238.67	56.667
239.04	38.235
239.41	4.878
239.79	0.000
240.16	9.756
240.53	28.947
240.91	-4.348
241.28	14.286
241.65	35.714
242.02	27.397
242.40	16.667
242.77	23.729
243.14	18.182
243.51	26.250
243.89	35.632
244.26	16.092
244.63	27.381
245.00	30.928
245.38	36.082
245.75	22.472
246.12	33.621
246.49	38.017
246.87	45.192
247.24	29.412
247.61	21.053
247.98	24.390
248.36	26.875
248.73	30.921
249.10	27.922
249.47	33.544
249.84	29.412
250.22	32.353
250.59	28.105
250.96	32.864
251.33	36.047
251.70	34.118
252.08	31.472
252.45	35.644
252.82	30.151
253.19	40.092
253.56	28.972
253.94	33.784
254.31	29.565
254.68	35.965
255.05	32.677
255.42	36.245
255.79	35.135
256.16	31.907
256.54	34.328
256.91	30.798
257.28	26.394
257.65	35.955
258.02	33.688
258.39	36.364
258.76	34.432
259.14	32.890
259.51	35.275
259.88	31.271
260.25	31.046
260.62	30.903
260.99	33.559
261.36	31.507
261.73	32.911
262.10	34.347
262.47	33.742
262.85	33.229
263.22	32.308
263.59	33.333
263.96	33.230
264.33	33.939
264.70	32.440
265.07	30.655
265.44	35.411
265.81	33.051
266.18	34.153
266.55	35.733
266.92	34.197
267.29	35.770
267.66	32.992
268.03	33.770
268.40	31.070
268.77	37.433
269.14	29.496
269.51	35.219
269.88	30.175
270.25	32.143
270.62	29.512
270.99	33.760
271.36	31.540
271.73	32.394
272.10	34.063
272.47	34.043
272.84	32.178
273.21	35.731
273.58	33.253
273.95	29.977
274.32	29.099
274.69	30.317
275.06	33.929
275.43	29.252
275.80	30.464
276.17	32.414
276.54	32.548
276.91	31.140
277.28	32.751
277.65	31.818
278.02	30.851
278.39	33.479
278.76	29.769
279.13	29.046
279.50	30.672
279.87	28.510
280.23	29.892
280.60	33.138
280.97	31.717
281.34	30.192
281.71	33.265
282.08	32.515
282.45	29.941
282.82	30.695
283.19	30.561
283.56	29.287
283.92	30.171
284.29	29.231
284.66	28.101
285.03	30.845
285.40	31.758
285.77	28.295
286.14	29.422
286.51	31.365
286.87	31.627
287.24	30.018
287.61	29.630
287.98	30.877
288.35	29.636
288.72	28.722
289.08	28.819
289.45	30.404
289.82	28.671
290.19	29.522
290.56	28.302
290.93	29.461
291.29	27.427
291.66	27.559
292.03	26.156
292.40	29.355
292.77	25.837
293.13	24.351
293.50	24.583
293.87	25.496
294.24	26.893
294.60	26.080
294.97	26.339
295.34	25.307
295.71	24.888
296.08	24.066
296.44	24.324
296.81	24.444
297.18	23.478
297.55	25.203
297.91	25.616
298.28	24.274
298.65	23.066
299.02	23.720
299.38	22.298
299.75	24.138
300.12	24.346
300.48	24.901
300.85	25.095
301.22	24.026
301.59	22.895
301.95	24.557
302.32	23.606
302.69	22.761
303.05	25.000
303.42	23.288
303.79	23.364
304.15	23.656
304.52	21.165
304.89	22.105
305.25	21.429
305.62	22.404
305.99	21.988
306.35	21.387
306.72	22.160
307.09	23.375
307.45	22.618
307.82	20.718
308.19	22.067
308.55	23.010
308.92	21.678
309.29	21.453
309.65	21.959
310.02	21.012
310.38	21.515
310.75	21.530
311.12	23.143
311.48	23.542
311.85	23.351
312.22	22.574
312.58	22.293
312.95	21.985
313.31	21.325
313.68	22.408
314.05	21.327
314.41	23.299
314.78	22.165
315.14	23.124
315.51	22.464
315.87	24.078
316.24	24.065
316.61	24.606
316.97	22.817
317.34	24.219
317.70	23.040
318.07	23.846
318.43	24.118
318.80	24.242
319.16	24.414
319.53	23.837
319.89	24.114
320.26	26.113
320.62	26.479
320.99	24.635
321.35	26.105
321.72	25.857
322.08	25.982
322.45	28.528
322.81	26.424
323.18	27.674
323.54	27.413
323.91	25.998
324.27	26.758
324.64	28.184
325.00	28.376
325.37	29.017
325.73	28.468
326.10	29.700
326.46	30.404
326.83	30.184
327.19	29.381
327.56	29.800
327.92	30.546
328.29	28.214
328.65	30.377
329.01	30.699
329.38	31.336
329.74	29.934
330.11	31.881
330.47	29.128
330.84	30.962
331.20	33.365
331.56	32.222
331.93	33.699
332.29	33.822
332.66	32.489
333.02	31.970
333.38	31.897
333.75	32.326
334.11	32.766
334.48	32.910
334.84	33.150
335.20	33.486
335.57	31.188
335.93	33.514
336.29	33.241
336.66	33.697
337.02	33.271
337.38	32.870
337.75	33.000
338.11	32.642
338.47	33.029
338.84	34.196
339.20	33.272
339.56	31.835
339.93	34.020
340.29	34.128
340.65	34.498
341.02	34.752
341.38	32.655
341.74	32.332
342.11	33.276
342.47	34.075
342.83	33.997
343.20	33.798
343.56	34.174
343.92	33.392
344.28	35.184
344.65	33.851
345.01	34.140
345.37	35.240
345.73	34.812
346.10	35.807
346.46	34.062
346.82	33.961
347.19	34.913
347.55	36.007
347.91	35.356
348.27	35.327
348.63	35.860
349.00	34.372
349.36	33.500
349.72	35.904
350.08	36.475
350.45	36.233
350.81	36.047
351.17	35.016
351.53	35.592
351.89	34.187
352.26	35.200
352.62	35.968
352.98	36.305
353.34	34.863
353.70	35.437
354.07	34.194
354.43	36.029
354.79	35.921
355.15	35.000
355.51	36.709
355.87	35.841
356.24	35.889
356.60	36.863
356.96	37.619
357.32	35.942
357.68	36.357
358.04	35.945
358.40	36.334
358.77	35.805
359.13	36.669
359.49	35.901
359.85	36.973
360.21	36.922
360.57	36.878
360.93	37.065
361.29	34.441
361.66	36.755
362.02	36.591
362.38	36.253
362.74	35.882
363.10	37.698
363.46	36.027
363.82	38.167
364.18	37.196
364.54	36.765
364.90	38.853
365.26	37.045
365.62	38.394
365.98	37.537
366.35	38.092
366.71	37.990
367.07	38.244
367.43	37.383
367.79	36.042
368.15	37.832
368.51	38.165
368.87	38.119
369.23	36.462
369.59	38.776
369.95	38.270
370.31	37.717
370.67	38.209
371.03	37.939
371.39	38.439
371.75	39.414
372.11	38.302
372.47	39.867
372.83	38.609
373.19	38.873
373.55	37.545
373.91	38.877
374.27	38.412
374.63	39.411
374.99	38.369
375.35	38.510
375.71	39.161
376.07	40.239
376.42	39.796
376.78	40.201
377.14	39.201
377.50	39.641
377.86	39.625
378.22	39.694
378.58	40.449
378.94	39.445
379.30	39.738
379.66	40.690
380.02	39.485
380.38	40.475
380.74	40.096
381.09	40.429
381.45	40.917
381.81	41.333
382.17	40.673
382.53	39.975
382.89	41.682
383.25	41.257
383.61	40.915
383.97	40.317
384.32	41.088
384.68	41.424
385.04	40.564
385.40	39.950
385.76	42.453
386.12	41.397
386.48	42.337
386.83	40.900
387.19	41.514
387.55	41.907
387.91	43.337
388.27	40.659
388.62	43.046
388.98	41.559
389.34	41.661
389.70	43.195
390.06	41.724
390.42	41.451
390.77	41.727
391.13	42.749
391.49	42.238
391.85	42.495
392.20	41.494
392.56	41.831
392.92	42.572
393.28	42.571
393.64	41.562
393.99	42.821
394.35	42.948
394.71	43.806
395.07	41.295
395.42	42.623
395.78	43.127
396.14	42.055
396.50	43.247
396.85	42.176
397.21	43.108
397.57	42.257
397.92	42.181
398.28	42.931
398.64	42.289
399.00	42.720
399.35	41.422
399.71	42.389
400.07	42.563
400.42	42.840
400.78	42.621
401.14	41.440
401.49	43.478
401.85	42.352
402.21	43.373
402.57	42.500
402.92	41.280
403.28	42.293
403.63	43.443
403.99	41.901
404.35	43.036
404.70	41.667
405.06	42.538
405.42	41.019
405.77	40.383
406.13	42.841
406.49	41.741
406.84	42.054
407.20	42.444
407.55	41.854
407.91	41.778
408.27	41.491
408.62	41.662
408.98	41.405
409.34	41.698
409.69	41.667
410.05	41.626
410.40	41.173
410.76	41.858
411.11	41.687
411.47	41.552
411.83	41.557
412.18	41.184
412.54	41.511
412.89	39.963
413.25	41.456
413.60	41.553
413.96	40.061
414.31	41.463
414.67	41.116
415.03	41.611
415.38	40.274
415.74	40.847
416.09	42.064
416.45	41.729
416.80	40.714
417.16	43.232
417.51	41.372
417.87	40.222
418.22	41.386
418.58	41.070
418.93	41.066
419.29	40.781
419.64	41.024
420.00	40.869
420.35	40.418
420.71	41.069
421.06	40.454
421.42	41.106
421.77	40.000
422.12	41.033
422.48	40.390
422.83	40.371
423.19	41.253
423.54	41.387
423.90	39.929
424.25	41.217
424.61	39.963
424.96	39.431
425.31	41.421
425.67	40.845
426.02	40.518
426.38	41.641
426.73	41.889
427.09	40.633
427.44	40.882
427.79	41.190
428.15	39.867
428.50	40.884
428.85	40.909
429.21	40.577
429.56	41.509
429.92	40.370
430.27	39.649
430.62	40.251
430.98	40.287
431.33	40.536
431.68	40.659
432.04	41.029
432.39	39.932
432.74	40.048
433.10	41.034
433.45	39.904
433.80	40.279
434.16	39.723
434.51	40.054
434.86	40.999
435.22	40.942
435.57	41.921
435.92	40.778
436.28	40.608
436.63	39.875
436.98	39.629
437.34	40.290
437.69	41.145
438.04	41.197
438.39	39.585
438.75	41.105
439.10	40.407
439.45	41.144
439.81	40.428
440.16	42.458
440.51	41.612
440.86	41.873
441.22	38.801
441.57	41.115
441.92	42.602
442.27	40.299
442.63	42.077
442.98	41.643
443.33	40.735
443.68	40.531
444.03	41.878
444.39	41.023
444.74	41.695
445.09	41.704
445.44	41.595
445.79	43.063
446.15	41.410
446.50	41.764
446.85	41.923
447.20	41.814
447.55	42.188
447.91	42.358
448.26	42.117
448.61	42.660
448.96	42.398
449.31	41.387
449.66	42.276
450.02	41.928
450.37	42.501
450.72	42.039
451.07	43.481
451.42	41.823
451.77	42.435
452.12	41.029
452.47	41.339
452.83	42.049
453.18	41.240
453.53	42.478
453.88	41.712
454.23	41.795
454.58	41.373
454.93	41.753
455.28	39.810
455.63	41.785
455.98	41.912
456.34	42.018
456.69	42.058
457.04	42.344
457.39	41.859
457.74	41.898
458.09	40.671
458.44	40.901
458.79	40.896
459.14	40.847
459.49	41.731
459.84	40.778
460.19	40.837
460.54	41.320
460.89	41.591
461.24	40.745
461.59	41.805
461.94	40.189
462.29	41.677
462.64	41.462
462.99	42.586
463.34	39.777
463.69	41.055
464.04	41.344
464.39	41.237
464.74	40.736
465.09	40.487
465.44	40.046
465.79	39.456
466.14	40.992
466.49	39.505
466.84	40.333
467.19	40.300
467.54	40.677
467.89	40.493
468.24	40.328
468.59	41.206
468.94	39.111
469.29	41.246
469.64	40.328
469.99	42.327
470.34	39.044
470.68	41.462
471.03	40.198
471.38	41.298
471.73	39.356
472.08	40.366
472.43	39.597
472.78	39.136
473.13	41.565
473.48	39.805
473.83	40.722
474.17	40.609
474.52	38.992
474.87	39.697
475.22	40.146
475.57	39.639
475.92	40.428
476.27	39.464
476.61	41.030
476.96	38.818
477.31	39.913
477.66	39.213
478.01	39.753
478.36	39.379
478.70	39.097
479.05	40.055
479.40	41.176
479.75	38.947
480.10	39.068
480.45	39.350
480.79	39.023
481.14	40.010
481.49	38.719
481.84	38.176
482.19	38.868
482.53	39.568
482.88	38.616
483.23	38.196
483.58	38.679
483.92	38.722
484.27	37.922
484.62	38.906
484.97	38.060
485.31	36.922
485.66	34.686
486.01	34.532
486.36	34.886
486.70	35.423
487.05	36.408
487.40	36.427
487.75	37.014
488.09	36.434
488.44	37.276
488.79	38.214
489.13	38.061
489.48	37.922
489.83	37.085
490.17	37.708
490.52	37.598
490.87	37.668
491.22	37.918
491.56	38.188
491.91	38.289
492.26	37.822
492.60	38.388
492.95	38.859
493.30	36.883
493.64	38.654
493.99	37.005
494.34	37.524
494.68	37.190
495.03	37.178
495.37	37.733
495.72	38.011
496.07	38.146
496.41	36.887
496.76	36.665
497.11	36.376
497.45	37.757
497.80	37.992
498.14	37.506
498.49	37.125
498.84	37.126
499.18	36.948
499.53	38.046
499.87	36.819
500.22	36.597
500.56	37.065
500.91	35.944
501.26	36.382
501.60	36.350
501.95	37.118
502.29	37.482
502.64	36.873
502.98	36.754
503.33	35.447
503.67	36.048
504.02	37.048
504.36	37.704
504.71	35.909
505.06	36.185
505.40	37.056
505.75	36.649
506.09	36.746
506.44	36.910
506.78	37.245
507.13	37.125
507.47	35.822
507.82	37.073
508.16	36.661
508.51	36.831
508.85	36.421
509.19	35.178
509.54	36.729
509.88	36.138
510.23	37.332
510.57	36.825
510.92	35.768
511.26	36.061
511.61	36.744
511.95	36.877
512.30	36.641
512.64	37.173
512.98	37.002
513.33	36.989
513.67	36.498
514.02	37.872
514.36	37.943
514.70	38.636
515.05	38.073
515.39	36.246
515.74	38.683
516.08	37.657
516.42	37.750
516.77	37.683
517.11	37.804
517.46	37.104
517.80	38.021
518.14	37.538
518.49	37.620
518.83	36.938
519.17	36.082
519.52	36.649
519.86	36.315
520.20	38.214
520.55	36.273
520.89	37.704
521.23	37.429
521.58	37.035
521.92	37.051
522.26	37.020
522.61	37.922
522.95	39.338
523.29	37.421
523.64	37.166
523.98	38.237
524.32	36.920
524.66	38.284
525.01	37.792
525.35	38.108
525.69	37.104
526.04	36.508
526.38	38.457
526.72	35.448
527.06	36.770
527.41	38.259
527.75	37.064
528.09	36.744
528.43	38.150
528.78	37.030
529.12	36.839
529.46	35.088
529.80	36.732
530.15	37.492
530.49	36.902
530.83	37.004
531.17	35.796
531.51	37.415
531.86	35.826
532.20	37.022
532.54	36.760
532.88	37.166
533.22	36.559
533.57	35.845
533.91	35.313
534.25	37.305
534.59	35.856
534.93	34.802
535.27	35.216
535.62	35.710
535.96	36.725
536.30	36.412
536.64	35.906
536.98	36.446
537.32	37.127
537.66	36.816
538.01	37.692
538.35	35.992
538.69	34.687
539.03	34.450
539.37	34.791
539.71	35.787
540.05	34.895
540.39	36.011
540.73	35.565
541.07	34.047
541.42	35.753
541.76	36.201
542.10	35.926
542.44	34.816
542.78	33.655
543.12	34.753
543.46	35.675
543.80	34.629
544.14	33.244
544.48	35.110
544.82	34.792
545.16	34.768
545.50	34.446
545.84	35.411
546.18	34.894
546.52	34.535
546.86	34.364
547.20	34.979
547.54	33.498
547.88	34.035
548.22	32.610
548.56	32.058
548.90	34.232
549.24	34.298
549.58	33.286
549.92	35.025
550.26	34.432
550.60	33.829
550.94	35.624
551.28	33.926
551.62	35.538
551.96	33.308
552.30	34.137
552.64	32.863
552.98	34.388
553.32	34.451
553.66	33.745
554.00	35.328
554.34	33.900
554.68	34.071
555.02	34.673
555.36	33.583
555.69	32.747
556.03	32.548
556.37	33.310
556.71	34.079
557.05	34.526
557.39	33.086
557.73	35.307
558.07	36.350
558.41	33.920
558.75	33.905
559.08	34.358
559.42	32.937
559.76	33.066
560.10	33.180
560.44	33.358
560.78	33.077
561.12	33.145
561.45	33.591
561.79	33.824
562.13	34.280
562.47	32.878
562.81	34.870
563.15	33.921
563.48	33.027
563.82	32.258
564.16	32.869
564.50	32.500
564.84	31.995
565.17	32.461
565.51	33.538
565.85	34.294
566.19	33.621
566.52	32.440
566.86	32.648
567.20	31.258
567.54	33.029
567.88	32.572
568.21	31.844
568.55	30.924
568.89	30.955
569.23	30.958
569.56	30.473
569.90	30.329
570.24	29.326
570.57	30.000
570.91	30.359
571.25	29.069
571.59	28.402
571.92	28.030
572.26	28.593
572.60	28.341
572.93	28.648
573.27	28.370
573.61	28.073
573.95	28.427
574.28	27.860
574.62	27.206
574.96	27.973
575.29	27.562
575.63	27.416
575.97	27.867
576.30	27.776
576.64	27.629
576.98	27.979
577.31	27.869
577.65	27.683
577.98	27.430
578.32	27.550
578.66	26.972
578.99	27.047
579.33	27.379
579.67	27.025
580.00	27.646
580.34	27.488
580.67	27.300
581.01	27.642
581.35	26.809
581.68	26.825
582.02	26.739
582.35	26.128
582.69	26.685
583.02	26.896
583.36	27.111
583.70	28.011
584.03	28.107
584.37	28.713
584.70	27.555
585.04	27.176
585.37	27.125
585.71	26.882
586.04	26.626
586.38	27.047
586.72	27.374
587.05	28.250
587.39	27.956
587.72	28.103
588.06	27.235
588.39	27.599
588.73	27.808
589.06	27.756
589.40	27.999
589.73	28.989
590.07	28.474
590.40	28.289
590.73	28.501
591.07	28.753
591.40	29.475
591.74	29.140
592.07	29.174
592.41	29.505
592.74	28.355
593.08	26.825
593.41	27.381
593.75	26.856
594.08	26.845
594.41	27.475
594.75	27.557
595.08	27.847
595.42	28.414
595.75	28.014
596.09	27.639
596.42	28.648
596.75	28.597
597.09	27.745
597.42	29.178
597.75	28.585
598.09	27.569
598.42	29.016
598.76	27.027
599.09	27.484
599.42	27.056
599.76	27.502
600.09	27.300
600.42	27.445
600.76	27.117
601.09	26.985
601.42	27.027
601.76	27.590
602.09	28.259
602.42	28.644
602.76	28.311
603.09	27.035
603.42	28.470
603.76	26.815
604.09	27.542
604.42	27.369
604.76	27.681
605.09	27.971
605.42	28.036
605.75	27.452
606.09	27.983
606.42	27.815
606.75	27.532
607.09	27.385
607.42	27.160
607.75	27.664
608.08	27.673
608.42	27.775
608.75	27.904
609.08	27.952
609.41	28.426
609.75	28.075
610.08	28.008
610.41	28.116
610.74	27.255
611.07	28.320
611.41	28.282
611.74	29.158
612.07	27.463
612.40	28.337
612.73	28.870
613.07	28.065
613.40	28.829
613.73	27.140
614.06	28.659
614.39	28.765
614.72	27.955
615.06	28.380
615.39	27.566
615.72	27.395
616.05	28.603
616.38	27.692
616.71	28.012
617.05	28.660
617.38	28.850
617.71	28.994
618.04	28.825
618.37	29.697
618.70	29.901
619.03	30.347
619.36	28.220
619.69	29.265
620.03	29.730
620.36	29.328
620.69	29.907
621.02	30.199
621.35	30.124
621.68	30.187
622.01	31.250
622.34	29.449
622.67	28.785
623.00	30.245
623.33	29.345
623.66	28.796
623.99	28.139
624.32	30.038
624.65	28.797
624.99	29.872
625.32	27.521
625.65	29.772
625.98	30.459
626.31	29.676
626.64	30.503
626.97	30.977
627.30	30.298
627.63	30.243
627.96	30.997
628.29	29.880
628.62	32.153
628.95	30.661
629.28	32.661
629.61	31.206
629.94	31.476
630.26	31.126
630.59	31.530
630.92	30.769
631.25	31.077
631.58	30.947
631.91	32.895
632.24	31.422
632.57	32.159
632.90	30.961
