SpectraSuite Data File
++++++++++++++++++++++++++++++++++++
Date: Fri May 15 20:56:59 PDT 2015
User: schluterlab
Dark Spectrum Present: Yes
Reference Spectrum Present: Yes
Number of Sampled Component Spectra: 1
Spectrometers: USB2E3373
Integration Time (usec): 3000 (USB2E3373)
Spectra Averaged: 3 (USB2E3373)
Boxcar Smoothing: 0 (USB2E3373)
Correct for Electrical Dark: No (USB2E3373)
Strobe/Lamp Enabled: No (USB2E3373)
Correct for Detector Non-linearity: No (USB2E3373)
Correct for Stray Light: No (USB2E3373)
Number of Pixels in Processed Spectrum: 2048
>>>>>Begin Processed Spectral Data<<<<<
178.53	0.000
178.91	0.000
179.29	-25.000
179.67	-300.000
180.04	28.571
180.42	100.000
180.80	300.000
181.18	66.667
181.56	500.000
181.94	-450.000
182.31	1000.000
182.69	20.000
183.07	-300.000
183.45	60.000
183.83	133.333
184.20	-9.091
184.58	88.889
184.96	-0.000
185.34	366.667
185.72	0.000
186.09	138.462
186.47	-900.000
186.85	-0.000
187.23	144.444
187.61	-600.000
187.98	-533.333
188.36	-33.333
188.74	-266.667
189.12	47.059
189.49	50.000
189.87	0.000
190.25	21.429
190.63	-250.000
191.00	-33.333
191.38	31.579
191.76	-100.000
192.14	250.000
192.51	-100.000
192.89	-66.667
193.27	-42.857
193.65	-0.000
194.02	172.727
194.40	-50.000
194.78	-100.000
195.15	-75.000
195.53	-12.500
195.91	150.000
196.29	-100.000
196.66	130.769
197.04	114.286
197.42	-177.778
197.79	-366.667
198.17	-92.308
198.55	900.000
198.92	-800.000
199.30	-100.000
199.68	-40.000
200.05	-500.000
200.43	0.000
200.81	33.333
201.18	-33.333
201.56	-300.000
201.94	-550.000
202.31	266.667
202.69	-280.000
203.07	100.000
203.44	-100.000
203.82	0.000
204.19	64.286
204.57	-400.000
204.95	112.500
205.32	0.000
205.70	-114.286
206.08	-75.000
206.45	111.111
206.83	28.571
207.20	-214.286
207.58	100.000
207.96	-133.333
208.33	-180.000
208.71	100.000
209.08	-300.000
209.46	-700.000
209.84	-80.000
210.21	-1600.000
210.59	128.571
210.96	-33.333
211.34	-125.000
211.71	53.333
212.09	-142.857
212.46	-2000.000
212.84	0.000
213.22	0.000
213.59	400.000
213.97	53.846
214.34	-45.455
214.72	-100.000
215.09	300.000
215.47	0.000
215.84	18.182
216.22	-233.333
216.59	-37.500
216.97	-250.000
217.34	-100.000
217.72	-220.000
218.09	-25.000
218.47	87.500
218.84	-1100.000
219.22	-11.111
219.59	0.000
219.97	366.667
220.34	75.000
220.72	0.000
221.09	-200.000
221.47	50.000
221.84	-850.000
222.22	-650.000
222.59	27.273
222.97	33.333
223.34	0.000
223.72	-28.571
224.09	-4.762
224.46	35.714
224.84	466.667
225.21	-10.000
225.59	33.333
225.96	-550.000
226.34	225.000
226.71	-57.143
227.08	-50.000
227.46	-25.000
227.83	-650.000
228.21	11.111
228.58	-18.182
228.95	-50.000
229.33	160.000
229.70	31.250
230.08	-137.500
230.45	0.000
230.82	-42.857
231.20	-60.000
231.57	64.286
231.95	-100.000
232.32	-40.000
232.69	14.286
233.07	-200.000
233.44	-160.000
233.81	-110.000
234.19	-44.444
234.56	35.294
234.93	750.000
235.31	0.000
235.68	-340.000
236.05	-130.769
236.43	-40.000
236.80	-47.059
237.17	18.750
237.55	-20.000
237.92	-22.222
238.29	8.333
238.67	23.333
239.04	-5.882
239.41	-39.024
239.79	-50.000
240.16	14.634
240.53	-15.789
240.91	-26.087
241.28	-7.937
241.65	8.929
242.02	23.288
242.40	13.333
242.77	-10.169
243.14	-16.667
243.51	6.250
243.89	10.345
244.26	-13.793
244.63	-9.524
245.00	-12.371
245.38	-4.124
245.75	-19.101
246.12	-1.724
246.49	-0.826
246.87	4.808
247.24	-5.042
247.61	-7.018
247.98	-7.317
248.36	-1.250
248.73	-4.605
249.10	-3.896
249.47	-5.063
249.84	-3.922
250.22	-4.706
250.59	-3.268
250.96	4.695
251.33	-2.907
251.70	-2.941
252.08	-2.030
252.45	-3.465
252.82	-6.533
253.19	-1.382
253.56	-8.879
253.94	1.351
254.31	-0.870
254.68	0.439
255.05	-4.331
255.42	-1.747
255.79	1.158
256.16	-1.556
256.54	1.119
256.91	-2.662
257.28	-0.372
257.65	-5.243
258.02	-3.901
258.39	-0.673
258.76	2.198
259.14	0.332
259.51	-0.971
259.88	-3.780
260.25	-2.288
260.62	-0.347
260.99	-4.407
261.36	-3.082
261.73	-1.899
262.10	1.824
262.47	-2.147
262.85	-2.821
263.22	-0.615
263.59	-1.869
263.96	2.484
264.33	-3.939
264.70	-3.274
265.07	-2.083
265.44	0.850
265.81	-1.412
266.18	0.000
266.55	0.257
266.92	1.554
267.29	-2.350
267.66	-3.325
268.03	1.309
268.40	-1.044
268.77	0.000
269.14	-0.719
269.51	2.828
269.88	-1.496
270.25	-3.827
270.62	-2.195
270.99	-3.581
271.36	-0.733
271.73	0.704
272.10	-1.460
272.47	0.236
272.84	-0.743
273.21	2.320
273.58	0.000
273.95	0.915
274.32	-0.924
274.69	-0.905
275.06	0.000
275.43	-1.134
275.80	1.104
276.17	-1.609
276.54	0.857
276.91	0.658
277.28	0.437
277.65	0.207
278.02	-1.064
278.39	-0.875
278.76	0.419
279.13	-2.490
279.50	-0.840
279.87	0.216
280.23	-1.505
280.60	0.195
280.97	-2.222
281.34	-1.538
281.71	1.643
282.08	0.000
282.45	-0.978
282.82	0.000
283.19	-0.193
283.56	0.000
283.92	-0.759
284.29	-1.154
284.66	-1.357
285.03	-3.929
285.40	-1.890
285.77	-1.757
286.14	0.542
286.51	1.292
286.87	0.731
287.24	-1.842
287.61	-0.176
287.98	1.228
288.35	0.173
288.72	0.350
289.08	-0.174
289.45	-0.351
289.82	0.175
290.19	-0.512
290.56	-0.858
290.93	-0.673
291.29	-0.770
291.66	-0.787
292.03	-0.797
292.40	-0.645
292.77	-2.073
293.13	-2.110
293.50	-1.366
293.87	1.069
294.24	0.000
294.60	1.937
294.97	0.744
295.34	-2.147
295.71	-0.298
296.08	0.000
296.44	-1.138
296.81	-0.556
297.18	-0.145
297.55	1.355
297.91	0.137
298.28	0.660
298.65	0.678
299.02	-2.022
299.38	-1.642
299.75	-1.103
300.12	-0.262
300.48	-1.581
300.85	0.380
301.22	-0.649
301.59	-0.921
301.95	1.139
302.32	1.167
302.69	-0.746
303.05	0.124
303.42	-0.747
303.79	1.402
304.15	1.195
304.52	-0.713
304.89	-1.637
305.25	-1.211
305.62	0.000
305.99	-0.936
306.35	0.462
306.72	-1.012
307.09	-0.114
307.45	0.459
307.82	0.116
308.19	0.116
308.55	0.218
308.92	0.980
309.29	-0.559
309.65	0.215
310.02	0.770
310.38	-0.439
310.75	0.328
311.12	-0.323
311.48	-0.318
311.85	0.314
312.22	-0.105
312.58	0.000
312.95	-0.640
313.31	-0.621
313.68	-0.524
314.05	-0.102
314.41	1.031
314.78	-0.103
315.14	1.542
315.51	0.725
315.87	0.102
316.24	2.224
316.61	1.476
316.97	1.488
317.34	1.172
317.70	2.008
318.07	1.154
318.43	2.451
318.80	1.799
319.16	1.953
319.53	4.274
319.89	1.969
320.26	3.644
320.62	3.912
320.99	2.192
321.35	4.830
321.72	6.542
322.08	5.035
322.45	3.756
322.81	5.894
323.18	5.888
323.54	5.502
323.91	6.134
324.27	7.129
324.64	7.303
325.00	7.208
325.37	9.734
325.73	7.616
326.10	8.810
326.46	9.417
326.83	10.499
327.19	10.375
327.56	11.121
327.92	11.356
328.29	11.429
328.65	10.283
329.01	11.305
329.38	12.719
329.74	11.143
330.11	12.697
330.47	10.761
330.84	12.115
331.20	14.449
331.56	12.037
331.93	14.064
332.29	15.215
332.66	13.756
333.02	13.104
333.38	13.932
333.75	15.201
334.11	13.160
334.48	14.143
334.84	16.026
335.20	15.005
335.57	13.509
335.93	15.899
336.29	14.457
336.66	14.623
337.02	13.941
337.38	15.926
337.75	14.182
338.11	16.141
338.47	14.964
338.84	15.804
339.20	15.356
339.56	16.789
339.93	15.130
340.29	16.330
340.65	15.143
341.02	15.426
341.38	16.195
341.74	14.929
342.11	14.471
342.47	15.036
342.83	14.879
343.20	15.505
343.56	15.739
343.92	16.120
344.28	16.140
344.65	16.062
345.01	14.607
345.37	15.812
345.73	15.397
346.10	15.789
346.46	14.886
346.82	16.448
347.19	14.879
347.55	15.957
347.91	16.424
348.27	15.198
348.63	16.184
349.00	14.848
349.36	14.963
349.72	15.920
350.08	15.246
350.45	15.084
350.81	14.203
351.17	14.577
351.53	17.061
351.89	14.781
352.26	15.040
352.62	17.016
352.98	15.100
353.34	13.768
353.70	15.210
354.07	15.000
354.43	15.853
354.79	13.955
355.15	16.349
355.51	15.981
355.87	14.401
356.24	14.111
356.60	14.228
356.96	16.190
357.32	15.415
357.68	14.699
358.04	13.166
358.40	13.987
358.77	14.593
359.13	14.572
359.49	14.330
359.85	14.197
360.21	14.753
360.57	14.767
360.93	15.129
361.29	13.595
361.66	14.577
362.02	15.227
362.38	14.699
362.74	14.837
363.10	14.974
363.46	14.010
363.82	14.726
364.18	14.244
364.54	13.603
364.90	13.405
365.26	13.610
365.62	15.036
365.98	14.736
366.35	15.076
366.71	14.856
367.07	15.167
367.43	14.091
367.79	14.488
368.15	13.424
368.51	14.494
368.87	12.491
369.23	14.729
369.59	13.630
369.95	14.150
370.31	14.162
370.67	14.030
371.03	13.592
371.39	13.129
371.75	14.212
372.11	13.980
372.47	13.683
372.83	13.911
373.19	14.051
373.55	12.708
373.91	13.607
374.27	13.962
374.63	14.286
374.99	13.333
375.35	13.370
375.71	13.846
376.07	13.132
376.42	14.422
376.78	13.490
377.14	13.338
377.50	13.347
377.86	13.454
378.22	14.040
378.58	13.654
378.94	12.665
379.30	12.851
379.66	13.480
380.02	12.508
380.38	12.477
380.74	13.405
381.09	13.190
381.45	12.966
381.81	13.819
382.17	13.008
382.53	12.617
382.89	12.869
383.25	13.255
383.61	13.841
383.97	12.508
384.32	12.633
384.68	12.136
385.04	12.377
385.40	12.197
385.76	13.333
386.12	13.519
386.48	13.027
386.83	12.999
387.19	13.126
387.55	12.923
387.91	12.103
388.27	12.210
388.62	12.272
388.98	11.909
389.34	12.680
389.70	12.989
390.06	11.517
390.42	12.111
390.77	12.230
391.13	11.412
391.49	12.354
391.85	11.891
392.20	10.797
392.56	11.888
392.92	12.096
393.28	11.321
393.64	11.772
393.99	11.661
394.35	11.322
394.71	12.005
395.07	12.005
395.42	11.354
395.78	11.726
396.14	11.475
396.50	11.985
396.85	11.912
397.21	11.779
397.57	10.972
397.92	10.605
398.28	11.322
398.64	11.386
399.00	11.287
399.35	10.440
399.71	12.522
400.07	11.185
400.42	11.016
400.78	11.941
401.14	10.768
401.49	11.376
401.85	9.567
402.21	10.783
402.57	10.063
402.92	10.602
403.28	10.652
403.63	10.467
403.99	10.969
404.35	10.743
404.70	10.238
405.06	9.342
405.42	10.317
405.77	9.413
406.13	10.536
406.49	10.480
406.84	10.513
407.20	9.633
407.55	8.822
407.91	9.158
408.27	9.560
408.62	10.462
408.98	10.043
409.34	10.099
409.69	9.496
410.05	10.099
410.40	9.753
410.76	9.952
411.11	9.438
411.47	10.125
411.83	8.475
412.18	9.395
412.54	9.551
412.89	8.374
413.25	9.025
413.60	8.944
413.96	8.834
414.31	9.756
414.67	8.724
415.03	9.121
415.38	8.616
415.74	9.055
416.09	9.406
416.45	9.453
416.80	8.394
417.16	9.254
417.51	9.127
417.87	8.344
418.22	8.420
418.58	8.896
418.93	8.652
419.29	8.963
419.64	8.360
420.00	9.824
420.35	8.239
420.71	9.052
421.06	7.919
421.42	9.195
421.77	8.266
422.12	7.775
422.48	8.446
422.83	9.049
423.19	8.747
423.54	6.702
423.90	7.715
424.25	8.898
424.61	9.058
424.96	8.769
425.31	9.185
425.67	7.746
426.02	8.716
426.38	8.641
426.73	8.172
427.09	8.481
427.44	8.176
427.79	9.134
428.15	8.192
428.50	8.056
428.85	7.494
429.21	8.942
429.56	7.763
429.92	8.320
430.27	8.672
430.62	6.691
430.98	7.696
431.33	8.675
431.68	8.268
432.04	8.105
432.39	7.986
432.74	7.998
433.10	8.621
433.45	8.124
433.80	7.487
434.16	6.981
434.51	7.796
434.86	7.782
435.22	8.469
435.57	8.110
435.92	7.725
436.28	7.931
436.63	7.359
436.98	7.706
437.34	7.623
437.69	8.229
438.04	7.749
438.39	7.514
438.75	7.225
439.10	8.489
439.45	8.034
439.81	8.196
440.16	7.245
440.51	8.299
440.86	8.580
441.22	7.805
441.57	7.781
441.92	8.290
442.27	7.705
442.63	8.619
442.98	8.041
443.33	7.290
443.68	7.905
444.03	8.346
444.39	8.214
444.74	8.473
445.09	8.241
445.44	7.578
445.79	8.045
446.15	8.370
446.50	7.654
446.85	8.183
447.20	8.916
447.55	9.096
447.91	8.178
448.26	8.822
448.61	8.751
448.96	8.204
449.31	8.439
449.66	8.653
450.02	8.557
450.37	8.417
450.72	7.961
451.07	8.291
451.42	7.241
451.77	8.559
452.12	8.074
452.47	7.341
452.83	8.422
453.18	7.653
453.53	8.597
453.88	8.986
454.23	8.666
454.58	8.375
454.93	8.634
455.28	8.127
455.63	8.803
455.98	8.238
456.34	8.748
456.69	8.577
457.04	9.263
457.39	7.898
457.74	8.585
458.09	8.358
458.44	7.724
458.79	8.235
459.14	8.638
459.49	8.836
459.84	8.855
460.19	7.706
460.54	8.619
460.89	8.693
461.24	8.012
461.59	8.848
461.94	8.176
462.29	9.288
462.64	8.505
462.99	8.802
463.34	8.067
463.69	7.272
464.04	8.898
464.39	8.308
464.74	8.466
465.09	8.359
465.44	8.598
465.79	8.390
466.14	8.495
466.49	7.648
466.84	8.209
467.19	8.448
467.54	8.557
467.89	7.517
468.24	8.151
468.59	8.635
468.94	8.508
469.29	8.656
469.64	9.501
469.99	9.180
470.34	7.509
470.68	9.247
471.03	8.917
471.38	8.559
471.73	8.613
472.08	8.752
472.43	7.852
472.78	7.539
473.13	8.163
473.48	8.339
473.83	8.593
474.17	7.578
474.52	8.168
474.87	8.424
475.22	8.664
475.57	8.526
475.92	8.941
476.27	9.488
476.61	8.507
476.96	7.195
477.31	8.924
477.66	7.921
478.01	7.748
478.36	8.061
478.70	8.211
479.05	8.407
479.40	8.691
479.75	7.873
480.10	8.244
480.45	7.650
480.79	8.711
481.14	8.094
481.49	7.734
481.84	8.060
482.19	7.624
482.53	8.201
482.88	7.542
483.23	7.965
483.58	7.830
483.92	7.793
484.27	7.794
484.62	8.247
484.97	7.670
485.31	7.731
485.66	7.442
486.01	7.837
486.36	7.561
486.70	8.054
487.05	7.393
487.40	7.549
487.75	7.465
488.09	7.447
488.44	7.600
488.79	7.733
489.13	7.933
489.48	7.567
489.83	7.803
490.17	7.326
490.52	7.714
490.87	7.867
491.22	7.641
491.56	7.922
491.91	7.457
492.26	7.487
492.60	7.917
492.95	8.116
493.30	7.670
493.64	7.466
493.99	8.309
494.34	6.893
494.68	7.476
495.03	7.153
495.37	7.507
495.72	8.026
496.07	7.805
496.41	7.830
496.76	7.508
497.11	7.639
497.45	7.828
497.80	7.820
498.14	7.650
498.49	7.669
498.84	7.585
499.18	7.430
499.53	7.440
499.87	7.442
500.22	7.319
500.56	7.816
500.91	7.078
501.26	7.662
501.60	7.182
501.95	7.715
502.29	7.458
502.64	7.674
502.98	7.499
503.33	7.061
503.67	7.277
504.02	7.576
504.36	7.620
504.71	7.424
505.06	7.348
505.40	7.157
505.75	7.835
506.09	7.552
506.44	7.187
506.78	8.061
507.13	7.032
507.47	6.893
507.82	6.838
508.16	6.815
508.51	6.611
508.85	7.326
509.19	7.451
509.54	7.024
509.88	6.796
510.23	6.724
510.57	6.734
510.92	6.557
511.26	6.765
511.61	7.426
511.95	7.233
512.30	7.373
512.64	7.401
512.98	6.401
513.33	7.834
513.67	6.367
514.02	7.723
514.36	7.143
514.70	7.692
515.05	7.344
515.39	7.556
515.74	7.725
516.08	6.874
516.42	7.715
516.77	7.490
517.11	6.825
517.46	7.959
517.80	7.330
518.14	7.042
518.49	6.611
518.83	6.744
519.17	6.489
519.52	6.927
519.86	6.182
520.20	6.926
520.55	6.504
520.89	7.528
521.23	7.093
521.58	8.265
521.92	7.308
522.26	6.766
522.61	7.078
522.95	6.954
523.29	6.989
523.64	7.942
523.98	7.453
524.32	6.121
524.66	7.042
525.01	7.078
525.35	6.935
525.69	5.993
526.04	6.481
526.38	7.652
526.72	6.802
527.06	6.744
527.41	7.916
527.75	6.032
528.09	6.512
528.43	7.090
528.78	6.469
529.12	6.903
529.46	6.693
529.80	7.030
530.15	7.195
530.49	6.801
530.83	6.498
531.17	6.985
531.51	7.045
531.86	5.846
532.20	5.985
532.54	6.739
532.88	6.639
533.22	6.519
533.57	6.553
533.91	5.679
534.25	7.161
534.59	6.543
534.93	5.853
535.27	6.282
535.62	6.481
535.96	7.241
536.30	6.860
536.64	6.547
536.98	6.063
537.32	6.401
537.66	7.223
538.01	6.294
538.35	6.311
538.69	6.525
539.03	6.220
539.37	6.595
539.71	6.817
540.05	5.635
540.39	6.925
540.73	6.485
541.07	7.044
541.42	6.586
541.76	7.089
542.10	5.781
542.44	6.324
542.78	6.263
543.12	6.662
543.46	6.954
543.80	6.246
544.14	6.008
544.48	6.129
544.82	6.357
545.16	7.377
545.50	6.742
545.84	6.870
546.18	6.738
546.52	7.282
546.86	6.254
547.20	6.223
547.54	5.371
547.88	6.522
548.22	5.720
548.56	6.266
548.90	6.132
549.24	6.543
549.58	6.135
549.92	5.933
550.26	5.861
550.60	5.502
550.94	6.199
551.28	5.564
551.62	5.231
551.96	6.316
552.30	5.848
552.64	5.712
552.98	6.399
553.32	5.920
553.66	5.443
554.00	6.861
554.34	5.761
554.68	5.900
555.02	6.473
555.36	6.208
555.69	5.641
556.03	4.854
556.37	5.196
556.71	5.704
557.05	5.444
557.39	5.502
557.73	5.997
558.07	5.807
558.41	5.054
558.75	5.768
559.08	4.728
559.42	5.476
559.76	5.685
560.10	5.352
560.44	5.510
560.78	6.084
561.12	5.289
561.45	5.271
561.79	6.022
562.13	6.104
562.47	4.964
562.81	5.836
563.15	5.571
563.48	6.011
563.82	5.834
564.16	5.850
564.50	5.135
564.84	6.760
565.17	5.634
565.51	5.396
565.85	6.241
566.19	5.305
566.52	5.228
566.86	6.812
567.20	4.981
567.54	4.927
567.88	5.858
568.21	5.769
568.55	5.326
568.89	5.493
569.23	5.489
569.56	5.560
569.90	5.359
570.24	5.806
570.57	5.455
570.91	5.995
571.25	5.294
571.59	5.388
571.92	5.274
572.26	5.284
572.60	5.116
572.93	5.930
573.27	5.266
573.61	5.131
573.95	5.298
574.28	5.350
574.62	5.212
574.96	5.535
575.29	4.745
575.63	5.468
575.97	5.150
576.30	5.313
576.64	5.086
576.98	5.663
577.31	5.284
577.65	5.482
577.98	5.199
578.32	5.297
578.66	5.158
578.99	5.288
579.33	5.171
579.67	5.072
580.00	5.215
580.34	5.224
580.67	5.143
581.01	5.451
581.35	5.426
581.68	4.940
582.02	4.863
582.35	5.218
582.69	5.220
583.02	4.999
583.36	5.465
583.70	5.088
584.03	4.949
584.37	5.675
584.70	5.330
585.04	5.130
585.37	5.233
585.71	5.505
586.04	5.068
586.38	4.908
586.72	5.337
587.05	5.690
587.39	5.368
587.72	5.522
588.06	5.425
588.39	5.525
588.73	5.037
589.06	5.479
589.40	5.911
589.73	5.915
590.07	5.891
590.40	4.954
590.73	5.107
591.07	6.022
591.40	4.898
591.74	5.430
592.07	6.262
592.41	5.433
592.74	5.496
593.08	5.379
593.41	5.799
593.75	5.136
594.08	5.321
594.41	5.131
594.75	4.962
595.08	5.373
595.42	5.484
595.75	5.520
596.09	5.004
596.42	5.250
596.75	5.107
597.09	5.148
597.42	5.465
597.75	4.581
598.09	5.297
598.42	5.415
598.76	5.148
599.09	5.569
599.42	5.457
599.76	5.305
600.09	5.317
600.42	5.534
600.76	4.941
601.09	4.771
601.42	4.857
601.76	5.240
602.09	5.487
602.42	5.855
602.76	5.136
603.09	5.523
603.42	5.226
603.76	4.960
604.09	4.982
604.42	5.711
604.76	5.607
605.09	5.347
605.42	5.237
605.75	5.473
606.09	5.011
606.42	5.046
606.75	5.238
607.09	6.066
607.42	4.741
607.75	5.329
608.08	5.256
608.42	5.619
608.75	5.349
609.08	5.331
609.41	4.975
609.75	4.788
610.08	5.292
610.41	5.266
610.74	5.022
611.07	5.116
611.41	5.449
611.74	5.330
612.07	5.835
612.40	5.525
612.73	5.085
613.07	4.781
613.40	6.127
613.73	4.868
614.06	5.398
614.39	6.035
614.72	5.378
615.06	5.978
615.39	6.332
615.72	5.436
616.05	5.475
616.38	5.641
616.71	5.382
617.05	5.250
617.38	5.280
617.71	4.780
618.04	5.968
618.37	6.431
618.70	6.337
619.03	6.042
619.36	4.703
619.69	4.928
620.03	5.698
620.36	5.508
620.69	5.639
621.02	5.657
621.35	6.307
621.68	4.422
622.01	4.917
622.34	6.065
622.67	5.757
623.00	6.049
623.33	5.183
623.66	5.610
623.99	5.295
624.32	6.388
624.65	4.662
624.99	5.568
625.32	5.004
625.65	5.656
625.98	6.688
626.31	5.320
626.64	6.499
626.97	7.155
627.30	5.692
627.63	6.586
627.96	5.121
628.29	5.365
628.62	5.506
628.95	5.912
629.28	5.242
629.61	4.885
629.94	6.158
630.26	4.545
630.59	5.931
630.92	6.154
631.25	5.128
631.58	4.736
631.91	3.509
632.24	4.931
632.57	6.705
632.90	4.745
633.23	5.882
633.56	5.416
633.89	5.055
634.22	6.296
634.55	6.226
634.88	5.364
635.20	4.359
635.53	5.600
635.86	4.811
636.19	6.468
636.52	5.230
636.85	4.715
637.18	4.277
637.51	5.157
637.83	4.599
638.16	6.685
638.49	4.223
638.82	5.789
639.15	4.342
639.48	5.365
639.81	6.555
640.13	3.463
640.46	5.102
640.79	3.093
641.12	5.170
641.45	6.607
641.77	6.667
642.10	6.003
642.43	4.984
642.76	5.446
643.09	6.462
643.41	5.340
643.74	5.766
644.07	5.911
644.40	5.743
644.73	6.655
645.05	6.040
645.38	2.998
645.71	5.319
646.04	6.104
646.36	5.674
646.69	6.295
647.02	5.482
647.35	8.396
647.67	5.850
648.00	7.276
648.33	7.509
648.66	4.746
648.98	3.518
649.31	4.298
649.64	5.495
649.96	3.728
650.29	6.133
650.62	5.983
650.94	5.556
