SpectraSuite Data File
++++++++++++++++++++++++++++++++++++
Date: Fri May 15 21:07:25 PDT 2015
User: schluterlab
Dark Spectrum Present: Yes
Reference Spectrum Present: Yes
Number of Sampled Component Spectra: 1
Spectrometers: USB2E3373
Integration Time (usec): 3000 (USB2E3373)
Spectra Averaged: 3 (USB2E3373)
Boxcar Smoothing: 0 (USB2E3373)
Correct for Electrical Dark: No (USB2E3373)
Strobe/Lamp Enabled: No (USB2E3373)
Correct for Detector Non-linearity: No (USB2E3373)
Correct for Stray Light: No (USB2E3373)
Number of Pixels in Processed Spectrum: 2048
>>>>>Begin Processed Spectral Data<<<<<
178.53	0.000
178.91	0.000
179.29	112.500
179.67	-350.000
180.04	-0.000
180.42	50.000
180.80	-500.000
181.18	-133.333
181.56	200.000
181.94	-400.000
182.31	500.000
182.69	-60.000
183.07	-100.000
183.45	-240.000
183.83	166.667
184.20	-18.182
184.58	222.222
184.96	-75.000
185.34	100.000
185.72	-150.000
186.09	161.538
186.47	-1200.000
186.85	166.667
187.23	88.889
187.61	600.000
187.98	-266.667
188.36	-22.222
188.74	-400.000
189.12	5.882
189.49	11.111
189.87	0.000
190.25	57.143
190.63	-50.000
191.00	66.667
191.38	15.789
191.76	150.000
192.14	250.000
192.51	-400.000
192.89	-88.889
193.27	-142.857
193.65	333.333
194.02	172.727
194.40	10.000
194.78	-25.000
195.15	-66.667
195.53	-150.000
195.91	-0.000
196.29	-100.000
196.66	92.308
197.04	142.857
197.42	-22.222
197.79	-633.333
198.17	-100.000
198.55	1000.000
198.92	-533.333
199.30	-1000.000
199.68	-400.000
200.05	-366.667
200.43	0.000
200.81	-66.667
201.18	-100.000
201.56	1900.000
201.94	-850.000
202.31	333.333
202.69	-60.000
203.07	250.000
203.44	1000.000
203.82	0.000
204.19	-50.000
204.57	-666.667
204.95	87.500
205.32	-10.000
205.70	14.286
206.08	-125.000
206.45	66.667
206.83	-7.143
207.20	-85.714
207.58	300.000
207.96	0.000
208.33	-110.000
208.71	25.000
209.08	-200.000
209.46	-700.000
209.84	-200.000
210.21	-700.000
210.59	71.429
210.96	100.000
211.34	-25.000
211.71	33.333
212.09	-171.429
212.46	-1700.000
212.84	0.000
213.22	70.000
213.59	200.000
213.97	30.769
214.34	90.909
214.72	-166.667
215.09	525.000
215.47	0.000
215.84	-18.182
216.22	-300.000
216.59	-162.500
216.97	-100.000
217.34	-100.000
217.72	-260.000
218.09	25.000
218.47	100.000
218.84	-900.000
219.22	-66.667
219.59	-200.000
219.97	533.333
220.34	300.000
220.72	-171.429
221.09	-200.000
221.47	-150.000
221.84	-750.000
222.22	-800.000
222.59	63.636
222.97	16.667
223.34	-233.333
223.72	-57.143
224.09	-33.333
224.46	-21.429
224.84	500.000
225.21	-40.000
225.59	33.333
225.96	-300.000
226.34	500.000
226.71	-142.857
227.08	-216.667
227.46	62.500
227.83	-550.000
228.21	33.333
228.58	-36.364
228.95	-125.000
229.33	100.000
229.70	56.250
230.08	-25.000
230.45	-57.143
230.82	42.857
231.20	6.667
231.57	57.143
231.95	0.000
232.32	-140.000
232.69	-42.857
233.07	0.000
233.44	-100.000
233.81	-40.000
234.19	55.556
234.56	-41.176
234.93	250.000
235.31	125.000
235.68	-140.000
236.05	7.692
236.43	-25.000
236.80	-17.647
237.17	31.250
237.55	20.000
237.92	-14.815
238.29	16.667
238.67	0.000
239.04	14.706
239.41	-9.756
239.79	33.333
240.16	56.098
240.53	13.158
240.91	21.739
241.28	33.333
241.65	19.643
242.02	32.877
242.40	25.000
242.77	18.644
243.14	22.727
243.51	17.500
243.89	33.333
244.26	26.437
244.63	23.810
245.00	17.526
245.38	26.804
245.75	21.348
246.12	23.276
246.49	33.884
246.87	35.577
247.24	26.050
247.61	26.316
247.98	26.829
248.36	32.500
248.73	28.289
249.10	28.571
249.47	29.114
249.84	27.451
250.22	34.706
250.59	37.255
250.96	33.333
251.33	30.233
251.70	31.765
252.08	30.964
252.45	29.703
252.82	29.648
253.19	31.797
253.56	33.645
253.94	32.883
254.31	36.087
254.68	35.088
255.05	30.315
255.42	32.314
255.79	34.749
256.16	30.350
256.54	36.194
256.91	31.559
257.28	33.457
257.65	33.708
258.02	34.043
258.39	32.323
258.76	30.769
259.14	34.551
259.51	36.246
259.88	35.052
260.25	33.660
260.62	32.986
260.99	30.508
261.36	33.904
261.73	34.177
262.10	35.562
262.47	34.356
262.85	33.542
263.22	33.846
263.59	33.022
263.96	37.267
264.33	33.030
264.70	33.929
265.07	34.821
265.44	35.411
265.81	35.028
266.18	35.792
266.55	34.961
266.92	33.679
267.29	33.420
267.66	33.248
268.03	35.340
268.40	34.465
268.77	31.016
269.14	35.252
269.51	30.334
269.88	35.910
270.25	30.612
270.62	32.439
270.99	32.481
271.36	32.763
271.73	30.282
272.10	36.496
272.47	33.806
272.84	31.436
273.21	35.731
273.58	33.012
273.95	32.494
274.32	31.178
274.69	29.864
275.06	32.366
275.43	30.839
275.80	33.775
276.17	33.333
276.54	33.619
276.91	31.579
277.28	29.913
277.65	30.992
278.02	29.787
278.39	32.385
278.76	29.350
279.13	29.046
279.50	31.933
279.87	31.102
280.23	32.043
280.60	32.943
280.97	32.929
281.34	32.115
281.71	33.676
282.08	29.652
282.45	29.550
282.82	29.344
283.19	31.335
283.56	32.370
283.92	32.827
284.29	30.192
284.66	30.620
285.03	32.809
285.40	30.435
285.77	30.228
286.14	28.881
286.51	29.520
286.87	29.616
287.24	33.149
287.61	28.748
287.98	31.404
288.35	28.943
288.72	33.275
289.08	28.125
289.45	29.350
289.82	27.448
290.19	27.645
290.56	28.816
290.93	26.768
291.29	26.965
291.66	28.819
292.03	28.230
292.40	27.581
292.77	27.273
293.13	24.675
293.50	26.707
293.87	25.344
294.24	25.657
294.60	25.633
294.97	26.339
295.34	25.460
295.71	24.292
296.08	23.767
296.44	24.040
296.81	25.417
297.18	24.203
297.55	25.203
297.91	23.973
298.28	25.858
298.65	22.795
299.02	22.507
299.38	22.298
299.75	22.621
300.12	23.429
300.48	22.398
300.85	23.447
301.22	23.377
301.59	23.684
301.95	22.532
302.32	24.773
302.69	22.015
303.05	21.658
303.42	20.548
303.79	22.079
304.15	20.789
304.52	21.998
304.89	21.520
305.25	23.123
305.62	20.887
305.99	22.105
306.35	22.081
306.72	21.485
307.09	20.981
307.45	21.584
307.82	20.370
308.19	24.042
308.55	22.792
308.92	22.985
309.29	21.564
309.65	20.883
310.02	20.022
310.38	20.307
310.75	22.186
311.12	20.883
311.48	20.891
311.85	20.628
312.22	20.570
312.58	19.851
312.95	19.851
313.31	19.669
313.68	20.628
314.05	19.898
314.41	21.443
314.78	21.031
315.14	20.966
315.51	20.704
315.87	20.184
316.24	21.436
316.61	19.488
316.97	20.635
317.34	19.238
317.70	20.076
318.07	20.288
318.43	19.706
318.80	19.413
319.16	20.410
319.53	20.418
319.89	20.079
320.26	19.737
320.62	20.461
320.99	19.415
321.35	20.041
321.72	21.391
322.08	20.040
322.45	21.117
322.81	19.548
323.18	19.431
323.54	19.981
323.91	19.474
324.27	19.922
324.64	19.569
325.00	19.526
325.37	21.671
325.73	18.586
326.10	18.892
326.46	18.834
326.83	19.773
327.19	19.355
327.56	19.809
327.92	18.926
328.29	18.929
328.65	19.434
329.01	18.658
329.38	19.078
329.74	18.602
330.11	18.443
330.47	17.996
330.84	17.885
331.20	19.392
331.56	18.056
331.93	18.447
332.29	18.240
332.66	18.914
333.02	19.238
333.38	18.057
333.75	19.139
334.11	17.905
334.48	18.314
334.84	18.315
335.20	18.207
335.57	16.591
335.93	19.422
336.29	19.337
336.66	19.800
337.02	16.914
337.38	17.407
337.75	18.273
338.11	17.674
338.47	19.708
338.84	17.837
339.20	18.464
339.56	17.890
339.93	17.995
340.29	19.174
340.65	18.011
341.02	18.528
341.38	17.788
341.74	17.049
342.11	16.291
342.47	16.815
342.83	17.820
343.20	17.683
343.56	18.261
343.92	17.981
344.28	18.873
344.65	15.285
345.01	16.854
345.37	16.989
345.73	18.661
346.10	17.601
346.46	17.662
346.82	17.921
347.19	17.041
347.55	17.544
347.91	17.961
348.27	17.057
348.63	17.291
349.00	15.833
349.36	17.373
349.72	17.828
350.08	16.803
350.45	19.074
350.81	15.199
351.17	16.857
351.53	16.571
351.89	16.102
352.26	17.840
352.62	17.984
352.98	16.948
353.34	17.472
353.70	16.505
354.07	17.097
354.43	16.413
354.79	16.846
355.15	17.460
355.51	17.880
355.87	17.071
356.24	16.313
356.60	17.138
356.96	17.222
357.32	16.294
357.68	15.950
358.04	15.832
358.40	16.559
358.77	16.906
359.13	16.093
359.49	15.023
359.85	16.225
360.21	16.348
360.57	15.608
360.93	16.793
361.29	15.861
361.66	17.085
362.02	16.364
362.38	16.832
362.74	16.124
363.10	16.479
363.46	17.050
363.82	17.130
364.18	16.531
364.54	15.882
364.90	15.914
365.26	16.958
365.62	16.788
365.98	16.202
366.35	16.315
366.71	16.482
367.07	16.110
367.43	15.313
367.79	16.113
368.15	15.793
368.51	15.368
368.87	15.363
369.23	16.968
369.59	15.087
369.95	15.249
370.31	16.474
370.67	16.716
371.03	15.907
371.39	15.244
371.75	15.458
372.11	15.835
372.47	15.754
372.83	16.395
373.19	16.762
373.55	15.596
373.91	16.199
374.27	15.096
374.63	16.296
374.99	15.390
375.35	16.783
375.71	16.294
376.07	15.730
376.42	15.714
376.78	16.510
377.14	15.572
377.50	16.268
377.86	15.395
378.22	16.146
378.58	15.577
378.94	15.375
379.30	15.970
379.66	16.113
380.02	15.328
380.38	14.790
380.74	15.200
381.09	16.380
381.45	15.168
381.81	15.546
382.17	15.673
382.53	16.615
382.89	15.756
383.25	15.308
383.61	16.646
383.97	15.175
384.32	15.572
384.68	16.347
385.04	15.686
385.40	15.184
385.76	16.981
386.12	15.589
386.48	16.028
386.83	15.536
387.19	14.896
387.55	15.684
387.91	14.731
388.27	15.995
388.62	15.796
388.98	14.610
389.34	15.490
389.70	15.911
390.06	15.104
390.42	15.868
390.77	15.827
391.13	15.574
391.49	15.589
391.85	15.789
392.20	15.317
392.56	15.893
392.92	16.031
393.28	15.684
393.64	15.255
393.99	16.426
394.35	15.117
394.71	15.709
395.07	14.771
395.42	15.543
395.78	15.179
396.14	15.700
396.50	16.170
396.85	15.712
397.21	14.975
397.57	15.298
397.92	15.938
398.28	16.264
398.64	15.181
399.00	16.196
399.35	14.955
399.71	15.853
400.07	15.599
400.42	15.545
400.78	15.370
401.14	16.394
401.49	16.021
401.85	15.966
402.21	15.482
402.57	16.000
402.92	16.311
403.28	15.852
403.63	15.385
403.99	15.880
404.35	16.115
404.70	15.119
405.06	15.981
405.42	15.538
405.77	14.643
406.13	14.959
406.49	15.157
406.84	14.853
407.20	15.713
407.55	15.196
407.91	15.976
408.27	15.615
408.62	16.308
408.98	15.034
409.34	15.861
409.69	15.116
410.05	15.394
410.40	15.926
410.76	16.043
411.11	16.312
411.47	15.713
411.83	14.878
412.18	15.315
412.54	15.169
412.89	14.901
413.25	15.343
413.60	15.839
413.96	15.215
414.31	15.915
414.67	15.459
415.03	15.646
415.38	15.339
415.74	15.635
416.09	15.741
416.45	16.070
416.80	15.730
417.16	15.953
417.51	16.123
417.87	14.993
418.22	15.738
418.58	14.515
418.93	16.238
419.29	14.981
419.64	16.073
420.00	17.380
420.35	15.522
420.71	15.978
421.06	15.715
421.42	16.046
421.77	15.838
422.12	15.948
422.48	15.755
422.83	15.603
423.19	15.971
423.54	15.344
423.90	15.312
424.25	15.959
424.61	16.218
424.96	16.376
425.31	16.696
425.67	15.023
426.02	15.901
426.38	16.281
426.73	17.010
427.09	16.456
427.44	17.000
427.79	16.205
428.15	16.262
428.50	15.687
428.85	15.172
429.21	16.072
429.56	15.903
429.92	16.076
430.27	16.291
430.62	15.525
430.98	15.711
431.33	16.719
431.68	16.484
432.04	15.763
432.39	16.372
432.74	15.093
433.10	17.299
433.45	16.010
433.80	16.077
434.16	15.623
434.51	15.860
434.86	15.738
435.22	15.592
435.57	15.596
435.92	16.347
436.28	16.577
436.63	15.345
436.98	15.469
437.34	15.850
437.69	15.742
438.04	16.068
438.39	14.844
438.75	15.908
439.10	16.412
439.45	16.920
439.81	15.841
440.16	16.271
440.51	15.821
440.86	16.858
441.22	16.063
441.57	16.004
441.92	16.002
442.27	15.965
442.63	16.542
442.98	15.968
443.33	15.971
443.68	16.127
444.03	15.996
444.39	16.134
444.74	16.109
445.09	16.036
445.44	16.296
445.79	16.400
446.15	15.859
446.50	15.363
446.85	16.631
447.20	16.058
447.55	16.908
447.91	16.244
448.26	16.676
448.61	16.638
448.96	16.523
449.31	15.723
449.66	17.131
450.02	15.973
450.37	15.708
450.72	15.750
451.07	16.203
451.42	16.355
451.77	16.154
452.12	16.328
452.47	16.613
452.83	16.137
453.18	16.698
453.53	16.498
453.88	16.151
454.23	16.841
454.58	17.128
454.93	17.977
455.28	15.429
455.63	16.801
455.98	16.777
456.34	16.603
456.69	16.963
457.04	17.265
457.39	16.829
457.74	17.170
458.09	15.892
458.44	15.682
458.79	17.031
459.14	17.334
459.49	16.776
459.84	16.920
460.19	16.808
460.54	16.932
460.89	16.250
461.24	18.137
461.59	17.162
461.94	17.233
462.29	17.913
462.64	17.342
462.99	16.385
463.34	15.925
463.69	16.152
464.04	17.554
464.39	16.555
464.74	16.994
465.09	17.218
465.44	17.426
465.79	16.327
466.14	16.762
466.49	16.561
466.84	17.847
467.19	16.521
467.54	17.241
467.89	17.688
468.24	16.910
468.59	17.270
468.94	16.698
469.29	17.311
469.64	16.951
469.99	17.029
470.34	16.655
470.68	17.524
471.03	17.834
471.38	16.833
471.73	17.787
472.08	16.961
472.43	16.779
472.78	16.929
473.13	17.959
473.48	17.655
473.83	17.372
474.17	17.940
474.52	16.720
474.87	17.394
475.22	17.389
475.57	16.996
475.92	17.937
476.27	18.277
476.61	17.593
476.96	16.788
477.31	18.172
477.66	17.247
478.01	18.024
478.36	17.865
478.70	17.564
479.05	17.692
479.40	17.223
479.75	17.310
480.10	17.358
480.45	17.350
480.79	17.925
481.14	18.648
481.49	16.897
481.84	17.905
482.19	16.885
482.53	17.506
482.88	17.470
483.23	17.898
483.58	18.113
483.92	17.183
484.27	17.138
484.62	17.750
484.97	17.454
485.31	16.871
485.66	16.174
486.01	16.362
486.36	16.174
486.70	16.595
487.05	16.864
487.40	17.270
487.75	17.324
488.09	16.811
488.44	17.194
488.79	17.632
489.13	17.708
489.48	17.999
489.83	17.444
490.17	17.124
490.52	17.044
490.87	17.399
491.22	18.290
491.56	17.647
491.91	17.352
492.26	17.842
492.60	18.330
492.95	18.101
493.30	17.489
493.64	17.878
493.99	18.019
494.34	17.621
494.68	17.571
495.03	17.664
495.37	18.106
495.72	18.375
496.07	18.293
496.41	17.736
496.76	17.550
497.11	17.094
497.45	18.186
497.80	18.113
498.14	18.778
498.49	17.776
498.84	17.515
499.18	18.373
499.53	18.403
499.87	18.531
500.22	18.744
500.56	18.457
500.91	17.470
501.26	17.894
501.60	18.003
501.95	17.807
502.29	18.160
502.64	17.664
502.98	18.106
503.33	17.675
503.67	18.265
504.02	18.768
504.36	18.704
504.71	18.384
505.06	18.319
505.40	17.817
505.75	19.021
506.09	17.790
506.44	19.199
506.78	19.388
507.13	18.769
507.47	18.277
507.82	19.017
508.16	18.067
508.51	18.835
508.85	19.048
509.19	18.467
509.54	18.552
509.88	18.069
510.23	19.042
510.57	18.653
510.92	17.751
511.26	19.094
511.61	18.922
511.95	19.671
512.30	19.290
512.64	19.588
512.98	18.754
513.33	20.257
513.67	18.647
514.02	20.023
514.36	20.057
514.70	20.455
515.05	19.624
515.39	19.362
515.74	20.479
516.08	20.801
516.42	20.141
516.77	20.889
517.11	20.475
517.46	21.005
517.80	21.037
518.14	20.576
518.49	18.930
518.83	21.021
519.17	20.133
519.52	20.071
519.86	19.868
520.20	20.535
520.55	20.575
520.89	20.514
521.23	20.393
521.58	21.136
521.92	21.603
522.26	20.234
522.61	21.688
522.95	21.258
523.29	20.584
523.64	21.220
523.98	21.646
524.32	20.168
524.66	21.895
525.01	21.364
525.35	22.165
525.69	19.798
526.04	19.974
526.38	21.466
526.72	20.798
527.06	21.660
527.41	22.098
527.75	21.113
528.09	20.664
528.43	22.350
528.78	20.594
529.12	21.419
529.46	21.053
529.80	21.406
530.15	21.848
530.49	20.337
530.83	20.999
531.17	20.819
531.51	21.683
531.86	21.550
532.20	21.990
532.54	22.260
532.88	21.013
533.22	22.446
533.57	22.412
533.91	21.410
534.25	22.135
534.59	21.809
534.93	20.957
535.27	20.305
535.62	21.711
535.96	21.526
536.30	21.834
536.64	21.709
536.98	21.672
537.32	22.048
537.66	22.721
538.01	21.818
538.35	21.983
538.69	21.904
539.03	20.984
539.37	22.207
539.71	21.200
540.05	21.113
540.39	22.091
540.73	22.176
541.07	22.030
541.42	22.446
541.76	22.505
542.10	21.748
542.44	21.960
542.78	20.716
543.12	21.360
543.46	23.018
543.80	21.235
544.14	21.028
544.48	21.186
544.82	21.736
545.16	23.156
545.50	21.495
545.84	21.884
546.18	21.418
546.52	22.711
546.86	21.855
547.20	22.818
547.54	19.859
547.88	21.264
548.22	21.368
548.56	21.768
548.90	22.574
549.24	21.556
549.58	22.214
549.92	20.229
550.26	21.612
550.60	22.007
550.94	21.957
551.28	22.179
551.62	22.231
551.96	22.857
552.30	22.368
552.64	21.016
552.98	21.589
553.32	21.327
553.66	21.263
554.00	22.774
554.34	22.378
554.68	21.829
555.02	21.503
555.36	22.812
555.69	21.758
556.03	20.700
556.37	21.281
556.71	21.588
557.05	22.222
557.39	22.602
557.73	21.814
558.07	22.021
558.41	21.899
558.75	21.590
559.08	22.222
559.42	21.349
559.76	22.258
560.10	21.483
560.44	21.072
560.78	22.098
561.12	21.086
561.45	21.855
561.79	21.289
562.13	21.930
562.47	22.158
562.81	22.118
563.15	21.791
563.48	21.853
563.82	21.826
564.16	22.075
564.50	21.554
564.84	22.222
565.17	21.999
565.51	22.404
565.85	21.262
566.19	20.623
566.52	21.783
566.86	21.722
567.20	21.606
567.54	21.411
567.88	21.324
568.21	21.833
568.55	21.359
568.89	21.047
569.23	20.029
569.56	20.928
569.90	20.503
570.24	19.129
570.57	20.073
570.91	20.077
571.25	19.566
571.59	19.807
571.92	19.170
572.26	19.414
572.60	19.659
572.93	19.642
573.27	19.373
573.61	19.481
573.95	20.371
574.28	19.412
574.62	19.146
574.96	19.596
575.29	19.207
575.63	18.528
575.97	19.002
576.30	18.724
576.64	19.205
576.98	19.125
577.31	18.874
577.65	19.083
577.98	18.914
578.32	18.832
578.66	18.698
578.99	18.624
579.33	18.586
579.67	18.446
580.00	18.937
580.34	19.129
580.67	18.966
581.01	19.380
581.35	18.755
581.68	18.638
582.02	18.517
582.35	18.756
582.69	18.874
583.02	19.120
583.36	18.973
583.70	19.418
584.03	19.433
584.37	19.763
584.70	19.038
585.04	18.938
585.37	18.550
585.71	19.057
586.04	19.465
586.38	18.405
586.72	19.426
587.05	19.469
587.39	20.045
587.72	20.148
588.06	19.153
588.39	19.567
588.73	19.017
589.06	19.667
589.40	19.772
589.73	20.117
590.07	19.713
590.40	20.008
590.73	20.222
591.07	20.229
591.40	21.015
591.74	20.045
592.07	20.686
592.41	20.848
592.74	19.793
593.08	19.211
593.41	19.209
593.75	19.365
594.08	19.258
594.41	19.796
594.75	20.038
595.08	20.431
595.42	19.875
595.75	19.865
596.09	20.055
596.42	19.926
596.75	20.693
597.09	20.456
597.42	19.828
597.75	20.385
598.09	19.828
598.42	19.224
598.76	19.477
599.09	19.752
599.42	19.856
599.76	19.940
600.09	19.910
600.42	19.484
600.76	19.056
601.09	19.962
601.42	19.585
601.76	20.246
602.09	20.008
602.42	20.177
602.76	20.034
603.09	20.100
603.42	20.819
603.76	19.315
604.09	19.603
604.42	20.728
604.76	20.739
605.09	20.704
605.42	20.090
605.75	20.096
606.09	19.915
606.42	19.766
606.75	19.740
607.09	20.879
607.42	19.584
607.75	19.849
608.08	19.901
608.42	20.009
608.75	20.675
609.08	20.080
609.41	19.746
609.75	19.556
610.08	19.820
610.41	20.145
610.74	19.941
611.07	20.724
611.41	20.343
611.74	20.842
612.07	20.503
612.40	20.733
612.73	19.944
613.07	20.754
613.40	20.678
613.73	20.201
614.06	21.035
614.39	20.079
614.72	21.176
615.06	20.223
615.39	20.469
615.72	20.344
616.05	20.503
616.38	19.601
616.71	21.284
617.05	20.939
617.38	21.182
617.71	21.006
618.04	21.397
618.37	21.816
618.70	22.046
619.03	22.222
619.36	21.708
619.69	21.531
620.03	23.302
620.36	21.459
620.69	21.556
621.02	22.095
621.35	22.407
621.68	23.044
622.01	22.250
622.34	21.229
622.67	22.476
623.00	22.358
623.33	22.409
623.66	21.092
623.99	20.953
624.32	21.597
624.65	21.128
624.99	22.649
625.32	19.484
625.65	22.310
625.98	22.321
626.31	22.444
626.64	23.570
626.97	23.211
627.30	21.366
627.63	22.010
627.96	22.282
628.29	22.387
628.62	22.812
628.95	22.244
629.28	23.790
629.61	22.034
629.94	24.242
630.26	21.640
630.59	24.350
630.92	22.667
631.25	21.949
631.58	23.238
631.91	24.232
632.24	23.050
632.57	24.886
632.90	23.488
