SpectraSuite Data File
++++++++++++++++++++++++++++++++++++
Date: Fri May 15 20:53:26 PDT 2015
User: schluterlab
Dark Spectrum Present: Yes
Reference Spectrum Present: Yes
Number of Sampled Component Spectra: 1
Spectrometers: USB2E3373
Integration Time (usec): 3000 (USB2E3373)
Spectra Averaged: 3 (USB2E3373)
Boxcar Smoothing: 0 (USB2E3373)
Correct for Electrical Dark: No (USB2E3373)
Strobe/Lamp Enabled: No (USB2E3373)
Correct for Detector Non-linearity: No (USB2E3373)
Correct for Stray Light: No (USB2E3373)
Number of Pixels in Processed Spectrum: 2048
>>>>>Begin Processed Spectral Data<<<<<
178.53	0.000
178.91	0.000
179.29	75.000
179.67	-400.000
180.04	-42.857
180.42	75.000
180.80	-700.000
181.18	100.000
181.56	150.000
181.94	450.000
182.31	400.000
182.69	-120.000
183.07	-66.667
183.45	-80.000
183.83	150.000
184.20	18.182
184.58	133.333
184.96	-100.000
185.34	200.000
185.72	-200.000
186.09	146.154
186.47	-1000.000
186.85	200.000
187.23	255.556
187.61	200.000
187.98	-400.000
188.36	100.000
188.74	-200.000
189.12	0.000
189.49	55.556
189.87	0.000
190.25	-21.429
190.63	200.000
191.00	-133.333
191.38	21.053
191.76	500.000
192.14	250.000
192.51	-100.000
192.89	-66.667
193.27	85.714
193.65	150.000
194.02	154.545
194.40	30.000
194.78	-100.000
195.15	0.000
195.53	-125.000
195.91	425.000
196.29	-75.000
196.66	123.077
197.04	214.286
197.42	11.111
197.79	-433.333
198.17	-46.154
198.55	1800.000
198.92	-166.667
199.30	-800.000
199.68	40.000
200.05	-200.000
200.43	0.000
200.81	133.333
201.18	-200.000
201.56	2100.000
201.94	0.000
202.31	66.667
202.69	-300.000
203.07	250.000
203.44	-100.000
203.82	0.000
204.19	92.857
204.57	-233.333
204.95	87.500
205.32	30.000
205.70	-42.857
206.08	-25.000
206.45	200.000
206.83	92.857
207.20	-71.429
207.58	300.000
207.96	100.000
208.33	-50.000
208.71	-375.000
209.08	-233.333
209.46	-500.000
209.84	40.000
210.21	-700.000
210.59	200.000
210.96	-16.667
211.34	-200.000
211.71	6.667
212.09	-185.714
212.46	-1200.000
212.84	0.000
213.22	150.000
213.59	1100.000
213.97	69.231
214.34	45.455
214.72	16.667
215.09	275.000
215.47	-61.538
215.84	63.636
216.22	-166.667
216.59	0.000
216.97	50.000
217.34	50.000
217.72	-240.000
218.09	37.500
218.47	25.000
218.84	-100.000
219.22	22.222
219.59	-120.000
219.97	300.000
220.34	75.000
220.72	-85.714
221.09	-300.000
221.47	-50.000
221.84	-450.000
222.22	-950.000
222.59	90.909
222.97	50.000
223.34	33.333
223.72	-7.143
224.09	-57.143
224.46	14.286
224.84	433.333
225.21	-120.000
225.59	20.000
225.96	-150.000
226.34	300.000
226.71	-57.143
227.08	-33.333
227.46	-12.500
227.83	-500.000
228.21	0.000
228.58	45.455
228.95	-25.000
229.33	90.000
229.70	12.500
230.08	-25.000
230.45	-100.000
230.82	14.286
231.20	-40.000
231.57	71.429
231.95	42.857
232.32	-50.000
232.69	-7.143
233.07	266.667
233.44	-120.000
233.81	-50.000
234.19	111.111
234.56	52.941
234.93	50.000
235.31	150.000
235.68	-100.000
236.05	46.154
236.43	10.000
236.80	64.706
237.17	25.000
237.55	15.000
237.92	44.444
238.29	22.222
238.67	30.000
239.04	32.353
239.41	2.439
239.79	23.333
240.16	46.341
240.53	18.421
240.91	43.478
241.28	42.857
241.65	41.071
242.02	54.795
242.40	38.333
242.77	37.288
243.14	43.939
243.51	46.250
243.89	48.276
244.26	39.080
244.63	44.048
245.00	27.835
245.38	46.392
245.75	43.820
246.12	40.517
246.49	38.017
246.87	44.231
247.24	38.655
247.61	40.351
247.98	40.650
248.36	40.625
248.73	45.395
249.10	43.506
249.47	46.835
249.84	45.098
250.22	41.765
250.59	48.366
250.96	46.479
251.33	47.093
251.70	48.235
252.08	43.655
252.45	43.564
252.82	44.724
253.19	49.770
253.56	41.589
253.94	48.198
254.31	47.826
254.68	47.807
255.05	47.244
255.42	48.908
255.79	46.332
256.16	43.580
256.54	42.910
256.91	43.726
257.28	46.097
257.65	45.318
258.02	42.199
258.39	46.801
258.76	49.451
259.14	49.169
259.51	46.278
259.88	43.299
260.25	41.176
260.62	51.042
260.99	45.085
261.36	46.918
261.73	44.937
262.10	45.593
262.47	45.706
262.85	45.455
263.22	45.846
263.59	48.598
263.96	50.932
264.33	47.576
264.70	49.405
265.07	45.536
265.44	49.575
265.81	48.305
266.18	45.355
266.55	47.044
266.92	49.482
267.29	50.131
267.66	46.547
268.03	47.382
268.40	45.170
268.77	51.337
269.14	46.763
269.51	47.558
269.88	44.888
270.25	46.684
270.62	40.244
270.99	45.780
271.36	44.499
271.73	44.836
272.10	46.959
272.47	47.991
272.84	47.030
273.21	45.476
273.58	45.060
273.95	45.995
274.32	45.035
274.69	42.081
275.06	47.098
275.43	47.166
275.80	45.916
276.17	42.529
276.54	45.824
276.91	47.149
277.28	46.943
277.65	44.628
278.02	43.404
278.39	43.764
278.76	46.122
279.13	43.154
279.50	45.798
279.87	45.572
280.23	43.871
280.60	42.300
280.97	48.283
281.34	41.538
281.71	47.228
282.08	44.376
282.45	42.857
282.82	43.822
283.19	44.487
283.56	41.040
283.92	42.884
284.29	42.885
284.66	41.279
285.03	44.794
285.40	44.423
285.77	41.301
286.14	41.336
286.51	45.572
286.87	42.048
287.24	42.541
287.61	40.741
287.98	40.175
288.35	39.341
288.72	42.207
289.08	39.062
289.45	39.192
289.82	40.035
290.19	41.126
290.56	39.280
290.93	40.067
291.29	36.826
291.66	37.480
292.03	37.959
292.40	38.226
292.77	36.045
293.13	36.364
293.50	36.571
293.87	34.962
294.24	36.631
294.60	33.979
294.97	34.970
295.34	34.969
295.71	35.171
296.08	33.184
296.44	31.010
296.81	33.472
297.18	34.203
297.55	35.230
297.91	33.425
298.28	34.565
298.65	33.514
299.02	33.423
299.38	30.506
299.75	34.483
300.12	31.545
300.48	32.938
300.85	31.432
301.22	30.779
301.59	30.132
301.95	32.911
302.32	33.593
302.69	32.463
303.05	30.322
303.42	30.511
303.79	29.907
304.15	30.824
304.52	27.943
304.89	28.538
305.25	30.751
305.62	29.055
305.99	30.292
306.35	30.289
306.72	28.459
307.09	28.962
307.45	30.425
307.82	29.977
308.19	29.965
308.55	30.534
308.92	31.046
309.29	27.933
309.65	27.664
310.02	29.483
310.38	29.089
310.75	31.475
311.12	30.032
311.48	29.162
311.85	27.644
312.22	28.481
312.58	27.919
312.95	27.428
313.31	27.019
313.68	29.215
314.05	28.061
314.41	27.320
314.78	27.320
315.14	28.674
315.51	27.743
315.87	28.279
316.24	28.716
316.61	27.756
316.97	28.671
317.34	27.832
317.70	28.585
318.07	26.923
318.43	27.941
318.80	27.178
319.16	28.516
319.53	28.205
319.89	26.870
320.26	27.632
320.62	26.981
320.99	25.992
321.35	27.852
321.72	28.453
322.08	28.197
322.45	30.051
322.81	29.273
323.18	27.380
323.54	27.413
323.91	28.432
324.27	27.539
324.64	27.154
325.00	28.102
325.37	29.385
325.73	26.745
326.10	27.793
326.46	28.520
326.83	27.734
327.19	28.073
327.56	29.192
327.92	28.873
328.29	29.286
328.65	28.396
329.01	27.665
329.38	28.848
329.74	28.045
330.11	29.935
330.47	28.108
330.84	27.788
331.20	30.418
331.56	27.870
331.93	28.037
332.29	27.406
332.66	28.597
333.02	28.903
333.38	28.506
333.75	27.930
334.11	26.500
334.48	27.833
334.84	28.388
335.20	27.539
335.57	26.383
335.93	28.455
336.29	29.834
336.66	26.612
337.02	28.717
337.38	27.130
337.75	27.545
338.11	28.314
338.47	28.193
338.84	28.004
339.20	27.148
339.56	27.798
339.93	27.216
340.29	27.064
340.65	27.240
341.02	26.862
341.38	28.319
341.74	26.678
342.11	27.296
342.47	27.936
342.83	28.114
343.20	25.087
343.56	28.000
343.92	26.926
344.28	27.754
344.65	27.116
345.01	27.571
345.37	25.652
345.73	27.029
346.10	27.955
346.46	28.259
346.82	26.514
347.19	26.185
347.55	26.065
347.91	27.184
348.27	25.707
348.63	26.661
349.00	25.677
349.36	25.686
349.72	26.285
350.08	26.311
350.45	27.215
350.81	24.917
351.17	26.140
351.53	26.612
351.89	25.599
352.26	25.600
352.62	25.242
352.98	24.819
353.34	24.235
353.70	25.647
354.07	24.597
354.43	25.941
354.79	25.599
355.15	26.587
355.51	26.345
355.87	26.375
356.24	24.144
356.60	24.576
356.96	26.508
357.32	25.240
357.68	23.456
358.04	24.960
358.40	24.759
358.77	25.758
359.13	24.420
359.49	24.422
359.85	24.415
360.21	24.721
360.57	24.637
360.93	24.735
361.29	23.036
361.66	25.000
362.02	24.697
362.38	24.524
362.74	24.678
363.10	24.605
363.46	25.056
363.82	25.094
364.18	24.945
364.54	23.971
364.90	23.297
365.26	23.799
365.62	25.036
365.98	23.754
366.35	24.472
366.71	23.503
367.07	24.238
367.43	23.652
367.79	24.382
368.15	24.121
368.51	23.816
368.87	23.331
369.23	23.032
369.59	24.344
369.95	24.413
370.31	24.639
370.67	22.239
371.03	23.376
371.39	22.830
371.75	23.077
372.11	23.680
372.47	23.299
372.83	24.485
373.19	23.894
373.55	22.816
373.91	23.398
374.27	23.175
374.63	23.977
374.99	22.766
375.35	23.607
375.71	23.427
376.07	23.455
376.42	23.061
376.78	22.886
377.14	22.478
377.50	22.842
377.86	22.758
378.22	23.038
378.58	23.526
378.94	22.369
379.30	22.832
379.66	23.950
380.02	22.992
380.38	22.824
380.74	23.040
381.09	22.577
381.45	21.407
381.81	22.949
382.17	22.970
382.53	23.298
382.89	22.599
383.25	23.086
383.61	22.805
383.97	22.476
384.32	22.139
384.68	22.415
385.04	21.752
385.40	22.278
385.76	22.767
386.12	22.122
386.48	23.436
386.83	22.828
387.19	22.711
387.55	22.585
387.91	22.433
388.27	22.283
388.62	22.593
388.98	22.529
389.34	22.736
389.70	22.871
390.06	22.467
390.42	22.345
390.77	23.022
391.13	21.753
391.49	22.316
391.85	21.897
392.20	22.285
392.56	22.568
392.92	22.314
393.28	22.347
393.64	21.742
393.99	23.009
394.35	21.569
394.71	21.903
395.07	22.250
395.42	21.736
395.78	22.932
396.14	22.509
396.50	22.257
396.85	21.636
397.21	22.306
397.57	21.881
397.92	21.210
398.28	22.471
398.64	21.325
399.00	22.573
399.35	21.332
399.71	22.114
400.07	21.765
400.42	21.359
400.78	22.413
401.14	21.113
401.49	22.633
401.85	20.719
402.21	21.325
402.57	22.375
402.92	21.393
403.28	22.556
403.63	22.068
403.99	22.003
404.35	22.049
404.70	20.833
405.06	21.387
405.42	21.255
405.77	20.918
406.13	21.828
406.49	21.788
406.84	21.577
407.20	21.975
407.55	21.185
407.91	21.257
408.27	21.415
408.62	21.785
408.98	21.565
409.34	21.809
409.69	20.349
410.05	21.244
410.40	21.111
410.76	21.351
411.11	21.312
411.47	21.696
411.83	20.151
412.18	20.914
412.54	21.473
412.89	20.197
413.25	21.841
413.60	21.118
413.96	21.840
414.31	22.073
414.67	21.039
415.03	21.305
415.38	21.018
415.74	21.824
416.09	21.228
416.45	21.067
416.80	20.555
417.16	21.271
417.51	21.319
417.87	20.991
418.22	22.215
418.58	21.204
418.93	22.633
419.29	20.359
419.64	20.739
420.00	22.418
420.35	20.836
420.71	21.507
421.06	21.670
421.42	20.913
421.77	22.023
422.12	21.396
422.48	21.765
422.83	21.462
423.19	22.009
423.54	20.517
423.90	21.614
424.25	21.412
424.61	21.971
424.96	20.441
425.31	21.259
425.67	20.716
426.02	22.674
426.38	21.039
426.73	21.913
427.09	22.025
427.44	22.235
427.79	21.332
428.15	21.663
428.50	21.139
428.85	21.376
429.21	21.732
429.56	21.779
429.92	21.469
430.27	21.153
430.62	20.857
430.98	20.754
431.33	22.187
431.68	22.292
432.04	21.744
432.39	22.419
432.74	21.167
433.10	21.839
433.45	21.027
433.80	21.358
434.16	20.720
434.51	21.774
434.86	21.429
435.22	22.042
435.57	21.397
435.92	21.257
436.28	22.004
436.63	21.734
436.98	20.742
437.34	21.597
437.69	21.705
438.04	21.652
438.39	21.258
438.75	22.162
439.10	21.166
439.45	22.033
439.81	20.979
440.16	21.675
440.51	22.269
440.86	22.538
441.22	21.946
441.57	20.861
441.92	22.298
442.27	21.508
442.63	21.520
442.98	21.827
443.33	21.369
443.68	21.326
444.03	21.908
444.39	21.495
444.74	22.520
445.09	21.938
445.44	21.937
445.79	22.125
446.15	21.421
446.50	21.520
446.85	21.732
447.20	21.220
447.55	22.656
447.91	22.561
448.26	22.140
448.61	22.280
448.96	22.318
449.31	21.445
449.66	21.719
450.02	22.248
450.37	22.051
450.72	21.993
451.07	21.646
451.42	21.723
451.77	22.303
452.12	21.232
452.47	21.249
452.83	21.849
453.18	21.632
453.53	22.187
453.88	21.554
454.23	22.557
454.58	22.859
454.93	22.487
455.28	21.016
455.63	21.575
455.98	22.249
456.34	21.584
456.69	22.554
457.04	22.054
457.39	21.081
457.74	21.342
458.09	20.188
458.44	21.475
458.79	21.120
459.14	22.082
459.49	22.806
459.84	22.561
460.19	21.177
460.54	21.883
460.89	21.193
461.24	21.615
461.59	22.090
461.94	21.635
462.29	22.979
462.64	22.259
462.99	21.598
463.34	21.140
463.69	21.236
464.04	22.276
464.39	22.256
464.74	21.718
465.09	22.458
465.44	21.927
465.79	21.882
466.14	21.893
466.49	21.737
466.84	22.189
467.19	22.403
467.54	22.542
467.89	21.794
468.24	21.898
468.59	22.032
468.94	21.016
469.29	21.639
469.64	22.351
469.99	22.425
470.34	20.614
470.68	21.849
471.03	21.585
471.38	22.325
471.73	22.059
472.08	21.303
472.43	21.275
472.78	20.973
473.13	21.565
473.48	21.042
473.83	20.859
474.17	21.567
474.52	21.059
474.87	21.515
475.22	20.683
475.57	21.400
475.92	22.161
476.27	21.653
476.61	21.586
476.96	21.026
477.31	22.012
477.66	21.067
478.01	21.280
478.36	20.969
478.70	21.316
479.05	21.703
479.40	20.827
479.75	21.168
480.10	21.147
480.45	21.550
480.79	22.054
481.14	22.285
481.49	21.330
481.84	20.898
482.19	21.796
482.53	22.494
482.88	21.384
483.23	21.257
483.58	20.991
483.92	21.442
484.27	21.057
484.62	21.739
484.97	21.766
485.31	21.785
485.66	20.473
486.01	20.723
486.36	21.115
486.70	22.414
487.05	22.895
487.40	22.622
487.75	22.845
488.09	22.868
488.44	23.659
488.79	22.973
489.13	22.676
489.48	22.103
489.83	22.063
490.17	21.483
490.52	21.524
490.87	21.101
491.22	21.872
491.56	20.778
491.91	21.367
492.26	21.585
492.60	21.113
492.95	21.003
493.30	20.957
493.64	20.923
493.99	21.546
494.34	20.485
494.68	20.905
495.03	20.389
495.37	21.394
495.72	21.454
496.07	21.317
496.41	20.849
496.76	21.050
497.11	20.633
497.45	21.241
497.80	20.838
498.14	20.864
498.49	20.721
498.84	20.858
499.18	21.235
499.53	21.131
499.87	21.109
500.22	20.574
500.56	20.726
500.91	20.884
501.26	21.008
501.60	20.462
501.95	21.252
502.29	21.065
502.64	21.429
502.98	21.362
503.33	20.317
503.67	20.241
504.02	20.870
504.36	21.623
504.71	21.212
505.06	21.037
505.40	20.914
505.75	21.082
506.09	21.085
506.44	21.407
506.78	21.480
507.13	21.303
507.47	20.261
507.82	20.299
508.16	20.391
508.51	21.354
508.85	20.879
509.19	20.277
509.54	20.804
509.88	20.604
510.23	21.140
510.57	20.951
510.92	20.096
511.26	21.113
511.61	20.847
511.95	20.767
512.30	20.510
512.64	20.701
512.98	20.775
513.33	20.929
513.67	19.955
514.02	21.167
514.36	21.429
514.70	21.678
515.05	21.210
515.39	21.015
515.74	21.557
516.08	20.741
516.42	21.025
516.77	21.065
517.11	20.119
517.46	21.065
517.80	20.501
518.14	20.147
518.49	20.673
518.83	20.717
519.17	19.891
519.52	19.597
519.86	21.429
520.20	20.109
520.55	19.325
520.89	20.891
521.23	20.646
521.58	20.883
521.92	20.513
522.26	20.429
522.61	20.325
522.95	20.728
523.29	20.013
523.64	21.220
523.98	20.933
524.32	19.716
524.66	20.999
525.01	21.104
525.35	21.517
525.69	20.471
526.04	20.106
526.38	21.401
526.72	18.182
527.06	19.455
527.41	20.449
527.75	19.638
528.09	20.266
528.43	20.999
528.78	19.934
529.12	20.387
529.46	20.923
529.80	20.899
530.15	20.000
530.49	20.202
530.83	21.135
531.17	20.551
531.51	20.383
531.86	20.734
532.20	21.434
532.54	20.694
532.88	19.849
533.22	20.833
533.57	20.315
533.91	19.582
534.25	21.094
534.59	21.103
534.93	20.076
535.27	20.431
535.62	20.804
535.96	21.331
536.30	21.438
536.64	20.744
536.98	20.418
537.32	21.550
537.66	21.739
538.01	20.909
538.35	20.527
538.69	19.973
539.03	19.959
539.37	21.669
539.71	20.859
540.05	20.570
540.39	21.399
540.73	20.502
541.07	21.271
541.42	21.841
541.76	22.092
542.10	21.748
542.44	20.709
542.78	19.546
543.12	21.635
543.46	21.071
543.80	21.443
544.14	20.494
544.48	20.986
544.82	21.189
545.16	20.765
545.50	21.562
545.84	22.380
546.18	22.199
546.52	22.134
546.86	21.208
547.20	21.316
547.54	20.283
547.88	22.147
548.22	20.053
548.56	21.504
548.90	21.226
549.24	19.972
549.58	21.862
549.92	21.015
550.26	21.392
550.60	21.338
550.94	21.060
551.28	20.866
551.62	21.538
551.96	20.902
552.30	20.906
552.64	20.874
552.98	20.605
553.32	20.685
553.66	20.537
554.00	20.949
554.34	21.123
554.68	21.091
555.02	20.982
555.36	20.494
555.69	20.513
556.03	21.984
556.37	20.569
556.71	20.578
557.05	20.731
557.39	20.595
557.73	20.765
558.07	21.493
558.41	20.980
558.75	21.278
559.08	20.331
559.42	20.873
559.76	21.777
560.10	20.260
560.44	20.849
560.78	21.189
561.12	20.733
561.45	21.644
561.79	20.728
562.13	21.930
562.47	20.935
562.81	22.695
563.15	21.016
563.48	21.287
563.82	21.757
564.16	21.100
564.50	22.095
564.84	21.486
565.17	21.596
565.51	22.541
565.85	22.085
566.19	21.419
566.52	22.185
566.86	22.494
567.20	20.486
567.54	21.776
567.88	22.261
568.21	22.172
568.55	22.011
568.89	21.766
569.23	21.714
569.56	22.373
569.90	22.696
570.24	22.032
570.57	22.473
570.91	23.527
571.25	21.966
571.59	22.765
571.92	22.667
572.26	21.920
572.60	22.791
572.93	23.125
573.27	22.539
573.61	22.703
573.95	23.239
574.28	22.643
574.62	22.731
574.96	22.937
575.29	22.337
575.63	22.208
575.97	22.906
576.30	23.053
576.64	23.073
576.98	23.243
577.31	23.224
577.65	23.005
577.98	22.443
578.32	22.357
578.66	23.082
578.99	23.187
579.33	23.083
579.67	22.912
580.00	23.139
580.34	23.209
580.67	23.244
581.01	23.175
581.35	23.342
581.68	22.614
582.02	22.591
582.35	22.544
582.69	23.432
583.02	23.435
583.36	23.752
583.70	24.455
584.03	24.131
584.37	24.393
584.70	23.984
585.04	23.031
585.37	23.489
585.71	22.933
586.04	22.491
586.38	22.513
586.72	23.386
587.05	22.733
587.39	23.008
587.72	23.920
588.06	23.775
588.39	23.811
588.73	23.596
589.06	24.397
589.40	23.782
589.73	24.096
590.07	23.829
590.40	24.265
590.73	23.600
591.07	23.664
591.40	23.508
591.74	23.982
592.07	23.330
592.41	23.012
592.74	22.541
593.08	22.180
593.41	21.845
593.75	22.309
594.08	23.309
594.41	23.144
594.75	23.321
595.08	22.588
595.42	22.562
595.75	23.207
596.09	23.417
596.42	22.902
596.75	23.712
597.09	23.189
597.42	23.035
597.75	23.591
598.09	22.589
598.42	21.977
598.76	22.437
599.09	22.636
599.42	22.471
599.76	22.460
600.09	22.926
600.42	22.214
600.76	22.288
601.09	22.634
601.42	22.209
601.76	22.509
602.09	23.639
602.42	23.463
602.76	23.217
603.09	22.799
603.42	23.997
603.76	22.903
604.09	22.236
604.42	22.758
604.76	23.988
605.09	23.583
605.42	23.476
605.75	22.680
606.09	22.590
606.42	22.644
606.75	22.771
607.09	23.429
607.42	22.729
607.75	22.380
608.08	22.102
608.42	22.522
608.75	23.084
609.08	23.169
609.41	22.944
609.75	22.732
610.08	22.516
610.41	22.415
610.74	22.916
611.07	23.204
611.41	22.574
611.74	23.028
612.07	22.056
612.40	23.085
612.73	22.486
613.07	22.778
613.40	23.031
613.73	21.656
614.06	22.927
614.39	22.955
614.72	22.017
615.06	22.402
615.39	22.107
615.72	22.497
616.05	23.520
616.38	22.165
616.71	22.813
617.05	22.854
617.38	22.942
617.71	22.453
618.04	22.286
618.37	23.392
618.70	22.244
619.03	23.750
619.36	21.635
619.69	22.517
620.03	23.156
620.36	21.888
620.69	22.484
621.02	22.171
621.35	22.656
621.68	22.959
622.01	22.167
622.34	22.187
622.67	22.397
623.00	22.052
623.33	21.875
623.66	21.466
623.99	21.483
624.32	22.966
624.65	21.729
624.99	21.896
625.32	21.759
625.65	22.859
625.98	22.321
626.31	21.945
626.64	22.530
626.97	23.909
627.30	23.030
627.63	23.570
627.96	22.372
628.29	21.554
628.62	21.141
628.95	20.541
629.28	22.379
629.61	21.336
629.94	21.701
630.26	21.443
630.59	23.309
630.92	21.538
631.25	20.821
631.58	20.925
631.91	21.272
632.24	19.381
632.57	21.023
632.90	20.641
633.23	21.882
633.56	21.662
