SpectraSuite Data File
++++++++++++++++++++++++++++++++++++
Date: Fri May 15 20:34:26 PDT 2015
User: schluterlab
Dark Spectrum Present: Yes
Reference Spectrum Present: Yes
Number of Sampled Component Spectra: 1
Spectrometers: USB2E3373
Integration Time (usec): 3000 (USB2E3373)
Spectra Averaged: 3 (USB2E3373)
Boxcar Smoothing: 0 (USB2E3373)
Correct for Electrical Dark: No (USB2E3373)
Strobe/Lamp Enabled: No (USB2E3373)
Correct for Detector Non-linearity: No (USB2E3373)
Correct for Stray Light: No (USB2E3373)
Number of Pixels in Processed Spectrum: 2048
>>>>>Begin Processed Spectral Data<<<<<
178.53	0.000
178.91	0.000
179.29	-37.500
179.67	-600.000
180.04	71.429
180.42	-25.000
180.80	-600.000
181.18	200.000
181.56	450.000
181.94	-300.000
182.31	1100.000
182.69	-20.000
183.07	-333.333
183.45	0.000
183.83	16.667
184.20	-36.364
184.58	100.000
184.96	150.000
185.34	100.000
185.72	-200.000
186.09	46.154
186.47	-1500.000
186.85	183.333
187.23	100.000
187.61	700.000
187.98	-100.000
188.36	0.000
188.74	-200.000
189.12	-23.529
189.49	5.556
189.87	0.000
190.25	-14.286
190.63	-150.000
191.00	-233.333
191.38	52.632
191.76	50.000
192.14	175.000
192.51	-200.000
192.89	-100.000
193.27	-142.857
193.65	200.000
194.02	245.455
194.40	40.000
194.78	-162.500
195.15	-91.667
195.53	-150.000
195.91	225.000
196.29	-325.000
196.66	138.462
197.04	200.000
197.42	-55.556
197.79	-400.000
198.17	-153.846
198.55	1100.000
198.92	-466.667
199.30	-900.000
199.68	-260.000
200.05	-266.667
200.43	0.000
200.81	-300.000
201.18	-566.667
201.56	1500.000
201.94	-350.000
202.31	100.000
202.69	-300.000
203.07	300.000
203.44	-400.000
203.82	0.000
204.19	21.429
204.57	-133.333
204.95	62.500
205.32	0.000
205.70	-14.286
206.08	-275.000
206.45	100.000
206.83	92.857
207.20	-85.714
207.58	300.000
207.96	-333.333
208.33	-50.000
208.71	150.000
209.08	-366.667
209.46	-1200.000
209.84	-100.000
210.21	-2200.000
210.59	-42.857
210.96	100.000
211.34	-175.000
211.71	-40.000
212.09	-28.571
212.46	-1300.000
212.84	0.000
213.22	70.000
213.59	950.000
213.97	0.000
214.34	18.182
214.72	-150.000
215.09	325.000
215.47	-53.846
215.84	-27.273
216.22	-233.333
216.59	-12.500
216.97	0.000
217.34	-100.000
217.72	-240.000
218.09	-87.500
218.47	162.500
218.84	-400.000
219.22	-22.222
219.59	-140.000
219.97	600.000
220.34	250.000
220.72	-157.143
221.09	-150.000
221.47	100.000
221.84	-750.000
222.22	-1100.000
222.59	-81.818
222.97	-50.000
223.34	-366.667
223.72	-35.714
224.09	9.524
224.46	-21.429
224.84	333.333
225.21	-90.000
225.59	-20.000
225.96	-450.000
226.34	350.000
226.71	-142.857
227.08	-33.333
227.46	62.500
227.83	-450.000
228.21	-77.778
228.58	0.000
228.95	-75.000
229.33	10.000
229.70	-37.500
230.08	-237.500
230.45	-171.429
230.82	42.857
231.20	20.000
231.57	-64.286
231.95	14.286
232.32	-180.000
232.69	57.143
233.07	-166.667
233.44	-160.000
233.81	-170.000
234.19	-88.889
234.56	-64.706
234.93	650.000
235.31	-100.000
235.68	-180.000
236.05	-107.692
236.43	-50.000
236.80	-11.765
237.17	15.625
237.55	-25.000
237.92	-18.519
238.29	-2.778
238.67	10.000
239.04	-23.529
239.41	-26.829
239.79	-36.667
240.16	17.073
240.53	10.526
240.91	0.000
241.28	14.286
241.65	10.714
242.02	21.918
242.40	1.667
242.77	1.695
243.14	-7.576
243.51	8.750
243.89	13.793
244.26	8.046
244.63	3.571
245.00	13.402
245.38	8.247
245.75	0.000
246.12	0.862
246.49	9.091
246.87	6.731
247.24	1.681
247.61	-6.140
247.98	5.691
248.36	5.000
248.73	14.474
249.10	6.494
249.47	8.228
249.84	3.268
250.22	4.706
250.59	5.882
250.96	13.615
251.33	6.395
251.70	12.353
252.08	8.629
252.45	12.376
252.82	11.055
253.19	13.825
253.56	4.673
253.94	6.306
254.31	6.522
254.68	14.912
255.05	8.268
255.42	9.607
255.79	10.811
256.16	12.062
256.54	13.433
256.91	7.605
257.28	6.320
257.65	8.614
258.02	8.865
258.39	8.418
258.76	9.524
259.14	9.635
259.51	12.621
259.88	8.935
260.25	7.516
260.62	8.681
260.99	8.475
261.36	7.877
261.73	7.911
262.10	9.422
262.47	3.681
262.85	7.524
263.22	10.769
263.59	11.215
263.96	10.248
264.33	10.303
264.70	5.952
265.07	9.821
265.44	9.915
265.81	9.887
266.18	9.836
266.55	11.568
266.92	12.694
267.29	10.705
267.66	10.230
268.03	10.471
268.40	10.966
268.77	12.032
269.14	9.353
269.51	12.339
269.88	10.474
270.25	8.929
270.62	8.780
270.99	9.463
271.36	8.802
271.73	12.441
272.10	11.192
272.47	11.111
272.84	7.921
273.21	8.817
273.58	9.157
273.95	11.899
274.32	7.390
274.69	6.787
275.06	9.375
275.43	10.204
275.80	11.479
276.17	7.586
276.54	10.064
276.91	11.184
277.28	8.297
277.65	10.331
278.02	8.936
278.39	9.847
278.76	10.063
279.13	7.054
279.50	9.034
279.87	11.447
280.23	6.667
280.60	10.136
280.97	9.495
281.34	9.423
281.71	9.035
282.08	6.339
282.45	8.806
282.82	9.073
283.19	10.058
283.56	11.175
283.92	9.488
284.29	6.923
284.66	6.395
285.03	7.466
285.40	8.696
285.77	7.733
286.14	9.025
286.51	10.701
286.87	8.958
287.24	7.735
287.61	7.937
287.98	8.947
288.35	8.492
288.72	7.356
289.08	8.681
289.45	7.381
289.82	10.140
290.19	8.532
290.56	9.091
290.93	7.576
291.29	5.855
291.66	7.874
292.03	8.293
292.40	8.226
292.77	7.656
293.13	6.494
293.50	6.829
293.87	10.076
294.24	7.110
294.60	6.408
294.97	8.482
295.34	7.822
295.71	8.197
296.08	8.072
296.44	6.401
296.81	7.222
297.18	7.971
297.55	7.995
297.91	7.123
298.28	7.652
298.65	7.870
299.02	6.739
299.38	5.198
299.75	6.897
300.12	7.723
300.48	7.115
300.85	7.478
301.22	5.455
301.59	5.000
301.95	7.342
302.32	8.431
302.69	6.841
303.05	6.312
303.42	7.472
303.79	6.893
304.15	8.244
304.52	4.994
304.89	6.667
305.25	5.569
305.62	6.184
305.99	6.433
306.35	6.127
306.72	5.962
307.09	5.587
307.45	6.429
307.82	6.134
308.19	7.549
308.55	6.325
308.92	7.190
309.29	5.698
309.65	6.351
310.02	6.491
310.38	6.367
310.75	6.230
311.12	6.351
311.48	6.257
311.85	6.283
312.22	6.329
312.58	5.520
312.95	4.696
313.31	5.176
313.68	5.969
314.05	6.429
314.41	7.732
314.78	6.082
315.14	6.989
315.51	6.729
315.87	8.709
316.24	8.999
316.61	8.366
316.97	9.524
317.34	6.445
317.70	8.222
318.07	8.077
318.43	8.627
318.80	8.617
319.16	9.473
319.53	9.307
319.89	10.728
320.26	9.413
320.62	10.933
320.99	10.230
321.35	10.689
321.72	11.111
322.08	11.078
322.45	10.863
322.81	11.493
323.18	10.893
323.54	11.004
323.91	11.587
324.27	12.402
324.64	14.139
325.00	13.504
325.37	14.509
325.73	12.693
326.10	14.714
326.46	15.785
326.83	15.923
327.19	14.647
327.56	16.421
327.92	16.373
328.29	14.643
328.65	17.170
329.01	15.993
329.38	17.419
329.74	16.619
330.11	17.238
330.47	16.327
330.84	16.346
331.20	18.726
331.56	16.574
331.93	17.900
332.29	18.607
332.66	16.833
333.02	18.123
333.38	16.499
333.75	18.498
334.11	17.816
334.48	18.314
334.84	18.864
335.20	19.488
335.57	18.404
335.93	18.428
336.29	17.311
336.66	17.984
337.02	16.729
337.38	17.593
337.75	18.909
338.11	18.936
338.47	18.613
338.84	19.593
339.20	19.104
339.56	18.440
339.93	18.621
340.29	17.982
340.65	17.563
341.02	17.996
341.38	18.673
341.74	17.756
342.11	17.938
342.47	18.594
342.83	18.339
343.20	18.380
343.56	18.783
343.92	18.512
344.28	19.129
344.65	17.530
345.01	17.373
345.37	17.998
345.73	20.251
346.10	18.723
346.46	17.830
346.82	17.676
347.19	17.539
347.55	18.463
347.91	18.123
348.27	18.432
348.63	18.399
349.00	18.212
349.36	17.456
349.72	19.071
350.08	18.197
350.45	18.994
350.81	16.860
351.17	17.834
351.53	18.122
351.89	16.846
352.26	17.280
352.62	19.355
352.98	18.313
353.34	17.713
353.70	19.094
354.07	18.226
354.43	18.415
354.79	17.589
355.15	18.889
355.51	17.880
355.87	17.152
356.24	16.884
356.60	17.462
356.96	18.968
357.32	18.211
357.68	17.279
358.04	18.417
358.40	18.650
358.77	18.421
359.13	19.215
359.49	17.874
359.85	18.799
360.21	19.219
360.57	18.363
360.93	18.230
361.29	18.353
361.66	18.103
362.02	19.015
362.38	19.269
362.74	18.395
363.10	17.833
363.46	18.013
363.82	19.684
364.18	18.450
364.54	18.309
364.90	18.208
365.26	18.341
365.62	18.905
365.98	18.988
366.35	19.374
366.71	18.551
367.07	19.013
367.43	18.763
367.79	19.081
368.15	18.019
368.51	19.519
368.87	17.588
369.23	18.267
369.59	18.586
369.95	20.308
370.31	18.931
370.67	19.179
371.03	18.223
371.39	18.964
371.75	19.927
372.11	20.043
372.47	18.935
372.83	19.872
373.19	20.185
373.55	19.206
373.91	20.878
374.27	20.057
374.63	20.101
374.99	19.574
375.35	20.195
375.71	19.860
376.07	19.874
376.42	19.864
376.78	19.799
377.14	19.431
377.50	20.916
377.86	20.214
378.22	20.549
378.58	19.872
378.94	19.534
379.30	19.713
379.66	21.003
380.02	20.540
380.38	20.207
380.74	20.287
381.09	21.227
381.45	20.306
381.81	20.851
382.17	21.193
382.53	20.800
382.89	21.155
383.25	21.344
383.61	22.622
383.97	20.762
384.32	22.264
384.68	20.929
385.04	21.140
385.40	20.286
385.76	22.516
386.12	22.251
386.48	22.031
386.83	21.497
387.19	22.466
387.55	23.526
387.91	22.005
388.27	22.161
388.62	21.963
388.98	21.608
389.34	22.861
389.70	23.555
390.06	22.215
390.42	23.316
390.77	22.760
391.13	22.636
391.49	23.157
391.85	23.067
392.20	22.473
392.56	22.695
392.92	22.842
393.28	23.526
393.64	22.402
393.99	23.260
394.35	22.517
394.71	23.627
395.07	23.319
395.42	23.194
395.78	23.779
396.14	23.266
396.50	23.653
396.85	22.988
397.21	23.496
397.57	22.884
397.92	23.547
398.28	23.103
398.64	23.072
399.00	24.436
399.35	23.984
399.71	23.894
400.07	24.063
400.42	24.113
400.78	23.821
401.14	23.472
401.49	24.360
401.85	23.400
402.21	24.277
402.57	24.250
402.92	23.651
403.28	24.624
403.63	23.834
403.99	23.214
404.35	24.547
404.70	23.571
405.06	23.384
405.42	23.928
405.77	22.894
406.13	24.389
406.49	24.571
406.84	24.144
407.20	23.841
407.55	23.374
407.91	23.663
408.27	23.837
408.62	24.246
408.98	25.323
409.34	24.721
409.69	23.902
410.05	23.091
410.40	23.457
410.76	24.789
411.11	23.875
411.47	24.786
411.83	23.478
412.18	25.097
412.54	24.469
412.89	23.584
413.25	24.850
413.60	24.907
413.96	22.945
414.31	24.634
414.67	23.541
415.03	24.634
415.38	23.760
415.74	24.169
416.09	24.037
416.45	24.308
416.80	23.728
417.16	25.000
417.51	24.184
417.87	23.990
418.22	25.583
418.58	24.214
418.93	24.389
419.29	23.816
419.64	24.174
420.00	26.071
420.35	22.866
420.71	24.241
421.06	24.248
421.42	24.579
421.77	25.260
422.12	24.120
422.48	24.201
422.83	24.014
423.19	24.436
423.54	24.339
423.90	23.910
424.25	24.455
424.61	24.541
424.96	24.913
425.31	24.899
425.67	24.472
426.02	24.912
426.38	24.984
426.73	24.576
427.09	24.367
427.44	24.412
427.79	25.692
428.15	24.818
428.50	24.773
428.85	23.956
429.21	25.014
429.56	24.690
429.92	25.167
430.27	24.010
430.62	23.994
430.98	24.416
431.33	24.921
431.68	24.490
432.04	24.986
432.39	24.244
432.74	24.233
433.10	25.460
433.45	23.955
433.80	24.782
434.16	23.269
434.51	25.914
434.86	25.668
435.22	24.397
435.57	25.078
435.92	24.970
436.28	24.329
436.63	24.986
436.98	25.261
437.34	24.924
437.69	25.283
438.04	24.957
438.39	25.290
438.75	25.987
439.10	24.561
439.45	25.380
439.81	25.321
440.16	25.891
440.51	26.448
440.86	26.344
441.22	26.640
441.57	26.159
441.92	27.020
442.27	26.829
442.63	27.034
442.98	27.111
443.33	25.320
443.68	25.995
444.03	27.372
444.39	27.152
444.74	28.205
445.09	26.615
445.44	27.009
445.79	27.385
446.15	27.203
446.50	27.011
446.85	27.258
447.20	27.424
447.55	28.237
447.91	27.637
448.26	27.661
448.61	27.749
448.96	27.711
449.31	27.168
449.66	27.526
450.02	28.351
450.37	27.801
450.72	27.148
451.07	28.418
451.42	27.216
451.77	27.788
452.12	26.914
452.47	27.560
452.83	27.091
453.18	27.704
453.53	28.066
453.88	28.415
454.23	28.211
454.58	28.275
454.93	28.157
455.28	27.556
455.63	28.394
455.98	28.082
456.34	27.778
456.69	27.382
457.04	28.040
457.39	28.919
457.74	27.570
458.09	27.604
458.44	27.384
458.79	28.291
459.14	29.119
459.49	28.836
459.84	28.257
460.19	27.791
460.54	27.751
460.89	27.727
461.24	27.826
461.59	28.504
461.94	27.421
462.29	28.890
462.64	27.973
462.99	27.488
463.34	28.025
463.69	27.413
464.04	28.027
464.39	28.199
464.74	28.098
465.09	28.260
465.44	28.275
465.79	27.608
466.14	28.677
466.49	27.142
466.84	27.841
467.19	28.035
467.54	26.692
467.89	28.111
468.24	26.217
468.59	27.810
468.94	26.667
469.29	27.934
469.64	27.956
469.99	28.241
470.34	26.758
470.68	29.157
471.03	26.752
471.38	28.031
471.73	27.731
472.08	27.341
472.43	26.846
472.78	26.319
473.13	27.211
473.48	27.752
473.83	26.650
474.17	27.720
474.52	26.803
474.87	26.788
475.22	26.846
475.57	27.894
475.92	28.305
476.27	27.474
476.61	26.968
476.96	27.105
477.31	27.366
477.66	27.022
478.01	27.007
478.36	27.233
478.70	26.971
479.05	27.802
479.40	27.504
479.75	26.486
480.10	26.984
480.45	27.100
480.79	26.838
481.14	26.844
481.49	26.256
481.84	26.496
482.19	26.333
482.53	27.338
482.88	26.205
483.23	25.864
483.58	26.321
483.92	25.702
484.27	25.661
484.62	25.997
484.97	25.663
485.31	25.867
485.66	24.691
486.01	26.183
486.36	25.455
486.70	25.604
487.05	25.709
487.40	25.310
487.75	25.915
488.09	25.124
488.44	25.447
488.79	25.364
489.13	26.242
489.48	25.652
489.83	25.157
490.17	25.573
490.52	25.727
490.87	25.636
491.22	25.692
491.56	25.617
491.91	25.048
492.26	25.717
492.60	24.952
492.95	26.365
493.30	24.866
493.64	25.835
493.99	25.749
494.34	24.417
494.68	25.333
495.03	25.061
495.37	24.730
495.72	24.836
496.07	24.927
496.41	25.943
496.76	25.380
497.11	24.732
497.45	25.155
497.80	25.681
498.14	24.540
498.49	24.581
498.84	25.200
499.18	25.402
499.53	25.050
499.87	24.903
500.22	24.332
500.56	24.559
500.91	24.347
501.26	23.777
501.60	24.889
501.95	25.133
502.29	24.600
502.64	24.855
502.98	24.470
503.33	23.823
503.67	24.048
504.02	24.976
504.36	24.592
504.71	23.788
505.06	23.603
505.40	23.299
505.75	24.433
506.09	23.619
506.44	24.897
506.78	23.878
507.13	24.560
507.47	23.029
507.82	22.650
508.16	22.768
508.51	23.820
508.85	23.234
509.19	23.576
509.54	23.324
509.88	22.708
510.23	23.400
510.57	23.196
510.92	22.388
511.26	23.622
511.61	23.872
511.95	23.014
512.30	23.780
512.64	22.816
512.98	22.965
513.33	22.720
513.67	22.740
514.02	23.970
514.36	24.171
514.70	23.310
515.05	23.502
515.39	22.255
515.74	23.713
516.08	23.491
516.42	23.380
516.77	23.523
517.11	23.442
517.46	23.339
517.80	22.884
518.14	23.515
518.49	22.536
518.83	22.175
519.17	22.317
519.52	21.847
519.86	22.629
520.20	21.932
520.55	22.702
520.89	22.961
521.23	20.519
521.58	22.334
521.92	23.333
522.26	21.991
522.61	22.078
522.95	22.914
523.29	21.982
523.64	22.490
523.98	23.072
524.32	21.327
524.66	21.639
525.01	22.857
525.35	23.331
525.69	21.818
526.04	21.759
526.38	22.892
526.72	20.471
527.06	21.271
527.41	21.174
527.75	20.576
528.09	21.860
528.43	22.215
528.78	20.792
529.12	21.419
529.46	20.858
529.80	21.849
530.15	22.112
530.49	21.414
530.83	21.204
531.17	20.148
531.51	20.725
531.86	21.074
532.20	21.155
532.54	21.579
532.88	21.013
533.22	21.169
533.57	20.773
533.91	20.953
534.25	21.029
534.59	20.013
534.93	20.264
535.27	19.987
535.62	19.896
535.96	20.744
536.30	21.240
536.64	20.882
536.98	19.791
537.32	20.199
537.66	20.337
538.01	19.790
538.35	20.250
538.69	20.373
539.03	19.070
539.37	19.919
539.71	19.223
540.05	20.842
540.39	20.291
540.73	19.526
541.07	20.166
541.42	20.296
541.76	19.408
542.10	19.477
542.44	19.875
542.78	18.513
543.12	18.819
543.46	19.958
543.80	19.153
544.14	18.224
544.48	19.054
544.82	18.250
545.16	19.809
545.50	20.227
545.84	20.255
546.18	18.227
546.52	19.178
546.86	18.979
547.20	19.170
547.54	18.799
547.88	18.818
548.22	18.409
548.56	18.074
548.90	18.464
549.24	18.595
549.58	18.829
549.92	18.013
550.26	17.875
550.60	18.662
550.94	18.596
551.28	18.856
551.62	18.615
551.96	18.496
552.30	17.617
552.64	17.630
552.98	17.511
553.32	18.260
553.66	17.707
554.00	18.394
554.34	17.799
554.68	17.035
555.02	18.527
555.36	17.577
555.69	17.509
556.03	17.844
556.37	17.722
556.71	18.267
557.05	18.121
557.39	17.175
557.73	17.691
558.07	17.873
558.41	17.381
558.75	17.459
559.08	18.834
559.42	17.222
559.76	17.374
560.10	17.202
560.44	17.945
560.78	18.042
561.12	17.207
561.45	16.796
561.79	17.367
562.13	17.175
562.47	16.978
562.81	17.363
563.15	17.630
563.48	17.256
563.82	17.433
564.16	16.365
564.50	18.176
564.84	17.068
565.17	16.968
565.51	17.418
565.85	16.872
566.19	17.308
566.52	16.622
566.86	17.095
567.20	16.625
567.54	16.788
567.88	16.637
568.21	16.912
568.55	15.272
568.89	16.530
569.23	16.322
569.56	15.543
569.90	16.240
570.24	15.742
570.57	15.455
570.91	16.347
571.25	15.883
571.59	15.603
571.92	15.348
572.26	15.157
572.60	15.473
572.93	16.065
573.27	15.016
573.61	15.185
573.95	15.128
574.28	15.042
574.62	14.798
574.96	15.059
575.29	15.220
575.63	14.693
575.97	14.665
576.30	14.872
576.64	14.755
576.98	15.470
577.31	15.262
577.65	14.748
577.98	15.152
578.32	14.536
578.66	14.356
578.99	14.647
579.33	14.764
579.67	14.560
580.00	14.430
580.34	14.328
580.67	14.466
581.01	14.265
581.35	14.556
581.68	14.623
582.02	14.516
582.35	14.318
582.69	14.628
583.02	14.206
583.36	14.384
583.70	14.849
584.03	14.456
584.37	14.935
584.70	14.670
585.04	14.093
585.37	14.521
585.71	14.169
586.04	14.019
586.38	14.030
586.72	14.491
587.05	14.385
587.39	14.789
587.72	14.653
588.06	14.116
588.39	14.042
588.73	14.255
589.06	14.644
589.40	14.138
589.73	14.677
590.07	14.539
590.40	14.706
590.73	14.827
591.07	14.292
591.40	14.960
591.74	14.570
592.07	14.657
592.41	14.841
592.74	13.978
593.08	13.797
593.41	13.871
593.75	14.099
594.08	13.800
594.41	14.192
594.75	13.206
595.08	13.848
595.42	13.692
595.75	14.645
596.09	14.347
596.42	14.345
596.75	13.988
597.09	13.440
597.42	13.460
597.75	14.430
598.09	14.260
598.42	14.170
598.76	13.599
599.09	13.582
599.42	13.225
599.76	13.695
600.09	14.065
600.42	13.495
600.76	13.373
601.09	13.473
601.42	13.709
601.76	12.981
602.09	13.408
602.42	13.943
602.76	13.582
603.09	13.912
603.42	14.089
603.76	13.226
604.09	13.447
604.42	13.917
604.76	13.529
605.09	13.848
605.42	13.860
605.75	14.054
606.09	13.461
606.42	12.886
606.75	13.766
607.09	13.846
607.42	13.469
607.75	13.366
608.08	13.252
608.42	13.568
608.75	13.542
609.08	12.955
609.41	13.756
609.75	13.861
610.08	13.779
610.41	13.527
610.74	13.067
611.07	13.540
611.41	13.804
611.74	13.593
612.07	12.794
612.40	13.950
612.73	13.220
613.07	12.711
613.40	12.910
613.73	12.423
614.06	13.745
614.39	13.142
614.72	12.661
615.06	12.961
615.39	13.155
615.72	12.971
616.05	13.017
616.38	12.650
616.71	13.028
617.05	13.095
617.38	13.262
617.71	12.893
618.04	13.460
618.37	14.439
618.70	12.409
619.03	14.306
619.36	12.229
619.69	13.874
620.03	13.879
620.36	14.163
620.69	13.847
621.02	12.768
621.35	13.859
621.68	13.350
622.01	13.833
622.34	13.089
622.67	13.644
623.00	13.093
623.33	13.415
623.66	13.089
623.99	12.557
624.32	13.232
624.65	12.030
624.99	13.544
625.32	11.903
625.65	14.218
625.98	13.699
626.31	12.219
626.64	14.038
626.97	13.962
627.30	12.697
627.63	15.251
627.96	12.938
628.29	13.321
628.62	14.356
628.95	12.926
629.28	13.306
629.61	12.762
629.94	14.272
630.26	13.340
630.59	14.256
630.92	12.923
631.25	13.333
631.58	14.317
631.91	12.829
632.24	12.156
632.57	12.955
632.90	12.456
633.23	14.941
633.56	11.965
633.89	14.180
634.22	13.827
634.55	12.325
634.88	13.410
635.20	13.846
635.53	12.933
635.86	11.964
636.19	13.972
