SpectraSuite Data File
++++++++++++++++++++++++++++++++++++
Date: Fri May 15 20:31:52 PDT 2015
User: schluterlab
Dark Spectrum Present: Yes
Reference Spectrum Present: Yes
Number of Sampled Component Spectra: 1
Spectrometers: USB2E3373
Integration Time (usec): 3000 (USB2E3373)
Spectra Averaged: 3 (USB2E3373)
Boxcar Smoothing: 0 (USB2E3373)
Correct for Electrical Dark: No (USB2E3373)
Strobe/Lamp Enabled: No (USB2E3373)
Correct for Detector Non-linearity: No (USB2E3373)
Correct for Stray Light: No (USB2E3373)
Number of Pixels in Processed Spectrum: 2048
>>>>>Begin Processed Spectral Data<<<<<
178.53	0.000
178.91	0.000
179.29	162.500
179.67	-700.000
180.04	-14.286
180.42	100.000
180.80	-800.000
181.18	-300.000
181.56	900.000
181.94	400.000
182.31	-400.000
182.69	20.000
183.07	-266.667
183.45	-20.000
183.83	233.333
184.20	18.182
184.58	66.667
184.96	125.000
185.34	100.000
185.72	-450.000
186.09	100.000
186.47	-700.000
186.85	300.000
187.23	77.778
187.61	100.000
187.98	-166.667
188.36	55.556
188.74	-366.667
189.12	29.412
189.49	27.778
189.87	0.000
190.25	71.429
190.63	150.000
191.00	-166.667
191.38	-5.263
191.76	-300.000
192.14	200.000
192.51	-250.000
192.89	-66.667
193.27	-85.714
193.65	333.333
194.02	145.455
194.40	-20.000
194.78	-200.000
195.15	-16.667
195.53	25.000
195.91	125.000
196.29	-150.000
196.66	161.538
197.04	171.429
197.42	-100.000
197.79	-633.333
198.17	-153.846
198.55	800.000
198.92	-300.000
199.30	-700.000
199.68	-20.000
200.05	-100.000
200.43	0.000
200.81	-266.667
201.18	-66.667
201.56	1300.000
201.94	-400.000
202.31	-33.333
202.69	-280.000
203.07	25.000
203.44	1400.000
203.82	0.000
204.19	50.000
204.57	-500.000
204.95	162.500
205.32	40.000
205.70	-14.286
206.08	-75.000
206.45	33.333
206.83	35.714
207.20	-85.714
207.58	400.000
207.96	-533.333
208.33	-60.000
208.71	-100.000
209.08	-183.333
209.46	-100.000
209.84	-260.000
210.21	400.000
210.59	0.000
210.96	16.667
211.34	75.000
211.71	-33.333
212.09	-142.857
212.46	-1200.000
212.84	0.000
213.22	20.000
213.59	650.000
213.97	-30.769
214.34	-9.091
214.72	33.333
215.09	425.000
215.47	23.077
215.84	-36.364
216.22	-333.333
216.59	-75.000
216.97	150.000
217.34	-25.000
217.72	-300.000
218.09	-37.500
218.47	262.500
218.84	-1300.000
219.22	77.778
219.59	-200.000
219.97	600.000
220.34	200.000
220.72	-14.286
221.09	-150.000
221.47	100.000
221.84	-750.000
222.22	-550.000
222.59	45.455
222.97	50.000
223.34	-266.667
223.72	-50.000
224.09	0.000
224.46	28.571
224.84	500.000
225.21	-40.000
225.59	60.000
225.96	-400.000
226.34	325.000
226.71	85.714
227.08	-100.000
227.46	75.000
227.83	-1050.000
228.21	-66.667
228.58	-36.364
228.95	-125.000
229.33	110.000
229.70	-31.250
230.08	-112.500
230.45	-185.714
230.82	100.000
231.20	-26.667
231.57	57.143
231.95	0.000
232.32	-40.000
232.69	57.143
233.07	-66.667
233.44	-20.000
233.81	-60.000
234.19	44.444
234.56	-52.941
234.93	-150.000
235.31	-50.000
235.68	-120.000
236.05	-53.846
236.43	5.000
236.80	11.765
237.17	43.750
237.55	-40.000
237.92	18.519
238.29	19.444
238.67	40.000
239.04	2.941
239.41	4.878
239.79	26.667
240.16	21.951
240.53	7.895
240.91	39.130
241.28	26.984
241.65	37.500
242.02	36.986
242.40	43.333
242.77	45.763
243.14	28.788
243.51	32.500
243.89	52.874
244.26	34.483
244.63	36.905
245.00	31.959
245.38	55.670
245.75	26.966
246.12	31.897
246.49	38.017
246.87	54.808
247.24	22.689
247.61	42.982
247.98	43.902
248.36	40.000
248.73	43.421
249.10	37.013
249.47	36.076
249.84	41.830
250.22	39.412
250.59	47.059
250.96	43.662
251.33	34.884
251.70	42.941
252.08	42.640
252.45	38.614
252.82	41.709
253.19	42.857
253.56	40.187
253.94	42.342
254.31	42.609
254.68	47.368
255.05	44.094
255.42	45.415
255.79	44.788
256.16	41.634
256.54	42.910
256.91	42.205
257.28	39.033
257.65	38.951
258.02	41.135
258.39	41.751
258.76	43.956
259.14	42.857
259.51	43.366
259.88	41.581
260.25	45.098
260.62	44.444
260.99	41.017
261.36	40.411
261.73	42.089
262.10	41.033
262.47	42.331
262.85	45.141
263.22	42.462
263.59	46.106
263.96	45.652
264.33	41.818
264.70	43.750
265.07	42.560
265.44	42.776
265.81	44.350
266.18	42.350
266.55	41.902
266.92	41.710
267.29	43.081
267.66	44.246
268.03	45.026
268.40	40.209
268.77	47.861
269.14	39.568
269.51	44.216
269.88	41.646
270.25	44.133
270.62	40.976
270.99	41.944
271.36	39.853
271.73	43.662
272.10	40.389
272.47	43.262
272.84	44.802
273.21	41.763
273.58	44.578
273.95	41.419
274.32	41.570
274.69	41.855
275.06	42.188
275.43	39.909
275.80	41.060
276.17	43.908
276.54	38.330
276.91	41.886
277.28	38.210
277.65	42.149
278.02	37.447
278.39	43.326
278.76	41.929
279.13	35.892
279.50	43.067
279.87	40.605
280.23	41.075
280.60	39.376
280.97	42.626
281.34	40.192
281.71	41.889
282.08	39.673
282.45	40.313
282.82	40.541
283.19	41.973
283.56	39.306
283.92	40.607
284.29	38.462
284.66	39.729
285.03	40.864
285.40	39.130
285.77	38.137
286.14	39.892
286.51	42.435
286.87	40.768
287.24	39.595
287.61	37.743
287.98	40.175
288.35	38.995
288.72	39.054
289.08	37.847
289.45	40.598
289.82	35.839
290.19	38.055
290.56	36.707
290.93	34.512
291.29	34.823
291.66	38.110
292.03	36.045
292.40	35.968
292.77	34.131
293.13	31.981
293.50	35.357
293.87	32.366
294.24	33.385
294.60	32.787
294.97	32.440
295.34	32.362
295.71	33.979
296.08	31.091
296.44	29.303
296.81	30.972
297.18	31.449
297.55	33.062
297.91	30.548
298.28	30.475
298.65	29.308
299.02	31.536
299.38	30.369
299.75	30.897
300.12	28.665
300.48	30.698
300.85	30.165
301.22	28.701
301.59	30.395
301.95	28.861
302.32	31.777
302.69	29.104
303.05	29.703
303.42	29.514
303.79	29.907
304.15	28.674
304.52	28.062
304.89	27.135
305.25	28.692
305.62	27.188
305.99	29.708
306.35	28.786
306.72	26.884
307.09	28.620
307.45	29.047
307.82	28.009
308.19	28.571
308.55	27.590
308.92	28.105
309.29	28.492
309.65	26.265
310.02	27.063
310.38	27.113
310.75	27.978
311.12	27.987
311.48	28.208
311.85	26.911
312.22	26.371
312.58	27.601
312.95	28.388
313.31	26.605
313.68	27.120
314.05	27.143
314.41	29.485
314.78	28.144
315.14	29.291
315.51	28.364
315.87	27.561
316.24	28.008
316.61	29.035
316.97	29.563
317.34	26.758
317.70	29.063
318.07	27.596
318.43	29.216
318.80	27.367
319.16	29.492
319.53	29.440
319.89	30.118
320.26	29.555
320.62	28.987
320.99	27.349
321.35	31.038
321.72	31.464
322.08	30.715
322.45	31.472
322.81	32.711
323.18	31.207
323.54	30.792
323.91	33.204
324.27	33.301
324.64	34.270
325.00	33.212
325.37	34.711
325.73	33.001
326.10	33.152
326.46	35.964
326.83	35.958
327.19	35.048
327.56	35.534
327.92	36.708
328.29	35.536
328.65	37.264
329.01	36.857
329.38	37.972
329.74	37.205
330.11	37.720
330.47	36.827
330.84	37.404
331.20	41.255
331.56	37.685
331.93	39.361
332.29	40.055
332.66	38.371
333.02	38.290
333.38	38.680
333.75	39.927
334.11	38.138
334.48	38.259
334.84	40.568
335.20	40.622
335.57	38.894
335.93	40.018
336.29	38.398
336.66	37.421
337.02	39.219
337.38	39.352
337.75	39.818
338.11	40.216
338.47	40.693
338.84	40.296
339.20	41.499
339.56	40.642
339.93	39.928
340.29	40.183
340.65	41.219
341.02	40.514
341.38	39.735
341.74	39.488
342.11	38.995
342.47	41.993
342.83	40.657
343.20	39.373
343.56	40.609
343.92	40.744
344.28	40.478
344.65	40.155
345.01	40.449
345.37	39.613
345.73	39.749
346.10	41.501
346.46	40.706
346.82	40.753
347.19	38.903
347.55	40.267
347.91	40.291
348.27	40.097
348.63	39.864
349.00	40.771
349.36	40.233
349.72	41.128
350.08	39.344
350.45	40.862
350.81	40.781
351.17	40.635
351.53	40.816
351.89	39.884
352.26	39.760
352.62	41.371
352.98	40.321
353.34	39.211
353.70	40.615
354.07	40.726
354.43	39.872
354.79	40.545
355.15	41.111
355.51	41.456
355.87	40.210
356.24	39.070
356.60	40.178
356.96	40.317
357.32	40.735
357.68	39.953
358.04	40.065
358.40	41.720
358.77	40.510
359.13	40.673
359.49	39.291
359.85	40.796
360.21	41.308
360.57	38.944
360.93	41.301
361.29	40.332
361.66	41.614
362.02	41.667
362.38	41.736
362.74	43.452
363.10	41.535
363.46	42.031
363.82	42.449
364.18	41.993
364.54	41.471
364.90	43.011
365.26	41.630
365.62	43.504
365.98	41.276
366.35	43.481
366.71	44.346
367.07	42.380
367.43	42.631
367.79	43.463
368.15	42.211
368.51	42.025
368.87	41.493
369.23	41.877
369.59	43.513
369.95	43.842
370.31	42.558
370.67	43.358
371.03	42.494
371.39	43.399
371.75	42.491
372.11	43.010
372.47	43.343
372.83	44.216
373.19	42.511
373.55	43.105
373.91	43.916
374.27	45.145
374.63	43.719
374.99	44.043
375.35	44.777
375.71	45.944
376.07	44.944
376.42	44.422
376.78	45.503
377.14	45.362
377.50	44.422
377.86	45.515
378.22	44.671
378.58	44.615
378.94	45.369
379.30	45.290
379.66	46.646
380.02	45.616
380.38	44.127
380.74	45.003
381.09	46.258
381.45	45.199
381.81	44.972
382.17	46.383
382.53	46.096
382.89	46.767
383.25	46.733
383.61	46.159
383.97	46.667
384.32	45.716
384.68	46.873
385.04	46.936
385.40	46.111
385.76	48.553
386.12	47.801
386.48	49.234
386.83	47.495
387.19	48.901
387.55	48.494
387.91	47.372
388.27	47.802
388.62	48.143
388.98	48.128
389.34	47.720
389.70	48.664
390.06	47.199
390.42	48.187
390.77	47.286
391.13	46.974
391.49	49.094
391.85	48.473
392.20	47.834
392.56	49.523
392.92	48.444
393.28	50.118
393.64	48.048
393.99	50.157
394.35	48.893
394.71	49.361
395.07	48.523
395.42	47.662
395.78	47.622
396.14	48.991
396.50	49.588
396.85	49.453
397.21	48.371
397.57	49.342
397.92	50.090
398.28	48.736
398.64	47.470
399.00	48.871
399.35	49.605
399.71	48.880
400.07	50.000
400.42	49.204
400.78	49.724
401.14	50.091
401.49	48.898
401.85	49.604
402.21	50.301
402.57	49.500
402.92	48.055
403.28	50.125
403.63	50.000
403.99	49.809
404.35	50.781
404.70	48.810
405.06	49.060
405.42	49.472
405.77	48.635
406.13	49.010
406.49	49.438
406.84	50.550
407.20	50.512
407.55	49.646
407.91	48.930
408.27	47.482
408.62	50.154
408.98	49.291
409.34	49.009
409.69	47.933
410.05	47.968
410.40	50.494
410.76	49.337
411.11	50.187
411.47	49.704
411.83	49.466
412.18	48.777
412.54	49.875
412.89	48.584
413.25	50.241
413.60	49.876
413.96	48.896
414.31	48.902
414.67	49.968
415.03	49.134
415.38	48.695
415.74	49.707
416.09	50.098
416.45	50.304
416.80	48.315
417.16	51.588
417.51	49.367
417.87	49.087
418.22	50.777
418.58	50.301
418.93	51.160
419.29	49.424
419.64	50.162
420.00	50.756
420.35	49.373
420.71	50.182
421.06	49.171
421.42	49.880
421.77	49.711
422.12	48.978
422.48	48.728
422.83	49.246
423.19	50.113
423.54	49.383
423.90	49.411
424.25	49.770
424.61	50.490
424.96	48.839
425.31	50.376
425.67	50.411
426.02	50.766
426.38	51.409
426.73	50.545
427.09	52.025
427.44	49.706
427.79	50.029
428.15	50.607
428.50	50.030
428.85	48.096
429.21	48.896
429.56	50.943
429.92	49.358
430.27	49.424
430.62	49.817
430.98	49.628
431.33	49.264
431.68	49.660
432.04	49.804
432.39	50.086
432.74	48.647
433.10	50.977
433.45	49.164
433.80	50.609
434.16	49.695
434.51	49.677
434.86	50.116
435.22	49.355
435.57	50.717
435.92	50.359
436.28	49.612
436.63	49.515
436.98	49.421
437.34	50.575
437.69	51.521
438.04	50.142
438.39	49.786
438.75	51.791
439.10	50.651
439.45	51.065
439.81	50.520
440.16	50.713
440.51	50.209
440.86	51.662
441.22	50.509
441.57	50.110
441.92	51.469
442.27	51.552
442.63	50.749
442.98	51.350
443.33	50.139
443.68	51.459
444.03	51.068
444.39	50.910
444.74	51.895
445.09	51.225
445.44	50.199
445.79	51.831
446.15	50.330
446.50	50.693
446.85	51.541
447.20	51.251
447.55	51.116
447.91	51.213
448.26	52.248
448.61	52.562
448.96	52.094
449.31	51.618
449.66	51.800
450.02	51.968
450.37	51.986
450.72	50.745
451.07	52.025
451.42	51.998
451.77	52.381
452.12	50.897
452.47	51.578
452.83	51.001
453.18	51.929
453.53	53.034
453.88	52.459
454.23	51.506
454.58	52.960
454.93	52.706
455.28	50.413
455.63	51.829
455.98	53.638
456.34	51.724
456.69	51.906
457.04	53.182
457.39	52.491
457.74	52.237
458.09	49.912
458.44	51.200
458.79	50.364
459.14	52.231
459.49	52.836
459.84	51.833
460.19	50.850
460.54	52.200
460.89	52.443
461.24	50.994
461.59	51.247
461.94	51.635
462.29	51.749
462.64	52.625
462.99	52.133
463.34	51.808
463.69	50.450
464.04	51.271
464.39	50.273
464.74	51.043
465.09	51.840
465.44	51.587
465.79	49.660
466.14	50.798
466.49	51.236
466.84	51.338
467.19	51.690
467.54	50.894
467.89	51.864
468.24	50.487
468.59	51.302
468.94	50.984
469.29	51.541
469.64	51.265
469.99	51.717
470.34	50.853
470.68	52.424
471.03	51.805
471.38	52.211
471.73	51.050
472.08	50.475
472.43	50.403
472.78	50.788
473.13	51.701
473.48	50.814
473.83	50.560
474.17	52.008
474.52	50.096
474.87	50.424
475.22	50.702
475.57	50.762
475.92	51.563
476.27	50.407
476.61	49.826
476.96	49.861
477.31	50.676
477.66	50.618
478.01	51.207
478.36	49.728
478.70	50.734
479.05	49.835
479.40	50.397
479.75	50.209
480.10	50.282
480.45	49.850
480.79	50.554
481.14	51.332
481.49	49.754
481.84	50.917
482.19	49.906
482.53	51.271
482.88	49.690
483.23	50.288
483.58	49.528
483.92	49.710
484.27	48.769
484.62	49.574
484.97	49.212
485.31	47.941
485.66	46.265
486.01	47.437
486.36	47.187
486.70	48.450
487.05	49.229
487.40	48.578
487.75	48.451
488.09	48.764
488.44	49.003
488.79	49.047
489.13	48.718
489.48	48.525
489.83	48.924
490.17	48.764
490.52	48.868
490.87	48.820
491.22	49.570
491.56	48.482
491.91	48.136
492.26	49.635
492.60	48.656
492.95	50.172
493.30	48.266
493.64	49.312
493.99	48.406
494.34	48.544
494.68	50.476
495.03	47.932
495.37	48.970
495.72	49.268
496.07	49.951
496.41	48.255
496.76	48.319
497.11	47.275
497.45	48.735
497.80	49.092
498.14	48.187
498.49	48.857
498.84	48.353
499.18	49.147
499.53	48.512
499.87	47.179
500.22	47.923
500.56	49.319
500.91	48.193
501.26	47.108
501.60	47.811
501.95	47.647
502.29	48.136
502.64	48.407
502.98	47.459
503.33	46.782
503.67	47.663
504.02	47.801
504.36	47.897
504.71	47.273
505.06	48.163
505.40	47.919
505.75	47.938
506.09	47.998
506.44	48.203
506.78	48.163
507.13	47.777
507.47	46.632
507.82	47.756
508.16	47.385
508.51	47.429
508.85	47.619
509.19	47.046
509.54	47.614
509.88	46.494
510.23	46.961
510.57	46.713
510.92	46.269
511.26	46.699
511.61	47.140
511.95	47.068
512.30	47.118
512.64	47.190
512.98	46.771
513.33	47.006
513.67	47.868
514.02	48.398
514.36	48.000
514.70	48.310
515.05	48.061
515.39	47.521
515.74	47.844
516.08	47.998
516.42	47.291
516.77	47.455
517.11	47.774
517.46	47.098
517.80	47.259
518.14	48.683
518.49	47.236
518.83	46.659
519.17	46.028
519.52	46.418
519.86	46.819
520.20	46.962
520.55	47.029
520.89	47.616
521.23	46.485
521.58	48.328
521.92	47.885
522.26	47.495
522.61	46.753
522.95	46.821
523.29	46.696
523.64	46.823
523.98	47.764
524.32	46.327
524.66	47.823
525.01	46.688
525.35	46.792
525.69	46.801
526.04	45.767
526.38	47.147
526.72	44.997
527.06	46.498
527.41	46.570
527.75	45.845
528.09	45.980
528.43	46.860
528.78	46.403
529.12	46.129
529.46	44.964
529.80	44.522
530.15	46.535
530.49	46.465
530.83	45.691
531.17	44.862
531.51	45.759
531.86	45.207
532.20	45.303
532.54	45.745
532.88	45.654
533.22	45.430
533.57	45.151
533.91	45.627
534.25	44.987
534.59	44.259
534.93	44.745
535.27	43.972
535.62	44.070
535.96	45.597
536.30	45.185
536.64	44.521
536.98	44.808
537.32	45.021
537.66	44.741
538.01	45.315
538.35	43.481
538.69	44.341
539.03	44.224
539.37	44.078
539.71	44.240
540.05	44.060
540.39	45.222
540.73	43.863
541.07	43.992
541.42	43.884
541.76	44.735
542.10	43.840
542.44	43.919
542.78	42.877
543.12	43.544
543.46	44.228
543.80	44.136
544.14	42.390
544.48	42.039
544.82	43.062
545.16	43.306
545.50	43.725
545.84	44.476
546.18	43.050
546.52	42.826
546.86	43.494
547.20	42.060
547.54	42.473
547.88	42.391
548.22	42.012
548.56	41.953
548.90	43.666
549.24	42.218
549.58	42.877
549.92	41.172
550.26	41.758
550.60	43.866
550.94	43.615
551.28	41.654
551.62	43.462
551.96	41.729
552.30	42.982
552.64	41.114
552.98	41.561
553.32	41.155
553.66	41.074
554.00	42.774
554.34	42.762
554.68	41.150
555.02	43.155
555.36	42.259
555.69	41.465
556.03	41.328
556.37	40.641
556.71	41.372
557.05	41.387
557.39	41.561
557.73	42.129
558.07	41.855
558.41	42.190
558.75	40.374
559.08	41.292
559.42	40.714
559.76	42.274
560.10	41.437
560.44	40.879
560.78	40.070
561.12	40.621
561.45	42.094
561.79	41.667
562.13	41.235
562.47	41.151
562.81	39.841
563.15	41.114
563.48	40.806
563.82	39.602
564.16	40.529
564.50	40.338
564.84	40.361
565.17	40.241
565.51	41.872
565.85	39.986
566.19	40.981
566.52	41.019
566.86	40.681
567.20	39.290
567.54	39.659
567.88	40.422
568.21	40.441
568.55	39.239
568.89	39.990
569.23	38.662
569.56	38.047
569.90	38.814
570.24	38.072
570.57	38.873
570.91	38.620
571.25	37.225
571.59	37.932
571.92	37.096
572.26	37.470
572.60	37.426
572.93	37.778
573.27	37.524
573.61	37.888
573.95	37.084
574.28	36.891
574.62	36.995
574.96	36.151
575.29	36.901
575.63	35.994
575.97	36.460
576.30	36.773
576.64	35.762
576.98	36.654
577.31	36.102
577.65	36.353
577.98	36.074
578.32	36.017
578.66	36.084
578.99	36.453
579.33	36.023
579.67	36.008
580.00	35.949
580.34	36.269
580.67	35.460
581.01	35.735
581.35	35.831
581.68	35.682
582.02	35.383
582.35	35.339
582.69	35.859
583.02	35.527
583.36	35.865
583.70	36.552
584.03	36.808
584.37	35.827
584.70	35.989
585.04	35.026
585.37	35.012
585.71	35.102
586.04	35.250
586.38	34.783
586.72	35.610
587.05	35.673
587.39	35.644
587.72	35.703
588.06	35.843
588.39	35.318
588.73	35.501
589.06	36.106
589.40	35.880
589.73	36.291
590.07	36.216
590.40	35.991
590.73	36.573
591.07	35.581
591.40	35.975
591.74	36.244
592.07	36.178
592.41	35.910
592.74	36.002
593.08	34.160
593.41	34.399
593.75	34.838
594.08	34.844
594.41	34.753
594.75	34.924
595.08	34.771
595.42	35.701
595.75	35.787
596.09	34.441
596.42	35.511
596.75	35.391
597.09	34.761
597.42	34.643
597.75	34.769
598.09	35.491
598.42	34.792
598.76	33.462
599.09	34.495
599.42	33.346
599.76	33.935
600.09	33.861
600.42	33.624
600.76	33.284
601.09	33.969
601.42	34.587
601.76	34.260
602.09	34.076
602.42	34.414
602.76	34.083
603.09	34.759
603.42	34.866
603.76	33.790
604.09	34.184
604.42	34.602
604.76	34.713
605.09	34.004
605.42	33.589
605.75	33.625
606.09	33.291
606.42	32.819
606.75	33.766
607.09	34.154
607.42	33.983
607.75	33.082
608.08	33.558
608.42	33.440
608.75	34.458
609.08	33.533
609.41	33.807
609.75	33.669
610.08	33.200
610.41	33.092
610.74	33.545
611.07	34.057
611.41	33.627
611.74	33.795
612.07	33.779
612.40	34.737
612.73	33.785
613.07	32.733
613.40	33.260
613.73	32.513
614.06	33.779
614.39	33.051
614.72	32.717
615.06	32.235
615.39	32.478
615.72	32.670
616.05	32.849
616.38	31.852
616.71	32.844
617.05	33.725
617.38	33.815
617.71	33.711
618.04	34.222
618.37	34.174
618.70	33.597
619.03	33.889
619.36	33.068
619.69	34.799
620.03	34.989
620.36	33.906
620.69	32.762
621.02	34.174
621.35	34.025
621.68	34.949
622.01	33.417
622.34	33.121
622.67	33.438
623.00	33.155
623.33	33.613
623.66	31.414
623.99	33.661
624.32	34.068
624.65	32.406
624.99	32.807
625.32	31.539
625.65	34.407
625.98	34.247
626.31	32.502
626.64	33.709
626.97	34.031
627.30	33.800
627.63	34.749
627.96	33.603
628.29	33.117
628.62	33.530
628.95	33.868
629.28	34.173
629.61	34.098
629.94	34.115
630.26	33.004
630.59	34.443
630.92	33.436
631.25	31.897
631.58	33.150
631.91	33.004
632.24	34.060
632.57	33.523
632.90	32.740
633.23	33.529
