SpectraSuite Data File
++++++++++++++++++++++++++++++++++++
Date: Fri May 15 20:42:47 PDT 2015
User: schluterlab
Dark Spectrum Present: Yes
Reference Spectrum Present: Yes
Number of Sampled Component Spectra: 1
Spectrometers: USB2E3373
Integration Time (usec): 3000 (USB2E3373)
Spectra Averaged: 3 (USB2E3373)
Boxcar Smoothing: 0 (USB2E3373)
Correct for Electrical Dark: No (USB2E3373)
Strobe/Lamp Enabled: No (USB2E3373)
Correct for Detector Non-linearity: No (USB2E3373)
Correct for Stray Light: No (USB2E3373)
Number of Pixels in Processed Spectrum: 2048
>>>>>Begin Processed Spectral Data<<<<<
178.53	0.000
178.91	0.000
179.29	137.500
179.67	250.000
180.04	-85.714
180.42	100.000
180.80	0.000
181.18	-0.000
181.56	300.000
181.94	50.000
182.31	600.000
182.69	60.000
183.07	-466.667
183.45	-20.000
183.83	233.333
184.20	36.364
184.58	-0.000
184.96	-250.000
185.34	100.000
185.72	-250.000
186.09	84.615
186.47	-300.000
186.85	250.000
187.23	188.889
187.61	600.000
187.98	-166.667
188.36	33.333
188.74	-133.333
189.12	23.529
189.49	55.556
189.87	0.000
190.25	64.286
190.63	250.000
191.00	-300.000
191.38	15.789
191.76	250.000
192.14	100.000
192.51	-200.000
192.89	-22.222
193.27	-71.429
193.65	283.333
194.02	145.455
194.40	-60.000
194.78	-162.500
195.15	-83.333
195.53	-25.000
195.91	375.000
196.29	-275.000
196.66	61.538
197.04	28.571
197.42	-55.556
197.79	-433.333
198.17	-53.846
198.55	1800.000
198.92	-133.333
199.30	-1600.000
199.68	20.000
200.05	-33.333
200.43	0.000
200.81	33.333
201.18	33.333
201.56	500.000
201.94	-450.000
202.31	-133.333
202.69	-120.000
203.07	250.000
203.44	1200.000
203.82	0.000
204.19	7.143
204.57	0.000
204.95	162.500
205.32	100.000
205.70	-14.286
206.08	175.000
206.45	177.778
206.83	100.000
207.20	-185.714
207.58	1400.000
207.96	-100.000
208.33	-80.000
208.71	-300.000
209.08	-116.667
209.46	-400.000
209.84	-120.000
210.21	-600.000
210.59	14.286
210.96	33.333
211.34	-100.000
211.71	0.000
212.09	-85.714
212.46	-1600.000
212.84	0.000
213.22	110.000
213.59	500.000
213.97	15.385
214.34	27.273
214.72	16.667
215.09	375.000
215.47	-38.462
215.84	-63.636
216.22	33.333
216.59	37.500
216.97	50.000
217.34	-225.000
217.72	20.000
218.09	-25.000
218.47	125.000
218.84	-300.000
219.22	-122.222
219.59	-160.000
219.97	466.667
220.34	625.000
220.72	-14.286
221.09	0.000
221.47	50.000
221.84	200.000
222.22	-300.000
222.59	9.091
222.97	33.333
223.34	-333.333
223.72	-42.857
224.09	-14.286
224.46	28.571
224.84	633.333
225.21	-60.000
225.59	-13.333
225.96	-400.000
226.34	150.000
226.71	-28.571
227.08	50.000
227.46	0.000
227.83	-250.000
228.21	33.333
228.58	-63.636
228.95	100.000
229.33	80.000
229.70	12.500
230.08	-25.000
230.45	57.143
230.82	14.286
231.20	-26.667
231.57	85.714
231.95	85.714
232.32	-30.000
232.69	-14.286
233.07	-66.667
233.44	-120.000
233.81	-110.000
234.19	-33.333
234.56	-52.941
234.93	350.000
235.31	-100.000
235.68	-180.000
236.05	-69.231
236.43	-10.000
236.80	17.647
237.17	31.250
237.55	5.000
237.92	18.519
238.29	8.333
238.67	23.333
239.04	0.000
239.41	-7.317
239.79	-16.667
240.16	17.073
240.53	-5.263
240.91	-10.870
241.28	9.524
241.65	7.143
242.02	8.219
242.40	5.000
242.77	-6.780
243.14	-7.576
243.51	-10.000
243.89	11.494
244.26	0.000
244.63	5.952
245.00	3.093
245.38	7.216
245.75	-4.494
246.12	11.207
246.49	4.132
246.87	-7.692
247.24	-1.681
247.61	1.754
247.98	7.317
248.36	3.750
248.73	3.289
249.10	2.597
249.47	6.329
249.84	-1.961
250.22	8.235
250.59	4.575
250.96	6.103
251.33	2.326
251.70	6.471
252.08	4.061
252.45	3.960
252.82	2.513
253.19	7.373
253.56	-0.935
253.94	9.459
254.31	8.696
254.68	6.579
255.05	3.937
255.42	4.367
255.79	8.494
256.16	7.004
256.54	8.582
256.91	4.563
257.28	0.372
257.65	2.622
258.02	2.837
258.39	6.061
258.76	6.227
259.14	6.645
259.51	5.825
259.88	0.344
260.25	6.863
260.62	6.250
260.99	2.712
261.36	1.370
261.73	3.481
262.10	7.903
262.47	2.761
262.85	3.135
263.22	5.231
263.59	4.673
263.96	5.280
264.33	5.758
264.70	2.679
265.07	4.464
265.44	8.215
265.81	3.672
266.18	3.552
266.55	6.170
266.92	7.513
267.29	4.700
267.66	4.348
268.03	4.974
268.40	3.394
268.77	8.824
269.14	5.995
269.51	7.455
269.88	4.489
270.25	5.612
270.62	4.634
270.99	3.325
271.36	3.667
271.73	6.808
272.10	4.623
272.47	7.092
272.84	3.960
273.21	6.497
273.58	3.855
273.95	5.492
274.32	5.081
274.69	4.072
275.06	4.241
275.43	3.401
275.80	5.298
276.17	5.747
276.54	6.852
276.91	5.044
277.28	5.240
277.65	7.025
278.02	4.043
278.39	4.595
278.76	5.241
279.13	2.905
279.50	5.462
279.87	5.832
280.23	5.161
280.60	6.823
280.97	5.253
281.34	4.615
281.71	6.160
282.08	2.658
282.45	5.479
282.82	4.633
283.19	5.029
283.56	5.395
283.92	5.123
284.29	3.654
284.66	4.651
285.03	4.912
285.40	4.726
285.77	4.394
286.14	2.888
286.51	5.166
286.87	4.753
287.24	4.788
287.61	3.527
287.98	5.263
288.35	2.946
288.72	5.429
289.08	5.382
289.45	4.745
289.82	3.671
290.19	3.072
290.56	5.146
290.93	5.219
291.29	4.622
291.66	6.299
292.03	5.582
292.40	4.355
292.77	5.263
293.13	3.571
293.50	2.580
293.87	3.969
294.24	4.791
294.60	5.365
294.97	5.060
295.34	3.681
295.71	4.471
296.08	4.783
296.44	3.698
296.81	3.750
297.18	4.928
297.55	4.472
297.91	5.479
298.28	5.937
298.65	4.613
299.02	4.043
299.38	2.462
299.75	3.310
300.12	3.272
300.48	3.953
300.85	5.070
301.22	3.896
301.59	3.553
301.95	4.304
302.32	6.744
302.69	5.100
303.05	4.208
303.42	5.230
303.79	4.089
304.15	5.615
304.52	3.329
304.89	3.860
305.25	3.995
305.62	3.267
305.99	3.275
306.35	3.006
306.72	3.600
307.09	3.535
307.45	4.592
307.82	4.167
308.19	5.343
308.55	4.471
308.92	6.100
309.29	5.028
309.65	4.198
310.02	3.850
310.38	4.391
310.75	5.246
311.12	5.167
311.48	3.606
311.85	3.560
312.22	4.114
312.58	3.928
312.95	3.949
313.31	3.623
313.68	5.340
314.05	3.571
314.41	4.845
314.78	4.845
315.14	5.858
315.51	5.694
315.87	4.508
316.24	6.572
316.61	6.890
316.97	6.349
317.34	4.590
317.70	5.449
318.07	5.288
318.43	6.176
318.80	4.924
319.16	6.543
319.53	7.502
319.89	6.791
320.26	7.186
320.62	7.222
320.99	6.054
321.35	7.708
321.72	7.061
322.08	7.452
322.45	7.919
322.81	9.528
323.18	7.851
323.54	7.819
323.91	9.250
324.27	8.984
324.64	10.300
325.00	10.493
325.37	10.193
325.73	8.794
326.10	10.354
326.46	10.224
326.83	9.186
327.19	10.724
327.56	11.121
327.92	11.268
328.29	9.375
328.65	10.755
329.01	11.489
329.38	11.152
329.74	10.293
330.11	12.975
330.47	11.317
330.84	11.154
331.20	13.593
331.56	10.926
331.93	12.785
332.29	12.374
332.66	12.851
333.02	12.082
333.38	12.832
333.75	13.462
334.11	11.549
334.48	13.871
334.84	12.546
335.20	12.717
335.57	12.058
335.93	13.008
336.29	12.799
336.66	12.988
337.02	12.268
337.38	13.241
337.75	13.727
338.11	13.436
338.47	13.960
338.84	13.494
339.20	13.711
339.56	13.119
339.93	13.876
340.29	13.761
340.65	14.695
341.02	13.652
341.38	12.832
341.74	13.339
342.11	12.912
342.47	12.989
342.83	14.360
343.20	13.153
343.56	13.913
343.92	13.640
344.28	13.749
344.65	13.472
345.01	13.137
345.37	13.204
345.73	14.226
346.10	14.064
346.46	13.877
346.82	14.812
347.19	12.635
347.55	13.784
347.91	13.754
348.27	13.500
348.63	13.884
349.00	13.208
349.36	13.633
349.72	14.262
350.08	14.016
350.45	13.647
350.81	14.286
351.17	13.681
351.53	13.551
351.89	13.460
352.26	13.440
352.62	14.516
352.98	14.378
353.34	13.607
353.70	15.696
354.07	13.629
354.43	14.251
354.79	13.047
355.15	14.524
355.51	14.636
355.87	14.401
356.24	12.969
356.60	13.985
356.96	15.317
357.32	14.297
357.68	15.168
358.04	13.328
358.40	14.228
358.77	14.912
359.13	13.531
359.49	15.100
359.85	14.509
360.21	14.354
360.57	13.007
360.93	14.826
361.29	14.199
361.66	15.282
362.02	15.379
362.38	15.156
362.74	14.686
363.10	15.350
363.46	14.900
363.82	15.552
364.18	15.129
364.54	13.824
364.90	14.122
365.26	13.610
365.62	15.255
365.98	15.469
366.35	16.169
366.71	15.225
367.07	14.949
367.43	15.600
367.79	15.830
368.15	15.363
368.51	15.222
368.87	15.147
369.23	15.235
369.59	15.015
369.95	15.103
370.31	15.101
370.67	15.597
371.03	15.235
371.39	15.171
371.75	15.824
372.11	15.264
372.47	15.976
372.83	14.904
373.19	15.549
373.55	14.874
373.91	16.775
374.27	15.096
374.63	16.511
374.99	15.816
375.35	15.251
375.71	16.434
376.07	15.449
376.42	16.463
376.78	17.383
377.14	16.317
377.50	16.202
377.86	16.600
378.22	16.146
378.58	16.090
378.94	16.005
379.30	16.656
379.66	16.552
380.02	16.616
380.38	16.129
380.74	16.816
381.09	17.485
381.45	16.330
381.81	16.718
382.17	17.576
382.53	16.677
382.89	17.075
383.25	17.237
383.61	17.683
383.97	16.889
384.32	16.635
384.68	16.904
385.04	16.850
385.40	17.486
385.76	17.358
386.12	17.853
386.48	18.199
386.83	17.945
387.19	17.521
387.55	17.440
387.91	17.848
388.27	17.277
388.62	18.250
388.98	17.618
389.34	17.989
389.70	18.210
390.06	17.495
390.42	17.681
390.77	17.789
391.13	17.844
391.49	17.723
391.85	17.349
392.20	18.519
392.56	18.373
392.92	18.673
393.28	18.101
393.64	18.138
393.99	18.934
394.35	17.521
394.71	18.646
395.07	18.416
395.42	17.851
395.78	18.436
396.14	18.474
396.50	18.960
396.85	18.609
397.21	18.296
397.57	17.618
397.92	17.915
398.28	18.046
398.64	17.289
399.00	18.454
399.35	17.551
399.71	18.323
400.07	18.924
400.42	18.666
400.78	18.249
401.14	18.270
401.49	18.046
401.85	17.550
402.21	19.157
402.57	17.688
402.92	17.378
403.28	17.982
403.63	17.402
403.99	17.538
404.35	17.614
404.70	17.500
405.06	17.156
405.42	18.272
405.77	17.490
406.13	16.938
406.49	18.058
406.84	18.582
407.20	17.098
407.55	17.772
407.91	17.179
408.27	16.826
408.62	17.108
408.98	17.745
409.34	18.154
409.69	17.183
410.05	16.872
410.40	17.284
410.76	17.732
411.11	18.125
411.47	16.831
411.83	16.384
412.18	17.375
412.54	17.041
412.89	16.872
413.25	17.870
413.60	17.143
413.96	17.362
414.31	17.439
414.67	16.998
415.03	16.778
415.38	16.449
415.74	17.850
416.09	17.962
416.45	16.813
416.80	17.713
417.16	17.127
417.51	17.921
417.87	17.471
418.22	17.163
418.58	17.793
418.93	18.182
419.29	16.709
419.64	16.980
420.00	17.884
420.35	16.657
420.71	17.436
421.06	18.048
421.42	17.788
421.77	17.341
422.12	16.572
422.48	17.271
422.83	16.763
423.19	17.156
423.54	16.578
423.90	16.549
424.25	17.910
424.61	17.687
424.96	17.712
425.31	18.313
425.67	17.899
426.02	18.080
426.38	17.658
426.73	17.797
427.09	18.038
427.44	17.765
427.79	17.325
428.15	17.718
428.50	17.081
428.85	16.462
429.21	17.657
429.56	18.005
429.92	17.720
430.27	17.293
430.62	16.989
430.98	16.932
431.33	17.771
431.68	17.530
432.04	17.552
432.39	16.999
432.74	17.619
433.10	18.276
433.45	17.025
433.80	17.353
434.16	16.731
434.51	17.688
434.86	17.770
435.22	17.835
435.57	18.278
435.92	17.246
436.28	17.651
436.63	18.483
436.98	17.149
437.34	18.754
437.69	18.306
438.04	18.348
438.39	16.982
438.75	18.336
439.10	18.563
439.45	18.442
439.81	18.960
440.16	19.774
440.51	19.343
440.86	20.544
441.22	19.287
441.57	18.543
441.92	19.780
442.27	19.789
442.63	19.861
442.98	18.495
443.33	19.477
443.68	19.629
444.03	19.275
444.39	20.315
444.74	19.732
445.09	20.212
445.44	20.627
445.79	20.165
446.15	20.154
446.50	19.024
446.85	20.776
447.20	20.021
447.55	20.145
447.91	19.515
448.26	20.262
448.61	20.322
448.96	20.711
449.31	19.422
449.66	20.674
450.02	20.137
450.37	21.340
450.72	20.275
451.07	21.203
451.42	20.599
451.77	20.494
452.12	20.993
452.47	20.476
452.83	20.436
453.18	20.810
453.53	20.038
453.88	20.461
454.23	20.590
454.58	21.222
454.93	20.747
455.28	19.810
455.63	20.521
455.98	19.964
456.34	20.626
456.69	21.728
457.04	20.920
457.39	21.021
457.74	20.556
458.09	20.600
458.44	20.187
458.79	20.336
459.14	21.339
459.49	20.896
459.84	21.038
460.19	20.388
460.54	21.027
460.89	21.307
461.24	21.056
461.59	21.021
461.94	20.377
462.29	20.748
462.64	20.997
462.99	20.515
463.34	20.654
463.69	20.849
464.04	21.065
464.39	21.104
464.74	21.350
465.09	20.524
465.44	20.716
465.79	20.522
466.14	20.639
466.49	19.839
466.84	21.535
467.19	21.214
467.54	20.307
467.89	20.088
468.24	20.499
468.59	20.190
468.94	21.016
469.29	20.852
469.64	21.053
469.99	20.813
470.34	19.044
470.68	21.700
471.03	21.656
471.38	20.471
471.73	21.639
472.08	20.828
472.43	19.530
472.78	19.808
473.13	20.952
473.48	19.674
473.83	20.361
474.17	20.596
474.52	21.123
474.87	19.758
475.22	20.256
475.57	19.593
475.92	20.570
476.27	20.838
476.61	20.081
476.96	20.245
477.31	21.147
477.66	20.618
478.01	20.550
478.36	20.915
478.70	20.500
479.05	20.604
479.40	20.615
479.75	19.656
480.10	19.969
480.45	20.050
480.79	19.940
481.14	20.338
481.49	19.803
481.84	20.029
482.19	19.832
482.53	20.192
482.88	19.857
483.23	20.010
483.58	19.764
483.92	19.071
484.27	18.778
484.62	19.229
484.97	18.325
485.31	19.075
485.66	18.673
486.01	18.346
486.36	18.645
486.70	18.901
487.05	18.696
487.40	18.976
487.75	18.901
488.09	18.603
488.44	18.501
488.79	19.350
489.13	19.671
489.48	19.324
489.83	19.507
490.17	18.292
490.52	18.845
490.87	19.065
491.22	19.198
491.56	19.307
491.91	19.503
492.26	19.494
492.60	18.618
492.95	19.085
493.30	18.466
493.64	18.517
493.99	19.807
494.34	18.738
494.68	18.571
495.03	19.173
495.37	19.185
495.72	18.879
496.07	19.220
496.41	19.198
496.76	19.254
497.11	18.211
497.45	18.568
497.80	18.769
498.14	18.629
498.49	18.994
498.84	18.663
499.18	18.624
499.53	18.948
499.87	17.947
500.22	18.447
500.56	18.406
500.91	18.273
501.26	18.141
501.60	18.003
501.95	19.214
502.29	19.661
502.64	18.340
502.98	18.402
503.33	17.963
503.67	17.831
504.02	18.328
504.36	18.555
504.71	18.081
505.06	17.916
505.40	18.680
505.75	19.124
506.09	18.956
506.44	18.686
506.78	19.133
507.13	18.356
507.47	17.389
507.82	17.895
508.16	18.331
508.51	18.678
508.85	17.896
509.19	18.201
509.54	18.284
509.88	18.015
510.23	18.666
510.57	19.027
510.92	17.537
511.26	18.603
511.61	18.097
511.95	18.301
512.30	19.013
512.64	17.863
512.98	18.024
513.33	19.250
513.67	17.396
514.02	18.535
514.36	19.200
514.70	18.998
515.05	18.978
515.39	17.591
515.74	19.042
516.08	18.649
516.42	19.258
516.77	19.134
517.11	18.457
517.46	19.031
517.80	19.487
518.14	18.310
518.49	18.389
518.83	18.104
519.17	17.162
519.52	17.999
519.86	18.247
520.20	18.773
520.55	17.136
520.89	18.695
521.23	18.429
521.58	19.180
521.92	18.782
522.26	18.608
522.61	18.247
522.95	19.139
523.29	18.679
523.64	18.806
523.98	19.443
524.32	17.526
524.66	18.310
525.01	18.636
525.35	18.859
525.69	18.114
526.04	18.056
526.38	18.936
526.72	17.789
527.06	17.834
527.41	18.931
527.75	18.097
528.09	18.405
528.43	19.379
528.78	17.888
529.12	18.516
529.46	17.804
529.80	18.683
530.15	18.548
530.49	17.845
530.83	18.605
531.17	17.058
531.51	18.673
531.86	17.403
532.20	17.954
532.54	18.039
532.88	18.412
533.22	18.548
533.57	17.759
533.91	17.363
534.25	18.750
534.59	17.062
534.93	16.866
535.27	16.751
535.62	17.110
535.96	17.808
536.30	17.348
536.64	17.643
536.98	17.561
537.32	17.283
537.66	17.742
538.01	17.902
538.35	17.545
538.69	17.643
539.03	16.131
539.37	16.958
539.71	17.860
540.05	16.701
540.39	17.313
540.73	17.015
541.07	16.920
541.42	17.608
541.76	17.550
542.10	17.343
542.44	17.026
542.78	15.760
543.12	16.552
543.46	18.081
543.80	17.418
544.14	16.489
544.48	16.456
544.82	17.020
545.16	16.393
545.50	18.024
545.84	17.280
546.18	16.667
546.52	16.438
546.86	16.607
547.20	16.667
547.54	15.901
547.88	17.052
548.22	16.305
548.56	16.689
548.90	15.566
549.24	16.116
549.58	16.150
549.92	14.868
550.26	16.703
550.60	15.911
550.94	16.729
551.28	15.688
551.62	15.923
551.96	16.617
552.30	15.716
552.64	15.515
552.98	16.878
553.32	15.977
553.66	15.094
554.00	15.474
554.34	15.731
554.68	16.519
555.02	16.295
555.36	15.333
555.69	15.018
556.03	15.917
556.37	15.587
556.71	15.957
557.05	15.809
557.39	15.539
557.73	15.442
558.07	16.742
558.41	15.084
558.75	15.199
559.08	15.209
559.42	15.714
559.76	14.972
560.10	15.520
560.44	15.115
560.78	15.245
561.12	14.880
561.45	16.093
561.79	15.406
562.13	15.685
562.47	15.108
562.81	15.058
563.15	15.303
563.48	15.771
563.82	15.580
564.16	14.903
564.50	15.405
564.84	15.462
565.17	14.889
565.51	15.369
565.85	15.844
566.19	15.451
566.52	14.812
566.86	14.524
567.20	14.072
567.54	14.964
567.88	14.646
568.21	14.932
568.55	14.457
568.89	14.733
569.23	14.251
569.56	14.273
569.90	14.373
570.24	14.254
570.57	13.855
570.91	14.151
571.25	13.811
571.59	13.952
571.92	13.481
572.26	12.893
572.60	13.643
572.93	14.277
573.27	13.292
573.61	13.484
573.95	13.271
574.28	13.400
574.62	13.069
574.96	13.288
575.29	13.327
575.63	12.620
575.97	12.741
576.30	13.017
576.64	13.325
576.98	13.256
577.31	13.345
577.65	13.257
577.98	12.891
578.32	13.076
578.66	12.530
578.99	12.869
579.33	12.790
579.67	12.894
580.00	12.886
580.34	12.910
580.67	13.353
581.01	13.232
581.35	12.898
581.68	12.852
582.02	13.085
582.35	12.776
582.69	12.719
583.02	13.095
583.36	12.704
583.70	13.577
584.03	13.233
584.37	13.185
584.70	12.912
585.04	12.591
585.37	12.580
585.71	12.565
586.04	12.784
586.38	12.537
586.72	13.228
587.05	13.287
587.39	13.447
587.72	12.767
588.06	12.926
588.39	12.788
588.73	13.950
589.06	13.275
589.40	13.308
589.73	13.509
590.07	13.595
590.40	13.545
590.73	14.003
591.07	13.698
591.40	13.535
591.74	13.303
592.07	13.683
592.41	14.134
592.74	13.102
593.08	12.365
593.41	12.685
593.75	12.594
594.08	12.702
594.41	12.918
594.75	12.405
595.08	13.470
595.42	12.587
595.75	12.993
596.09	12.744
596.42	12.939
596.75	13.188
597.09	13.303
597.42	13.053
597.75	12.964
598.09	13.038
598.42	13.132
598.76	13.085
599.09	12.340
599.42	12.505
599.76	12.679
600.09	12.104
600.42	12.472
600.76	12.036
601.09	12.595
601.42	12.456
601.76	11.949
602.09	12.417
602.42	12.932
602.76	12.903
603.09	12.915
603.42	12.416
603.76	12.218
604.09	11.584
604.42	12.563
604.76	12.417
605.09	13.071
605.42	12.957
605.75	11.909
606.09	11.805
606.42	12.552
606.75	12.424
607.09	12.703
607.42	12.317
607.75	12.345
608.08	12.264
608.42	12.563
608.75	13.687
609.08	12.506
609.41	12.538
609.75	12.752
610.08	12.381
610.41	12.367
610.74	11.945
611.07	12.455
611.41	12.506
611.74	13.006
612.07	12.473
612.40	12.473
612.73	12.147
613.07	12.092
613.40	13.512
613.73	11.752
614.06	12.187
614.39	12.126
614.72	11.877
615.06	12.570
615.39	12.937
615.72	12.271
616.05	12.737
616.38	11.909
616.71	12.599
617.05	12.292
617.38	12.319
617.71	12.642
618.04	13.206
618.37	13.493
618.70	12.409
619.03	13.819
619.36	11.795
619.69	12.661
620.03	13.660
620.36	12.446
620.69	12.491
621.02	12.003
621.35	12.697
621.68	13.520
622.01	12.583
622.34	12.929
622.67	14.274
623.00	13.093
623.33	12.500
623.66	11.892
623.99	13.238
624.32	13.916
624.65	12.030
624.99	12.641
625.32	12.737
625.65	13.433
625.98	13.537
626.31	12.219
626.64	13.172
626.97	13.089
627.30	12.872
627.63	13.085
627.96	13.297
628.29	12.211
628.62	12.586
628.95	13.727
629.28	12.298
629.61	13.061
629.94	13.196
630.26	12.352
630.59	14.360
630.92	13.436
631.25	12.103
631.58	13.216
631.91	11.623
632.24	12.271
632.57	14.886
632.90	12.218
633.23	12.941
633.56	13.224
633.89	13.317
634.22	15.185
634.55	12.834
634.88	11.750
635.20	11.026
635.53	12.933
635.86	12.614
636.19	13.713
636.52	10.969
636.85	12.035
637.18	10.943
637.51	13.836
637.83	14.323
638.16	12.005
