SpectraSuite Data File
++++++++++++++++++++++++++++++++++++
Date: Fri May 15 20:56:53 PDT 2015
User: schluterlab
Dark Spectrum Present: Yes
Reference Spectrum Present: Yes
Number of Sampled Component Spectra: 1
Spectrometers: USB2E3373
Integration Time (usec): 3000 (USB2E3373)
Spectra Averaged: 3 (USB2E3373)
Boxcar Smoothing: 0 (USB2E3373)
Correct for Electrical Dark: No (USB2E3373)
Strobe/Lamp Enabled: No (USB2E3373)
Correct for Detector Non-linearity: No (USB2E3373)
Correct for Stray Light: No (USB2E3373)
Number of Pixels in Processed Spectrum: 2048
>>>>>Begin Processed Spectral Data<<<<<
178.53	0.000
178.91	0.000
179.29	0.000
179.67	150.000
180.04	28.571
180.42	0.000
180.80	-100.000
181.18	366.667
181.56	450.000
181.94	-200.000
182.31	100.000
182.69	-60.000
183.07	333.333
183.45	-100.000
183.83	-83.333
184.20	-18.182
184.58	188.889
184.96	-50.000
185.34	166.667
185.72	-500.000
186.09	107.692
186.47	-1000.000
186.85	150.000
187.23	122.222
187.61	-100.000
187.98	-66.667
188.36	44.444
188.74	-566.667
189.12	-23.529
189.49	5.556
189.87	0.000
190.25	42.857
190.63	150.000
191.00	-266.667
191.38	-10.526
191.76	400.000
192.14	-100.000
192.51	300.000
192.89	33.333
193.27	0.000
193.65	150.000
194.02	200.000
194.40	40.000
194.78	-162.500
195.15	-50.000
195.53	-137.500
195.91	375.000
196.29	-75.000
196.66	23.077
197.04	142.857
197.42	-111.111
197.79	-200.000
198.17	-100.000
198.55	1200.000
198.92	200.000
199.30	-1500.000
199.68	-200.000
200.05	66.667
200.43	0.000
200.81	-100.000
201.18	33.333
201.56	1000.000
201.94	200.000
202.31	-233.333
202.69	-20.000
203.07	-25.000
203.44	1000.000
203.82	0.000
204.19	0.000
204.57	-566.667
204.95	200.000
205.32	-30.000
205.70	-14.286
206.08	-50.000
206.45	244.444
206.83	50.000
207.20	-85.714
207.58	600.000
207.96	-266.667
208.33	-90.000
208.71	25.000
209.08	-83.333
209.46	100.000
209.84	-80.000
210.21	-500.000
210.59	85.714
210.96	116.667
211.34	0.000
211.71	46.667
212.09	-14.286
212.46	-1100.000
212.84	0.000
213.22	40.000
213.59	150.000
213.97	0.000
214.34	54.545
214.72	-116.667
215.09	400.000
215.47	23.077
215.84	-18.182
216.22	-400.000
216.59	0.000
216.97	100.000
217.34	-100.000
217.72	60.000
218.09	12.500
218.47	162.500
218.84	400.000
219.22	111.111
219.59	100.000
219.97	233.333
220.34	200.000
220.72	-57.143
221.09	-175.000
221.47	200.000
221.84	-500.000
222.22	-550.000
222.59	36.364
222.97	33.333
223.34	-200.000
223.72	-64.286
224.09	47.619
224.46	21.429
224.84	333.333
225.21	-80.000
225.59	86.667
225.96	-350.000
226.34	175.000
226.71	-42.857
227.08	83.333
227.46	75.000
227.83	-400.000
228.21	66.667
228.58	45.455
228.95	12.500
229.33	180.000
229.70	-31.250
230.08	-62.500
230.45	-57.143
230.82	128.571
231.20	26.667
231.57	85.714
231.95	85.714
232.32	-30.000
232.69	50.000
233.07	-100.000
233.44	-120.000
233.81	-90.000
234.19	0.000
234.56	23.529
234.93	150.000
235.31	300.000
235.68	-200.000
236.05	-84.615
236.43	-40.000
236.80	52.941
237.17	40.625
237.55	-25.000
237.92	-25.926
238.29	30.556
238.67	23.333
239.04	11.765
239.41	17.073
239.79	-16.667
240.16	21.951
240.53	2.632
240.91	26.087
241.28	19.048
241.65	41.071
242.02	34.247
242.40	31.667
242.77	20.339
243.14	19.697
243.51	22.500
243.89	33.333
244.26	14.943
244.63	38.095
245.00	26.804
245.38	30.928
245.75	19.101
246.12	17.241
246.49	22.314
246.87	28.846
247.24	16.807
247.61	20.175
247.98	28.455
248.36	21.875
248.73	29.605
249.10	24.675
249.47	28.481
249.84	24.837
250.22	28.824
250.59	25.490
250.96	25.822
251.33	22.674
251.70	30.588
252.08	23.858
252.45	26.238
252.82	29.648
253.19	30.876
253.56	22.430
253.94	27.477
254.31	21.739
254.68	27.193
255.05	23.622
255.42	26.201
255.79	29.344
256.16	27.237
256.54	22.761
256.91	28.517
257.28	26.394
257.65	24.345
258.02	28.369
258.39	26.936
258.76	29.304
259.14	29.900
259.51	28.803
259.88	25.773
260.25	24.510
260.62	31.944
260.99	21.017
261.36	21.575
261.73	29.114
262.10	25.532
262.47	25.460
262.85	31.348
263.22	28.000
263.59	28.037
263.96	28.882
264.33	27.273
264.70	27.381
265.07	26.786
265.44	29.462
265.81	24.859
266.18	27.869
266.55	27.506
266.92	29.016
267.29	25.587
267.66	24.297
268.03	26.440
268.40	25.065
268.77	28.877
269.14	25.180
269.51	29.049
269.88	27.930
270.25	24.235
270.62	25.610
270.99	25.320
271.36	25.428
271.73	25.822
272.10	26.764
272.47	24.350
272.84	27.475
273.21	29.002
273.58	27.952
273.95	25.629
274.32	24.249
274.69	24.887
275.06	28.348
275.43	24.036
275.80	27.373
276.17	25.517
276.54	22.484
276.91	26.096
277.28	23.799
277.65	25.413
278.02	24.681
278.39	27.133
278.76	26.415
279.13	24.066
279.50	25.420
279.87	28.726
280.23	22.581
280.60	24.561
280.97	23.434
281.34	22.885
281.71	25.667
282.08	23.926
282.45	24.462
282.82	25.676
283.19	22.631
283.56	23.699
283.92	24.288
284.29	21.538
284.66	22.093
285.03	23.969
285.40	22.684
285.77	22.671
286.14	24.729
286.51	24.908
286.87	22.852
287.24	23.757
287.61	22.399
287.98	26.491
288.35	22.184
288.72	23.643
289.08	22.569
289.45	22.496
289.82	23.776
290.19	21.843
290.56	23.499
290.93	20.539
291.29	21.109
291.66	22.362
292.03	21.372
292.40	21.452
292.77	18.979
293.13	18.506
293.50	19.879
293.87	20.763
294.24	19.011
294.60	20.417
294.97	22.768
295.34	19.325
295.71	20.864
296.08	18.087
296.44	17.496
296.81	18.333
297.18	18.696
297.55	19.241
297.91	19.041
298.28	20.976
298.65	16.689
299.02	17.655
299.38	17.510
299.75	16.966
300.12	17.801
300.48	17.523
300.85	19.899
301.22	17.662
301.59	19.079
301.95	18.481
302.32	18.677
302.69	17.164
303.05	18.069
303.42	18.182
303.79	18.575
304.15	19.474
304.52	16.290
304.89	17.193
305.25	17.191
305.62	16.919
305.99	17.193
306.35	17.110
306.72	16.423
307.09	17.788
307.45	17.222
307.82	18.403
308.19	18.118
308.55	17.884
308.92	18.192
309.29	16.536
309.65	16.685
310.02	17.162
310.38	18.441
310.75	17.158
311.12	17.115
311.48	16.755
311.85	16.754
312.22	16.456
312.58	16.030
312.95	16.756
313.31	16.874
313.68	16.230
314.05	16.224
314.41	18.557
314.78	16.495
315.14	19.116
315.51	18.427
315.87	18.545
316.24	19.312
316.61	18.602
316.97	19.643
317.34	17.188
317.70	19.694
318.07	18.173
318.43	19.706
318.80	19.508
319.16	20.312
319.53	20.513
319.89	19.587
320.26	21.964
320.62	21.163
320.99	19.937
321.35	21.274
321.72	21.495
322.08	22.860
322.45	24.061
322.81	23.084
323.18	22.866
323.54	24.517
323.91	23.661
324.27	25.586
324.64	24.625
325.00	24.818
325.37	26.171
325.73	24.932
326.10	25.613
326.46	26.547
326.83	27.297
327.19	27.637
327.56	28.931
327.92	29.842
328.29	29.018
328.65	28.302
329.01	29.596
329.38	29.309
329.74	29.084
330.11	29.194
330.47	30.148
330.84	30.673
331.20	31.369
331.56	30.093
331.93	30.320
332.29	31.806
332.66	30.226
333.02	31.691
333.38	32.631
333.75	30.403
334.11	31.692
334.48	31.097
334.84	32.509
335.20	31.290
335.57	30.462
335.93	32.340
336.29	31.768
336.66	32.516
337.02	31.413
337.38	30.463
337.75	31.273
338.11	32.101
338.47	31.752
338.84	32.625
339.20	32.541
339.56	32.202
339.93	31.155
340.29	32.018
340.65	32.706
341.02	31.560
341.38	31.327
341.74	32.420
342.11	31.109
342.47	32.740
342.83	33.391
343.20	32.230
343.56	33.130
343.92	33.304
344.28	33.817
344.65	32.815
345.01	31.806
345.37	32.296
345.73	32.385
346.10	33.305
346.46	34.146
346.82	31.424
347.19	30.175
347.55	33.166
347.91	33.333
348.27	32.983
348.63	33.135
349.00	33.224
349.36	32.585
349.72	33.665
350.08	33.770
350.45	33.360
350.81	33.389
351.17	32.573
351.53	33.143
351.89	32.453
352.26	32.720
352.62	32.742
352.98	32.932
353.34	32.287
353.70	33.900
354.07	32.177
354.43	32.506
354.79	33.113
355.15	34.127
355.51	33.940
355.87	34.871
356.24	32.708
356.60	34.034
356.96	34.127
357.32	33.706
357.68	34.480
358.04	33.603
358.40	33.280
358.77	34.689
359.13	33.147
359.49	32.512
359.85	33.619
360.21	34.769
360.57	33.894
360.93	34.720
361.29	33.535
361.66	33.464
362.02	34.167
362.38	33.435
362.74	34.292
363.10	34.838
363.46	34.618
363.82	35.011
364.18	34.244
364.54	32.574
364.90	33.978
365.26	34.498
365.62	36.277
365.98	35.411
366.35	35.907
366.71	34.738
367.07	35.341
367.43	33.932
367.79	35.406
368.15	36.181
368.51	36.052
368.87	35.750
369.23	36.101
369.59	37.172
369.95	36.510
370.31	36.994
370.67	36.045
371.03	35.474
371.39	35.449
371.75	36.484
372.11	36.662
372.47	37.278
372.83	36.196
373.19	37.233
373.55	35.018
373.91	36.789
374.27	36.641
374.63	37.832
374.99	37.518
375.35	36.908
375.71	37.692
376.07	37.781
376.42	37.823
376.78	36.577
377.14	37.982
377.50	36.388
377.86	37.282
378.22	37.588
378.58	38.013
378.94	37.303
379.30	37.804
379.66	38.182
380.02	38.259
380.38	38.223
380.74	37.941
381.09	38.344
381.45	38.349
381.81	37.569
382.17	38.769
382.53	38.913
382.89	39.360
383.25	38.706
383.61	39.390
383.97	39.111
384.32	39.212
384.68	38.947
385.04	38.358
385.40	39.639
385.76	40.818
386.12	39.521
386.48	40.102
386.83	40.266
387.19	40.293
387.55	40.339
387.91	40.220
388.27	39.255
388.62	41.473
388.98	40.516
389.34	40.974
389.70	41.579
390.06	40.214
390.42	40.026
390.77	41.400
391.13	40.794
391.49	40.427
391.85	40.741
392.20	40.804
392.56	41.958
392.92	41.339
393.28	40.920
393.64	40.841
393.99	41.944
394.35	40.987
394.71	43.103
395.07	41.609
395.42	41.105
395.78	41.889
396.14	42.055
396.50	41.661
396.85	42.627
397.21	42.732
397.57	43.448
397.92	41.881
398.28	42.644
398.64	41.325
399.00	43.002
399.35	40.745
399.71	42.849
400.07	43.289
400.42	42.534
400.78	43.050
401.14	42.589
401.49	43.240
401.85	41.499
402.21	42.410
402.57	43.688
402.92	41.593
403.28	43.609
403.63	42.875
403.99	42.793
404.35	43.410
404.70	42.321
405.06	42.832
405.42	42.138
405.77	42.708
406.13	43.946
406.49	43.694
406.84	44.071
407.20	43.889
407.55	42.820
407.91	43.115
408.27	42.639
408.62	44.246
408.98	43.623
409.34	44.796
409.69	43.928
410.05	42.980
410.40	44.444
410.76	45.115
411.11	44.375
411.47	44.313
411.83	44.068
412.18	44.273
412.54	43.820
412.89	43.103
413.25	44.043
413.60	43.851
413.96	45.215
414.31	43.354
414.67	44.708
415.03	43.808
415.38	43.211
415.74	44.039
416.09	44.481
416.45	44.632
416.80	44.151
417.16	45.787
417.51	46.036
417.87	44.654
418.22	45.337
418.58	45.552
418.93	44.828
419.29	43.598
419.64	45.561
420.00	47.103
420.35	44.597
420.71	45.322
421.06	46.286
421.42	44.231
421.77	45.260
422.12	44.949
422.48	45.263
422.83	44.432
423.19	45.260
423.54	45.855
423.90	44.287
424.25	46.441
424.61	45.961
424.96	46.806
425.31	47.487
425.67	46.538
426.02	45.760
426.38	47.151
426.73	47.034
427.09	47.215
427.44	46.706
427.79	46.965
428.15	46.723
428.50	47.668
428.85	46.253
429.21	47.199
429.56	48.356
429.92	46.071
430.27	46.867
430.62	46.262
430.98	45.807
431.33	46.477
431.68	46.468
432.04	46.395
432.39	47.119
432.74	46.542
433.10	47.356
433.45	47.491
433.80	47.824
434.16	46.316
434.51	47.043
434.86	48.548
435.22	47.841
435.57	49.220
435.92	48.084
436.28	47.227
436.63	47.347
436.98	47.451
437.34	48.034
437.69	49.016
438.04	47.977
438.39	48.381
438.75	49.180
439.10	49.066
439.45	49.665
439.81	49.664
440.16	50.119
440.51	50.149
440.86	51.178
441.22	49.038
441.57	48.234
441.92	49.528
442.27	50.222
442.63	49.679
442.98	49.052
443.33	50.362
443.68	49.708
444.03	50.621
444.39	49.090
444.74	51.951
445.09	50.278
445.44	50.427
445.79	51.986
446.15	50.606
446.50	48.808
446.85	49.362
447.20	51.199
447.55	50.558
447.91	50.536
448.26	50.996
448.61	51.871
448.96	51.004
449.31	51.676
449.66	50.813
450.02	51.169
450.37	51.986
450.72	51.317
451.07	52.025
451.42	51.186
451.77	50.573
452.12	50.299
452.47	51.642
452.83	50.530
453.18	51.360
453.53	51.391
453.88	52.155
454.23	51.752
454.58	51.889
454.93	52.513
455.28	50.540
455.63	52.263
455.98	51.954
456.34	54.406
456.69	53.177
457.04	52.363
457.39	52.491
457.74	52.479
458.09	50.853
458.44	52.253
458.79	51.653
459.14	52.574
459.49	52.060
459.84	51.664
460.19	52.488
460.54	52.934
460.89	52.557
461.24	52.609
461.59	53.088
461.94	52.390
462.29	53.016
462.64	52.824
462.99	53.487
463.34	51.808
463.69	52.831
464.04	52.603
464.39	53.911
464.74	52.270
465.09	54.648
465.44	54.010
465.79	52.551
466.14	52.223
466.49	53.306
466.84	54.372
467.19	53.880
467.54	54.278
467.89	54.643
468.24	54.258
468.59	54.667
468.94	54.413
469.29	54.164
469.64	54.614
469.99	55.992
470.34	54.949
470.68	56.078
471.03	56.759
471.38	56.348
471.73	55.042
472.08	54.206
472.43	57.114
472.78	55.723
473.13	56.939
473.48	55.179
473.83	55.791
474.17	57.254
474.52	55.265
474.87	55.697
475.22	55.339
475.57	55.505
475.92	55.458
476.27	55.763
476.61	56.944
476.96	54.769
477.31	56.301
477.66	56.180
478.01	56.429
478.36	56.427
478.70	56.933
479.05	56.484
479.40	57.234
479.75	55.527
480.10	55.709
480.45	56.750
480.79	56.898
481.14	57.326
481.49	56.158
481.84	57.191
482.19	56.455
482.53	56.019
482.88	55.800
483.23	56.718
483.58	56.274
483.92	56.147
484.27	55.971
484.62	55.984
484.97	55.431
485.31	53.613
485.66	51.612
486.01	50.874
486.36	50.626
486.70	52.162
487.05	53.339
487.40	53.826
487.75	54.479
488.09	54.790
488.44	56.052
488.79	56.631
489.13	56.691
489.48	56.306
489.83	56.951
490.17	56.090
490.52	57.598
490.87	55.206
491.22	57.116
491.56	57.068
491.91	56.931
492.26	57.365
492.60	56.334
492.95	57.796
493.30	57.157
493.64	58.055
493.99	57.440
494.34	56.505
494.68	57.286
495.03	56.788
495.37	57.802
495.72	57.951
496.07	58.976
496.41	57.406
496.76	57.209
497.11	56.777
497.45	57.757
497.80	58.174
498.14	58.023
498.49	58.101
498.84	57.585
499.18	57.731
499.53	57.986
499.87	57.490
500.22	58.061
500.56	58.598
500.91	58.283
501.26	57.983
501.60	58.190
501.95	58.030
502.29	59.177
502.64	58.542
502.98	59.299
503.33	57.493
503.67	58.458
504.02	59.433
504.36	60.564
504.71	59.394
505.06	58.732
505.40	59.188
505.75	60.567
506.09	58.996
506.44	61.140
506.78	59.898
507.13	59.617
507.47	58.590
507.82	60.363
508.16	60.011
508.51	61.595
508.85	61.015
509.19	60.617
509.54	61.769
509.88	60.086
510.23	61.108
510.57	61.144
510.92	60.235
511.26	61.375
511.61	62.101
511.95	62.192
512.30	62.361
512.64	62.437
512.98	61.595
513.33	62.619
513.67	62.194
514.02	65.103
514.36	63.714
514.70	64.802
515.05	66.451
515.39	63.400
515.74	65.868
516.08	64.256
516.42	63.369
516.77	64.424
517.11	64.866
517.46	64.632
517.80	65.733
518.14	64.727
518.49	64.543
518.83	65.188
519.17	64.099
519.52	63.706
519.86	63.565
520.20	65.492
520.55	66.041
520.89	66.186
521.23	65.421
521.58	66.625
521.92	65.513
522.26	66.168
522.61	66.494
522.95	67.020
523.29	66.582
523.64	65.820
523.98	68.697
524.32	66.753
524.66	66.709
525.01	67.468
525.35	66.688
525.69	68.013
526.04	66.468
526.38	68.482
526.72	65.141
527.06	67.056
527.41	66.689
527.75	65.617
528.09	66.578
528.43	66.982
528.78	64.950
529.12	65.355
529.46	66.992
529.80	65.611
530.15	68.647
530.49	67.811
530.83	67.373
531.17	66.286
531.51	67.031
531.86	67.981
532.20	68.337
532.54	66.916
532.88	67.351
533.22	67.809
533.57	66.448
533.91	65.927
534.25	67.513
534.59	65.491
534.93	63.877
535.27	65.292
535.62	64.744
535.96	65.623
536.30	65.897
536.64	66.988
536.98	66.481
537.32	68.563
537.66	66.550
538.01	65.874
538.35	66.297
538.69	65.047
539.03	65.755
539.37	65.209
539.71	66.258
540.05	65.580
540.39	65.305
540.73	65.481
541.07	65.401
541.42	65.995
541.76	64.969
542.10	66.345
542.44	65.601
542.78	63.386
543.12	64.354
543.46	64.743
543.80	66.135
544.14	63.017
544.48	64.091
544.82	64.730
545.16	65.369
545.50	64.486
545.84	67.493
546.18	65.390
546.52	64.744
546.86	64.989
547.20	64.592
547.54	63.958
547.88	63.927
548.22	61.736
548.56	62.731
548.90	63.342
549.24	62.741
549.58	62.130
549.92	63.188
550.26	63.223
550.60	64.387
550.94	65.422
551.28	66.538
551.62	65.462
551.96	63.759
552.30	63.012
552.64	63.470
552.98	64.065
553.32	62.910
553.66	62.337
554.00	62.920
554.34	63.959
554.68	62.242
555.02	65.327
555.36	63.949
555.69	62.784
556.03	62.384
556.37	62.989
556.71	63.682
557.05	64.579
557.39	62.751
557.73	63.043
558.07	63.725
558.41	64.701
558.75	65.627
559.08	64.224
559.42	64.683
559.76	64.131
560.10	63.991
560.44	62.993
560.78	62.448
561.12	63.399
561.45	63.598
561.79	63.095
562.13	62.030
562.47	62.374
562.81	62.320
563.15	62.694
563.48	63.296
563.82	62.800
564.16	62.465
564.50	59.257
564.84	59.036
565.17	59.624
565.51	62.978
565.85	62.140
566.19	62.069
566.52	62.332
566.86	60.411
567.20	59.714
567.54	59.672
567.88	59.461
568.21	59.955
568.55	58.315
568.89	57.290
569.23	57.631
569.56	55.342
569.90	56.232
570.24	52.996
570.57	53.818
570.91	53.712
571.25	52.220
571.59	51.355
571.92	50.815
572.26	51.087
572.60	51.752
572.93	51.428
573.27	51.473
573.61	50.418
573.95	50.573
574.28	49.974
574.62	49.555
574.96	49.215
575.29	49.293
575.63	48.899
575.97	48.848
576.30	49.536
576.64	49.695
576.98	50.219
577.31	49.767
577.65	49.404
577.98	48.119
578.32	47.946
578.66	46.980
578.99	48.783
579.33	48.763
579.67	48.448
580.00	49.013
580.34	48.930
580.67	48.343
581.01	49.232
581.35	47.933
581.68	47.097
582.02	46.981
582.35	46.908
582.69	47.818
583.02	47.468
583.36	48.616
583.70	49.714
584.03	49.569
584.37	50.791
584.70	48.901
585.04	47.902
585.37	47.445
585.71	47.865
586.04	47.705
586.38	47.346
586.72	48.465
587.05	48.296
587.39	48.420
587.72	49.016
588.06	48.768
588.39	47.707
588.73	48.107
589.06	49.576
589.40	48.704
589.73	50.675
590.07	50.227
590.40	50.077
590.73	50.824
591.07	50.975
591.40	50.668
591.74	49.819
592.07	50.649
592.41	50.265
592.74	49.144
593.08	47.258
593.41	47.315
593.75	46.909
594.08	47.614
594.41	47.926
594.75	48.397
595.08	48.354
595.42	48.141
595.75	49.380
596.09	49.179
596.42	50.186
596.75	49.334
597.09	50.023
597.42	49.006
597.75	50.298
598.09	48.483
598.42	48.466
598.76	47.619
599.09	47.196
599.42	46.609
599.76	46.539
600.09	46.229
600.42	45.906
600.76	46.062
601.09	47.214
601.42	46.259
601.76	47.956
602.09	47.277
602.42	49.073
602.76	46.986
603.09	47.757
603.42	47.993
603.76	47.177
604.09	46.497
604.42	47.124
604.76	48.109
605.09	48.080
605.42	47.765
605.75	47.154
606.09	46.454
606.42	47.373
606.75	46.970
607.09	46.681
607.42	45.503
607.75	46.714
608.08	46.361
608.42	46.460
608.75	48.289
609.08	48.381
609.41	47.513
609.75	47.429
610.08	47.129
610.41	46.667
610.74	47.294
611.07	48.424
611.41	47.950
611.74	47.814
612.07	47.216
612.40	48.195
612.73	48.588
613.07	46.963
613.40	47.484
613.73	48.909
614.06	47.635
614.39	47.829
614.72	47.899
615.06	47.151
615.39	46.507
615.72	45.210
616.05	47.598
616.38	45.983
616.71	48.257
617.05	47.746
617.38	49.026
617.71	48.868
618.04	48.889
618.37	48.172
618.70	47.921
619.03	49.653
619.36	49.204
619.69	50.417
620.03	50.986
620.36	49.142
620.69	49.108
621.02	50.229
621.35	51.701
621.68	52.126
622.01	51.833
622.34	50.040
622.67	50.394
623.00	49.541
623.33	48.628
623.66	48.915
623.99	48.563
624.32	50.570
624.65	48.421
624.99	49.360
625.32	47.384
625.65	49.568
625.98	51.088
626.31	50.291
626.64	51.906
626.97	51.396
627.30	50.701
627.63	50.347
627.96	51.932
628.29	51.989
628.62	52.802
628.95	51.904
629.28	52.722
629.61	51.645
629.94	52.199
630.26	52.372
630.59	52.862
630.92	53.538
631.25	51.692
631.58	54.515
631.91	52.961
632.24	54.243
632.57	54.432
632.90	55.160
633.23	53.294
633.56	54.282
