SpectraSuite Data File
++++++++++++++++++++++++++++++++++++
Date: Fri May 15 20:44:00 PDT 2015
User: schluterlab
Dark Spectrum Present: Yes
Reference Spectrum Present: Yes
Number of Sampled Component Spectra: 1
Spectrometers: USB2E3373
Integration Time (usec): 3000 (USB2E3373)
Spectra Averaged: 3 (USB2E3373)
Boxcar Smoothing: 0 (USB2E3373)
Correct for Electrical Dark: No (USB2E3373)
Strobe/Lamp Enabled: No (USB2E3373)
Correct for Detector Non-linearity: No (USB2E3373)
Correct for Stray Light: No (USB2E3373)
Number of Pixels in Processed Spectrum: 2048
>>>>>Begin Processed Spectral Data<<<<<
178.53	0.000
178.91	0.000
179.29	112.500
179.67	-300.000
180.04	85.714
180.42	325.000
180.80	100.000
181.18	-66.667
181.56	450.000
181.94	-50.000
182.31	900.000
182.69	-60.000
183.07	-333.333
183.45	-180.000
183.83	250.000
184.20	36.364
184.58	144.444
184.96	-200.000
185.34	-0.000
185.72	-200.000
186.09	100.000
186.47	-400.000
186.85	116.667
187.23	188.889
187.61	700.000
187.98	-233.333
188.36	66.667
188.74	-400.000
189.12	-23.529
189.49	-11.111
189.87	0.000
190.25	0.000
190.63	-100.000
191.00	-266.667
191.38	-26.316
191.76	500.000
192.14	175.000
192.51	-400.000
192.89	-66.667
193.27	-71.429
193.65	66.667
194.02	145.455
194.40	10.000
194.78	-137.500
195.15	-25.000
195.53	-112.500
195.91	300.000
196.29	-275.000
196.66	69.231
197.04	200.000
197.42	-188.889
197.79	-500.000
198.17	-100.000
198.55	500.000
198.92	-333.333
199.30	400.000
199.68	20.000
200.05	-333.333
200.43	0.000
200.81	-133.333
201.18	-400.000
201.56	500.000
201.94	-400.000
202.31	-133.333
202.69	-120.000
203.07	250.000
203.44	600.000
203.82	0.000
204.19	0.000
204.57	-366.667
204.95	137.500
205.32	110.000
205.70	114.286
206.08	150.000
206.45	211.111
206.83	57.143
207.20	0.000
207.58	-600.000
207.96	0.000
208.33	-70.000
208.71	-150.000
209.08	-166.667
209.46	-200.000
209.84	-240.000
210.21	-700.000
210.59	0.000
210.96	100.000
211.34	-125.000
211.71	40.000
212.09	-185.714
212.46	-800.000
212.84	0.000
213.22	110.000
213.59	550.000
213.97	-7.692
214.34	27.273
214.72	-133.333
215.09	150.000
215.47	15.385
215.84	36.364
216.22	-266.667
216.59	-62.500
216.97	-50.000
217.34	25.000
217.72	-240.000
218.09	0.000
218.47	50.000
218.84	-800.000
219.22	-55.556
219.59	-180.000
219.97	233.333
220.34	450.000
220.72	-85.714
221.09	-350.000
221.47	50.000
221.84	-800.000
222.22	-650.000
222.59	-45.455
222.97	16.667
223.34	-200.000
223.72	57.143
224.09	-4.762
224.46	0.000
224.84	166.667
225.21	0.000
225.59	13.333
225.96	-150.000
226.34	25.000
226.71	-42.857
227.08	-33.333
227.46	-12.500
227.83	-300.000
228.21	-11.111
228.58	0.000
228.95	-12.500
229.33	-0.000
229.70	-6.250
230.08	-50.000
230.45	-28.571
230.82	-14.286
231.20	20.000
231.57	14.286
231.95	-14.286
232.32	-140.000
232.69	14.286
233.07	-133.333
233.44	140.000
233.81	-120.000
234.19	-33.333
234.56	-52.941
234.93	450.000
235.31	100.000
235.68	-220.000
236.05	0.000
236.43	0.000
236.80	17.647
237.17	9.375
237.55	-30.000
237.92	40.741
238.29	0.000
238.67	30.000
239.04	35.294
239.41	-12.195
239.79	50.000
240.16	12.195
240.53	10.526
240.91	17.391
241.28	39.683
241.65	37.500
242.02	30.137
242.40	33.333
242.77	28.814
243.14	16.667
243.51	35.000
243.89	39.080
244.26	27.586
244.63	28.571
245.00	30.928
245.38	39.175
245.75	25.843
246.12	26.724
246.49	29.752
246.87	36.538
247.24	34.454
247.61	35.088
247.98	15.447
248.36	33.125
248.73	32.237
249.10	29.870
249.47	35.443
249.84	32.680
250.22	38.824
250.59	35.294
250.96	32.864
251.33	28.488
251.70	35.294
252.08	29.949
252.45	31.188
252.82	37.186
253.19	32.719
253.56	30.841
253.94	31.982
254.31	32.609
254.68	36.842
255.05	30.315
255.42	36.681
255.79	29.344
256.16	33.852
256.54	38.806
256.91	29.278
257.28	33.829
257.65	31.086
258.02	30.142
258.39	38.047
258.76	38.095
259.14	32.890
259.51	34.951
259.88	34.708
260.25	32.680
260.62	40.625
260.99	36.610
261.36	33.904
261.73	35.759
262.10	32.523
262.47	29.755
262.85	34.796
263.22	37.846
263.59	36.137
263.96	34.161
264.33	36.061
264.70	35.119
265.07	34.524
265.44	39.093
265.81	32.203
266.18	34.973
266.55	34.190
266.92	35.492
267.29	35.770
267.66	35.294
268.03	36.126
268.40	33.420
268.77	39.037
269.14	32.614
269.51	32.905
269.88	31.920
270.25	33.673
270.62	33.415
270.99	34.015
271.36	32.274
271.73	34.977
272.10	32.847
272.47	32.388
272.84	35.891
273.21	33.411
273.58	34.699
273.95	33.867
274.32	31.640
274.69	31.900
275.06	35.045
275.43	34.921
275.80	33.554
276.17	33.563
276.54	32.762
276.91	33.553
277.28	35.153
277.65	31.818
278.02	30.426
278.39	35.011
278.76	33.124
279.13	28.423
279.50	32.143
279.87	31.749
280.23	31.398
280.60	33.918
280.97	32.525
281.34	30.385
281.71	34.908
282.08	31.084
282.45	33.072
282.82	31.853
283.19	32.302
283.56	34.682
283.92	33.776
284.29	31.538
284.66	30.233
285.03	32.613
285.40	32.325
285.77	29.525
286.14	30.686
286.51	34.502
286.87	29.982
287.24	32.044
287.61	31.922
287.98	33.860
288.35	30.503
288.72	31.524
289.08	30.382
289.45	33.040
289.82	29.371
290.19	29.522
290.56	30.875
290.93	30.471
291.29	26.965
291.66	27.717
292.03	26.954
292.40	26.935
292.77	28.389
293.13	25.812
293.50	25.797
293.87	25.954
294.24	25.657
294.60	29.061
294.97	26.190
295.34	26.074
295.71	24.441
296.08	25.710
296.44	26.458
296.81	25.694
297.18	24.783
297.55	26.423
297.91	24.384
298.28	27.177
298.65	22.659
299.02	24.124
299.38	23.529
299.75	23.448
300.12	23.298
300.48	23.320
300.85	23.701
301.22	23.247
301.59	23.684
301.95	24.430
302.32	25.811
302.69	23.134
303.05	23.267
303.42	21.918
303.79	22.897
304.15	23.178
304.52	20.452
304.89	20.936
305.25	22.034
305.62	20.887
305.99	21.404
306.35	21.040
306.72	21.260
307.09	22.805
307.45	24.110
307.82	21.528
308.19	21.951
308.55	21.047
308.92	22.549
309.29	22.793
309.65	21.206
310.02	21.562
310.38	21.076
310.75	24.153
311.12	22.820
311.48	21.633
311.85	21.990
312.22	21.414
312.58	21.338
312.95	20.811
313.31	21.946
313.68	22.723
314.05	20.918
314.41	23.918
314.78	22.887
315.14	23.433
315.51	21.636
315.87	23.156
316.24	23.256
316.61	24.016
316.97	23.611
317.34	23.730
317.70	23.136
318.07	21.923
318.43	24.608
318.80	24.337
319.16	25.098
319.53	24.406
319.89	25.689
320.26	24.190
320.62	25.476
320.99	24.426
321.35	26.310
321.72	27.310
322.08	26.385
322.45	27.005
322.81	28.782
323.18	27.184
323.54	27.896
323.91	28.822
324.27	27.734
324.64	29.026
325.00	28.193
325.37	28.375
325.73	28.740
326.10	29.519
326.46	30.673
326.83	30.534
327.19	30.253
327.56	31.972
327.92	30.634
328.29	31.696
328.65	32.264
329.01	32.261
329.38	32.719
329.74	32.956
330.11	33.272
330.47	31.633
330.84	31.635
331.20	34.030
331.56	33.426
331.93	32.785
332.29	34.189
332.66	34.208
333.02	32.156
333.38	33.364
333.75	34.524
334.11	32.587
334.48	33.636
334.84	32.967
335.20	34.584
335.57	32.638
335.93	33.424
336.29	32.873
336.66	32.516
337.02	33.550
337.38	33.241
337.75	34.727
338.11	34.896
338.47	33.485
338.84	34.288
339.20	34.369
339.56	35.138
339.93	34.467
340.29	34.312
340.65	34.140
341.02	32.979
341.38	34.248
341.74	34.187
342.11	33.709
342.47	34.786
342.83	34.862
343.20	32.753
343.56	34.957
343.92	33.481
344.28	33.817
344.65	33.765
345.01	33.708
345.37	33.053
345.73	33.975
346.10	33.909
346.46	33.137
346.82	34.206
347.19	34.248
347.55	34.336
347.91	33.657
348.27	34.357
348.63	33.816
349.00	33.880
349.36	33.915
349.72	34.494
350.08	34.754
350.45	35.275
350.81	34.219
351.17	34.121
351.53	34.531
351.89	34.104
352.26	33.520
352.62	35.323
352.98	33.092
353.34	35.105
353.70	34.304
354.07	33.710
354.43	34.267
354.79	34.021
355.15	34.286
355.51	34.415
355.87	33.576
356.24	32.790
356.60	34.357
356.96	35.079
357.32	34.824
357.68	33.073
358.04	33.683
358.40	33.199
358.77	34.370
359.13	34.508
359.49	33.513
359.85	34.321
360.21	33.333
360.57	33.588
360.93	33.510
361.29	33.233
361.66	34.561
362.02	35.758
362.38	34.882
362.74	34.974
363.10	36.343
363.46	35.137
363.82	36.664
364.18	34.834
364.54	34.191
364.90	34.839
365.26	35.007
365.62	37.153
365.98	34.971
366.35	36.562
366.71	36.142
367.07	35.776
367.43	36.305
367.79	34.912
368.15	36.037
368.51	34.960
368.87	36.755
369.23	34.801
369.59	35.933
369.95	35.777
370.31	37.645
370.67	36.716
371.03	33.906
371.39	36.689
371.75	37.216
372.11	36.020
372.47	37.352
372.83	36.764
373.19	36.377
373.55	35.812
373.91	36.357
374.27	35.436
374.63	35.966
374.99	35.957
375.35	38.440
375.71	36.713
376.07	37.360
376.42	37.687
376.78	37.047
377.14	37.305
377.50	37.716
377.86	37.416
378.22	36.120
378.58	37.628
378.94	37.051
379.30	37.118
379.66	37.555
380.02	36.726
380.38	37.432
380.74	38.241
381.09	38.712
381.45	37.920
381.81	37.754
382.17	38.896
382.53	38.538
382.89	39.485
383.25	39.141
383.61	39.634
383.97	39.175
384.32	38.899
384.68	38.947
385.04	39.154
385.40	38.955
385.76	39.497
386.12	39.909
386.48	39.974
386.83	40.076
387.19	40.049
387.55	40.151
387.91	40.831
388.27	39.744
388.62	41.158
388.98	40.638
389.34	41.224
389.70	39.901
390.06	39.899
390.42	40.350
390.77	40.484
391.13	39.407
391.49	40.103
391.85	42.560
392.20	40.490
392.56	42.467
392.92	41.221
393.28	40.684
393.64	41.441
393.99	42.884
394.35	41.113
394.71	42.401
395.07	40.855
395.42	42.927
395.78	42.345
396.14	42.308
396.50	42.042
396.85	42.434
397.21	42.857
397.57	42.884
397.92	42.181
398.28	43.046
398.64	42.108
399.00	43.397
399.35	41.704
399.71	43.366
400.07	43.894
400.42	43.268
400.78	43.356
401.14	44.102
401.49	44.610
401.85	43.266
402.21	43.855
402.57	42.938
402.92	42.284
403.28	44.486
403.63	43.632
403.99	44.196
404.35	45.034
404.70	43.512
405.06	42.656
405.42	44.438
405.77	43.986
406.13	43.364
406.49	43.931
406.84	45.355
407.20	44.973
407.55	44.430
407.91	44.853
408.27	43.403
408.62	45.415
408.98	44.116
409.34	44.238
409.69	44.251
410.05	44.458
410.40	44.136
410.76	45.115
411.11	45.188
411.47	45.891
411.83	45.637
412.18	46.332
412.54	45.318
412.89	44.643
413.25	46.450
413.60	44.969
413.96	45.644
414.31	46.402
414.67	46.761
415.03	45.806
415.38	46.214
415.74	46.189
416.09	47.551
416.45	46.995
416.80	46.861
417.16	48.273
417.51	46.369
417.87	47.718
418.22	46.567
418.58	46.288
418.93	46.834
419.29	45.455
419.64	48.153
420.00	48.174
420.35	47.164
420.71	47.448
421.06	46.900
421.42	47.536
421.77	46.416
422.12	45.233
422.48	47.699
422.83	46.636
423.19	48.194
423.54	48.031
423.90	46.938
424.25	49.082
424.61	48.470
424.96	47.909
425.31	48.585
425.67	48.709
426.02	49.058
426.38	49.468
426.73	49.031
427.09	49.177
427.44	48.353
427.79	48.262
428.15	48.362
428.50	48.758
428.85	47.604
429.21	49.576
429.56	49.218
429.92	48.742
430.27	47.719
430.62	47.308
430.98	47.877
431.33	48.633
431.68	48.142
432.04	49.413
432.39	47.918
432.74	47.685
433.10	50.517
433.45	48.268
433.80	48.926
434.16	47.756
434.51	49.247
434.86	50.465
435.22	48.794
435.57	50.530
435.92	48.683
436.28	48.956
436.63	49.971
436.98	48.378
437.34	48.155
437.69	50.209
438.04	48.775
438.39	49.420
438.75	51.063
439.10	49.632
439.45	50.274
439.81	49.725
440.16	50.356
440.51	49.612
440.86	51.360
441.22	48.982
441.57	49.117
441.92	51.312
442.27	50.443
442.63	50.696
442.98	50.029
443.33	49.026
443.68	48.382
444.03	49.677
444.39	50.516
444.74	51.338
445.09	50.278
445.44	50.598
445.79	51.006
446.15	50.826
446.50	49.418
446.85	49.894
447.20	49.635
447.55	51.116
447.91	51.438
448.26	49.801
448.61	50.604
448.96	50.660
449.31	51.040
449.66	50.581
450.02	50.827
450.37	51.986
450.72	50.630
451.07	51.203
451.42	50.562
451.77	51.175
452.12	50.000
452.47	51.062
452.83	49.882
453.18	51.297
453.53	51.075
453.88	51.002
454.23	50.461
454.58	51.637
454.93	51.224
455.28	49.587
455.63	52.201
455.98	51.413
456.34	49.617
456.69	51.906
457.04	50.851
457.39	50.851
457.74	49.879
458.09	49.912
458.44	50.614
458.79	49.356
459.14	51.545
459.49	51.940
459.84	50.141
460.19	49.636
460.54	51.650
460.89	51.250
461.24	50.745
461.59	51.010
461.94	50.314
462.29	51.146
462.64	51.030
462.99	51.117
463.34	50.417
463.69	50.515
464.04	51.634
464.39	50.515
464.74	50.245
465.09	51.653
465.44	50.548
465.79	50.340
466.14	50.855
466.49	51.006
466.84	51.041
467.19	51.064
467.54	51.405
467.89	51.295
468.24	50.912
468.59	51.619
468.94	51.746
469.29	51.672
469.64	50.444
469.99	52.768
470.34	52.355
470.68	53.020
471.03	51.805
471.38	52.282
471.73	53.361
472.08	51.628
472.43	53.020
472.78	52.228
473.13	52.177
473.48	51.792
473.83	50.436
474.17	51.554
474.52	51.500
474.87	52.788
475.22	51.190
475.57	52.061
475.92	52.825
476.27	51.921
476.61	53.646
476.96	52.147
477.31	52.136
477.66	51.461
478.01	53.565
478.36	52.233
478.70	52.800
479.05	52.912
479.40	52.729
479.75	51.668
480.10	52.125
480.45	52.150
480.79	52.820
481.14	53.279
481.49	51.970
481.84	52.461
482.19	52.152
482.53	52.662
482.88	52.983
483.23	51.679
483.58	51.509
483.92	51.355
484.27	52.233
484.62	52.084
484.97	51.949
485.31	50.434
485.66	47.152
486.01	47.555
486.36	47.354
486.70	48.937
487.05	49.587
487.40	50.362
487.75	50.141
488.09	51.205
488.44	51.100
488.79	52.036
489.13	52.644
489.48	52.074
489.83	51.480
490.17	51.416
490.52	52.656
490.87	51.458
491.22	53.056
491.56	50.901
491.91	51.625
492.26	52.844
492.60	52.159
492.95	53.025
493.30	52.027
493.64	53.389
493.99	51.836
494.34	52.476
494.68	53.095
495.03	52.944
495.37	52.502
495.72	53.862
496.07	53.415
496.41	52.594
496.76	52.004
497.11	51.980
497.45	53.652
497.80	54.642
498.14	52.012
498.49	52.666
498.84	52.645
499.18	53.012
499.53	53.522
499.87	52.870
500.22	53.215
500.56	53.959
500.91	53.414
501.26	53.287
501.60	52.976
501.95	54.003
502.29	53.559
502.64	53.620
502.98	54.613
503.33	52.161
503.67	52.627
504.02	53.079
504.36	53.538
504.71	53.788
505.06	53.900
505.40	54.061
505.75	55.928
506.09	54.131
506.44	55.031
506.78	54.184
507.13	55.171
507.47	55.405
507.82	54.594
508.16	54.569
508.51	55.404
508.85	55.939
509.19	56.094
509.54	57.212
509.88	55.232
510.23	55.836
510.57	55.532
510.92	54.691
511.26	56.465
511.61	55.611
511.95	56.219
512.30	56.430
512.64	56.539
512.98	56.766
513.33	56.407
513.67	56.680
514.02	57.666
514.36	59.143
514.70	59.732
515.05	58.637
515.39	58.323
515.74	59.880
516.08	60.251
516.42	59.246
516.77	58.455
517.11	60.000
517.46	59.725
517.80	60.012
518.14	60.012
518.49	60.276
518.83	59.538
519.17	58.642
519.52	59.266
519.86	59.964
520.20	59.781
520.55	58.724
520.89	61.230
521.23	61.178
521.58	62.208
521.92	62.500
522.26	61.809
522.61	61.364
522.95	62.517
523.29	60.928
523.64	62.008
523.98	61.957
524.32	61.405
524.66	61.844
525.01	63.377
525.35	63.837
525.69	63.636
526.04	62.831
526.38	64.137
526.72	62.001
527.06	62.127
527.41	62.467
527.75	62.198
528.09	63.123
528.43	63.876
528.78	62.310
529.12	63.355
529.46	62.768
529.80	62.255
530.15	64.092
530.49	63.704
530.83	64.432
531.17	63.398
531.51	62.927
531.86	64.310
532.20	64.022
532.54	64.398
532.88	65.092
533.22	62.769
533.57	62.779
533.91	63.120
534.25	64.323
534.59	61.963
534.93	62.996
535.27	63.388
535.62	63.901
535.96	63.992
536.30	63.259
536.64	63.818
536.98	64.251
537.32	66.216
537.66	65.217
538.01	65.245
538.35	63.939
538.69	62.916
539.03	63.226
539.37	63.728
539.71	64.145
540.05	62.525
540.39	63.643
540.73	63.250
541.07	64.296
541.42	64.315
541.76	63.042
542.10	64.212
542.44	65.115
542.78	62.285
543.12	63.049
543.46	63.630
543.80	63.567
544.14	61.415
544.48	63.091
544.82	62.953
545.16	64.617
545.50	62.083
545.84	64.448
546.18	65.390
546.52	64.744
546.86	64.127
547.20	64.378
547.54	62.120
547.88	63.995
548.22	61.670
548.56	61.148
548.90	63.612
549.24	62.466
549.58	62.976
549.92	63.974
550.26	63.077
550.60	66.097
550.94	64.974
551.28	63.524
551.62	64.769
551.96	64.135
552.30	63.743
552.64	62.835
552.98	63.924
553.32	63.195
553.66	62.409
554.00	63.796
554.34	64.771
554.68	62.463
555.02	63.542
555.36	62.079
555.69	62.784
556.03	62.241
556.37	62.491
556.71	62.455
557.05	64.504
557.39	62.602
557.73	62.594
558.07	62.971
558.41	64.319
558.75	63.679
559.08	64.618
559.42	65.317
559.76	65.572
560.10	63.456
560.44	62.770
560.78	61.818
561.12	61.213
561.45	63.879
561.79	62.185
562.13	63.733
562.47	63.094
562.81	62.464
563.15	62.341
563.48	62.730
563.82	61.428
564.16	62.953
564.50	60.608
564.84	61.446
565.17	61.569
565.51	64.413
565.85	63.306
566.19	62.135
566.52	61.863
566.86	61.825
567.20	59.963
567.54	60.949
567.88	60.574
568.21	59.559
568.55	59.620
568.89	58.932
569.23	57.342
569.56	56.918
569.90	57.937
570.24	54.596
570.57	56.509
570.91	55.594
571.25	54.522
571.59	54.158
571.92	53.007
572.26	53.653
572.60	53.829
572.93	54.660
573.27	54.044
573.61	53.103
573.95	54.014
574.28	52.807
574.62	52.657
574.96	51.633
575.29	52.145
575.63	51.516
575.97	53.402
576.30	52.741
576.64	52.185
576.98	53.050
577.31	53.428
577.65	51.972
577.98	51.923
578.32	51.679
578.66	50.677
578.99	52.480
579.33	51.786
579.67	52.057
580.00	52.456
580.34	52.537
580.67	52.102
581.01	52.402
581.35	51.077
581.68	50.246
582.02	49.789
582.35	50.604
582.69	50.701
583.02	51.506
583.36	52.165
583.70	53.297
584.03	53.433
584.37	54.348
584.70	52.335
585.04	50.829
585.37	50.811
585.71	50.728
586.04	51.488
586.38	51.507
586.72	51.851
587.05	52.166
587.39	51.971
587.72	52.706
588.06	51.481
588.39	51.780
588.73	52.045
589.06	51.859
589.40	52.402
589.73	53.377
590.07	53.890
590.40	53.560
590.73	54.695
591.07	54.792
591.40	55.521
591.74	54.344
592.07	54.777
592.41	54.152
592.74	51.175
593.08	50.332
593.41	50.577
593.75	50.671
594.08	50.154
594.41	51.929
594.75	51.298
595.08	52.251
595.42	52.668
595.75	52.722
596.09	51.916
596.42	53.948
596.75	53.286
597.09	52.756
597.42	52.936
597.75	53.688
598.09	51.245
598.42	52.166
598.76	52.038
599.09	50.040
599.42	50.398
599.76	50.188
600.09	50.113
600.42	51.175
600.76	49.257
601.09	50.725
601.42	50.568
601.76	52.044
602.09	51.196
602.42	52.359
602.76	51.910
603.09	51.412
603.42	53.595
603.76	50.081
604.09	49.332
604.42	51.650
604.76	53.138
605.09	52.742
605.42	52.054
605.75	51.138
606.09	51.253
606.42	51.084
606.75	50.909
607.09	50.154
607.42	50.598
607.75	49.600
608.08	49.955
608.42	50.937
608.75	52.386
609.08	52.765
609.41	51.371
609.75	51.159
610.08	52.671
610.41	50.821
610.74	51.438
611.07	53.178
611.41	52.413
611.74	52.452
612.07	51.820
612.40	51.751
612.73	52.599
613.07	52.531
613.40	52.024
613.73	52.770
614.06	51.976
614.39	52.228
614.72	50.924
615.06	50.559
615.39	50.273
615.72	50.753
616.05	51.788
616.38	51.111
616.71	51.315
617.05	52.378
617.38	51.791
617.71	53.145
618.04	52.825
618.37	53.468
618.70	53.531
619.03	54.722
619.36	53.039
619.69	55.876
620.03	54.638
620.36	54.363
620.69	53.462
621.02	54.358
621.35	56.929
621.68	54.847
622.01	55.833
622.34	53.232
622.67	55.126
623.00	54.058
623.33	52.439
623.66	53.553
623.99	52.799
624.32	53.308
624.65	53.383
624.99	53.047
625.32	52.312
625.65	54.203
625.98	54.472
626.31	54.032
626.64	55.286
626.97	54.799
627.30	56.217
627.63	55.286
627.96	54.268
628.29	55.042
628.62	56.637
628.95	57.315
629.28	58.770
629.61	56.032
629.94	55.816
630.26	55.138
630.59	57.960
630.92	56.308
631.25	56.103
631.58	57.379
631.91	56.360
632.24	56.537
632.57	56.932
632.90	55.991
633.23	58.235
