SpectraSuite Data File
++++++++++++++++++++++++++++++++++++
Date: Fri May 15 20:49:34 PDT 2015
User: schluterlab
Dark Spectrum Present: Yes
Reference Spectrum Present: Yes
Number of Sampled Component Spectra: 1
Spectrometers: USB2E3373
Integration Time (usec): 3000 (USB2E3373)
Spectra Averaged: 3 (USB2E3373)
Boxcar Smoothing: 0 (USB2E3373)
Correct for Electrical Dark: No (USB2E3373)
Strobe/Lamp Enabled: No (USB2E3373)
Correct for Detector Non-linearity: No (USB2E3373)
Correct for Stray Light: No (USB2E3373)
Number of Pixels in Processed Spectrum: 2048
>>>>>Begin Processed Spectral Data<<<<<
178.53	0.000
178.91	0.000
179.29	-12.500
179.67	-350.000
180.04	28.571
180.42	-125.000
180.80	600.000
181.18	133.333
181.56	350.000
181.94	-300.000
182.31	1400.000
182.69	-20.000
183.07	-100.000
183.45	-220.000
183.83	250.000
184.20	-90.909
184.58	122.222
184.96	125.000
185.34	66.667
185.72	-900.000
186.09	130.769
186.47	-1000.000
186.85	116.667
187.23	122.222
187.61	200.000
187.98	0.000
188.36	-33.333
188.74	-266.667
189.12	11.765
189.49	27.778
189.87	0.000
190.25	-7.143
190.63	-200.000
191.00	-33.333
191.38	10.526
191.76	-150.000
192.14	175.000
192.51	-100.000
192.89	-66.667
193.27	-128.571
193.65	100.000
194.02	109.091
194.40	-30.000
194.78	-150.000
195.15	-75.000
195.53	-12.500
195.91	275.000
196.29	-150.000
196.66	84.615
197.04	85.714
197.42	-100.000
197.79	-533.333
198.17	-84.615
198.55	1700.000
198.92	-400.000
199.30	-1300.000
199.68	100.000
200.05	-533.333
200.43	0.000
200.81	-66.667
201.18	-166.667
201.56	1400.000
201.94	-900.000
202.31	-0.000
202.69	-220.000
203.07	250.000
203.44	100.000
203.82	0.000
204.19	-14.286
204.57	-333.333
204.95	87.500
205.32	-60.000
205.70	-42.857
206.08	100.000
206.45	133.333
206.83	42.857
207.20	-100.000
207.58	1000.000
207.96	-366.667
208.33	-90.000
208.71	-100.000
209.08	-50.000
209.46	-200.000
209.84	-120.000
210.21	-500.000
210.59	-85.714
210.96	-33.333
211.34	25.000
211.71	93.333
212.09	-157.143
212.46	-1800.000
212.84	0.000
213.22	130.000
213.59	850.000
213.97	69.231
214.34	-36.364
214.72	-166.667
215.09	450.000
215.47	23.077
215.84	18.182
216.22	-400.000
216.59	62.500
216.97	200.000
217.34	-25.000
217.72	-420.000
218.09	-137.500
218.47	175.000
218.84	-1400.000
219.22	-77.778
219.59	-60.000
219.97	700.000
220.34	225.000
220.72	-85.714
221.09	-200.000
221.47	-100.000
221.84	-800.000
222.22	-800.000
222.59	-27.273
222.97	-41.667
223.34	-533.333
223.72	-50.000
224.09	-19.048
224.46	17.857
224.84	133.333
225.21	-90.000
225.59	53.333
225.96	150.000
226.34	450.000
226.71	-14.286
227.08	16.667
227.46	37.500
227.83	-800.000
228.21	-33.333
228.58	9.091
228.95	-50.000
229.33	30.000
229.70	50.000
230.08	-50.000
230.45	-71.429
230.82	14.286
231.20	40.000
231.57	42.857
231.95	-28.571
232.32	30.000
232.69	42.857
233.07	-200.000
233.44	-40.000
233.81	50.000
234.19	44.444
234.56	11.765
234.93	-0.000
235.31	100.000
235.68	-120.000
236.05	-30.769
236.43	-5.000
236.80	82.353
237.17	18.750
237.55	20.000
237.92	51.852
238.29	61.111
238.67	80.000
239.04	58.824
239.41	29.268
239.79	66.667
240.16	70.732
240.53	65.789
240.91	82.609
241.28	47.619
241.65	66.071
242.02	58.904
242.40	66.667
242.77	74.576
243.14	53.030
243.51	53.750
243.89	70.115
244.26	58.621
244.63	75.000
245.00	65.979
245.38	71.134
245.75	62.921
246.12	58.621
246.49	67.769
246.87	80.769
247.24	68.067
247.61	63.158
247.98	69.106
248.36	61.250
248.73	73.026
249.10	68.831
249.47	75.316
249.84	73.856
250.22	72.353
250.59	71.242
250.96	63.380
251.33	75.000
251.70	78.824
252.08	69.543
252.45	68.317
252.82	77.889
253.19	72.350
253.56	74.299
253.94	76.577
254.31	73.478
254.68	76.316
255.05	68.504
255.42	71.616
255.79	75.676
256.16	76.654
256.54	75.746
256.91	69.962
257.28	68.401
257.65	71.536
258.02	71.631
258.39	70.707
258.76	75.458
259.14	76.744
259.51	67.638
259.88	78.694
260.25	72.549
260.62	73.611
260.99	75.593
261.36	72.945
261.73	72.468
262.10	71.733
262.47	71.779
262.85	73.668
263.22	74.462
263.59	73.520
263.96	76.087
264.33	75.758
264.70	76.786
265.07	70.833
265.44	75.921
265.81	73.446
266.18	74.863
266.55	73.265
266.92	73.575
267.29	75.457
267.66	73.913
268.03	75.654
268.40	72.846
268.77	81.283
269.14	69.544
269.51	75.064
269.88	73.317
270.25	75.000
270.62	71.463
270.99	71.611
271.36	72.616
271.73	70.423
272.10	73.723
272.47	71.631
272.84	74.010
273.21	71.230
273.58	70.602
273.95	70.709
274.32	69.977
274.69	67.421
275.06	72.545
275.43	70.522
275.80	72.406
276.17	72.874
276.54	68.094
276.91	73.684
277.28	69.869
277.65	70.868
278.02	68.085
278.39	71.772
278.76	70.021
279.13	68.050
279.50	68.908
279.87	72.570
280.23	67.742
280.60	66.277
280.97	72.929
281.34	67.500
281.71	69.815
282.08	68.098
282.45	69.863
282.82	69.305
283.19	67.892
283.56	67.437
283.92	69.070
284.29	66.538
284.66	68.217
285.03	68.369
285.40	67.108
285.77	65.026
286.14	65.884
286.51	70.480
286.87	63.071
287.24	66.667
287.61	63.668
287.98	62.982
288.35	65.165
288.72	65.499
289.08	64.410
289.45	64.148
289.82	61.014
290.19	62.116
290.56	62.607
290.93	61.111
291.29	56.240
291.66	58.583
292.03	58.054
292.40	60.645
292.77	57.735
293.13	53.896
293.50	54.628
293.87	56.183
294.24	56.260
294.60	55.589
294.97	51.488
295.34	53.067
295.71	57.079
296.08	52.915
296.44	51.778
296.81	51.111
297.18	53.913
297.55	52.304
297.91	51.644
298.28	52.111
298.65	49.389
299.02	49.730
299.38	50.616
299.75	50.483
300.12	49.084
300.48	49.012
300.85	48.669
301.22	48.831
301.59	49.737
301.95	48.481
302.32	48.898
302.69	49.876
303.05	47.649
303.42	47.821
303.79	46.262
304.15	48.626
304.52	45.660
304.89	45.965
305.25	47.094
305.62	45.741
305.99	43.977
306.35	46.243
306.72	45.557
307.09	48.119
307.45	46.269
307.82	45.023
308.19	45.528
308.55	45.474
308.92	47.059
309.29	44.469
309.65	44.672
310.02	44.114
310.38	44.786
310.75	46.667
311.12	45.425
311.48	44.221
311.85	43.560
312.22	43.987
312.58	43.524
312.95	42.903
313.31	43.168
313.68	43.874
314.05	42.857
314.41	43.093
314.78	42.474
315.14	44.707
315.51	45.031
315.87	43.033
316.24	44.085
316.61	42.913
316.97	42.659
317.34	43.164
317.70	43.212
318.07	42.308
318.43	43.725
318.80	40.720
319.16	43.652
319.53	41.880
319.89	43.110
320.26	41.093
320.62	43.129
320.99	41.232
321.35	42.343
321.72	42.679
322.08	43.907
322.45	43.249
322.81	43.124
323.18	42.689
323.54	41.506
323.91	40.993
324.27	42.773
324.64	41.854
325.00	41.971
325.37	42.149
325.73	39.801
326.10	40.781
326.46	40.807
326.83	41.995
327.19	41.325
327.56	41.790
327.92	40.053
328.29	40.982
328.65	41.509
329.01	41.452
329.38	40.184
329.74	40.321
330.11	40.593
330.47	40.167
330.84	40.962
331.20	43.441
331.56	39.352
331.93	40.183
332.29	40.697
332.66	39.638
333.02	39.126
333.38	39.505
333.75	39.469
334.11	38.496
334.48	39.982
334.84	40.110
335.20	37.786
335.57	38.441
335.93	39.928
336.29	39.411
336.66	38.510
337.02	39.312
337.38	37.963
337.75	39.727
338.11	39.585
338.47	37.865
338.84	39.741
339.20	39.031
339.56	38.807
339.93	38.854
340.29	38.532
340.65	38.441
341.02	38.387
341.38	40.000
341.74	37.721
342.11	38.302
342.47	37.722
342.83	37.889
343.20	37.456
343.56	38.870
343.92	37.821
344.28	38.343
344.65	38.687
345.01	38.202
345.37	37.006
345.73	37.573
346.10	38.050
346.46	37.090
346.82	36.579
347.19	36.991
347.55	37.678
347.91	37.945
348.27	37.025
348.63	37.053
349.00	36.669
349.36	37.240
349.72	38.391
350.08	37.541
350.45	35.515
350.81	37.043
351.17	36.726
351.53	38.204
351.89	36.581
352.26	36.400
352.62	36.935
352.98	35.100
353.34	35.990
353.70	35.356
354.07	36.129
354.43	36.189
354.79	34.021
355.15	36.190
355.51	34.256
355.87	36.893
356.24	35.237
356.60	35.247
356.96	35.476
357.32	35.623
357.68	35.418
358.04	34.976
358.40	35.932
358.77	34.609
359.13	34.828
359.49	34.438
359.85	34.945
360.21	35.646
360.57	34.583
360.93	34.947
361.29	34.441
361.66	35.423
362.02	35.152
362.38	34.349
362.74	33.989
363.10	34.387
363.46	34.692
363.82	35.537
364.18	34.096
364.54	34.044
364.90	33.620
365.26	34.352
365.62	35.255
365.98	34.531
366.35	33.940
366.71	34.812
367.07	34.325
367.43	33.645
367.79	33.781
368.15	33.597
368.51	34.960
368.87	32.592
369.23	32.780
369.59	34.111
369.95	33.871
370.31	33.454
370.67	33.806
371.03	33.532
371.39	32.969
371.75	33.626
372.11	33.452
372.47	33.654
372.83	33.357
373.19	33.524
373.55	32.563
373.91	31.533
374.27	33.239
374.63	33.812
374.99	32.270
375.35	33.217
375.71	33.566
376.07	32.865
376.42	32.857
376.78	33.087
377.14	32.769
377.50	31.939
377.86	33.133
378.22	32.419
378.58	32.500
378.94	32.703
379.30	32.439
379.66	32.978
380.02	31.453
380.38	31.710
380.74	31.837
381.09	32.699
381.45	31.437
381.81	31.709
382.17	32.360
382.53	32.167
382.89	33.208
383.25	33.105
383.61	32.134
383.97	32.635
384.32	32.833
384.68	32.074
385.04	32.047
385.40	30.803
385.76	32.767
386.12	32.794
386.48	33.078
386.83	32.213
387.19	32.051
387.55	32.058
387.91	31.968
388.27	31.136
388.62	32.222
388.98	31.737
389.34	31.918
389.70	32.629
390.06	31.718
390.42	30.311
390.77	31.131
391.13	31.021
391.49	31.953
391.85	31.254
392.20	31.576
392.56	30.769
392.92	31.356
393.28	31.132
393.64	31.652
393.99	32.226
394.35	30.677
394.71	30.907
395.07	30.107
395.42	30.055
395.78	31.466
396.14	30.832
396.50	32.340
396.85	31.230
397.21	31.266
397.57	30.721
397.92	31.216
398.28	30.977
398.64	31.145
399.00	31.941
399.35	30.305
399.71	31.361
400.07	30.774
400.42	30.416
400.78	30.067
401.14	31.337
401.49	30.018
401.85	31.079
402.21	30.482
402.57	30.750
402.92	31.054
403.28	32.581
403.63	30.769
403.99	30.931
404.35	31.293
404.70	30.298
405.06	31.140
405.42	30.143
405.77	30.157
406.13	30.675
406.49	29.899
406.84	30.990
407.20	31.607
407.55	30.457
407.91	30.882
408.27	29.828
408.62	31.262
408.98	31.177
409.34	31.475
409.69	30.233
410.05	29.187
410.40	29.938
410.76	30.820
411.11	30.125
411.47	30.440
411.83	29.567
412.18	31.017
412.54	29.401
412.89	29.557
413.25	30.686
413.60	29.876
413.96	29.387
414.31	30.671
414.67	29.699
415.03	30.426
415.38	29.112
415.74	30.358
416.09	29.719
416.45	30.925
416.80	30.205
417.16	31.146
417.51	29.314
417.87	30.378
418.22	29.339
418.58	29.632
418.93	30.345
419.29	28.553
419.64	30.006
420.00	30.856
420.35	29.851
420.71	30.377
421.06	28.913
421.42	30.108
421.77	29.769
422.12	30.250
422.48	30.374
422.83	29.872
423.19	29.176
423.54	29.688
423.90	28.504
424.25	29.621
424.61	31.151
424.96	31.069
425.31	30.618
425.67	29.988
426.02	29.976
426.38	30.369
426.73	30.569
427.09	29.873
427.44	30.000
427.79	30.583
428.15	30.036
428.50	30.588
428.85	28.993
429.21	29.938
429.56	29.919
429.92	29.892
430.27	28.672
430.62	29.012
430.98	29.671
431.33	29.968
431.68	29.147
432.04	30.073
432.39	30.006
432.74	29.284
433.10	30.805
433.45	28.913
433.80	29.425
434.16	28.920
434.51	29.785
434.86	29.965
435.22	29.501
435.57	28.821
435.92	30.120
436.28	28.563
436.63	30.120
436.98	28.100
437.34	29.280
437.69	29.696
438.04	29.345
438.39	29.016
438.75	29.569
439.10	28.862
439.45	29.580
439.81	29.664
440.16	30.166
440.51	30.388
440.86	30.755
441.22	29.242
441.57	29.746
441.92	29.486
442.27	29.933
442.63	29.711
442.98	30.959
443.33	28.881
443.68	29.390
444.03	29.657
444.39	30.349
444.74	30.713
445.09	30.178
445.44	29.516
445.79	30.531
446.15	29.681
446.50	29.895
446.85	29.968
447.20	30.188
447.55	31.138
447.91	29.103
448.26	30.507
448.61	30.743
448.96	29.662
449.31	29.653
449.66	29.849
450.02	30.348
450.37	30.053
450.72	29.840
451.07	30.570
451.42	28.777
451.77	30.922
452.12	29.904
452.47	29.105
452.83	29.682
453.18	29.602
453.53	30.088
453.88	29.569
454.23	28.949
454.58	30.605
454.93	29.124
455.28	29.333
455.63	29.882
455.98	30.006
456.34	29.821
456.69	29.860
457.04	30.435
457.39	28.919
457.74	29.202
458.09	28.840
458.44	29.374
458.79	29.580
459.14	30.950
459.49	30.627
459.84	29.667
460.19	30.461
460.54	30.134
460.89	29.943
461.24	30.745
461.59	29.632
461.94	29.874
462.29	29.252
462.64	30.498
462.99	29.452
463.34	29.694
463.69	29.601
464.04	29.479
464.39	29.472
464.74	29.509
465.09	30.630
465.44	28.621
465.79	28.855
466.14	29.190
466.49	28.810
466.84	29.804
467.19	29.787
467.54	29.630
467.89	28.680
468.24	29.501
468.59	30.032
468.94	29.016
469.29	30.164
469.64	29.665
469.99	31.114
470.34	28.601
470.68	29.828
471.03	29.512
471.38	29.173
471.73	28.711
472.08	28.833
472.43	28.859
472.78	28.855
473.13	29.728
473.48	29.577
473.83	28.269
474.17	29.469
474.52	28.845
474.87	28.121
475.22	28.798
475.57	28.458
475.92	29.896
476.27	29.627
476.61	29.977
476.96	28.946
477.31	29.259
477.66	29.157
478.01	29.141
478.36	29.793
478.70	29.473
479.05	29.780
479.40	29.677
479.75	28.624
480.10	28.827
480.45	30.050
480.79	29.607
481.14	29.969
481.49	28.079
481.84	29.344
482.19	28.765
482.53	29.688
482.88	30.167
483.23	28.695
483.58	29.764
483.92	28.316
484.27	29.581
484.62	29.135
484.97	28.607
485.31	29.010
485.66	28.345
486.01	29.149
486.36	29.344
486.70	30.306
487.05	30.377
487.40	30.248
487.75	29.746
488.09	30.532
488.44	30.158
488.79	29.473
489.13	29.487
489.48	29.158
489.83	29.372
490.17	28.719
490.52	28.776
490.87	28.366
491.22	29.417
491.56	28.178
491.91	27.964
492.26	29.412
492.60	28.311
492.95	30.103
493.30	28.139
493.64	28.487
493.99	29.324
494.34	28.689
494.68	29.429
495.03	29.246
495.37	28.754
495.72	29.329
496.07	28.146
496.41	28.019
496.76	28.696
497.11	28.458
497.45	28.974
497.80	29.617
498.14	28.564
498.49	28.593
498.84	29.391
499.18	28.464
499.53	29.712
499.87	28.696
500.22	28.487
500.56	29.551
500.91	27.811
501.26	28.670
501.60	27.791
501.95	28.093
502.29	28.717
502.64	29.102
502.98	28.762
503.33	27.858
503.67	29.012
504.02	28.983
504.36	29.342
504.71	28.990
505.06	28.888
505.40	28.832
505.75	28.763
506.09	28.637
506.44	28.593
506.78	29.286
507.13	27.921
507.47	27.833
507.82	27.778
508.16	28.209
508.51	28.122
508.85	29.147
509.19	28.473
509.54	27.775
509.88	27.346
510.23	28.241
510.57	28.167
510.92	26.493
511.26	27.605
511.61	28.163
511.95	27.671
512.30	28.603
512.64	28.436
512.98	27.007
513.33	28.092
513.67	28.027
514.02	29.005
514.36	28.114
514.70	28.904
515.05	28.085
515.39	27.745
515.74	29.102
516.08	28.093
516.42	29.093
516.77	28.145
517.11	28.665
517.46	28.606
517.80	28.367
518.14	28.108
518.49	28.065
518.83	28.190
519.17	26.562
519.52	28.064
519.86	27.371
520.20	28.797
520.55	27.330
520.89	27.854
521.23	27.106
521.58	28.202
521.92	28.590
522.26	27.391
522.61	28.052
522.95	27.682
523.29	27.446
523.64	26.874
523.98	28.516
524.32	26.740
524.66	28.425
525.01	28.052
525.35	27.868
525.69	27.677
526.04	26.653
526.38	28.275
526.72	27.469
527.06	26.978
527.41	28.232
527.75	27.145
528.09	26.379
528.43	29.102
528.78	28.581
529.12	27.290
529.46	28.395
529.80	28.182
530.15	28.977
530.49	27.475
530.83	27.497
531.17	27.602
531.51	28.044
531.86	26.920
532.20	28.253
532.54	27.910
532.88	27.652
533.22	28.024
533.57	26.802
533.91	27.676
534.25	29.036
534.59	27.453
534.93	27.753
535.27	27.855
535.62	27.220
535.96	27.854
536.30	27.836
536.64	28.187
536.98	28.920
537.32	27.596
537.66	29.032
538.01	27.832
538.35	27.393
538.69	28.362
539.03	27.273
539.37	28.533
539.71	27.130
540.05	26.884
540.39	27.216
540.73	27.824
541.07	28.798
541.42	27.890
541.76	27.736
542.10	27.598
542.44	27.797
542.78	27.185
543.12	26.992
543.46	28.720
543.80	28.383
544.14	27.770
544.48	26.516
544.82	28.298
545.16	28.552
545.50	27.904
545.84	28.399
546.18	28.227
546.52	28.190
546.86	28.253
547.20	28.112
547.54	27.208
547.88	27.853
548.22	28.205
548.56	27.968
548.90	28.504
549.24	27.686
549.58	28.209
549.92	27.305
550.26	28.059
550.60	27.435
550.94	28.902
551.28	27.280
551.62	27.538
551.96	27.218
552.30	26.754
552.64	26.446
552.98	28.129
553.32	28.673
553.66	27.576
554.00	28.175
554.34	29.616
554.68	27.212
555.02	28.199
555.36	28.347
555.69	25.495
556.03	27.980
556.37	27.260
556.71	26.859
557.05	27.218
557.39	26.914
557.73	27.886
558.07	28.431
558.41	27.565
558.75	28.605
559.08	27.187
559.42	26.746
559.76	27.862
560.10	27.905
560.44	26.731
560.78	28.042
561.12	28.773
561.45	28.953
561.79	27.381
562.13	28.673
562.47	28.129
562.81	26.657
563.15	28.279
563.48	27.935
563.82	27.865
564.16	27.646
564.50	27.905
564.84	27.510
565.17	27.767
565.51	28.757
565.85	27.984
566.19	27.520
566.52	27.748
566.86	28.985
567.20	27.958
567.54	28.406
567.88	28.530
568.21	28.846
568.55	29.348
568.89	29.004
569.23	29.514
569.56	29.291
569.90	29.354
570.24	28.731
570.57	30.036
570.91	29.906
571.25	29.398
571.59	29.088
571.92	29.304
572.26	29.589
572.60	30.078
572.93	29.181
573.27	29.655
573.61	29.803
573.95	29.683
574.28	30.270
574.62	29.418
574.96	29.369
575.29	29.581
575.63	29.204
575.97	28.761
576.30	29.238
576.64	29.589
576.98	30.142
577.31	30.057
577.65	30.298
577.98	30.008
578.32	29.844
578.66	29.852
578.99	29.293
579.33	29.453
579.67	29.624
580.00	29.949
580.34	30.124
580.67	29.674
581.01	29.995
581.35	29.802
581.68	29.994
582.02	30.061
582.35	30.381
582.69	30.113
583.02	30.186
583.36	30.329
583.70	31.153
584.03	30.220
584.37	31.028
584.70	30.137
585.04	28.860
585.37	29.853
585.71	29.869
586.04	30.055
586.38	29.448
586.72	29.613
587.05	29.809
587.39	29.774
587.72	30.290
588.06	29.892
588.39	30.447
588.73	30.372
589.06	30.398
589.40	30.349
589.73	29.938
590.07	30.287
590.40	30.147
590.73	30.148
591.07	30.195
591.40	30.142
591.74	29.819
592.07	29.777
592.41	30.035
592.74	29.431
593.08	28.537
593.41	29.160
593.75	29.310
594.08	28.630
594.41	29.949
594.75	29.809
595.08	29.058
595.42	29.591
595.75	29.778
596.09	29.750
596.42	29.351
596.75	29.751
597.09	29.157
597.42	29.359
597.75	29.867
598.09	28.067
598.42	29.513
598.76	28.142
599.09	28.726
599.42	28.117
599.76	28.442
600.09	28.658
600.42	28.279
600.76	28.083
601.09	28.588
601.42	28.124
601.76	29.059
602.09	29.167
602.42	29.570
602.76	29.329
603.09	29.610
603.42	29.891
603.76	28.911
604.09	29.040
604.42	28.596
604.76	30.352
605.09	29.205
605.42	29.029
605.75	28.415
606.09	28.662
606.42	28.524
606.75	29.264
607.09	29.495
607.42	28.711
607.75	28.108
608.08	28.347
608.42	28.049
608.75	28.771
609.08	28.849
609.41	28.579
609.75	28.427
610.08	28.507
610.41	28.744
610.74	28.718
611.07	28.889
611.41	28.905
611.74	28.252
612.07	27.837
612.40	28.501
612.73	28.701
613.07	27.784
613.40	28.446
613.73	27.924
614.06	28.269
614.39	29.160
614.72	28.179
615.06	27.486
615.39	27.948
615.72	27.341
616.05	28.715
616.38	27.066
616.71	27.951
617.05	28.907
617.38	28.410
617.71	27.736
618.04	28.571
618.37	28.562
618.70	28.185
619.03	29.167
619.36	26.845
619.69	28.052
620.03	27.757
620.36	28.541
620.69	27.766
621.02	27.599
621.35	28.465
621.68	27.041
622.01	27.500
622.34	27.374
622.67	28.076
623.00	27.029
623.33	27.287
623.66	27.375
623.99	28.290
624.32	27.757
624.65	25.714
624.99	27.991
625.32	26.611
625.65	27.416
625.98	28.042
626.31	26.517
626.64	27.383
626.97	28.010
627.30	26.883
627.63	27.036
627.96	26.954
628.29	25.717
628.62	26.450
628.95	25.251
629.28	26.815
629.61	26.520
629.94	27.468
630.26	25.692
630.59	27.159
630.92	26.769
631.25	26.051
631.58	25.881
631.91	24.452
632.24	26.032
632.57	26.818
632.90	25.386
