SpectraSuite Data File
++++++++++++++++++++++++++++++++++++
Date: Fri May 15 20:35:49 PDT 2015
User: schluterlab
Dark Spectrum Present: Yes
Reference Spectrum Present: Yes
Number of Sampled Component Spectra: 1
Spectrometers: USB2E3373
Integration Time (usec): 3000 (USB2E3373)
Spectra Averaged: 3 (USB2E3373)
Boxcar Smoothing: 0 (USB2E3373)
Correct for Electrical Dark: No (USB2E3373)
Strobe/Lamp Enabled: No (USB2E3373)
Correct for Detector Non-linearity: No (USB2E3373)
Correct for Stray Light: No (USB2E3373)
Number of Pixels in Processed Spectrum: 2048
>>>>>Begin Processed Spectral Data<<<<<
178.53	0.000
178.91	0.000
179.29	37.500
179.67	-500.000
180.04	-42.857
180.42	300.000
180.80	-100.000
181.18	-0.000
181.56	750.000
181.94	-400.000
182.31	1000.000
182.69	-60.000
183.07	-166.667
183.45	60.000
183.83	200.000
184.20	63.636
184.58	166.667
184.96	175.000
185.34	-133.333
185.72	-400.000
186.09	92.308
186.47	-800.000
186.85	133.333
187.23	166.667
187.61	600.000
187.98	-666.667
188.36	33.333
188.74	-200.000
189.12	5.882
189.49	-5.556
189.87	0.000
190.25	85.714
190.63	-250.000
191.00	-133.333
191.38	-21.053
191.76	-150.000
192.14	-50.000
192.51	-400.000
192.89	-100.000
193.27	-142.857
193.65	216.667
194.02	163.636
194.40	-10.000
194.78	-112.500
195.15	-33.333
195.53	-150.000
195.91	375.000
196.29	50.000
196.66	176.923
197.04	214.286
197.42	-33.333
197.79	-633.333
198.17	-146.154
198.55	2000.000
198.92	-366.667
199.30	-200.000
199.68	-200.000
200.05	-233.333
200.43	0.000
200.81	66.667
201.18	33.333
201.56	1100.000
201.94	-700.000
202.31	-66.667
202.69	-180.000
203.07	250.000
203.44	-100.000
203.82	0.000
204.19	-14.286
204.57	-600.000
204.95	62.500
205.32	0.000
205.70	114.286
206.08	-375.000
206.45	200.000
206.83	64.286
207.20	-71.429
207.58	-0.000
207.96	-200.000
208.33	-180.000
208.71	225.000
209.08	-66.667
209.46	-1200.000
209.84	-20.000
210.21	-800.000
210.59	14.286
210.96	-66.667
211.34	50.000
211.71	-20.000
212.09	-114.286
212.46	-1900.000
212.84	0.000
213.22	20.000
213.59	250.000
213.97	-15.385
214.34	-18.182
214.72	-50.000
215.09	500.000
215.47	-53.846
215.84	-63.636
216.22	-433.333
216.59	25.000
216.97	-100.000
217.34	-150.000
217.72	-180.000
218.09	25.000
218.47	75.000
218.84	-900.000
219.22	-155.556
219.59	-160.000
219.97	466.667
220.34	175.000
220.72	-114.286
221.09	-225.000
221.47	-400.000
221.84	-450.000
222.22	-1200.000
222.59	-45.455
222.97	-50.000
223.34	-33.333
223.72	21.429
224.09	-33.333
224.46	-3.571
224.84	500.000
225.21	40.000
225.59	-6.667
225.96	-250.000
226.34	225.000
226.71	-57.143
227.08	0.000
227.46	-62.500
227.83	-450.000
228.21	-22.222
228.58	63.636
228.95	-87.500
229.33	30.000
229.70	12.500
230.08	-125.000
230.45	-85.714
230.82	-57.143
231.20	-33.333
231.57	21.429
231.95	-57.143
232.32	10.000
232.69	14.286
233.07	-166.667
233.44	-140.000
233.81	-190.000
234.19	-33.333
234.56	-23.529
234.93	500.000
235.31	-25.000
235.68	-400.000
236.05	-69.231
236.43	-40.000
236.80	47.059
237.17	3.125
237.55	-15.000
237.92	-7.407
238.29	16.667
238.67	0.000
239.04	-5.882
239.41	-9.756
239.79	-13.333
240.16	29.268
240.53	-2.632
240.91	-8.696
241.28	15.873
241.65	25.000
242.02	26.027
242.40	25.000
242.77	28.814
243.14	12.121
243.51	10.000
243.89	33.333
244.26	11.494
244.63	32.143
245.00	12.371
245.38	21.649
245.75	13.483
246.12	22.414
246.49	19.008
246.87	28.846
247.24	14.286
247.61	14.912
247.98	17.073
248.36	17.500
248.73	19.737
249.10	22.078
249.47	27.215
249.84	30.065
250.22	16.471
250.59	21.569
250.96	21.596
251.33	23.256
251.70	24.118
252.08	29.442
252.45	26.733
252.82	23.116
253.19	25.346
253.56	16.822
253.94	20.721
254.31	24.348
254.68	27.193
255.05	19.291
255.42	22.707
255.79	24.710
256.16	26.848
256.54	27.239
256.91	25.475
257.28	26.022
257.65	23.221
258.02	25.177
258.39	23.569
258.76	25.275
259.14	26.578
259.51	25.566
259.88	24.399
260.25	22.876
260.62	28.819
260.99	21.356
261.36	28.082
261.73	23.101
262.10	24.924
262.47	23.006
262.85	24.138
263.22	22.462
263.59	22.430
263.96	27.019
264.33	25.455
264.70	24.405
265.07	24.702
265.44	26.346
265.81	27.119
266.18	25.410
266.55	26.221
266.92	28.756
267.29	25.849
267.66	28.133
268.03	28.010
268.40	24.543
268.77	32.353
269.14	28.537
269.51	26.221
269.88	21.945
270.25	25.510
270.62	23.659
270.99	23.018
271.36	25.917
271.73	26.056
272.10	25.547
272.47	23.404
272.84	21.040
273.21	23.666
273.58	24.096
273.95	24.714
274.32	24.711
274.69	23.077
275.06	28.125
275.43	24.717
275.80	25.386
276.17	24.828
276.54	22.912
276.91	25.439
277.28	22.707
277.65	25.413
278.02	25.745
278.39	25.164
278.76	25.577
279.13	21.162
279.50	27.521
279.87	25.486
280.23	22.366
280.60	24.756
280.97	22.222
281.34	22.500
281.71	25.667
282.08	21.677
282.45	22.701
282.82	21.815
283.19	25.532
283.56	24.085
283.92	23.340
284.29	19.808
284.66	22.287
285.03	25.540
285.40	23.819
285.77	20.211
286.14	24.007
286.51	24.908
286.87	21.389
287.24	24.125
287.61	22.399
287.98	24.737
288.35	22.184
288.72	22.942
289.08	22.222
289.45	20.738
289.82	24.476
290.19	20.478
290.56	20.412
290.93	21.549
291.29	19.569
291.66	20.630
292.03	20.574
292.40	20.968
292.77	20.734
293.13	18.994
293.50	16.844
293.87	19.542
294.24	19.938
294.60	20.268
294.97	20.089
295.34	19.479
295.71	17.437
296.08	19.133
296.44	17.496
296.81	19.444
297.18	17.826
297.55	21.274
297.91	20.000
298.28	19.129
298.65	18.046
299.02	17.520
299.38	17.100
299.75	17.241
300.12	17.408
300.48	17.128
300.85	18.124
301.22	19.481
301.59	15.921
301.95	18.228
302.32	19.066
302.69	17.413
303.05	17.327
303.42	16.189
303.79	18.458
304.15	18.519
304.52	14.863
304.89	17.076
305.25	16.828
305.62	15.636
305.99	14.971
306.35	16.069
306.72	15.861
307.09	16.078
307.45	17.222
307.82	16.551
308.19	17.886
308.55	16.794
308.92	18.301
309.29	16.760
309.65	15.716
310.02	16.612
310.38	16.026
310.75	18.142
311.12	16.469
311.48	17.603
311.85	17.382
312.22	15.717
312.58	17.197
312.95	16.756
313.31	16.874
313.68	16.126
314.05	15.510
314.41	16.804
314.78	17.423
315.14	18.499
315.51	17.081
315.87	17.520
316.24	17.897
316.61	19.488
316.97	19.444
317.34	17.676
317.70	17.686
318.07	18.558
318.43	19.706
318.80	18.466
319.16	19.238
319.53	20.228
319.89	21.260
320.26	19.838
320.62	20.461
320.99	20.251
321.35	19.322
321.72	21.911
322.08	21.752
322.45	22.437
322.81	21.316
323.18	20.805
323.54	21.911
323.91	22.103
324.27	21.582
324.64	23.502
325.00	24.088
325.37	24.151
325.73	22.303
326.10	23.797
326.46	25.471
326.83	24.759
327.19	25.283
327.56	25.456
327.92	24.560
328.29	25.446
328.65	25.094
329.01	26.195
329.38	27.005
329.74	24.740
330.11	25.950
330.47	25.325
330.84	25.577
331.20	27.376
331.56	25.556
331.93	27.215
332.29	27.131
332.66	26.335
333.02	26.952
333.38	26.306
333.75	26.099
334.11	25.962
334.48	27.380
334.84	27.747
335.20	26.441
335.57	24.569
335.93	26.107
336.29	27.532
336.66	26.431
337.02	26.115
337.38	25.833
337.75	27.000
338.11	26.781
338.47	26.734
338.84	25.323
339.20	26.691
339.56	26.422
339.93	26.589
340.29	25.780
340.65	27.061
341.02	27.039
341.38	26.637
341.74	26.325
342.11	25.130
342.47	25.712
342.83	26.990
343.20	26.132
343.56	27.304
343.92	25.598
344.28	26.815
344.65	26.425
345.01	26.102
345.37	27.166
345.73	27.029
346.10	26.316
346.46	25.315
346.82	26.268
347.19	25.436
347.55	26.734
347.91	27.023
348.27	25.950
348.63	27.257
349.00	25.349
349.36	27.099
349.72	27.612
350.08	27.377
350.45	26.018
350.81	26.080
351.17	26.303
351.53	26.286
351.89	24.525
352.26	25.840
352.62	25.726
352.98	25.622
353.34	26.651
353.70	27.104
354.07	26.532
354.43	26.421
354.79	26.177
355.15	26.349
355.51	26.899
355.87	26.294
356.24	25.367
356.60	25.384
356.96	27.222
357.32	26.518
357.68	26.192
358.04	26.575
358.40	26.447
358.77	27.033
359.13	26.181
359.49	26.271
359.85	26.365
360.21	25.598
360.57	27.085
360.93	27.005
361.29	25.378
361.66	27.194
362.02	26.894
362.38	26.047
362.74	27.101
363.10	27.314
363.46	26.538
363.82	27.874
364.18	26.642
364.54	26.765
364.90	27.455
365.26	27.001
365.62	28.102
365.98	26.540
366.35	27.604
366.71	28.455
367.07	28.229
367.43	26.600
367.79	27.703
368.15	27.782
368.51	28.041
368.87	27.064
369.23	26.282
369.59	27.770
369.95	28.152
370.31	27.529
370.67	26.866
371.03	27.334
371.39	28.228
371.75	27.253
372.11	27.889
372.47	28.033
372.83	28.105
373.19	28.388
373.55	27.365
373.91	28.798
374.27	29.624
374.63	27.854
374.99	28.936
375.35	27.646
375.71	28.531
376.07	28.371
376.42	28.095
376.78	29.128
377.14	28.301
377.50	28.818
377.86	29.652
378.22	28.781
378.58	28.333
378.94	28.733
379.30	28.634
379.66	28.777
380.02	28.449
380.38	29.215
380.74	27.588
381.09	30.000
381.45	28.440
381.81	30.105
382.17	29.061
382.53	29.169
382.89	30.257
383.25	30.118
383.61	29.573
383.97	28.571
384.32	29.894
384.68	29.474
385.04	29.779
385.40	29.496
385.76	30.189
386.12	31.501
386.48	30.843
386.83	29.867
387.19	30.159
387.55	30.740
387.91	30.196
388.27	29.426
388.62	30.271
388.98	29.896
389.34	30.169
389.70	30.951
390.06	29.201
390.42	30.181
390.77	29.758
391.13	29.950
391.49	30.854
391.85	29.565
392.20	30.006
392.56	30.579
392.92	30.123
393.28	31.132
393.64	31.111
393.99	32.414
394.35	30.108
394.71	30.779
395.07	30.170
395.42	29.872
395.78	31.661
396.14	31.589
396.50	30.881
396.85	30.972
397.21	31.015
397.57	30.721
397.92	30.318
398.28	31.092
398.64	29.458
399.00	31.038
399.35	30.418
399.71	31.476
400.07	31.137
400.42	30.845
400.78	31.721
401.14	31.458
401.49	31.507
401.85	30.896
402.21	31.747
402.57	30.812
402.92	30.238
403.28	31.203
403.63	30.895
403.99	30.166
404.35	31.043
404.70	30.179
405.06	31.492
405.42	31.262
405.77	30.680
406.13	30.908
406.49	30.906
406.84	30.929
407.20	29.561
407.55	30.586
407.91	30.548
408.27	29.892
408.62	30.031
408.98	29.945
409.34	30.545
409.69	30.297
410.05	30.234
410.40	30.247
410.76	30.760
411.11	30.250
411.47	30.506
411.83	30.383
412.18	30.051
412.54	30.462
412.89	29.865
413.25	31.649
413.60	30.683
413.96	30.368
414.31	29.817
414.67	30.725
415.03	29.561
415.38	30.940
415.74	31.531
416.09	30.895
416.45	32.208
416.80	30.668
417.16	31.008
417.51	31.179
417.87	29.987
418.22	31.347
418.58	32.174
418.93	32.665
419.29	30.410
419.64	31.562
420.00	32.368
420.35	30.627
420.71	31.470
421.06	31.246
421.42	30.950
421.77	31.676
422.12	30.704
422.48	31.673
422.83	31.671
423.19	31.659
423.54	31.099
423.90	30.506
424.25	31.401
424.61	32.497
424.96	30.720
425.31	33.276
425.67	32.101
426.02	33.157
426.38	32.999
426.73	32.324
427.09	32.342
427.44	33.176
427.79	32.410
428.15	32.828
428.50	32.889
428.85	32.432
429.21	32.598
429.56	33.531
429.92	33.487
430.27	32.331
430.62	32.044
430.98	33.439
431.33	33.701
431.68	32.705
432.04	33.426
432.39	32.345
432.74	33.013
433.10	33.851
433.45	33.393
433.80	32.850
434.16	32.355
434.51	34.032
434.86	33.566
435.22	33.651
435.57	34.061
435.92	33.054
436.28	32.737
436.63	33.828
436.98	32.851
437.34	32.970
437.69	33.691
438.04	33.846
438.39	33.965
438.75	33.212
439.10	33.447
439.45	34.693
439.81	33.945
440.16	34.323
440.51	34.627
440.86	35.589
441.22	33.428
441.57	34.437
441.92	34.837
442.27	35.144
442.63	35.225
442.98	34.061
443.33	33.945
443.68	34.748
444.03	34.277
444.39	35.071
444.74	34.504
445.09	34.911
445.44	34.758
445.79	35.740
446.15	34.141
446.50	34.054
446.85	34.750
447.20	33.889
447.55	35.156
447.91	35.984
448.26	35.572
448.61	34.657
448.96	36.030
449.31	34.566
449.66	34.843
450.02	35.083
450.37	35.566
450.72	34.593
451.07	35.823
451.42	34.956
451.77	35.383
452.12	34.091
452.47	35.029
452.83	35.395
453.18	35.294
453.53	35.841
453.88	35.458
454.23	35.710
454.58	35.579
454.93	35.374
455.28	34.159
455.63	34.904
455.98	35.598
456.34	35.696
456.69	34.943
457.04	36.106
457.39	35.662
457.74	35.248
458.09	35.021
458.44	34.582
458.79	34.958
459.14	35.755
459.49	36.060
459.84	34.800
460.19	34.284
460.54	35.086
460.89	35.000
461.24	35.031
461.59	35.036
461.94	34.969
462.29	35.766
462.64	36.146
462.99	34.597
463.34	34.353
463.69	34.620
464.04	35.169
464.39	34.384
464.74	34.663
465.09	35.558
465.44	35.026
465.79	34.637
466.14	34.778
466.49	34.963
466.84	35.455
467.19	35.482
467.54	34.100
467.89	34.744
468.24	34.611
468.59	33.841
468.94	32.952
469.29	34.361
469.64	34.860
469.99	34.478
470.34	34.198
470.68	35.048
471.03	34.820
471.38	34.736
471.73	34.384
472.08	33.921
472.43	34.228
472.78	34.476
473.13	35.102
473.48	34.202
473.83	34.247
474.17	34.585
474.52	35.035
474.87	33.697
475.22	34.411
475.57	34.387
475.92	34.778
476.27	34.866
476.61	34.722
476.96	33.129
477.31	33.964
477.66	34.494
478.01	34.250
478.36	33.170
478.70	34.475
479.05	33.791
479.40	33.810
479.75	33.733
480.10	34.204
480.45	33.000
480.79	34.441
481.14	34.375
481.49	33.695
481.84	33.784
482.19	34.659
482.53	33.813
482.88	32.506
483.23	33.253
483.58	33.255
483.92	33.156
484.27	32.543
484.62	33.886
484.97	32.504
485.31	32.262
485.66	32.402
486.01	32.528
486.36	32.582
486.70	32.739
487.05	32.633
487.40	32.187
487.75	32.479
488.09	32.293
488.44	32.325
488.79	32.424
489.13	32.412
489.48	32.621
489.83	32.466
490.17	31.865
490.52	32.102
490.87	31.559
491.22	33.047
491.56	32.448
491.91	31.453
492.26	33.058
492.60	32.534
492.95	32.858
493.30	32.145
493.64	32.613
493.99	32.464
494.34	31.117
494.68	32.238
495.03	31.971
495.37	32.385
495.72	32.155
496.07	31.951
496.41	31.934
496.76	32.151
497.11	31.160
497.45	31.790
497.80	31.332
498.14	31.942
498.49	31.386
498.84	31.537
499.18	31.978
499.53	31.796
499.87	30.934
500.22	31.602
500.56	32.224
500.91	31.526
501.26	30.845
501.60	31.727
501.95	30.907
502.29	31.671
502.64	31.998
502.98	30.390
503.33	30.500
503.67	31.422
504.02	30.938
504.36	31.618
504.71	30.808
505.06	31.002
505.40	30.457
505.75	29.897
506.09	30.664
506.44	31.468
506.78	30.663
507.13	30.300
507.47	30.601
507.82	30.609
508.16	31.484
508.51	30.535
508.85	29.723
509.19	29.803
509.54	30.777
509.88	30.636
510.23	31.522
510.57	30.786
510.92	28.998
511.26	29.733
511.61	29.758
511.95	29.863
512.30	29.490
512.64	30.440
512.98	29.646
513.33	29.491
513.67	29.733
514.02	30.606
514.36	30.457
514.70	30.653
515.05	30.787
515.39	29.693
515.74	31.377
516.08	29.229
516.42	30.448
516.77	30.427
517.11	30.030
517.46	30.580
517.80	28.784
518.14	29.516
518.49	29.087
518.83	30.073
519.17	28.745
519.52	28.774
519.86	28.391
520.20	28.615
520.55	28.518
520.89	29.987
521.23	29.069
521.58	28.896
521.92	30.513
522.26	29.148
522.61	29.351
522.95	29.603
523.29	29.733
523.64	28.780
523.98	30.331
524.32	28.351
524.66	30.346
525.01	28.442
525.35	29.488
525.69	28.956
526.04	29.299
526.38	29.053
526.72	27.861
527.06	28.599
527.41	28.628
527.75	27.413
528.09	29.169
528.43	28.697
528.78	27.657
529.12	28.710
529.46	28.525
529.80	29.006
530.15	28.647
530.49	27.946
530.83	28.523
531.17	28.274
531.51	28.112
531.86	26.377
532.20	27.697
532.54	28.114
532.88	27.036
533.22	27.890
533.57	27.392
533.91	27.676
534.25	28.190
534.59	28.159
534.93	27.061
535.27	27.348
535.62	26.442
535.96	27.658
536.30	28.232
536.64	26.465
536.98	27.038
537.32	27.525
537.66	28.261
538.01	27.552
538.35	26.699
538.69	26.964
539.03	26.042
539.37	26.178
539.71	26.994
540.05	27.427
540.39	26.662
540.73	26.848
541.07	26.381
541.42	27.957
541.76	27.873
542.10	24.914
542.44	27.172
542.78	25.877
543.12	26.168
543.46	26.287
543.80	26.579
544.14	25.367
544.48	25.983
544.82	26.042
545.16	26.844
545.50	27.704
545.84	26.771
546.18	26.170
546.52	25.739
546.86	25.809
547.20	25.966
547.54	25.795
547.88	25.951
548.22	26.627
548.56	25.528
548.90	26.415
549.24	25.344
549.58	25.106
549.92	25.661
550.26	26.081
550.60	25.651
550.94	26.214
551.28	25.425
551.62	25.615
551.96	24.812
552.30	25.804
552.64	24.894
552.98	24.754
553.32	24.536
553.66	25.617
554.00	25.328
554.34	25.628
554.68	24.779
555.02	25.893
555.36	25.056
555.69	24.029
556.03	25.054
556.37	24.698
556.71	25.487
557.05	24.907
557.39	24.164
557.73	24.363
558.07	25.038
558.41	25.421
558.75	24.474
559.08	24.507
559.42	24.365
559.76	25.540
560.10	24.618
560.44	23.753
560.78	24.196
561.12	24.824
561.45	25.018
561.79	24.930
562.13	24.698
562.47	24.604
562.81	23.775
563.15	24.683
563.48	24.187
563.82	24.777
564.16	23.607
564.50	23.243
564.84	23.628
565.17	23.340
565.51	25.273
565.85	24.554
566.19	24.204
566.52	25.201
566.86	23.972
567.20	24.471
567.54	23.601
567.88	24.605
568.21	24.604
568.55	23.750
568.89	24.487
569.23	23.014
569.56	23.555
569.90	24.320
570.24	22.441
570.57	23.345
570.91	23.702
571.25	23.183
571.59	23.108
571.92	22.815
572.26	22.615
572.60	23.132
572.93	22.435
573.27	22.257
573.61	22.047
573.95	22.720
574.28	22.537
574.62	22.044
574.96	22.364
575.29	22.085
575.63	21.586
575.97	21.903
576.30	22.013
576.64	21.457
576.98	22.368
577.31	22.463
577.65	22.569
577.98	22.232
578.32	21.877
578.66	21.878
578.99	22.181
579.33	21.034
579.67	21.524
580.00	21.544
580.34	21.940
580.67	21.934
581.01	22.166
581.35	21.598
581.68	21.354
582.02	21.912
582.35	21.727
582.69	21.776
583.02	21.876
583.36	21.576
583.70	21.755
584.03	21.685
584.37	22.727
584.70	21.593
585.04	21.295
585.37	21.253
585.71	21.674
586.04	21.130
586.38	20.886
586.72	21.865
587.05	21.433
587.39	21.582
587.72	22.526
588.06	21.644
588.39	21.475
588.73	21.642
589.06	22.146
589.40	21.569
589.73	22.234
590.07	21.639
590.40	22.098
590.73	21.993
591.07	21.332
591.40	21.238
591.74	21.403
592.07	22.032
592.41	22.129
592.74	21.585
593.08	21.062
593.41	20.988
593.75	21.590
594.08	21.387
594.41	21.507
594.75	20.992
595.08	21.604
595.42	21.936
595.75	20.991
596.09	21.228
596.42	21.496
596.75	22.069
597.09	21.321
597.42	21.906
597.75	21.301
598.09	20.643
598.42	20.397
598.76	20.678
599.09	21.474
599.42	20.955
599.76	20.730
600.09	21.267
600.42	20.622
600.76	20.951
601.09	20.725
601.42	21.347
601.76	20.842
602.09	20.627
602.42	20.851
602.76	20.840
603.09	20.806
603.42	21.530
603.76	21.048
604.09	20.170
604.42	21.531
604.76	20.828
605.09	20.887
605.42	20.497
605.75	20.753
606.09	20.382
606.42	20.434
606.75	20.996
607.09	21.275
607.42	20.425
607.75	20.870
608.08	20.261
608.42	20.375
608.75	21.349
609.08	19.831
609.41	20.508
609.75	20.817
610.08	20.969
610.41	20.435
610.74	20.088
611.07	20.258
611.41	20.654
611.74	21.002
612.07	20.450
612.40	20.514
612.73	20.000
613.07	21.035
613.40	21.444
613.73	19.922
614.06	21.480
614.39	20.869
614.72	20.560
615.06	20.950
615.39	20.087
615.72	20.452
616.05	20.838
616.38	18.974
616.71	20.428
617.05	21.124
617.38	20.490
617.71	20.126
618.04	20.762
618.37	21.185
618.70	20.000
619.03	21.319
619.36	20.405
619.69	20.318
620.03	21.256
620.36	20.458
620.69	20.271
621.02	20.336
621.35	20.913
621.68	20.918
622.01	21.083
622.34	20.351
622.67	20.741
623.00	20.674
623.33	20.655
623.66	20.494
623.99	21.407
624.32	20.989
624.65	19.925
624.99	20.918
625.32	20.546
625.65	21.367
625.98	20.548
626.31	20.865
626.64	21.231
626.97	19.808
627.30	20.928
627.63	21.317
627.96	19.766
628.29	19.796
628.62	21.042
628.95	20.541
629.28	20.363
629.61	19.840
629.94	21.701
630.26	20.356
630.59	21.540
630.92	21.641
631.25	20.205
631.58	20.815
631.91	20.943
632.24	21.330
632.57	21.023
632.90	19.573
