SpectraSuite Data File
++++++++++++++++++++++++++++++++++++
Date: Fri May 15 21:06:16 PDT 2015
User: schluterlab
Dark Spectrum Present: Yes
Reference Spectrum Present: Yes
Number of Sampled Component Spectra: 1
Spectrometers: USB2E3373
Integration Time (usec): 3000 (USB2E3373)
Spectra Averaged: 3 (USB2E3373)
Boxcar Smoothing: 0 (USB2E3373)
Correct for Electrical Dark: No (USB2E3373)
Strobe/Lamp Enabled: No (USB2E3373)
Correct for Detector Non-linearity: No (USB2E3373)
Correct for Stray Light: No (USB2E3373)
Number of Pixels in Processed Spectrum: 2048
>>>>>Begin Processed Spectral Data<<<<<
178.53	0.000
178.91	0.000
179.29	-62.500
179.67	-650.000
180.04	42.857
180.42	-125.000
180.80	-700.000
181.18	166.667
181.56	750.000
181.94	0.000
182.31	300.000
182.69	-180.000
183.07	-366.667
183.45	-60.000
183.83	133.333
184.20	0.000
184.58	111.111
184.96	100.000
185.34	-133.333
185.72	-250.000
186.09	76.923
186.47	-900.000
186.85	250.000
187.23	133.333
187.61	-500.000
187.98	-200.000
188.36	0.000
188.74	-233.333
189.12	0.000
189.49	-11.111
189.87	0.000
190.25	21.429
190.63	-300.000
191.00	-133.333
191.38	-10.526
191.76	-150.000
192.14	200.000
192.51	-200.000
192.89	-11.111
193.27	-142.857
193.65	216.667
194.02	163.636
194.40	10.000
194.78	-175.000
195.15	33.333
195.53	-125.000
195.91	250.000
196.29	-225.000
196.66	115.385
197.04	214.286
197.42	-44.444
197.79	-533.333
198.17	-84.615
198.55	900.000
198.92	-233.333
199.30	-1400.000
199.68	-200.000
200.05	-300.000
200.43	0.000
200.81	-466.667
201.18	166.667
201.56	1500.000
201.94	-500.000
202.31	166.667
202.69	-180.000
203.07	225.000
203.44	200.000
203.82	0.000
204.19	-14.286
204.57	-433.333
204.95	150.000
205.32	20.000
205.70	-57.143
206.08	75.000
206.45	100.000
206.83	85.714
207.20	-57.143
207.58	-100.000
207.96	-300.000
208.33	-130.000
208.71	-150.000
209.08	-183.333
209.46	-1200.000
209.84	-120.000
210.21	-1700.000
210.59	128.571
210.96	-150.000
211.34	-300.000
211.71	26.667
212.09	-228.571
212.46	-900.000
212.84	0.000
213.22	0.000
213.59	450.000
213.97	-38.462
214.34	-63.636
214.72	33.333
215.09	350.000
215.47	7.692
215.84	-54.545
216.22	-333.333
216.59	-75.000
216.97	250.000
217.34	25.000
217.72	-160.000
218.09	-62.500
218.47	87.500
218.84	-1100.000
219.22	-22.222
219.59	-80.000
219.97	500.000
220.34	100.000
220.72	-28.571
221.09	-175.000
221.47	-450.000
221.84	-400.000
222.22	-100.000
222.59	9.091
222.97	41.667
223.34	-433.333
223.72	-35.714
224.09	33.333
224.46	14.286
224.84	433.333
225.21	-20.000
225.59	-13.333
225.96	-250.000
226.34	175.000
226.71	-71.429
227.08	-133.333
227.46	-62.500
227.83	-150.000
228.21	66.667
228.58	-45.455
228.95	-125.000
229.33	80.000
229.70	0.000
230.08	-112.500
230.45	-171.429
230.82	-14.286
231.20	-46.667
231.57	-35.714
231.95	28.571
232.32	-170.000
232.69	-7.143
233.07	-66.667
233.44	-240.000
233.81	-50.000
234.19	-33.333
234.56	-23.529
234.93	650.000
235.31	-225.000
235.68	-80.000
236.05	-23.077
236.43	-10.000
236.80	11.765
237.17	-3.125
237.55	10.000
237.92	-11.111
238.29	-19.444
238.67	-36.667
239.04	0.000
239.41	-39.024
239.79	-16.667
240.16	-19.512
240.53	-23.684
240.91	-13.043
241.28	6.349
241.65	8.929
242.02	17.808
242.40	8.333
242.77	1.695
243.14	0.000
243.51	-1.250
243.89	20.690
244.26	1.149
244.63	-3.571
245.00	5.155
245.38	-1.031
245.75	-6.742
246.12	4.310
246.49	4.959
246.87	7.692
247.24	-1.681
247.61	0.000
247.98	-0.813
248.36	6.250
248.73	7.237
249.10	4.545
249.47	1.899
249.84	12.418
250.22	2.941
250.59	3.922
250.96	13.615
251.33	5.814
251.70	11.176
252.08	7.614
252.45	5.941
252.82	4.020
253.19	12.442
253.56	-0.467
253.94	7.207
254.31	7.391
254.68	8.772
255.05	5.118
255.42	5.240
255.79	8.108
256.16	8.560
256.54	8.582
256.91	6.464
257.28	8.178
257.65	5.618
258.02	2.482
258.39	5.387
258.76	9.524
259.14	9.967
259.51	9.385
259.88	8.935
260.25	7.190
260.62	7.986
260.99	3.390
261.36	6.849
261.73	5.696
262.10	6.687
262.47	8.282
262.85	5.329
263.22	3.077
263.59	7.165
263.96	11.801
264.33	9.091
264.70	5.655
265.07	5.655
265.44	9.348
265.81	4.237
266.18	9.563
266.55	10.797
266.92	6.995
267.29	11.749
267.66	6.394
268.03	5.759
268.40	4.439
268.77	8.021
269.14	8.393
269.51	8.740
269.88	6.484
270.25	5.612
270.62	5.366
270.99	7.673
271.36	5.134
271.73	7.512
272.10	6.569
272.47	7.565
272.84	6.436
273.21	9.049
273.58	8.916
273.95	7.551
274.32	6.928
274.69	5.656
275.06	7.366
275.43	7.029
275.80	8.389
276.17	6.667
276.54	5.996
276.91	6.798
277.28	8.515
277.65	7.438
278.02	4.894
278.39	7.221
278.76	7.757
279.13	4.357
279.50	7.143
279.87	9.071
280.23	6.667
280.60	8.772
280.97	7.071
281.34	6.923
281.71	8.624
282.08	2.863
282.45	6.849
282.82	6.178
283.19	6.963
283.56	5.202
283.92	6.831
284.29	7.692
284.66	7.171
285.03	7.662
285.40	5.671
285.77	5.624
286.14	6.318
286.51	8.672
286.87	7.678
287.24	6.814
287.61	6.526
287.98	8.947
288.35	9.359
288.72	9.807
289.08	8.160
289.45	9.315
289.82	9.615
290.19	7.509
290.56	5.660
290.93	7.071
291.29	8.320
291.66	8.976
292.03	7.177
292.40	7.903
292.77	9.091
293.13	8.279
293.50	8.346
293.87	8.550
294.24	9.119
294.60	11.475
294.97	9.821
295.34	8.589
295.71	7.303
296.08	9.865
296.44	7.112
296.81	9.306
297.18	7.536
297.55	9.350
297.91	11.370
298.28	11.609
298.65	11.126
299.02	9.704
299.38	6.840
299.75	9.931
300.12	9.031
300.48	9.881
300.85	10.266
301.22	10.909
301.59	10.789
301.95	11.899
302.32	12.062
302.69	10.697
303.05	10.025
303.42	10.959
303.79	11.682
304.15	11.589
304.52	9.037
304.89	8.772
305.25	10.775
305.62	9.568
305.99	10.994
306.35	10.751
306.72	10.686
307.09	9.692
307.45	11.596
307.82	11.343
308.19	11.614
308.55	10.905
308.92	12.092
309.29	9.162
309.65	10.980
310.02	11.991
310.38	12.294
310.75	11.803
311.12	11.948
311.48	11.029
311.85	11.099
312.22	10.549
312.58	10.934
312.95	11.419
313.31	10.559
313.68	10.681
314.05	11.122
314.41	10.722
314.78	11.443
315.14	11.305
315.51	11.698
315.87	10.348
316.24	12.437
316.61	12.795
316.97	13.095
317.34	12.109
317.70	12.141
318.07	11.154
318.43	13.235
318.80	11.553
319.16	10.937
319.53	11.586
319.89	12.303
320.26	12.551
320.62	13.842
320.99	12.213
321.35	12.230
321.72	13.292
322.08	13.192
322.45	12.995
322.81	13.458
323.18	12.659
323.54	11.969
323.91	13.048
324.27	12.500
324.64	13.577
325.00	14.599
325.37	13.774
325.73	12.965
326.10	14.078
326.46	14.439
326.83	14.611
327.19	13.339
327.56	13.727
327.92	14.173
328.29	13.304
328.65	15.000
329.01	13.327
329.38	14.101
329.74	12.937
330.11	14.365
330.47	13.358
330.84	13.365
331.20	15.209
331.56	13.241
331.93	13.881
332.29	14.665
332.66	12.489
333.02	13.197
333.38	12.374
333.75	13.919
334.11	12.802
334.48	14.053
334.84	12.912
335.20	13.449
335.57	13.781
335.93	13.731
336.29	12.891
336.66	12.262
337.02	12.454
337.38	11.019
337.75	11.727
338.11	12.894
338.47	12.318
338.84	14.140
339.20	12.249
339.56	12.294
339.93	12.802
340.29	11.651
340.65	12.993
341.02	12.766
341.38	12.566
341.74	10.512
342.11	10.919
342.47	12.189
342.83	12.370
343.20	11.237
343.56	12.522
343.92	10.717
344.28	13.322
344.65	12.349
345.01	11.063
345.37	11.270
345.73	11.130
346.10	11.821
346.46	12.111
346.82	10.966
347.19	12.053
347.55	11.612
347.91	12.298
348.27	11.641
348.63	12.947
349.00	11.157
349.36	11.388
349.72	12.023
350.08	11.230
350.45	11.732
350.81	9.884
351.17	10.423
351.53	12.163
351.89	11.561
352.26	10.000
352.62	12.419
352.98	10.843
353.34	10.386
353.70	11.974
354.07	11.774
354.43	11.129
354.79	10.900
355.15	12.063
355.51	12.104
355.87	10.437
356.24	10.767
356.60	10.671
356.96	12.143
357.32	11.661
357.68	11.259
358.04	11.228
358.40	11.093
358.77	11.962
359.13	11.930
359.49	11.094
359.85	11.700
360.21	10.606
360.57	10.252
360.93	11.498
361.29	10.423
361.66	11.677
362.02	11.894
362.38	12.262
362.74	11.355
363.10	12.265
363.46	11.490
363.82	12.772
364.18	11.956
364.54	10.882
364.90	10.538
365.26	11.790
365.62	12.409
365.98	12.830
366.35	11.872
366.71	11.234
367.07	12.264
367.43	11.790
367.79	11.378
368.15	10.768
368.51	11.362
368.87	9.835
369.23	11.625
369.59	11.808
369.95	11.804
370.31	12.066
370.67	11.194
371.03	11.202
371.39	11.306
371.75	11.502
372.11	11.056
372.47	11.834
372.83	10.717
373.19	11.412
373.55	11.480
373.91	11.519
374.27	11.694
374.63	11.342
374.99	12.128
375.35	12.047
375.71	11.399
376.07	10.815
376.42	11.293
376.78	12.148
377.14	11.578
377.50	10.757
377.86	11.647
378.22	10.976
378.58	11.795
378.94	10.460
379.30	11.541
379.66	11.787
380.02	11.527
380.38	11.260
380.74	10.712
381.09	12.147
381.45	11.254
381.81	11.659
382.17	10.787
382.53	11.056
382.89	11.111
383.25	11.014
383.61	11.707
383.97	10.159
384.32	10.381
384.68	11.331
385.04	10.907
385.40	10.579
385.76	11.321
386.12	10.996
386.48	10.792
386.83	10.399
387.19	11.355
387.55	11.230
387.91	10.208
388.27	10.562
388.62	10.321
388.98	9.515
389.34	9.994
389.70	10.938
390.06	10.006
390.42	10.557
390.77	9.810
391.13	9.710
391.49	10.414
391.85	10.071
392.20	9.667
392.56	9.472
392.92	10.335
393.28	9.316
393.64	9.489
393.99	10.470
394.35	9.614
394.71	9.770
395.07	9.428
395.42	9.047
395.78	9.511
396.14	9.269
396.50	10.019
396.85	8.950
397.21	9.273
397.57	8.840
397.92	9.587
398.28	9.253
398.64	8.554
399.00	9.650
399.35	8.296
399.71	9.018
400.07	9.432
400.42	8.323
400.78	8.267
401.14	8.469
401.49	8.934
401.85	8.349
402.21	8.735
402.57	8.563
402.92	7.528
403.28	8.897
403.63	7.692
403.99	7.270
404.35	7.870
404.70	7.202
405.06	7.521
405.42	7.707
405.77	6.798
406.13	7.567
406.49	7.460
406.84	7.090
407.20	7.164
407.55	7.598
407.91	6.818
408.27	7.075
408.62	7.815
408.98	7.147
409.34	8.240
409.69	6.266
410.05	6.158
410.40	7.469
410.76	7.298
411.11	7.500
411.47	6.838
411.83	5.901
412.18	6.306
412.54	6.679
412.89	6.342
413.25	7.280
413.60	6.646
413.96	5.644
414.31	7.256
414.67	6.414
415.03	6.658
415.38	6.723
415.74	7.101
416.09	7.054
416.45	6.415
416.80	7.799
417.16	7.390
417.51	7.395
417.87	6.128
418.22	7.189
418.58	7.358
418.93	7.085
419.29	6.210
419.64	6.805
420.00	8.249
420.35	7.463
420.71	7.655
421.06	7.551
421.42	8.173
421.77	7.688
422.12	7.775
422.48	7.851
422.83	7.947
423.19	7.788
423.54	7.701
423.90	8.127
424.25	8.381
424.61	8.078
424.96	8.595
425.31	9.417
425.67	8.627
426.02	8.834
426.38	9.455
426.73	9.080
427.09	9.367
427.44	9.471
427.79	9.782
428.15	10.133
428.50	9.691
428.85	9.091
429.21	10.696
429.56	10.404
429.92	10.889
430.27	10.677
430.62	9.514
430.98	10.297
431.33	10.620
431.68	10.204
432.04	10.397
432.39	10.268
432.74	10.583
433.10	11.552
433.45	10.633
433.80	10.853
434.16	10.859
434.51	11.452
434.86	11.034
435.22	11.554
435.57	11.978
435.92	11.796
436.28	11.032
436.63	12.037
436.98	11.645
437.34	11.555
437.69	12.761
438.04	12.365
438.39	11.668
438.75	11.475
439.10	12.337
439.45	12.295
439.81	12.049
440.16	12.411
440.51	12.896
440.86	13.051
441.22	12.387
441.57	12.914
441.92	12.592
442.27	12.749
442.63	12.848
442.98	12.809
443.33	13.578
443.68	13.210
444.03	13.313
444.39	13.428
444.74	14.103
445.09	13.307
445.44	13.846
445.79	13.564
446.15	13.711
446.50	13.089
446.85	13.656
447.20	13.816
447.55	13.728
447.91	14.100
448.26	14.058
448.61	14.393
448.96	13.884
449.31	13.353
449.66	14.053
450.02	14.489
450.37	13.397
450.72	13.803
451.07	13.924
451.42	14.045
451.77	14.587
452.12	14.234
452.47	14.231
452.83	15.194
453.18	14.105
453.53	15.234
453.88	15.422
454.23	14.567
454.58	14.610
454.93	14.433
455.28	13.333
455.63	14.693
455.98	14.672
456.34	14.304
456.69	15.756
457.04	14.934
457.39	14.399
457.74	14.268
458.09	13.773
458.44	14.921
458.79	14.398
459.14	15.046
459.49	14.925
459.84	14.946
460.19	15.291
460.54	14.487
460.89	14.318
461.24	15.466
461.59	15.202
461.94	14.591
462.29	15.501
462.64	15.681
462.99	14.624
463.34	14.325
463.69	14.221
464.04	15.678
464.39	15.282
464.74	14.479
465.09	15.346
465.44	16.157
465.79	14.683
466.14	15.964
466.49	14.549
466.84	15.645
467.19	14.518
467.54	15.709
467.89	14.972
468.24	15.389
468.59	15.619
468.94	15.111
469.29	16.262
469.64	16.405
469.99	16.188
470.34	14.676
470.68	15.809
471.03	16.985
471.38	15.478
471.73	16.457
472.08	15.807
472.43	15.168
472.78	15.147
473.13	15.374
473.48	15.179
473.83	14.570
474.17	16.386
474.52	16.209
474.87	15.939
475.22	15.314
475.57	15.923
475.92	16.237
476.27	16.356
476.61	15.972
476.96	15.561
477.31	16.009
477.66	15.618
478.01	15.665
478.36	15.632
478.70	15.824
479.05	15.714
479.40	16.004
479.75	15.798
480.10	15.873
480.45	15.200
480.79	16.314
481.14	16.342
481.49	15.665
481.84	16.071
482.19	15.856
482.53	16.163
482.88	15.847
483.23	15.547
483.58	16.038
483.92	15.973
484.27	15.861
484.62	15.912
484.97	15.299
485.31	15.499
485.66	15.502
486.01	15.321
486.36	15.423
486.70	15.441
487.05	15.323
487.40	16.107
487.75	15.634
488.09	15.729
488.44	15.406
488.79	15.876
489.13	15.946
489.48	15.861
489.83	15.919
490.17	15.775
490.52	15.012
490.87	16.150
491.22	15.950
491.56	16.082
491.91	15.535
492.26	15.800
492.60	15.979
492.95	16.331
493.30	15.291
493.64	15.521
493.99	15.700
494.34	15.146
494.68	15.476
495.03	15.377
495.37	15.702
495.72	16.002
496.07	16.098
496.41	15.094
496.76	16.168
497.11	15.277
497.45	16.229
497.80	16.044
498.14	15.549
498.49	15.846
498.84	16.267
499.18	15.663
499.53	15.923
499.87	15.564
500.22	15.826
500.56	16.188
500.91	15.211
501.26	16.065
501.60	16.085
501.95	16.448
502.29	15.593
502.64	16.602
502.98	15.935
503.33	15.562
503.67	16.145
504.02	15.982
504.36	16.477
504.71	15.707
505.06	15.954
505.40	15.584
505.75	15.979
506.09	16.320
506.44	16.478
506.78	16.684
507.13	15.615
507.47	15.822
507.82	15.438
508.16	15.637
508.51	16.212
508.85	16.902
509.19	15.593
509.54	16.944
509.88	15.912
510.23	16.192
510.57	16.782
510.92	15.192
511.26	16.312
511.61	16.007
511.95	16.548
512.30	16.519
512.64	16.861
512.98	16.676
513.33	17.236
513.67	16.600
514.02	17.563
514.36	16.686
514.70	16.725
515.05	16.510
515.39	16.765
515.74	17.365
516.08	16.378
516.42	17.138
516.77	16.910
517.11	16.558
517.46	17.774
517.80	16.627
518.14	17.024
518.49	17.188
518.83	16.768
519.17	16.798
519.52	16.282
519.86	16.987
520.20	16.829
520.55	16.010
520.89	17.064
521.23	16.086
521.58	17.666
521.92	16.987
522.26	17.241
522.61	16.948
522.95	17.219
523.29	16.391
523.64	17.726
523.98	17.369
524.32	16.108
524.66	16.837
525.01	17.338
525.35	17.110
525.69	16.633
526.04	15.608
526.38	17.899
526.72	16.024
527.06	16.667
527.41	16.821
527.75	16.890
528.09	16.013
528.43	16.610
528.78	16.238
529.12	16.194
529.46	16.244
529.80	16.846
530.15	16.370
530.49	16.431
530.83	16.074
531.17	16.253
531.51	16.553
531.86	14.888
532.20	15.727
532.54	16.201
532.88	16.701
533.22	16.667
533.57	15.924
533.91	14.948
534.25	16.536
534.59	15.715
534.93	15.104
535.27	15.799
535.62	15.165
535.96	16.895
536.30	16.821
536.64	16.816
536.98	14.913
537.32	15.932
537.66	16.199
538.01	16.014
538.35	15.395
538.69	15.912
539.03	15.858
539.37	15.680
539.71	15.815
540.05	15.547
540.39	15.789
540.73	16.667
541.07	14.572
541.42	16.734
541.76	15.829
542.10	15.348
542.44	15.566
542.78	14.866
543.12	14.904
543.46	16.273
543.80	14.990
544.14	14.753
544.48	15.656
544.82	15.584
545.16	15.232
545.50	16.021
545.84	16.289
546.18	16.028
546.52	15.357
546.86	15.888
547.20	15.308
547.54	14.982
547.88	15.829
548.22	15.516
548.56	16.161
548.90	15.633
549.24	15.427
549.58	16.079
549.92	14.939
550.26	15.604
550.60	15.316
550.94	15.907
551.28	15.765
551.62	15.385
551.96	16.241
552.30	15.716
552.64	14.598
552.98	16.385
553.32	15.050
553.66	15.167
554.00	15.985
554.34	15.583
554.68	14.971
555.02	15.774
555.36	15.408
555.69	14.652
556.03	14.989
556.37	15.445
556.71	15.812
557.05	16.033
557.39	15.316
557.73	16.042
558.07	15.686
558.41	15.084
558.75	14.731
559.08	15.445
559.42	15.476
559.76	15.612
560.10	14.297
560.44	14.818
560.78	15.245
561.12	15.938
561.45	14.968
561.79	15.406
562.13	16.253
562.47	15.468
562.81	14.914
563.15	15.656
563.48	15.488
563.82	15.649
564.16	15.181
564.50	15.270
564.84	15.261
565.17	14.755
565.51	15.301
565.85	15.432
566.19	14.788
566.52	14.879
566.86	15.231
567.20	14.134
567.54	14.538
567.88	15.407
568.21	14.876
568.55	14.076
568.89	14.887
569.23	13.722
569.56	13.748
569.90	14.251
570.24	13.844
570.57	14.255
570.91	14.535
571.25	13.713
571.59	13.485
571.92	13.363
572.26	13.436
572.60	13.767
572.93	13.775
573.27	13.229
573.61	13.395
573.95	13.244
574.28	12.897
574.62	13.221
574.96	13.164
575.29	13.175
575.63	12.698
575.97	12.470
576.30	12.960
576.64	12.848
576.98	13.565
577.31	12.853
577.65	13.096
577.98	13.060
578.32	13.097
578.66	12.787
578.99	12.658
579.33	12.616
579.67	12.844
580.00	12.886
580.34	13.234
580.67	12.809
581.01	13.256
581.35	13.028
581.68	13.285
582.02	13.158
582.35	12.981
582.69	13.050
583.02	13.395
583.36	13.461
583.70	13.266
584.03	13.539
584.37	13.834
584.70	13.434
585.04	13.472
585.37	13.514
585.71	13.404
586.04	13.717
586.38	13.550
586.72	13.945
587.05	14.269
587.39	14.090
587.72	13.778
588.06	13.756
588.39	13.586
588.73	13.767
589.06	14.286
589.40	14.103
589.73	14.677
590.07	13.973
590.40	14.551
590.73	13.756
591.07	13.995
591.40	14.159
591.74	14.570
592.07	14.471
592.41	14.664
592.74	14.377
593.08	13.622
593.41	14.662
593.75	13.935
594.08	13.972
594.41	14.119
594.75	13.855
595.08	14.226
595.42	13.912
595.75	13.932
596.09	14.269
596.42	14.345
596.75	14.742
597.09	14.442
597.42	14.273
597.75	13.834
598.09	13.671
598.42	13.673
598.76	13.170
599.09	13.982
599.42	13.831
599.76	13.695
600.09	13.989
600.42	13.723
600.76	13.187
601.09	13.473
601.42	13.788
601.76	13.458
602.09	14.109
602.42	14.575
602.76	13.964
603.09	13.953
603.42	14.172
603.76	13.790
604.09	13.852
604.42	14.467
604.76	13.974
605.09	14.031
605.42	14.312
605.75	13.354
606.09	13.503
606.42	13.053
606.75	13.636
607.09	13.714
607.42	13.425
607.75	13.766
608.08	13.477
608.42	14.619
608.75	14.361
609.08	13.652
609.41	14.619
609.75	13.256
610.08	13.080
610.41	12.802
610.74	13.116
611.07	13.333
611.41	13.804
611.74	14.339
612.07	13.651
612.40	13.676
612.73	13.898
613.07	13.217
613.40	13.786
613.73	13.374
614.06	13.912
614.39	13.085
614.72	12.661
615.06	13.128
615.39	12.828
615.72	14.101
616.05	14.246
616.38	12.877
616.71	13.517
617.05	13.836
617.38	13.514
617.71	13.585
618.04	13.905
618.37	14.439
618.70	13.663
619.03	14.028
619.36	12.808
619.69	13.950
620.03	13.952
620.36	12.876
620.69	13.847
621.02	13.838
621.35	14.855
621.68	13.861
622.01	13.000
622.34	14.924
622.67	13.801
623.00	13.936
623.33	13.034
623.66	13.538
623.99	13.086
624.32	14.601
624.65	12.707
624.99	13.770
625.32	12.358
625.65	15.240
625.98	13.618
626.31	11.970
626.64	14.038
626.97	14.049
627.30	14.799
627.63	13.172
627.96	12.848
628.29	14.154
628.62	14.848
628.95	14.028
629.28	13.306
629.61	13.659
629.94	13.685
630.26	12.154
630.59	14.256
630.92	13.641
631.25	12.205
631.58	12.996
631.91	12.610
632.24	13.761
632.57	14.318
632.90	12.218
633.23	13.529
633.56	11.965
633.89	12.700
634.22	14.321
634.55	14.358
634.88	13.155
635.20	13.333
635.53	13.067
635.86	12.224
636.19	12.160
636.52	12.500
636.85	12.655
637.18	12.327
637.51	14.591
637.83	13.141
638.16	14.325
