SpectraSuite Data File
++++++++++++++++++++++++++++++++++++
Date: Fri May 15 20:51:41 PDT 2015
User: schluterlab
Dark Spectrum Present: Yes
Reference Spectrum Present: Yes
Number of Sampled Component Spectra: 1
Spectrometers: USB2E3373
Integration Time (usec): 3000 (USB2E3373)
Spectra Averaged: 3 (USB2E3373)
Boxcar Smoothing: 0 (USB2E3373)
Correct for Electrical Dark: No (USB2E3373)
Strobe/Lamp Enabled: No (USB2E3373)
Correct for Detector Non-linearity: No (USB2E3373)
Correct for Stray Light: No (USB2E3373)
Number of Pixels in Processed Spectrum: 2048
>>>>>Begin Processed Spectral Data<<<<<
178.53	0.000
178.91	0.000
179.29	12.500
179.67	-500.000
180.04	-42.857
180.42	150.000
180.80	-800.000
181.18	66.667
181.56	350.000
181.94	50.000
182.31	700.000
182.69	-20.000
183.07	-66.667
183.45	-40.000
183.83	183.333
184.20	109.091
184.58	100.000
184.96	-200.000
185.34	233.333
185.72	-500.000
186.09	69.231
186.47	-300.000
186.85	66.667
187.23	144.444
187.61	600.000
187.98	-333.333
188.36	-66.667
188.74	-133.333
189.12	35.294
189.49	-22.222
189.87	0.000
190.25	57.143
190.63	-550.000
191.00	-100.000
191.38	-36.842
191.76	650.000
192.14	-50.000
192.51	-50.000
192.89	-133.333
193.27	-57.143
193.65	283.333
194.02	200.000
194.40	-50.000
194.78	-250.000
195.15	-33.333
195.53	-112.500
195.91	250.000
196.29	-300.000
196.66	138.462
197.04	28.571
197.42	-33.333
197.79	-466.667
198.17	-115.385
198.55	2100.000
198.92	-433.333
199.30	200.000
199.68	-260.000
200.05	-233.333
200.43	0.000
200.81	166.667
201.18	-200.000
201.56	300.000
201.94	-450.000
202.31	233.333
202.69	-80.000
203.07	150.000
203.44	100.000
203.82	0.000
204.19	-35.714
204.57	-766.667
204.95	62.500
205.32	-50.000
205.70	28.571
206.08	-25.000
206.45	66.667
206.83	7.143
207.20	14.286
207.58	300.000
207.96	-233.333
208.33	-70.000
208.71	-75.000
209.08	-200.000
209.46	-900.000
209.84	-140.000
210.21	-300.000
210.59	28.571
210.96	-16.667
211.34	-25.000
211.71	13.333
212.09	-185.714
212.46	-2500.000
212.84	0.000
213.22	-30.000
213.59	200.000
213.97	0.000
214.34	36.364
214.72	66.667
215.09	525.000
215.47	15.385
215.84	18.182
216.22	-200.000
216.59	-137.500
216.97	0.000
217.34	-300.000
217.72	-300.000
218.09	-62.500
218.47	175.000
218.84	-1400.000
219.22	-111.111
219.59	-220.000
219.97	366.667
220.34	175.000
220.72	-114.286
221.09	-175.000
221.47	-200.000
221.84	-400.000
222.22	-300.000
222.59	54.545
222.97	58.333
223.34	-400.000
223.72	-71.429
224.09	19.048
224.46	7.143
224.84	366.667
225.21	-40.000
225.59	-20.000
225.96	-200.000
226.34	75.000
226.71	-14.286
227.08	-116.667
227.46	-50.000
227.83	-800.000
228.21	-66.667
228.58	36.364
228.95	-25.000
229.33	130.000
229.70	25.000
230.08	-37.500
230.45	-85.714
230.82	-100.000
231.20	6.667
231.57	71.429
231.95	14.286
232.32	-30.000
232.69	28.571
233.07	-100.000
233.44	-60.000
233.81	-120.000
234.19	77.778
234.56	-23.529
234.93	650.000
235.31	-75.000
235.68	-380.000
236.05	-46.154
236.43	0.000
236.80	-5.882
237.17	40.625
237.55	40.000
237.92	14.815
238.29	11.111
238.67	26.667
239.04	23.529
239.41	9.756
239.79	26.667
240.16	39.024
240.53	-2.632
240.91	13.043
241.28	15.873
241.65	16.071
242.02	23.288
242.40	16.667
242.77	16.949
243.14	-3.030
243.51	17.500
243.89	19.540
244.26	6.897
244.63	21.429
245.00	18.557
245.38	27.835
245.75	13.483
246.12	17.241
246.49	17.355
246.87	23.077
247.24	20.168
247.61	12.281
247.98	25.203
248.36	16.250
248.73	23.026
249.10	19.481
249.47	22.785
249.84	16.993
250.22	22.353
250.59	16.340
250.96	23.474
251.33	15.116
251.70	29.412
252.08	22.843
252.45	19.307
252.82	24.121
253.19	18.433
253.56	15.421
253.94	25.676
254.31	19.565
254.68	23.246
255.05	22.441
255.42	23.581
255.79	19.691
256.16	21.401
256.54	25.746
256.91	22.433
257.28	23.792
257.65	21.723
258.02	20.213
258.39	21.886
258.76	24.908
259.14	23.920
259.51	23.948
259.88	23.368
260.25	24.183
260.62	24.306
260.99	24.068
261.36	19.863
261.73	20.886
262.10	24.620
262.47	20.859
262.85	22.884
263.22	20.308
263.59	21.184
263.96	22.671
264.33	23.030
264.70	24.405
265.07	23.810
265.44	25.212
265.81	23.729
266.18	21.585
266.55	24.165
266.92	25.389
267.29	21.410
267.66	24.041
268.03	21.990
268.40	22.454
268.77	25.668
269.14	23.501
269.51	25.193
269.88	20.948
270.25	21.939
270.62	21.707
270.99	22.762
271.36	24.450
271.73	23.239
272.10	25.061
272.47	22.931
272.84	21.287
273.21	26.682
273.58	23.614
273.95	24.485
274.32	23.557
274.69	22.624
275.06	25.000
275.43	21.088
275.80	24.283
276.17	20.460
276.54	23.340
276.91	22.368
277.28	20.961
277.65	24.174
278.02	24.043
278.39	22.538
278.76	23.480
279.13	22.199
279.50	23.529
279.87	20.734
280.23	20.430
280.60	21.053
280.97	23.434
281.34	20.962
281.71	24.230
282.08	20.859
282.45	21.722
282.82	22.780
283.19	23.404
283.56	21.773
283.92	22.960
284.29	20.962
284.66	19.961
285.03	23.183
285.40	22.684
285.77	20.211
286.14	22.924
286.51	23.247
286.87	20.110
287.24	21.363
287.61	19.224
287.98	22.982
288.35	19.411
288.72	22.417
289.08	19.965
289.45	22.847
289.82	20.804
290.19	19.625
290.56	21.269
290.93	18.687
291.29	19.106
291.66	21.102
292.03	19.298
292.40	18.710
292.77	19.139
293.13	16.071
293.50	18.361
293.87	17.710
294.24	18.702
294.60	18.778
294.97	17.857
295.34	17.638
295.71	19.523
296.08	18.236
296.44	16.785
296.81	16.250
297.18	16.522
297.55	19.919
297.91	16.712
298.28	18.865
298.65	15.739
299.02	16.307
299.38	16.689
299.75	16.690
300.12	16.361
300.48	16.337
300.85	17.617
301.22	16.883
301.59	14.605
301.95	17.215
302.32	16.861
302.69	17.537
303.05	15.099
303.42	15.068
303.79	16.472
304.15	15.651
304.52	15.696
304.89	16.491
305.25	15.254
305.62	13.302
305.99	16.491
306.35	13.988
306.72	14.848
307.09	15.507
307.45	15.499
307.82	15.394
308.19	15.563
308.55	14.613
308.92	17.429
309.29	16.872
309.65	15.070
310.02	15.842
310.38	16.905
310.75	16.612
311.12	16.469
311.48	16.331
311.85	15.183
312.22	14.662
312.58	14.650
312.95	15.475
313.31	15.631
313.68	16.230
314.05	15.612
314.41	17.216
314.78	17.835
315.14	18.499
315.51	18.116
315.87	18.033
316.24	20.121
316.61	18.406
316.97	18.353
317.34	19.141
317.70	19.885
318.07	20.481
318.43	21.078
318.80	20.549
319.16	21.387
319.53	21.462
319.89	22.736
320.26	21.964
320.62	24.674
320.99	21.503
321.35	23.535
321.72	25.337
322.08	25.680
322.45	25.178
322.81	26.621
323.18	27.184
323.54	26.544
323.91	27.069
324.27	28.027
324.64	29.588
325.00	28.923
325.37	30.946
325.73	30.009
326.10	29.609
326.46	30.314
326.83	31.496
327.19	31.473
327.56	31.364
327.92	32.923
328.29	31.875
328.65	32.547
329.01	32.169
329.38	33.456
329.74	32.578
330.11	34.569
330.47	34.230
330.84	32.885
331.20	36.692
331.56	34.352
331.93	35.434
332.29	34.097
332.66	35.204
333.02	35.223
333.38	35.289
333.75	36.538
334.11	34.646
334.48	35.721
334.84	35.256
335.20	34.950
335.57	34.270
335.93	36.676
336.29	36.372
336.66	34.332
337.02	35.502
337.38	35.556
337.75	36.636
338.11	36.610
338.47	36.040
338.84	35.397
339.20	36.197
339.56	35.780
339.93	35.004
340.29	35.413
340.65	35.753
341.02	35.638
341.38	35.133
341.74	35.159
342.11	34.835
342.47	34.875
342.83	34.948
343.20	34.495
343.56	34.696
343.92	36.227
344.28	35.696
344.65	34.974
345.01	34.918
345.37	34.819
345.73	35.565
346.10	35.375
346.46	34.062
346.82	35.434
347.19	33.832
347.55	35.756
347.91	35.761
348.27	34.842
348.63	35.860
349.00	35.521
349.36	34.663
349.72	36.153
350.08	34.344
350.45	34.557
350.81	34.551
351.17	34.283
351.53	35.102
351.89	34.765
352.26	32.800
352.62	34.597
352.98	34.297
353.34	33.655
353.70	34.951
354.07	33.629
354.43	34.508
354.79	35.590
355.15	35.794
355.51	35.206
355.87	34.871
356.24	34.584
356.60	35.004
356.96	34.206
357.32	35.463
357.68	33.855
358.04	33.764
358.40	34.164
358.77	35.167
359.13	34.347
359.49	34.206
359.85	34.399
360.21	35.008
360.57	34.889
360.93	34.039
361.29	33.912
361.66	35.815
362.02	35.758
362.38	35.567
362.74	34.671
363.10	35.741
363.46	35.063
363.82	36.739
364.18	35.055
364.54	33.456
364.90	34.839
365.26	35.298
365.62	35.547
365.98	34.531
366.35	35.543
366.71	35.994
367.07	35.123
367.43	35.370
367.79	34.629
368.15	35.176
368.51	35.980
368.87	35.391
369.23	34.946
369.59	35.787
369.95	36.877
370.31	35.043
370.67	35.597
371.03	35.176
371.39	36.178
371.75	35.531
372.11	34.593
372.47	35.503
372.83	35.202
373.19	35.307
373.55	34.585
373.91	35.997
374.27	37.491
374.63	36.037
374.99	35.319
375.35	35.655
375.71	35.944
376.07	36.166
376.42	35.714
376.78	36.242
377.14	35.951
377.50	36.122
377.86	37.416
378.22	35.992
378.58	36.346
378.94	36.106
379.30	36.744
379.66	36.552
380.02	36.174
380.38	36.884
380.74	36.625
381.09	37.362
381.45	36.697
381.81	37.199
382.17	36.865
382.53	36.227
382.89	37.288
383.25	37.586
383.61	37.927
383.97	37.143
384.32	37.899
384.68	37.647
385.04	37.316
385.40	38.332
385.76	37.296
386.12	36.999
386.48	38.314
386.83	37.159
387.19	37.485
387.55	37.704
387.91	38.386
388.27	37.973
388.62	38.767
388.98	36.710
389.34	38.413
389.70	38.409
390.06	36.816
390.42	38.018
390.77	37.410
391.13	37.705
391.49	36.740
391.85	37.622
392.20	37.351
392.56	37.699
392.92	37.992
393.28	38.208
393.64	37.538
393.99	38.433
394.35	37.381
394.71	37.867
395.07	37.964
395.42	37.826
395.78	38.827
396.14	37.264
396.50	38.047
396.85	37.476
397.21	38.409
397.57	37.868
397.92	37.687
398.28	38.563
398.64	38.072
399.00	38.544
399.35	36.625
399.71	37.277
400.07	38.029
400.42	38.739
400.78	38.579
401.14	37.992
401.49	38.594
401.85	36.319
402.21	37.530
402.57	37.562
402.92	36.512
403.28	37.970
403.63	38.335
403.99	36.671
404.35	38.289
404.70	36.548
405.06	37.544
405.42	37.974
405.77	37.013
406.13	37.253
406.49	37.715
406.84	37.408
407.20	37.327
407.55	36.059
407.91	37.701
408.27	37.285
408.62	38.031
408.98	37.092
409.34	36.989
409.69	36.434
410.05	36.576
410.40	36.728
410.76	37.756
411.11	37.250
411.47	37.278
411.83	36.911
412.18	36.615
412.54	37.016
412.89	36.084
413.25	37.545
413.60	35.652
413.96	36.380
414.31	36.890
414.67	36.754
415.03	36.285
415.38	34.987
415.74	37.068
416.09	36.316
416.45	37.475
416.80	36.153
417.16	37.155
417.51	36.576
417.87	35.332
418.22	36.593
418.58	36.789
418.93	36.301
419.29	35.083
419.64	36.682
420.00	36.965
420.35	35.403
420.71	35.784
421.06	34.868
421.42	35.877
421.77	35.896
422.12	36.039
422.48	36.167
422.83	35.905
423.19	36.456
423.54	35.509
423.90	35.218
424.25	36.395
424.61	36.230
424.96	35.308
425.31	37.377
425.67	36.796
426.02	36.867
426.38	35.942
426.73	35.533
427.09	37.152
427.44	35.588
427.79	36.358
428.15	36.650
428.50	36.463
428.85	35.258
429.21	35.880
429.56	36.388
429.92	36.210
430.27	35.990
430.62	35.024
430.98	35.828
431.33	35.752
431.68	34.903
432.04	36.613
432.39	34.855
432.74	34.877
433.10	36.034
433.45	35.125
433.80	35.810
434.16	35.679
434.51	35.591
434.86	35.366
435.22	35.278
435.57	35.745
435.92	35.030
436.28	34.943
436.63	35.254
436.98	35.052
437.34	35.874
437.69	36.255
438.04	35.897
438.39	35.736
438.75	34.791
439.10	36.106
439.45	36.519
439.81	35.657
440.16	36.401
440.51	35.045
440.86	36.495
441.22	35.068
441.57	34.989
441.92	35.205
442.27	35.809
442.63	35.011
442.98	35.439
443.33	35.671
443.68	34.960
444.03	35.420
444.39	34.629
444.74	36.343
445.09	36.192
445.44	34.986
445.79	36.050
446.15	34.802
446.50	35.053
446.85	35.335
447.20	35.036
447.55	34.654
447.91	35.082
448.26	35.458
448.61	35.233
448.96	35.055
449.31	35.434
449.66	35.424
450.02	35.710
450.37	35.033
450.72	33.333
451.07	35.127
451.42	35.456
451.77	35.202
452.12	33.553
452.47	34.449
452.83	34.099
453.18	33.839
453.53	35.398
453.88	34.730
454.23	35.034
454.58	35.139
454.93	34.536
455.28	33.841
455.63	34.656
455.98	34.636
456.34	34.738
456.69	34.307
457.04	34.783
457.39	33.171
457.74	34.160
458.09	33.196
458.44	33.821
458.79	33.165
459.14	34.554
459.49	35.104
459.84	34.292
460.19	33.920
460.54	34.474
460.89	34.886
461.24	34.224
461.59	33.907
461.94	33.082
462.29	33.172
462.64	34.352
462.99	34.056
463.34	33.658
463.69	32.497
464.04	33.293
464.39	33.535
464.74	33.313
465.09	34.248
465.44	34.334
465.79	32.993
466.14	33.637
466.49	33.295
466.84	33.670
467.19	33.667
467.54	32.439
467.89	33.228
468.24	33.455
468.59	33.270
468.94	33.333
469.29	33.311
469.64	32.878
469.99	33.637
470.34	32.696
470.68	34.303
471.03	32.555
471.38	32.810
471.73	34.104
472.08	31.954
472.43	33.087
472.78	32.762
473.13	32.789
473.48	32.834
473.83	31.320
474.17	32.707
474.52	32.546
474.87	32.848
475.22	32.459
475.57	31.846
475.92	31.925
476.27	32.945
476.61	32.581
476.96	32.460
477.31	32.017
477.66	32.640
478.01	32.173
478.36	31.972
478.70	31.648
479.05	32.308
479.40	31.373
479.75	31.335
480.10	31.388
480.45	31.450
480.79	32.578
481.14	31.762
481.49	30.542
481.84	31.757
482.19	31.291
482.53	31.607
482.88	30.501
483.23	30.950
483.58	31.462
483.92	29.768
484.27	30.811
484.62	30.031
484.97	29.892
485.31	29.697
485.66	29.151
486.01	29.346
486.36	29.478
486.70	29.964
487.05	29.797
487.40	29.886
487.75	29.521
488.09	29.852
488.44	29.264
488.79	29.847
489.13	30.569
489.48	30.056
489.83	29.148
490.17	30.876
490.52	30.762
490.87	29.153
491.22	30.516
491.56	30.076
491.91	29.350
492.26	29.752
492.60	29.415
492.95	29.710
493.30	29.849
493.64	30.403
493.99	29.903
494.34	29.175
494.68	29.571
495.03	28.759
495.37	29.686
495.72	30.843
496.07	29.951
496.41	29.434
496.76	28.835
497.11	29.856
497.45	29.642
497.80	29.465
498.14	28.117
498.49	28.796
498.84	29.441
499.18	29.016
499.53	29.167
499.87	27.967
500.22	28.882
500.56	29.047
500.91	28.966
501.26	28.127
501.60	28.578
501.95	28.578
502.29	28.910
502.64	29.006
502.98	28.564
503.33	27.474
503.67	28.386
504.02	28.837
504.36	28.402
504.71	28.586
505.06	27.428
505.40	28.071
505.75	28.505
506.09	28.079
506.44	28.234
506.78	28.571
507.13	27.301
507.47	27.937
507.82	27.778
508.16	27.364
508.51	28.437
508.85	27.577
509.19	26.929
509.54	27.668
509.88	27.508
510.23	28.133
510.57	28.594
510.92	27.399
511.26	28.096
511.61	28.163
511.95	28.110
512.30	27.827
512.64	27.991
512.98	27.400
513.33	27.868
513.67	27.516
514.02	28.318
514.36	27.886
514.70	28.263
515.05	28.437
515.39	27.745
515.74	27.904
516.08	28.571
516.42	27.444
516.77	28.496
517.11	27.537
517.46	27.528
517.80	28.069
518.14	27.740
518.49	27.404
518.83	27.217
519.17	26.137
519.52	26.939
519.86	27.131
520.20	27.157
520.55	27.392
520.89	27.478
521.23	27.106
521.58	27.886
521.92	27.949
522.26	26.415
522.61	27.403
522.95	27.417
523.29	26.938
523.64	27.446
523.98	26.572
524.32	26.224
524.66	26.825
525.01	27.013
525.35	27.544
525.69	26.936
526.04	26.984
526.38	26.719
526.72	26.226
527.06	26.978
527.41	26.187
527.75	26.743
528.09	26.844
528.43	27.752
528.78	26.205
529.12	25.548
529.46	25.731
529.80	26.219
530.15	26.073
530.49	27.273
530.83	26.197
531.17	25.722
531.51	26.197
531.86	26.309
532.20	25.748
532.54	25.596
532.88	26.283
533.22	26.008
533.57	26.147
533.91	25.196
534.25	26.432
534.59	25.016
534.93	26.054
535.27	24.492
535.62	25.081
535.96	26.680
536.30	26.781
536.64	25.775
536.98	25.157
537.32	26.671
537.66	26.508
538.01	26.434
538.35	25.798
538.69	24.700
539.03	25.085
539.37	25.841
539.71	25.222
540.05	25.594
540.39	26.177
540.73	25.314
541.07	25.276
541.42	24.664
541.76	26.290
542.10	25.327
542.44	24.948
542.78	23.882
543.12	25.069
543.46	25.243
543.80	24.983
544.14	22.964
544.48	24.250
544.82	23.923
545.16	25.751
545.50	24.633
545.84	25.850
546.18	24.894
546.52	24.513
546.86	24.587
547.20	25.680
547.54	24.664
547.88	24.253
548.22	24.260
548.56	24.274
548.90	24.124
549.24	22.796
549.58	24.824
549.92	23.445
550.26	23.663
550.60	25.056
550.94	25.243
551.28	24.266
551.62	25.846
551.96	24.436
552.30	23.611
552.64	24.330
552.98	24.543
553.32	25.250
553.66	24.020
554.00	24.599
554.34	23.781
554.68	23.968
555.02	24.033
555.36	23.785
555.69	23.443
556.03	23.697
556.37	22.847
556.71	23.755
557.05	23.341
557.39	23.792
557.73	23.013
558.07	24.585
558.41	22.971
558.75	23.305
559.08	22.301
559.42	24.524
559.76	23.699
560.10	23.471
560.44	24.125
560.78	23.776
561.12	23.695
561.45	24.385
561.79	23.950
562.13	23.847
562.47	22.302
562.81	23.919
563.15	23.625
563.48	22.914
563.82	24.159
564.16	22.911
564.50	23.784
564.84	23.427
565.17	23.340
565.51	23.702
565.85	22.908
566.19	23.077
566.52	23.324
566.86	22.879
567.20	22.603
567.54	22.871
567.88	22.847
568.21	22.342
568.55	22.500
568.89	22.331
569.23	22.773
569.56	22.855
569.90	22.818
570.24	22.144
570.57	22.545
570.91	22.098
571.25	22.032
571.59	21.675
571.92	21.778
572.26	21.377
572.60	21.364
572.93	21.274
573.27	21.505
573.61	21.510
573.95	21.382
574.28	21.028
574.62	20.875
574.96	21.142
575.29	21.353
575.63	20.757
575.97	20.575
576.30	20.973
576.64	20.344
576.98	21.570
577.31	21.111
577.65	21.147
577.98	21.112
578.32	20.542
578.66	20.438
578.99	20.800
579.33	20.759
579.67	20.691
580.00	20.886
580.34	20.697
580.67	20.005
581.01	20.749
581.35	20.650
581.68	20.468
582.02	20.664
582.35	20.334
582.69	20.316
583.02	20.402
583.36	20.464
583.70	20.665
584.03	20.684
584.37	21.259
584.70	20.604
585.04	19.845
585.37	20.295
585.71	20.415
586.04	20.298
586.38	20.539
586.72	20.603
587.05	21.144
587.39	20.632
587.72	20.886
588.06	20.343
588.39	20.108
588.73	20.726
589.06	20.613
589.40	20.843
589.73	20.737
590.07	20.619
590.40	20.588
590.73	20.923
591.07	20.823
591.40	20.971
591.74	21.222
592.07	20.594
592.41	21.025
592.74	20.350
593.08	19.735
593.41	20.560
593.75	20.445
594.08	20.391
594.41	19.905
594.75	20.458
595.08	20.356
595.42	20.464
595.75	20.653
596.09	20.446
596.42	20.463
596.75	21.181
597.09	20.501
597.42	20.687
597.75	20.385
598.09	20.281
598.42	20.578
598.76	19.949
599.09	20.753
599.42	19.704
599.76	20.015
600.09	20.136
600.42	20.394
600.76	20.022
601.09	19.809
601.42	19.271
601.76	19.929
602.09	20.215
602.42	20.345
602.76	19.822
603.09	19.643
603.42	20.401
603.76	19.960
604.09	19.198
604.42	20.008
604.76	20.294
605.09	20.658
605.42	20.226
605.75	19.177
606.09	19.958
606.42	20.017
606.75	19.481
607.09	20.484
607.42	19.982
607.75	20.115
608.08	19.227
608.42	20.238
608.75	19.807
609.08	20.130
609.41	19.746
609.75	20.262
610.08	20.270
610.41	19.275
610.74	19.698
611.07	20.000
611.41	19.564
611.74	20.736
612.07	20.289
612.40	20.077
612.73	20.508
613.07	20.191
613.40	20.569
613.73	19.698
614.06	19.922
614.39	20.192
614.72	19.104
615.06	20.503
615.39	19.924
615.72	19.860
616.05	20.056
616.38	19.601
616.71	20.061
617.05	19.704
617.38	19.925
617.71	19.811
618.04	20.889
618.37	20.240
618.70	20.792
619.03	21.806
619.36	20.478
619.69	20.925
620.03	20.818
620.36	21.102
620.69	21.271
621.02	19.801
621.35	21.245
621.68	20.578
622.01	20.583
622.34	19.553
622.67	20.426
623.00	20.444
623.33	19.893
623.66	20.718
623.99	20.045
624.32	19.772
624.65	19.850
624.99	20.843
625.32	19.409
625.65	19.717
625.98	21.434
626.31	20.033
626.64	21.837
626.97	21.291
627.30	20.403
627.63	20.624
627.96	21.833
628.29	20.907
628.62	21.042
628.95	19.940
629.28	21.472
629.61	20.040
629.94	21.701
630.26	20.059
630.59	20.499
630.92	20.923
631.25	19.897
631.58	19.604
631.91	20.066
632.24	20.986
632.57	20.682
632.90	19.217
633.23	19.882
