SpectraSuite Data File
++++++++++++++++++++++++++++++++++++
Date: Fri May 15 20:58:21 PDT 2015
User: schluterlab
Dark Spectrum Present: Yes
Reference Spectrum Present: Yes
Number of Sampled Component Spectra: 1
Spectrometers: USB2E3373
Integration Time (usec): 3000 (USB2E3373)
Spectra Averaged: 3 (USB2E3373)
Boxcar Smoothing: 0 (USB2E3373)
Correct for Electrical Dark: No (USB2E3373)
Strobe/Lamp Enabled: No (USB2E3373)
Correct for Detector Non-linearity: No (USB2E3373)
Correct for Stray Light: No (USB2E3373)
Number of Pixels in Processed Spectrum: 2048
>>>>>Begin Processed Spectral Data<<<<<
178.53	0.000
178.91	0.000
179.29	-100.000
179.67	-650.000
180.04	28.571
180.42	150.000
180.80	-900.000
181.18	166.667
181.56	650.000
181.94	-200.000
182.31	800.000
182.69	-20.000
183.07	-333.333
183.45	0.000
183.83	-0.000
184.20	18.182
184.58	88.889
184.96	25.000
185.34	433.333
185.72	-450.000
186.09	15.385
186.47	-800.000
186.85	183.333
187.23	88.889
187.61	-200.000
187.98	66.667
188.36	22.222
188.74	-400.000
189.12	11.765
189.49	-11.111
189.87	0.000
190.25	42.857
190.63	-250.000
191.00	-100.000
191.38	-31.579
191.76	-250.000
192.14	150.000
192.51	250.000
192.89	-33.333
193.27	-171.429
193.65	116.667
194.02	163.636
194.40	-50.000
194.78	-150.000
195.15	-58.333
195.53	-87.500
195.91	175.000
196.29	-250.000
196.66	100.000
197.04	157.143
197.42	-111.111
197.79	-466.667
198.17	-53.846
198.55	1700.000
198.92	-300.000
199.30	-200.000
199.68	-240.000
200.05	-333.333
200.43	0.000
200.81	-166.667
201.18	0.000
201.56	900.000
201.94	-100.000
202.31	-0.000
202.69	-360.000
203.07	400.000
203.44	200.000
203.82	0.000
204.19	28.571
204.57	-633.333
204.95	87.500
205.32	-80.000
205.70	0.000
206.08	-125.000
206.45	55.556
206.83	42.857
207.20	-71.429
207.58	700.000
207.96	-200.000
208.33	-90.000
208.71	-200.000
209.08	-166.667
209.46	-500.000
209.84	-60.000
210.21	-700.000
210.59	0.000
210.96	-33.333
211.34	-225.000
211.71	26.667
212.09	-128.571
212.46	-1700.000
212.84	0.000
213.22	40.000
213.59	900.000
213.97	84.615
214.34	72.727
214.72	-50.000
215.09	550.000
215.47	-61.538
215.84	-45.455
216.22	-333.333
216.59	-50.000
216.97	0.000
217.34	-300.000
217.72	100.000
218.09	87.500
218.47	200.000
218.84	-400.000
219.22	-133.333
219.59	-20.000
219.97	366.667
220.34	400.000
220.72	-128.571
221.09	-75.000
221.47	100.000
221.84	150.000
222.22	-800.000
222.59	-45.455
222.97	8.333
223.34	-400.000
223.72	21.429
224.09	38.095
224.46	-21.429
224.84	200.000
225.21	-10.000
225.59	-13.333
225.96	-500.000
226.34	375.000
226.71	-42.857
227.08	-150.000
227.46	25.000
227.83	-850.000
228.21	-66.667
228.58	-100.000
228.95	25.000
229.33	100.000
229.70	6.250
230.08	-225.000
230.45	-114.286
230.82	0.000
231.20	0.000
231.57	35.714
231.95	-142.857
232.32	-100.000
232.69	50.000
233.07	33.333
233.44	-140.000
233.81	-70.000
234.19	-22.222
234.56	11.765
234.93	1000.000
235.31	-150.000
235.68	-400.000
236.05	0.000
236.43	-35.000
236.80	-58.824
237.17	-12.500
237.55	-50.000
237.92	18.519
238.29	-11.111
238.67	3.333
239.04	-11.765
239.41	-24.390
239.79	-10.000
240.16	-7.317
240.53	-13.158
240.91	-13.043
241.28	-11.111
241.65	-3.571
242.02	10.959
242.40	6.667
242.77	-6.780
243.14	-16.667
243.51	16.250
243.89	9.195
244.26	-13.793
244.63	2.381
245.00	12.371
245.38	3.093
245.75	-5.618
246.12	4.310
246.49	4.132
246.87	14.423
247.24	-2.521
247.61	-3.509
247.98	7.317
248.36	12.500
248.73	3.947
249.10	5.844
249.47	4.430
249.84	0.654
250.22	9.412
250.59	1.307
250.96	10.329
251.33	-1.744
251.70	7.059
252.08	7.614
252.45	9.901
252.82	7.538
253.19	13.364
253.56	4.206
253.94	8.559
254.31	12.609
254.68	6.140
255.05	9.055
255.42	6.114
255.79	7.336
256.16	7.782
256.54	5.970
256.91	7.605
257.28	4.089
257.65	5.618
258.02	3.191
258.39	8.081
258.76	5.128
259.14	6.977
259.51	4.531
259.88	3.093
260.25	4.575
260.62	4.861
260.99	3.390
261.36	4.110
261.73	6.329
262.10	6.991
262.47	3.681
262.85	6.583
263.22	1.538
263.59	3.427
263.96	6.522
264.33	5.152
264.70	5.357
265.07	5.655
265.44	8.215
265.81	5.367
266.18	4.645
266.55	6.170
266.92	6.736
267.29	7.050
267.66	5.371
268.03	2.356
268.40	3.133
268.77	7.219
269.14	5.995
269.51	5.913
269.88	3.491
270.25	2.296
270.62	4.390
270.99	2.558
271.36	5.623
271.73	5.399
272.10	6.326
272.47	3.783
272.84	4.703
273.21	6.497
273.58	6.024
273.95	7.551
274.32	3.002
274.69	4.299
275.06	4.018
275.43	3.175
275.80	3.974
276.17	3.218
276.54	4.925
276.91	5.263
277.28	4.367
277.65	7.231
278.02	5.745
278.39	2.845
278.76	6.499
279.13	-0.207
279.50	4.832
279.87	5.616
280.23	2.151
280.60	5.263
280.97	5.051
281.34	2.692
281.71	6.366
282.08	3.476
282.45	2.348
282.82	3.282
283.19	5.416
283.56	5.588
283.92	4.175
284.29	4.231
284.66	0.581
285.03	3.143
285.40	4.159
285.77	1.933
286.14	4.332
286.51	6.273
286.87	3.473
287.24	2.210
287.61	2.998
287.98	4.737
288.35	3.120
288.72	5.079
289.08	2.951
289.45	3.866
289.82	3.322
290.19	3.584
290.56	3.774
290.93	2.525
291.29	5.085
291.66	4.252
292.03	3.987
292.40	2.903
292.77	3.349
293.13	1.461
293.50	3.338
293.87	4.733
294.24	3.555
294.60	2.981
294.97	4.167
295.34	1.994
295.71	4.769
296.08	2.541
296.44	1.991
296.81	4.028
297.18	2.899
297.55	5.556
297.91	3.425
298.28	4.881
298.65	4.206
299.02	3.639
299.38	2.052
299.75	4.000
300.12	3.796
300.48	1.713
300.85	4.309
301.22	2.208
301.59	2.632
301.95	5.190
302.32	4.280
302.69	2.985
303.05	3.342
303.42	4.359
303.79	4.790
304.15	3.704
304.52	1.665
304.89	2.339
305.25	3.390
305.62	2.450
305.99	2.924
306.35	3.237
306.72	2.925
307.09	4.333
307.45	4.018
307.82	3.356
308.19	2.671
308.55	3.272
308.92	4.248
309.29	3.464
309.65	3.122
310.02	3.740
310.38	3.403
310.75	2.186
311.12	2.368
311.48	4.348
311.85	3.770
312.22	3.797
312.58	3.928
312.95	2.561
313.31	2.899
313.68	3.455
314.05	2.857
314.41	4.124
314.78	3.196
315.14	6.064
315.51	5.280
315.87	4.201
316.24	4.752
316.61	4.626
316.97	5.357
317.34	5.664
317.70	4.111
318.07	5.769
318.43	4.608
318.80	4.924
319.16	5.176
319.53	5.318
319.89	6.988
320.26	5.466
320.62	6.921
320.99	3.758
321.35	5.961
321.72	7.684
322.08	6.747
322.45	6.294
322.81	6.974
323.18	5.790
323.54	5.309
323.91	5.842
324.27	7.910
324.64	7.584
325.00	6.661
325.37	8.724
325.73	6.800
326.10	6.267
326.46	7.803
326.83	7.612
327.19	8.370
327.56	8.688
327.92	8.187
328.29	7.857
328.65	7.547
329.01	7.996
329.38	8.479
329.74	6.988
330.11	8.990
330.47	6.401
330.84	7.212
331.20	9.981
331.56	8.426
331.93	9.041
332.29	8.341
332.66	8.688
333.02	9.015
333.38	7.883
333.75	8.150
334.11	7.789
334.48	8.704
334.84	8.974
335.20	8.692
335.57	8.069
335.93	8.401
336.29	9.669
336.66	7.448
337.02	8.364
337.38	6.667
337.75	8.636
338.11	8.566
338.47	8.942
338.84	8.595
339.20	8.684
339.56	8.716
339.93	9.848
340.29	8.991
340.65	9.050
341.02	8.777
341.38	8.496
341.74	8.216
342.11	7.886
342.47	8.452
342.83	9.775
343.20	8.362
343.56	8.609
343.92	8.857
344.28	9.223
344.65	7.168
345.01	8.211
345.37	8.326
345.73	9.707
346.10	7.593
346.46	8.999
346.82	9.329
347.19	7.232
347.55	8.939
347.91	8.981
348.27	8.003
348.63	8.944
349.00	7.465
349.36	8.562
349.72	9.121
350.08	7.951
350.45	8.619
350.81	7.890
351.17	8.388
351.53	8.816
351.89	7.680
352.26	8.240
352.62	9.113
352.98	8.835
353.34	9.098
353.70	8.738
354.07	8.468
354.43	8.247
354.79	8.092
355.15	9.286
355.51	8.149
355.87	8.495
356.24	7.096
356.60	8.165
356.96	7.937
357.32	8.307
357.68	8.053
358.04	8.320
358.40	8.521
358.77	8.612
359.13	7.926
359.49	8.166
359.85	8.190
360.21	8.054
360.57	8.110
360.93	8.169
361.29	6.495
361.66	7.524
362.02	7.955
362.38	9.216
362.74	7.797
363.10	8.879
363.46	8.006
363.82	9.391
364.18	8.561
364.54	7.721
364.90	7.742
365.26	8.079
365.62	9.343
365.98	8.358
366.35	8.376
366.71	8.500
367.07	8.055
367.43	8.052
367.79	8.269
368.15	9.476
368.51	8.012
368.87	7.681
369.23	8.303
369.59	8.382
369.95	8.284
370.31	8.960
370.67	8.060
371.03	7.991
371.39	7.950
371.75	7.985
372.11	8.060
372.47	8.358
372.83	9.013
373.19	8.488
373.55	8.592
373.91	8.135
374.27	8.646
374.63	9.691
374.99	7.730
375.35	8.357
375.71	8.741
376.07	8.146
376.42	7.959
376.78	8.725
377.14	7.854
377.50	8.234
377.86	7.898
378.22	8.232
378.58	8.205
378.94	8.192
379.30	8.484
379.66	9.342
380.02	8.706
380.38	7.791
380.74	7.720
381.09	9.509
381.45	8.318
381.81	8.081
382.17	8.693
382.53	8.682
382.89	8.286
383.25	8.774
383.61	8.659
383.97	8.444
384.32	9.068
384.68	9.350
385.04	8.762
385.40	8.650
385.76	9.308
386.12	10.349
386.48	9.451
386.83	8.878
387.19	8.852
387.55	9.536
387.91	8.619
388.27	8.425
388.62	8.874
388.98	9.147
389.34	9.494
389.70	9.882
390.06	9.125
390.42	8.679
390.77	8.698
391.13	8.701
391.49	8.344
391.85	8.837
392.20	8.349
392.56	9.409
392.92	9.513
393.28	8.844
393.64	9.129
393.99	9.342
394.35	8.286
394.71	9.195
395.07	8.862
395.42	8.197
395.78	8.795
396.14	9.142
396.50	8.941
396.85	9.208
397.21	9.085
397.57	8.589
397.92	9.407
398.28	8.563
398.64	8.313
399.00	9.424
399.35	8.521
399.71	8.903
400.07	8.948
400.42	9.180
400.78	9.369
401.14	9.437
401.49	9.649
401.85	8.410
402.21	8.373
402.57	8.750
402.92	8.908
403.28	8.897
403.63	9.206
403.99	8.163
404.35	9.307
404.70	8.036
405.06	8.872
405.42	8.950
405.77	7.670
406.13	8.265
406.49	8.052
406.84	8.496
407.20	8.910
407.55	7.341
407.91	8.489
408.27	8.668
408.62	8.431
408.98	8.749
409.34	8.736
409.69	8.010
410.05	8.251
410.40	7.963
410.76	7.600
411.11	8.500
411.47	9.139
411.83	7.533
412.18	8.172
412.54	7.615
412.89	7.697
413.25	8.183
413.60	7.267
413.96	7.914
414.31	8.963
414.67	7.633
415.03	7.856
415.38	8.616
415.74	8.339
416.09	8.426
416.45	8.305
416.80	8.460
417.16	8.564
417.51	7.995
417.87	8.018
418.22	8.031
418.58	7.625
418.93	8.715
419.29	7.170
419.64	7.583
420.00	8.375
420.35	7.045
420.71	8.019
421.06	7.182
421.42	7.873
421.77	8.035
422.12	7.662
422.48	7.634
422.83	7.077
423.19	8.014
423.54	6.643
423.90	7.244
424.25	7.405
424.61	7.160
424.96	8.072
425.31	7.626
425.67	7.336
426.02	8.245
426.38	7.952
426.73	7.203
427.09	7.658
427.44	7.294
427.79	7.307
428.15	7.646
428.50	6.663
428.85	7.371
429.21	7.357
429.56	7.224
429.92	7.910
430.27	6.967
430.62	6.691
430.98	7.272
431.33	7.992
431.68	7.483
432.04	6.987
432.39	6.731
432.74	6.675
433.10	8.046
433.45	6.870
433.80	6.152
434.16	6.205
434.51	7.527
434.86	6.852
435.22	6.730
435.57	7.611
435.92	6.647
436.28	7.036
436.63	6.845
436.98	6.199
437.34	6.957
437.69	7.871
438.04	6.610
438.39	6.597
438.75	5.950
439.10	7.414
439.45	6.026
439.81	6.850
440.16	6.413
440.51	7.224
440.86	7.915
441.22	6.844
441.57	7.009
441.92	7.135
442.27	7.151
442.63	7.495
442.98	7.639
443.33	7.123
443.68	6.313
444.03	7.650
444.39	6.591
444.74	7.469
445.09	7.350
445.44	6.439
445.79	7.478
446.15	6.278
446.50	5.935
446.85	7.067
447.20	6.517
447.55	6.975
447.91	6.373
448.26	6.659
448.61	6.908
448.96	7.057
449.31	6.127
449.66	6.794
450.02	6.104
450.37	6.224
450.72	6.529
451.07	6.899
451.42	7.366
451.77	6.992
452.12	5.622
452.47	5.795
452.83	6.773
453.18	6.199
453.53	6.321
453.88	6.618
454.23	7.253
454.58	6.738
454.93	6.121
455.28	5.460
455.63	7.502
455.98	6.915
456.34	6.960
456.69	6.671
457.04	7.120
457.39	6.379
457.74	6.348
458.09	6.474
458.44	6.027
458.79	6.555
459.14	6.693
459.49	7.045
459.84	6.148
460.19	5.825
460.54	7.029
460.89	6.364
461.24	6.770
461.59	6.888
461.94	6.415
462.29	6.695
462.64	6.179
462.99	6.297
463.34	5.494
463.69	6.049
464.04	6.295
464.39	6.853
464.74	6.748
465.09	7.112
465.44	7.271
465.79	6.236
466.14	6.784
466.49	6.383
466.84	6.901
467.19	6.821
467.54	6.513
467.89	6.064
468.24	6.022
468.59	5.968
468.94	6.159
469.29	6.820
469.64	7.040
469.99	6.377
470.34	5.188
470.68	6.637
471.03	5.874
471.38	6.348
471.73	6.373
472.08	6.106
472.43	5.503
472.78	5.757
473.13	5.578
473.48	5.668
473.83	6.974
474.17	6.412
474.52	6.382
474.87	6.848
475.22	5.674
475.57	5.985
475.92	6.747
476.27	6.985
476.61	7.176
476.96	5.689
477.31	6.436
477.66	6.292
478.01	5.727
478.36	6.046
478.70	6.253
479.05	6.044
479.40	6.253
479.75	5.996
480.10	6.298
480.45	5.300
480.79	6.244
481.14	6.455
481.49	5.419
481.84	6.371
482.19	6.268
482.53	6.331
482.88	5.680
483.23	6.382
483.58	6.321
483.92	5.566
484.27	5.697
484.62	6.051
484.97	5.929
485.31	5.744
485.66	5.803
486.01	6.050
486.36	5.892
486.70	5.910
487.05	5.852
487.40	5.998
487.75	6.394
488.09	5.902
488.44	5.743
488.79	6.276
489.13	6.050
489.48	5.772
489.83	5.874
490.17	5.438
490.52	4.988
490.87	5.599
491.22	5.635
491.56	5.028
491.91	5.832
492.26	5.882
492.60	6.046
492.95	6.936
493.30	6.009
493.64	5.206
493.99	6.425
494.34	5.049
494.68	5.714
495.03	5.547
495.37	5.741
495.72	5.856
496.07	5.756
496.41	5.519
496.76	5.389
497.11	5.170
497.45	5.632
497.80	6.307
498.14	6.110
498.49	5.028
498.84	5.539
499.18	5.371
499.53	5.952
499.87	4.961
500.22	5.341
500.56	6.152
500.91	5.673
501.26	4.894
501.60	5.558
501.95	5.628
502.29	5.956
502.64	6.274
502.98	5.575
503.33	5.187
503.67	5.590
504.02	5.621
504.36	6.037
504.71	4.848
505.06	5.284
505.40	5.178
505.75	5.773
506.09	6.082
506.44	6.263
506.78	5.969
507.13	5.843
507.47	5.274
507.82	4.594
508.16	5.652
508.51	6.086
508.85	5.913
509.19	5.269
509.54	6.381
509.88	5.609
510.23	5.756
510.57	5.184
510.92	4.638
511.26	4.746
511.61	5.721
511.95	5.260
512.30	5.488
512.64	6.455
512.98	4.829
513.33	6.267
513.67	5.344
514.02	6.121
514.36	5.886
514.70	6.002
515.05	5.758
515.39	5.726
515.74	6.048
516.08	5.798
516.42	5.889
516.77	6.319
517.11	5.223
517.46	6.523
517.80	5.244
518.14	5.756
518.49	5.829
518.83	5.893
519.17	5.276
519.52	5.269
519.86	4.622
520.20	5.346
520.55	4.378
520.89	6.399
521.23	6.270
521.58	6.309
521.92	5.577
522.26	5.530
522.61	5.195
522.95	5.298
523.29	5.337
523.64	6.099
523.98	5.574
524.32	4.832
524.66	5.954
525.01	5.844
525.35	6.351
525.69	4.916
526.04	5.556
526.38	7.263
526.72	5.298
527.06	5.383
527.41	6.398
527.75	4.491
528.09	5.781
528.43	6.752
528.78	5.017
529.12	5.548
529.46	6.238
529.80	6.333
530.15	5.545
530.49	4.781
530.83	5.882
531.17	5.238
531.51	5.062
531.86	5.778
532.20	5.080
532.54	6.263
532.88	6.502
533.22	5.847
533.57	5.439
533.91	4.961
534.25	6.445
534.59	5.324
534.93	5.727
535.27	5.140
535.62	4.925
535.96	5.936
536.30	5.145
536.64	5.307
536.98	5.436
537.32	5.903
537.66	5.891
538.01	4.895
538.35	4.854
538.69	5.925
539.03	5.468
539.37	6.258
539.71	6.135
540.05	5.295
540.39	4.917
540.73	5.649
541.07	5.939
541.42	6.586
541.76	4.749
542.10	4.749
542.44	5.281
542.78	5.162
543.12	5.082
543.46	5.981
543.80	5.135
544.14	4.606
544.48	5.063
544.82	5.468
545.16	5.328
545.50	6.409
545.84	5.382
546.18	5.957
546.52	5.191
546.86	5.320
547.20	5.937
547.54	4.735
547.88	5.299
548.22	4.734
548.56	5.277
548.90	5.863
549.24	5.716
549.58	5.783
549.92	5.575
550.26	5.495
550.60	5.279
550.94	5.527
551.28	5.719
551.62	4.538
551.96	5.714
552.30	5.336
552.64	4.584
552.98	4.712
553.32	5.492
553.66	4.209
554.00	4.380
554.34	5.835
554.68	5.088
555.02	6.324
555.36	4.488
555.69	4.689
556.03	5.211
556.37	4.270
556.71	5.126
557.05	4.847
557.39	3.792
557.73	4.648
558.07	5.128
558.41	4.824
558.75	5.378
559.08	4.334
559.42	5.476
559.76	4.804
560.10	4.205
560.44	4.542
560.78	5.385
561.12	4.443
561.45	5.060
561.79	6.022
562.13	4.471
562.47	5.612
562.81	5.764
563.15	5.712
563.48	5.658
563.82	5.903
564.16	4.875
564.50	5.068
564.84	6.091
565.17	5.231
565.51	6.148
565.85	5.075
566.19	5.836
566.52	6.032
566.86	5.591
567.20	4.857
567.54	4.927
567.88	5.097
568.21	4.977
568.55	4.674
568.89	5.647
569.23	4.766
569.56	4.597
569.90	5.035
570.24	5.434
570.57	5.164
570.91	5.403
571.25	5.130
571.59	4.889
571.92	5.215
572.26	5.163
572.60	5.023
572.93	5.020
573.27	5.361
573.61	4.714
573.95	5.243
574.28	5.217
574.62	5.111
574.96	5.236
575.29	4.796
575.63	5.053
575.97	4.906
576.30	4.836
576.64	5.351
576.98	5.302
577.31	5.308
577.65	4.908
577.98	5.178
578.32	5.026
578.66	5.093
578.99	5.171
579.33	4.846
579.67	5.173
580.00	5.266
580.34	5.050
580.67	4.896
581.01	4.923
581.35	5.103
581.68	5.156
582.02	4.955
582.35	4.958
582.69	4.967
583.02	4.935
583.36	5.039
583.70	5.504
584.03	5.199
584.37	5.364
584.70	5.192
585.04	4.974
585.37	5.430
585.71	4.962
586.04	5.018
586.38	4.748
586.72	5.136
587.05	5.170
587.39	5.256
587.72	5.331
588.06	5.314
588.39	5.184
588.73	4.976
589.06	5.349
589.40	5.358
589.73	5.294
590.07	5.438
590.40	5.302
590.73	5.189
591.07	5.004
591.40	5.076
591.74	5.430
592.07	5.334
592.41	5.345
592.74	5.098
593.08	4.855
593.41	4.712
593.75	4.874
594.08	5.012
594.41	5.058
594.75	5.229
595.08	5.070
595.42	4.711
595.75	5.032
596.09	5.082
596.42	5.126
596.75	5.018
597.09	5.376
597.42	4.697
597.75	5.085
598.09	5.206
598.42	4.829
598.76	4.976
599.09	5.449
599.42	5.343
599.76	4.966
600.09	4.977
600.42	4.852
600.76	4.681
601.09	5.076
601.42	5.445
601.76	5.042
602.09	4.703
602.42	5.223
602.76	5.475
603.09	4.900
603.42	4.975
603.76	4.516
604.09	4.334
604.42	5.330
604.76	5.251
605.09	5.850
605.42	4.786
605.75	4.904
606.09	4.628
606.42	5.379
606.75	5.368
607.09	5.319
607.42	4.829
607.75	4.929
608.08	4.672
608.42	5.391
608.75	5.205
609.08	4.983
609.41	4.670
609.75	4.788
610.08	5.342
610.41	5.217
610.74	4.778
611.07	4.651
611.41	5.501
611.74	5.810
612.07	5.139
612.40	4.486
612.73	4.746
613.07	5.062
613.40	5.799
613.73	4.421
614.06	5.843
614.39	5.245
614.72	5.546
615.06	4.860
615.39	5.349
615.72	5.113
616.05	5.196
616.38	4.558
616.71	4.709
617.05	5.374
617.38	4.965
617.71	5.220
618.04	5.714
618.37	5.738
618.70	4.950
619.03	5.556
619.36	3.618
619.69	5.004
620.03	5.771
620.36	5.866
620.69	5.996
621.02	5.122
621.35	5.062
621.68	4.592
622.01	4.750
622.34	5.666
622.67	6.467
623.00	6.815
623.33	4.802
623.66	4.488
623.99	5.371
624.32	5.475
624.65	4.135
624.99	5.493
625.32	4.397
625.65	5.499
625.98	5.157
626.31	4.821
626.64	5.199
626.97	5.934
627.30	6.655
627.63	5.893
627.96	4.762
628.29	4.533
628.62	6.785
628.95	5.711
629.28	4.940
629.61	4.885
629.94	4.692
630.26	4.941
630.59	4.579
630.92	5.538
631.25	5.128
631.58	3.744
631.91	4.276
632.24	4.243
632.57	6.477
632.90	3.559
633.23	4.941
633.56	5.793
633.89	4.439
634.22	5.926
634.55	4.574
634.88	3.448
635.20	5.385
635.53	4.667
635.86	5.072
636.19	6.468
636.52	4.082
636.85	2.978
637.18	4.025
637.51	6.164
637.83	5.913
638.16	6.276
638.49	3.406
638.82	5.658
639.15	4.885
639.48	4.952
639.81	5.439
640.13	4.618
640.46	3.353
640.79	4.418
641.12	5.170
641.45	5.556
641.77	5.481
642.10	6.161
642.43	3.698
642.76	6.106
643.09	3.231
643.41	3.722
643.74	6.096
644.07	6.240
644.40	4.561
644.73	5.779
645.05	5.872
645.38	5.820
645.71	3.901
646.04	4.129
646.36	4.965
646.69	7.194
647.02	3.403
647.35	5.597
647.67	4.205
648.00	5.410
648.33	5.802
648.66	4.576
648.98	3.350
649.31	2.975
649.64	3.768
649.96	3.728
650.29	5.111
650.62	4.444
650.94	4.630
651.27	3.166
651.60	6.667
651.92	6.294
652.25	3.375
652.58	5.333
652.90	6.690
653.23	5.042
653.56	5.245
653.88	4.124
654.21	4.203
654.54	3.905
654.86	4.414
655.19	3.363
655.52	6.037
655.84	4.850
656.17	5.501
656.49	7.282
656.82	7.768
657.15	6.015
657.47	4.497
657.80	3.408
658.13	3.380
658.45	5.013
