SpectraSuite Data File
++++++++++++++++++++++++++++++++++++
Date: Fri May 15 20:35:46 PDT 2015
User: schluterlab
Dark Spectrum Present: Yes
Reference Spectrum Present: Yes
Number of Sampled Component Spectra: 1
Spectrometers: USB2E3373
Integration Time (usec): 3000 (USB2E3373)
Spectra Averaged: 3 (USB2E3373)
Boxcar Smoothing: 0 (USB2E3373)
Correct for Electrical Dark: No (USB2E3373)
Strobe/Lamp Enabled: No (USB2E3373)
Correct for Detector Non-linearity: No (USB2E3373)
Correct for Stray Light: No (USB2E3373)
Number of Pixels in Processed Spectrum: 2048
>>>>>Begin Processed Spectral Data<<<<<
178.53	0.000
178.91	0.000
179.29	100.000
179.67	-1150.000
180.04	142.857
180.42	25.000
180.80	-1100.000
181.18	-0.000
181.56	450.000
181.94	-150.000
182.31	900.000
182.69	80.000
183.07	-233.333
183.45	-240.000
183.83	133.333
184.20	-72.727
184.58	122.222
184.96	150.000
185.34	133.333
185.72	-550.000
186.09	130.769
186.47	-500.000
186.85	116.667
187.23	100.000
187.61	300.000
187.98	-200.000
188.36	-66.667
188.74	-266.667
189.12	0.000
189.49	0.000
189.87	0.000
190.25	42.857
190.63	-50.000
191.00	-166.667
191.38	-36.842
191.76	-150.000
192.14	175.000
192.51	-300.000
192.89	-44.444
193.27	-100.000
193.65	150.000
194.02	172.727
194.40	-20.000
194.78	-200.000
195.15	-116.667
195.53	-187.500
195.91	400.000
196.29	-75.000
196.66	76.923
197.04	157.143
197.42	-233.333
197.79	-533.333
198.17	-46.154
198.55	1600.000
198.92	-400.000
199.30	-800.000
199.68	-140.000
200.05	-233.333
200.43	0.000
200.81	-433.333
201.18	66.667
201.56	1000.000
201.94	-300.000
202.31	300.000
202.69	-380.000
203.07	400.000
203.44	-200.000
203.82	0.000
204.19	-42.857
204.57	-433.333
204.95	150.000
205.32	50.000
205.70	-42.857
206.08	-125.000
206.45	122.222
206.83	71.429
207.20	-100.000
207.58	600.000
207.96	-200.000
208.33	-60.000
208.71	-225.000
209.08	-300.000
209.46	-1500.000
209.84	-180.000
210.21	-1600.000
210.59	-57.143
210.96	-100.000
211.34	-225.000
211.71	20.000
212.09	-28.571
212.46	-1700.000
212.84	0.000
213.22	100.000
213.59	150.000
213.97	-30.769
214.34	-18.182
214.72	-66.667
215.09	350.000
215.47	-15.385
215.84	-90.909
216.22	-133.333
216.59	37.500
216.97	-50.000
217.34	-100.000
217.72	-220.000
218.09	25.000
218.47	237.500
218.84	-400.000
219.22	-66.667
219.59	-60.000
219.97	300.000
220.34	200.000
220.72	0.000
221.09	-225.000
221.47	-650.000
221.84	-700.000
222.22	-900.000
222.59	-45.455
222.97	-141.667
223.34	-466.667
223.72	-71.429
224.09	-14.286
224.46	-3.571
224.84	633.333
225.21	-110.000
225.59	-26.667
225.96	-150.000
226.34	-50.000
226.71	-71.429
227.08	-183.333
227.46	-137.500
227.83	-750.000
228.21	-77.778
228.58	72.727
228.95	-12.500
229.33	140.000
229.70	-43.750
230.08	-37.500
230.45	-157.143
230.82	-71.429
231.20	-26.667
231.57	64.286
231.95	-71.429
232.32	-190.000
232.69	-50.000
233.07	-233.333
233.44	-180.000
233.81	-10.000
234.19	-11.111
234.56	-23.529
234.93	350.000
235.31	-100.000
235.68	-280.000
236.05	-146.154
236.43	-25.000
236.80	-11.765
237.17	18.750
237.55	-45.000
237.92	-18.519
238.29	-19.444
238.67	-40.000
239.04	-29.412
239.41	-29.268
239.79	-16.667
240.16	0.000
240.53	-21.053
240.91	-15.217
241.28	-6.349
241.65	3.571
242.02	-6.849
242.40	-5.000
242.77	1.695
243.14	-6.061
243.51	-10.000
243.89	-1.149
244.26	-18.391
244.63	-5.952
245.00	-4.124
245.38	5.155
245.75	-6.742
246.12	-6.034
246.49	5.785
246.87	0.962
247.24	-2.521
247.61	-17.544
247.98	-1.626
248.36	0.000
248.73	1.316
249.10	-2.597
249.47	1.266
249.84	-3.268
250.22	-2.353
250.59	-1.307
250.96	1.878
251.33	2.907
251.70	-1.765
252.08	5.584
252.45	0.000
252.82	-0.503
253.19	1.382
253.56	-3.738
253.94	-2.252
254.31	-0.435
254.68	1.754
255.05	0.787
255.42	3.493
255.79	1.158
256.16	2.335
256.54	2.985
256.91	-1.141
257.28	0.372
257.65	-2.622
258.02	-0.355
258.39	5.051
258.76	4.762
259.14	4.651
259.51	1.942
259.88	-1.718
260.25	1.634
260.62	5.556
260.99	-1.695
261.36	-3.082
261.73	-1.266
262.10	2.128
262.47	-3.067
262.85	0.000
263.22	0.923
263.59	1.869
263.96	2.174
264.33	3.939
264.70	-2.381
265.07	-0.595
265.44	5.666
265.81	1.130
266.18	0.820
266.55	2.828
266.92	3.109
267.29	0.783
267.66	0.256
268.03	2.094
268.40	0.261
268.77	2.406
269.14	3.118
269.51	4.370
269.88	3.491
270.25	-1.020
270.62	-2.927
270.99	0.512
271.36	2.934
271.73	1.408
272.10	3.893
272.47	2.837
272.84	0.495
273.21	4.408
273.58	1.928
273.95	0.686
274.32	-0.924
274.69	0.000
275.06	3.125
275.43	0.000
275.80	0.883
276.17	0.000
276.54	2.998
276.91	0.000
277.28	0.655
277.65	3.306
278.02	2.766
278.39	0.438
278.76	2.306
279.13	-2.905
279.50	1.681
279.87	3.456
280.23	1.505
280.60	4.094
280.97	3.030
281.34	1.923
281.71	2.669
282.08	4.294
282.45	1.370
282.82	-0.193
283.19	0.193
283.56	0.963
283.92	1.139
284.29	-1.154
284.66	2.132
285.03	0.786
285.40	0.000
285.77	0.351
286.14	3.249
286.51	3.321
286.87	1.463
287.24	1.657
287.61	0.529
287.98	2.982
288.35	2.946
288.72	1.576
289.08	1.736
289.45	1.230
289.82	1.573
290.19	1.024
290.56	1.372
290.93	1.010
291.29	0.616
291.66	2.677
292.03	1.754
292.40	1.129
292.77	1.914
293.13	0.487
293.50	0.607
293.87	1.679
294.24	3.555
294.60	2.832
294.97	3.423
295.34	0.767
295.71	1.490
296.08	1.943
296.44	0.000
296.81	2.222
297.18	1.739
297.55	2.710
297.91	1.370
298.28	2.639
298.65	1.493
299.02	1.617
299.38	0.958
299.75	0.966
300.12	0.524
300.48	2.899
300.85	2.281
301.22	2.338
301.59	2.500
301.95	2.278
302.32	2.335
302.69	1.741
303.05	2.104
303.42	2.989
303.79	2.453
304.15	3.106
304.52	1.070
304.89	2.105
305.25	1.332
305.62	1.517
305.99	1.988
306.35	1.503
306.72	1.012
307.09	3.079
307.45	2.181
307.82	2.083
308.19	2.323
308.55	2.508
308.92	3.922
309.29	0.670
309.65	1.399
310.02	2.090
310.38	2.086
310.75	1.530
311.12	2.799
311.48	2.863
311.85	2.618
312.22	2.004
312.58	2.335
312.95	1.067
313.31	3.106
313.68	2.094
314.05	1.735
314.41	3.093
314.78	2.784
315.14	3.494
315.51	3.934
315.87	2.971
316.24	4.449
316.61	3.051
316.97	4.663
317.34	2.637
317.70	3.250
318.07	3.558
318.43	2.549
318.80	2.462
319.16	2.930
319.53	4.084
319.89	3.445
320.26	4.150
320.62	4.614
320.99	4.071
321.35	3.803
321.72	5.192
322.08	3.625
322.45	4.264
322.81	3.340
323.18	2.944
323.54	3.282
323.91	4.090
324.27	3.711
324.64	5.712
325.00	4.745
325.37	5.234
325.73	4.714
326.10	4.269
326.46	5.202
326.83	4.462
327.19	5.057
327.56	4.344
327.92	5.018
328.29	3.929
328.65	4.811
329.01	4.596
329.38	4.424
329.74	3.872
330.11	4.819
330.47	3.525
330.84	4.038
331.20	5.798
331.56	3.519
331.93	5.662
332.29	4.950
332.66	3.891
333.02	5.112
333.38	5.133
333.75	4.853
334.11	4.834
334.48	4.442
334.84	4.121
335.20	5.124
335.57	4.442
335.93	4.517
336.29	4.880
336.66	3.996
337.02	3.717
337.38	3.704
337.75	4.273
338.11	4.238
338.47	4.562
338.84	4.344
339.20	4.845
339.56	3.853
339.93	5.551
340.29	4.862
340.65	3.943
341.02	2.926
341.38	3.451
341.74	4.417
342.11	3.986
342.47	3.381
342.83	4.671
343.20	4.181
343.56	3.826
343.92	3.277
344.28	5.380
344.65	3.627
345.01	4.062
345.37	4.037
345.73	4.937
346.10	4.142
346.46	4.037
346.82	4.337
347.19	4.239
347.55	4.261
347.91	4.369
348.27	5.578
348.63	5.366
349.00	4.594
349.36	2.993
349.72	4.892
350.08	4.754
350.45	4.868
350.81	3.322
351.17	3.827
351.53	3.755
351.89	4.294
352.26	3.520
352.62	4.839
352.98	4.177
353.34	4.026
353.70	4.450
354.07	3.952
354.43	3.603
354.79	4.211
355.15	4.127
355.51	4.430
355.87	4.207
356.24	4.078
356.60	4.931
356.96	4.524
357.32	4.792
357.68	4.144
358.04	3.716
358.40	2.170
358.77	4.785
359.13	3.763
359.49	4.083
359.85	3.120
360.21	3.589
360.57	4.055
360.93	4.160
361.29	2.039
361.66	4.389
362.02	4.167
362.38	3.275
362.74	3.634
363.10	4.816
363.46	3.929
363.82	5.184
364.18	4.428
364.54	3.015
364.90	3.226
365.26	2.838
365.62	5.109
365.98	4.692
366.35	4.953
366.71	3.843
367.07	4.136
367.43	2.588
367.79	3.675
368.15	3.374
368.51	3.860
368.87	2.656
369.23	3.394
369.59	3.790
369.95	4.399
370.31	4.552
370.67	3.582
371.03	2.763
371.39	2.845
371.75	3.956
372.11	4.280
372.47	4.068
372.83	3.407
373.19	4.280
373.55	3.249
373.91	3.816
374.27	3.614
374.63	3.589
374.99	3.617
375.35	3.900
375.71	5.035
376.07	4.213
376.42	3.946
376.78	3.758
377.14	3.521
377.50	3.785
377.86	4.485
378.22	3.063
378.58	3.333
378.94	3.781
379.30	3.930
379.66	3.887
380.02	3.311
380.38	3.287
380.74	2.932
381.09	3.926
381.45	3.547
381.81	3.763
382.17	3.426
382.53	3.373
382.89	3.453
383.25	3.796
383.61	4.146
383.97	3.365
384.32	3.002
384.68	3.034
385.04	3.186
385.40	2.676
385.76	4.277
386.12	4.463
386.48	3.704
386.83	3.171
387.19	4.090
387.55	3.513
387.91	3.790
388.27	4.029
388.62	3.587
388.98	4.052
389.34	4.185
389.70	4.413
390.06	3.147
390.42	3.692
390.77	3.532
391.13	3.657
391.49	3.428
391.85	4.353
392.20	4.206
392.56	3.687
392.92	4.052
393.28	3.302
393.64	3.183
393.99	4.075
394.35	3.226
394.71	3.321
395.07	3.080
395.42	3.643
395.78	3.518
396.14	3.405
396.50	3.424
396.85	3.026
397.21	3.634
397.57	2.947
397.92	3.475
398.28	3.448
398.64	3.494
399.00	3.837
399.35	3.612
399.71	3.561
400.07	3.325
400.42	3.917
400.78	3.919
401.14	3.993
401.49	4.110
401.85	3.595
402.21	3.795
402.57	3.438
402.92	3.074
403.28	3.571
403.63	3.216
403.99	2.806
404.35	2.811
404.70	3.512
405.06	3.290
405.42	2.797
405.77	2.499
406.13	2.678
406.49	2.783
406.84	3.301
407.20	3.251
407.55	2.704
407.91	2.607
408.27	3.250
408.62	3.877
408.98	3.574
409.34	3.036
409.69	3.424
410.05	2.894
410.40	3.148
410.76	3.679
411.11	3.438
411.47	3.353
411.83	2.448
412.18	2.896
412.54	3.059
412.89	3.387
413.25	3.610
413.60	2.360
413.96	2.699
414.31	3.780
414.67	3.784
415.03	2.530
415.38	3.068
415.74	3.518
416.09	3.135
416.45	3.174
416.80	2.842
417.16	2.901
417.51	3.864
417.87	3.064
418.22	3.044
418.58	2.542
418.93	3.762
419.29	2.369
419.64	3.629
420.00	3.967
420.35	3.761
420.71	4.070
421.06	3.008
421.42	3.786
421.77	3.121
422.12	3.008
422.48	2.978
422.83	3.944
423.19	4.120
423.54	2.175
423.90	2.532
424.25	3.215
424.61	3.672
424.96	3.020
425.31	3.871
425.67	3.228
426.02	3.475
426.38	3.444
426.73	3.148
427.09	3.608
427.44	3.471
427.79	3.182
428.15	3.762
428.50	3.028
428.85	2.764
429.21	3.339
429.56	3.504
429.92	3.955
430.27	3.459
430.62	2.927
430.98	2.495
431.33	3.733
431.68	2.773
432.04	3.298
432.39	3.080
432.74	3.428
433.10	3.908
433.45	3.584
433.80	2.960
434.16	2.659
434.51	3.548
434.86	3.078
435.22	3.646
435.57	3.119
435.92	2.754
436.28	3.339
436.63	3.195
436.98	3.360
437.34	3.085
437.69	3.518
438.04	3.077
438.39	2.810
438.75	2.914
439.10	3.452
439.45	2.800
439.81	2.997
440.16	3.029
440.51	3.463
440.86	4.290
441.22	3.337
441.57	3.146
441.92	3.568
442.27	3.548
442.63	4.283
442.98	3.791
443.33	3.617
443.68	3.236
444.03	3.726
444.39	3.689
444.74	4.181
445.09	3.619
445.44	4.046
445.79	3.920
446.15	3.634
446.50	3.439
446.85	3.401
447.20	3.389
447.55	4.855
447.91	3.271
448.26	4.439
448.61	3.454
448.96	3.328
449.31	3.584
449.66	3.891
450.02	3.195
450.37	3.142
450.72	3.780
451.07	4.051
451.42	3.870
451.77	3.797
452.12	3.947
452.47	3.799
452.83	3.357
453.18	3.858
453.53	3.477
453.88	3.400
454.23	4.118
454.58	3.715
454.93	4.317
455.28	2.984
455.63	3.844
455.98	4.269
456.34	4.215
456.69	4.257
457.04	3.781
457.39	3.402
457.74	2.721
458.09	3.355
458.44	3.569
458.79	3.754
459.14	3.661
459.49	3.701
459.84	4.230
460.19	3.641
460.54	3.790
460.89	3.920
461.24	3.416
461.59	4.394
461.94	3.585
462.29	4.162
462.64	3.987
462.99	4.130
463.34	3.338
463.69	3.604
464.04	4.479
464.39	3.639
464.74	3.681
465.09	4.304
465.44	4.212
465.79	3.515
466.14	4.732
466.49	3.910
466.84	4.700
467.19	4.631
467.54	4.981
467.89	3.538
468.24	3.650
468.59	3.810
468.94	3.873
469.29	4.459
469.64	4.375
469.99	4.695
470.34	3.276
470.68	2.983
471.03	4.388
471.38	3.424
471.73	3.151
472.08	3.799
472.43	3.356
472.78	3.633
473.13	3.673
473.48	4.104
473.83	3.861
474.17	4.534
474.52	3.382
474.87	4.303
475.22	4.088
475.57	3.219
475.92	4.114
476.27	4.307
476.61	3.530
476.96	3.569
477.31	4.273
477.66	3.483
478.01	3.987
478.36	3.159
478.70	4.078
479.05	4.011
479.40	4.452
479.75	3.285
480.10	4.045
480.45	3.950
480.79	4.179
481.14	3.535
481.49	3.448
481.84	3.571
482.19	3.555
482.53	3.741
482.88	3.819
483.23	4.463
483.58	3.962
483.92	3.969
484.27	3.327
484.62	3.720
484.97	4.229
485.31	3.468
485.66	3.896
486.01	4.066
486.36	4.089
486.70	4.036
487.05	3.976
487.40	3.826
487.75	3.944
488.09	3.739
488.44	4.058
488.79	4.072
489.13	4.087
489.48	3.891
489.83	4.170
490.17	3.596
490.52	3.510
490.87	3.609
491.22	3.629
491.56	3.748
491.91	3.776
492.26	3.695
492.60	3.503
492.95	4.181
493.30	3.957
493.64	3.242
493.99	4.203
494.34	3.058
494.68	4.048
495.03	3.455
495.37	3.729
495.72	4.291
496.07	3.707
496.41	3.208
496.76	3.915
497.11	3.680
497.45	4.153
497.80	3.986
498.14	3.974
498.49	3.809
498.84	4.192
499.18	4.769
499.53	3.919
499.87	3.453
500.22	3.709
500.56	4.135
500.91	4.217
501.26	4.004
501.60	3.640
501.95	4.270
502.29	3.874
502.64	3.764
502.98	3.404
503.33	3.266
503.67	3.470
504.02	4.497
504.36	3.810
504.71	3.737
505.06	3.171
505.40	3.706
505.75	3.918
506.09	3.953
506.44	3.953
506.78	4.235
507.13	4.343
507.47	3.446
507.82	3.259
508.16	3.487
508.51	3.253
508.85	3.454
509.19	2.555
509.54	3.539
509.88	3.344
510.23	3.335
510.57	4.115
510.92	2.665
511.26	3.601
511.61	4.015
511.95	4.055
512.30	3.603
512.64	4.062
512.98	3.537
513.33	4.029
513.67	3.582
514.02	5.034
514.36	4.400
514.70	5.012
515.05	4.230
515.39	4.014
515.74	4.132
516.08	3.586
516.42	4.417
516.77	3.745
517.11	3.323
517.46	4.069
517.80	3.754
518.14	4.103
518.49	4.147
518.83	3.341
519.17	3.699
519.52	3.079
519.86	3.421
520.20	3.888
520.55	3.690
520.89	3.513
521.23	4.053
521.58	4.669
521.92	3.654
522.26	3.904
522.61	3.377
522.95	3.642
523.29	4.257
523.64	5.019
523.98	3.953
524.32	3.157
524.66	3.905
525.01	3.896
525.35	5.250
525.69	2.896
526.04	3.902
526.38	5.123
526.72	3.074
527.06	3.567
527.41	4.815
527.75	3.150
528.09	4.252
528.43	4.794
528.78	3.432
529.12	3.548
529.46	3.444
529.80	4.750
530.15	4.290
530.49	3.367
530.83	3.830
531.17	3.425
531.51	3.830
531.86	3.263
532.20	2.436
532.54	4.629
532.88	4.038
533.22	4.099
533.57	4.456
533.91	3.394
534.25	4.427
534.59	3.656
534.93	3.713
535.27	3.046
535.62	3.305
535.96	4.175
536.30	4.288
536.64	3.997
536.98	2.718
537.32	4.552
537.66	4.628
538.01	3.566
538.35	3.259
538.69	3.995
539.03	3.486
539.37	4.441
539.71	3.681
540.05	3.327
540.39	4.224
540.73	4.393
541.07	4.834
541.42	4.435
541.76	3.785
542.10	4.061
542.44	3.822
542.78	2.891
543.12	3.571
543.46	4.312
543.80	4.511
544.14	2.937
544.48	3.997
544.82	3.759
545.16	4.372
545.50	5.207
545.84	3.895
546.18	4.113
546.52	3.821
546.86	4.026
547.20	4.435
547.54	4.028
547.88	4.416
548.22	2.893
548.56	3.958
548.90	3.976
549.24	3.306
549.58	3.949
549.92	3.503
550.26	3.810
550.60	3.048
550.94	3.435
551.28	2.937
551.62	3.692
551.96	3.233
552.30	3.070
552.64	2.750
552.98	4.290
553.32	3.352
553.66	3.266
554.00	3.431
554.34	3.545
554.68	3.687
555.02	4.836
555.36	3.590
555.69	2.857
556.03	3.783
556.37	3.915
556.71	3.682
557.05	3.057
557.39	3.048
557.73	3.298
558.07	4.374
558.41	4.594
558.75	3.429
559.08	3.388
559.42	2.619
559.76	3.042
560.10	3.746
560.44	2.978
560.78	4.825
561.12	4.161
561.45	3.865
561.79	3.992
562.13	3.549
562.47	3.165
562.81	3.386
563.15	4.443
563.48	4.243
563.82	4.461
564.16	3.969
564.50	2.770
564.84	3.481
565.17	4.091
565.51	4.098
565.85	3.361
566.19	3.382
566.52	3.619
566.86	4.306
567.20	4.047
567.54	3.285
567.88	3.456
568.21	4.129
568.55	3.533
568.89	3.645
569.23	3.900
569.56	3.109
569.90	4.101
570.24	3.982
570.57	3.564
570.91	4.252
571.25	3.617
571.59	3.613
571.92	3.793
572.26	3.684
572.60	3.597
572.93	4.079
573.27	3.699
573.61	3.819
573.95	3.796
574.28	3.655
574.62	3.407
574.96	3.790
575.29	3.786
575.63	3.446
575.97	3.334
576.30	3.486
576.64	3.470
576.98	3.552
577.31	3.785
577.65	3.807
577.98	3.677
578.32	3.796
578.66	3.503
578.99	3.837
579.33	3.497
579.67	3.659
580.00	3.418
580.34	3.582
580.67	3.388
581.01	3.890
581.35	3.639
581.68	3.877
582.02	3.597
582.35	4.048
582.69	3.740
583.02	3.632
583.36	3.785
583.70	3.920
584.03	3.586
584.37	4.178
584.70	3.901
585.04	3.446
585.37	4.005
585.71	3.777
586.04	3.883
586.38	3.361
586.72	4.017
587.05	3.899
587.39	3.970
587.72	3.937
588.06	3.875
588.39	3.874
588.73	3.510
589.06	4.044
589.40	4.286
589.73	4.527
590.07	4.041
590.40	3.947
590.73	4.160
591.07	3.944
591.40	3.963
591.74	3.891
592.07	4.453
592.41	3.887
592.74	3.624
593.08	3.807
593.41	3.822
593.75	3.991
594.08	3.845
594.41	3.967
594.75	3.931
595.08	3.973
595.42	3.828
595.75	3.718
596.09	3.479
596.42	3.803
596.75	4.485
597.09	3.599
597.42	4.246
597.75	3.481
598.09	4.120
598.42	3.520
598.76	3.775
599.09	4.127
599.42	3.751
599.76	3.875
600.09	3.695
600.42	4.359
600.76	3.752
601.09	3.206
601.42	3.878
601.76	3.573
602.09	3.672
602.42	3.665
602.76	3.693
603.09	4.236
603.42	4.306
603.76	3.347
604.09	3.686
604.42	4.357
604.76	4.450
605.09	4.068
605.42	3.792
605.75	3.853
606.09	3.652
606.42	4.045
606.75	3.853
607.09	4.220
607.42	3.323
607.75	3.730
608.08	3.729
608.42	4.431
608.75	4.048
609.08	3.288
609.41	3.604
609.75	3.780
610.08	3.994
610.41	3.865
610.74	3.901
611.07	3.669
611.41	3.892
611.74	4.211
612.07	3.854
612.40	4.267
612.73	3.446
613.07	3.656
613.40	4.486
613.73	3.190
614.06	4.229
614.39	4.569
614.72	3.697
615.06	3.464
615.39	4.312
615.72	3.875
616.05	4.469
616.38	3.476
616.71	3.914
617.05	4.077
617.38	3.960
617.71	4.340
618.04	3.556
618.37	4.729
618.70	4.620
619.03	4.514
619.36	2.894
619.69	3.942
620.03	4.164
620.36	3.934
620.69	3.854
621.02	4.358
621.35	4.813
621.68	3.741
622.01	4.167
622.34	4.469
622.67	4.259
623.00	4.135
623.33	4.192
623.66	3.441
623.99	4.236
624.32	4.259
624.65	2.105
624.99	4.138
625.32	3.184
625.65	4.870
625.98	3.948
626.31	3.574
626.64	4.159
626.97	4.887
627.30	4.641
627.63	4.853
627.96	4.313
628.29	4.625
628.62	3.048
628.95	3.507
629.28	3.226
629.61	2.991
629.94	4.692
630.26	4.348
630.59	5.411
630.92	4.615
631.25	4.410
631.58	3.084
631.91	3.509
632.24	2.752
632.57	4.545
632.90	5.101
633.23	4.000
633.56	3.275
633.89	3.329
634.22	4.074
634.55	3.939
634.88	3.193
635.20	2.564
635.53	2.800
635.86	2.601
636.19	5.175
636.52	3.954
636.85	2.978
637.18	2.138
637.51	4.780
637.83	3.285
638.16	4.638
638.49	3.815
638.82	6.711
639.15	2.578
639.48	2.476
639.81	4.742
640.13	2.453
640.46	3.644
640.79	2.062
641.12	2.363
641.45	3.303
641.77	3.111
642.10	6.635
642.43	3.055
642.76	4.785
643.09	4.200
643.41	2.913
643.74	3.624
644.07	4.433
644.40	5.068
644.73	4.553
645.05	4.866
645.38	4.586
645.71	4.078
646.04	3.052
646.36	4.610
646.69	3.957
647.02	3.592
647.35	4.851
647.67	2.925
648.00	3.918
648.33	4.437
648.66	1.186
648.98	2.178
649.31	1.653
649.64	3.454
649.96	2.917
650.29	4.089
650.62	4.957
650.94	3.333
651.27	2.235
651.60	4.685
651.92	4.895
652.25	2.842
652.58	4.167
652.90	5.317
653.23	3.025
653.56	1.692
653.88	1.375
654.21	1.226
654.54	3.396
654.86	4.414
655.19	2.339
655.52	4.721
655.84	3.895
656.17	4.581
656.49	5.943
656.82	6.371
657.15	4.925
