SpectraSuite Data File
++++++++++++++++++++++++++++++++++++
Date: Fri May 15 21:07:23 PDT 2015
User: schluterlab
Dark Spectrum Present: Yes
Reference Spectrum Present: Yes
Number of Sampled Component Spectra: 1
Spectrometers: USB2E3373
Integration Time (usec): 3000 (USB2E3373)
Spectra Averaged: 3 (USB2E3373)
Boxcar Smoothing: 0 (USB2E3373)
Correct for Electrical Dark: No (USB2E3373)
Strobe/Lamp Enabled: No (USB2E3373)
Correct for Detector Non-linearity: No (USB2E3373)
Correct for Stray Light: No (USB2E3373)
Number of Pixels in Processed Spectrum: 2048
>>>>>Begin Processed Spectral Data<<<<<
178.53	0.000
178.91	0.000
179.29	37.500
179.67	-550.000
180.04	28.571
180.42	100.000
180.80	-800.000
181.18	166.667
181.56	900.000
181.94	-100.000
182.31	700.000
182.69	0.000
183.07	-366.667
183.45	-200.000
183.83	150.000
184.20	27.273
184.58	144.444
184.96	25.000
185.34	66.667
185.72	-100.000
186.09	61.538
186.47	-800.000
186.85	216.667
187.23	144.444
187.61	-700.000
187.98	-266.667
188.36	-33.333
188.74	-433.333
189.12	35.294
189.49	66.667
189.87	0.000
190.25	-42.857
190.63	-100.000
191.00	-133.333
191.38	21.053
191.76	0.000
192.14	125.000
192.51	-350.000
192.89	-66.667
193.27	-171.429
193.65	150.000
194.02	109.091
194.40	10.000
194.78	-225.000
195.15	-91.667
195.53	-62.500
195.91	-50.000
196.29	-75.000
196.66	84.615
197.04	142.857
197.42	-66.667
197.79	-466.667
198.17	-84.615
198.55	1000.000
198.92	-366.667
199.30	-100.000
199.68	-280.000
200.05	-400.000
200.43	0.000
200.81	-66.667
201.18	-400.000
201.56	1300.000
201.94	-250.000
202.31	-33.333
202.69	-220.000
203.07	350.000
203.44	700.000
203.82	0.000
204.19	-7.143
204.57	-433.333
204.95	150.000
205.32	60.000
205.70	-85.714
206.08	0.000
206.45	88.889
206.83	7.143
207.20	-114.286
207.58	1100.000
207.96	-400.000
208.33	-60.000
208.71	-275.000
209.08	-133.333
209.46	-700.000
209.84	-100.000
210.21	-1900.000
210.59	0.000
210.96	116.667
211.34	-225.000
211.71	-26.667
212.09	-185.714
212.46	-1700.000
212.84	0.000
213.22	-60.000
213.59	700.000
213.97	38.462
214.34	0.000
214.72	-116.667
215.09	575.000
215.47	-61.538
215.84	-90.909
216.22	-366.667
216.59	87.500
216.97	-250.000
217.34	-400.000
217.72	-120.000
218.09	137.500
218.47	125.000
218.84	-1300.000
219.22	-66.667
219.59	-100.000
219.97	266.667
220.34	425.000
220.72	-100.000
221.09	-125.000
221.47	0.000
221.84	-800.000
222.22	-950.000
222.59	-18.182
222.97	-16.667
223.34	-66.667
223.72	-64.286
224.09	4.762
224.46	-7.143
224.84	466.667
225.21	-20.000
225.59	-20.000
225.96	-400.000
226.34	150.000
226.71	42.857
227.08	-50.000
227.46	-87.500
227.83	-800.000
228.21	-11.111
228.58	-54.545
228.95	-150.000
229.33	10.000
229.70	37.500
230.08	-187.500
230.45	-128.571
230.82	-71.429
231.20	-80.000
231.57	50.000
231.95	57.143
232.32	-120.000
232.69	42.857
233.07	166.667
233.44	-280.000
233.81	-70.000
234.19	11.111
234.56	-11.765
234.93	50.000
235.31	-100.000
235.68	-280.000
236.05	-38.462
236.43	0.000
236.80	-41.176
237.17	3.125
237.55	-20.000
237.92	-25.926
238.29	0.000
238.67	10.000
239.04	20.588
239.41	-17.073
239.79	-6.667
240.16	4.878
240.53	26.316
240.91	0.000
241.28	23.810
241.65	10.714
242.02	19.178
242.40	30.000
242.77	32.203
243.14	18.182
243.51	22.500
243.89	19.540
244.26	14.943
244.63	25.000
245.00	17.526
245.38	19.588
245.75	28.090
246.12	29.310
246.49	24.793
246.87	22.115
247.24	21.008
247.61	21.930
247.98	26.016
248.36	23.125
248.73	26.974
249.10	20.779
249.47	21.519
249.84	23.529
250.22	25.294
250.59	28.758
250.96	30.047
251.33	24.419
251.70	32.353
252.08	23.858
252.45	22.772
252.82	24.121
253.19	28.571
253.56	29.907
253.94	35.586
254.31	26.957
254.68	32.456
255.05	27.165
255.42	33.624
255.79	27.027
256.16	28.794
256.54	30.224
256.91	29.278
257.28	26.022
257.65	26.217
258.02	28.723
258.39	27.946
258.76	34.432
259.14	29.568
259.51	23.625
259.88	30.241
260.25	26.144
260.62	34.722
260.99	25.424
261.36	28.767
261.73	28.165
262.10	29.179
262.47	29.755
262.85	30.408
263.22	28.923
263.59	30.530
263.96	29.193
264.33	30.606
264.70	27.976
265.07	30.952
265.44	32.011
265.81	29.379
266.18	29.781
266.55	30.848
266.92	30.311
267.29	29.765
267.66	27.877
268.03	27.749
268.40	28.982
268.77	29.679
269.14	29.976
269.51	30.334
269.88	29.925
270.25	28.571
270.62	25.366
270.99	29.412
271.36	25.672
271.73	30.751
272.10	27.251
272.47	30.496
272.84	29.208
273.21	26.450
273.58	28.916
273.95	29.977
274.32	26.328
274.69	26.697
275.06	30.804
275.43	28.345
275.80	28.035
276.17	25.287
276.54	28.694
276.91	30.702
277.28	27.074
277.65	29.545
278.02	28.085
278.39	27.133
278.76	27.673
279.13	24.896
279.50	28.361
279.87	28.294
280.23	28.602
280.60	27.096
280.97	29.899
281.34	26.538
281.71	33.265
282.08	25.971
282.45	26.419
282.82	25.290
283.19	26.499
283.56	26.975
283.92	26.186
284.29	25.192
284.66	25.388
285.03	29.077
285.40	26.276
285.77	25.659
286.14	26.534
286.51	30.812
286.87	27.057
287.24	27.808
287.61	24.162
287.98	25.263
288.35	26.863
288.72	26.445
289.08	26.215
289.45	25.659
289.82	25.000
290.19	26.792
290.56	23.499
290.93	25.421
291.29	23.267
291.66	24.567
292.03	22.967
292.40	24.032
292.77	24.402
293.13	23.214
293.50	22.307
293.87	25.191
294.24	22.566
294.60	24.739
294.97	22.321
295.34	22.239
295.71	22.653
296.08	20.777
296.44	19.772
296.81	21.389
297.18	22.464
297.55	22.629
297.91	21.918
298.28	21.504
298.65	21.031
299.02	21.024
299.38	20.246
299.75	20.000
300.12	20.288
300.48	19.499
300.85	20.279
301.22	20.390
301.59	19.868
301.95	20.000
302.32	21.271
302.69	20.398
303.05	20.421
303.42	20.174
303.79	19.860
304.15	21.027
304.52	18.193
304.89	19.883
305.25	19.370
305.62	18.320
305.99	19.415
306.35	18.844
306.72	19.910
307.09	19.840
307.45	18.255
307.82	19.329
308.19	19.977
308.55	18.975
308.92	20.153
309.29	19.777
309.65	18.515
310.02	19.032
310.38	19.210
310.75	18.907
311.12	19.053
311.48	18.664
311.85	19.686
312.22	18.460
312.58	18.577
312.95	17.396
313.31	18.530
313.68	17.801
314.05	18.673
314.41	18.041
314.78	17.938
315.14	19.219
315.51	19.565
315.87	19.467
316.24	19.110
316.61	19.094
316.97	18.353
317.34	18.652
317.70	18.451
318.07	17.308
318.43	19.020
318.80	17.803
319.16	18.359
319.53	17.949
319.89	16.142
320.26	16.802
320.62	19.157
320.99	16.493
321.35	18.294
321.72	18.795
322.08	18.328
322.45	18.680
322.81	19.646
323.18	16.781
323.54	18.050
323.91	17.916
324.27	17.773
324.64	18.258
325.00	17.245
325.37	17.906
325.73	16.228
326.10	16.621
326.46	18.117
326.83	17.848
327.19	18.483
327.56	17.202
327.92	17.782
328.29	17.232
328.65	17.925
329.01	18.015
329.38	17.235
329.74	16.714
330.11	18.072
330.47	15.677
330.84	16.346
331.20	19.011
331.56	16.481
331.93	17.808
332.29	17.140
332.66	16.742
333.02	15.892
333.38	16.774
333.75	17.033
334.11	16.473
334.48	17.770
334.84	18.040
335.20	17.109
335.57	16.682
335.93	16.712
336.29	17.035
336.66	16.167
337.02	16.171
337.38	15.370
337.75	17.455
338.11	16.952
338.47	17.974
338.84	15.804
339.20	16.088
339.56	16.606
339.93	16.383
340.29	15.321
340.65	17.204
341.02	16.933
341.38	16.372
341.74	16.784
342.11	15.945
342.47	16.904
342.83	17.388
343.20	15.854
343.56	17.478
343.92	15.943
344.28	16.225
344.65	16.321
345.01	15.298
345.37	17.157
345.73	16.904
346.10	16.480
346.46	16.569
346.82	15.957
347.19	15.711
347.55	16.291
347.91	16.424
348.27	14.956
348.63	17.121
349.00	15.587
349.36	15.794
349.72	15.755
350.08	15.984
350.45	15.403
350.81	16.113
351.17	15.554
351.53	16.327
351.89	15.359
352.26	15.200
352.62	15.968
352.98	15.743
353.34	15.942
353.70	16.019
354.07	16.290
354.43	16.733
354.79	16.598
355.15	16.825
355.51	15.981
355.87	15.453
356.24	15.579
356.60	14.551
356.96	16.746
357.32	16.054
357.68	14.777
358.04	16.074
358.40	15.595
358.77	16.029
359.13	15.212
359.49	15.254
359.85	15.445
360.21	15.869
360.57	15.149
360.93	15.961
361.29	13.973
361.66	16.458
362.02	15.227
362.38	16.146
362.74	16.124
363.10	16.328
363.46	15.567
363.82	16.228
364.18	16.089
364.54	15.294
364.90	14.982
365.26	14.920
365.62	16.131
365.98	14.736
366.35	16.897
366.71	15.521
367.07	15.675
367.43	15.385
367.79	15.689
368.15	15.506
368.51	15.004
368.87	14.645
369.23	14.801
369.59	14.869
369.95	15.323
370.31	16.040
370.67	15.821
371.03	15.385
371.39	14.734
371.75	14.066
372.11	15.193
372.47	14.941
372.83	15.188
373.19	15.050
373.55	14.657
373.91	15.479
374.27	15.450
374.63	14.716
374.99	14.965
375.35	15.111
375.71	14.895
376.07	15.028
376.42	14.626
376.78	15.034
377.14	15.098
377.50	15.339
377.86	14.926
378.22	14.742
378.58	15.128
378.94	14.934
379.30	14.099
379.66	16.301
380.02	15.328
380.38	14.668
380.74	15.081
381.09	15.276
381.45	14.985
381.81	14.929
382.17	15.482
382.53	14.366
382.89	14.815
383.25	14.748
383.61	15.000
383.97	13.905
384.32	15.885
384.68	14.489
385.04	15.012
385.40	13.628
385.76	15.535
386.12	16.171
386.48	15.453
386.83	14.965
387.19	15.201
387.55	14.931
387.91	14.181
388.27	14.652
388.62	15.041
388.98	14.487
389.34	14.616
389.70	14.978
390.06	14.160
390.42	14.637
390.77	14.061
391.13	14.250
391.49	14.295
391.85	15.075
392.20	14.187
392.56	14.622
392.92	15.208
393.28	14.917
393.64	14.655
393.99	15.611
394.35	13.978
394.71	15.390
395.07	15.211
395.42	14.390
395.78	14.788
396.14	14.880
396.50	15.155
396.85	14.746
397.21	14.035
397.57	14.420
397.92	14.380
398.28	14.943
398.64	14.277
399.00	14.391
399.35	14.052
399.71	14.877
400.07	14.994
400.42	14.504
400.78	15.309
401.14	15.124
401.49	14.532
401.85	14.503
402.21	15.482
402.57	14.562
402.92	13.676
403.28	15.100
403.63	14.628
403.99	14.796
404.35	15.116
404.70	13.929
405.06	15.276
405.42	14.916
405.77	14.178
406.13	14.377
406.49	14.624
406.84	13.998
407.20	14.871
407.55	14.810
407.91	14.171
408.27	14.723
408.62	14.831
408.98	13.925
409.34	14.870
409.69	13.824
410.05	14.778
410.40	13.580
410.76	14.897
411.11	14.375
411.47	15.187
411.83	14.124
412.18	14.929
412.54	14.419
412.89	13.732
413.25	14.621
413.60	14.596
413.96	15.031
414.31	15.549
414.67	13.470
415.03	14.115
415.38	14.817
415.74	14.853
416.09	14.566
416.45	14.922
416.80	13.946
417.16	15.331
417.51	14.257
417.87	13.559
418.22	15.155
418.58	14.515
418.93	14.608
419.29	14.149
419.64	14.647
420.00	15.365
420.35	14.567
420.71	15.249
421.06	14.672
421.42	15.385
421.77	14.277
422.12	14.926
422.48	14.239
422.83	13.631
423.19	15.406
423.54	14.168
423.90	14.193
424.25	14.696
424.61	15.422
424.96	13.995
425.31	15.482
425.67	15.376
426.02	16.078
426.38	15.153
426.73	15.254
427.09	15.316
427.44	15.235
427.79	15.910
428.15	14.624
428.50	14.234
428.85	14.373
429.21	14.658
429.56	14.987
429.92	14.689
430.27	15.038
430.62	13.696
430.98	14.437
431.33	14.984
431.68	14.338
432.04	14.869
432.39	14.661
432.74	14.071
433.10	15.402
433.45	15.412
433.80	14.742
434.16	13.684
434.51	14.785
434.86	14.402
435.22	14.133
435.57	14.660
435.92	14.192
436.28	14.609
436.63	14.204
436.98	14.137
437.34	14.398
437.69	14.311
438.04	14.929
438.39	14.172
438.75	14.451
439.10	14.714
439.45	15.399
439.81	14.740
440.16	15.321
440.51	14.866
440.86	15.408
441.22	14.932
441.57	14.128
441.92	14.638
442.27	15.965
442.63	15.203
442.98	14.589
443.33	14.636
443.68	14.483
444.03	14.853
444.39	15.002
444.74	15.608
445.09	14.978
445.44	15.100
445.79	15.884
446.15	14.648
446.50	14.809
446.85	15.887
447.20	14.964
447.55	15.458
447.91	14.946
448.26	15.936
448.61	15.026
448.96	15.663
449.31	15.607
449.66	15.621
450.02	15.345
450.37	15.056
450.72	15.636
451.07	15.823
451.42	15.543
451.77	14.949
452.12	14.533
452.47	15.196
452.83	15.135
453.18	15.433
453.53	15.550
453.88	15.665
454.23	15.857
454.58	15.680
454.93	15.528
455.28	14.667
455.63	16.243
455.98	16.115
456.34	15.837
456.69	16.201
457.04	16.698
457.39	15.796
457.74	16.264
458.09	14.420
458.44	15.974
458.79	15.070
459.14	16.705
459.49	17.254
459.84	15.962
460.19	16.444
460.54	15.770
460.89	16.420
461.24	15.839
461.59	16.330
461.94	15.912
462.29	16.828
462.64	16.545
462.99	16.114
463.34	16.064
463.69	16.152
464.04	16.344
464.39	15.706
464.74	16.012
465.09	16.968
465.44	16.330
465.79	15.873
466.14	16.762
466.49	16.561
466.84	16.478
467.19	15.895
467.54	16.858
467.89	16.804
468.24	16.363
468.59	17.206
468.94	15.873
469.29	16.984
469.64	17.020
469.99	17.379
470.34	16.997
470.68	17.823
471.03	16.844
471.38	17.047
471.73	16.597
472.08	16.554
472.43	16.242
472.78	16.313
473.13	17.279
473.48	17.264
473.83	16.438
474.17	17.034
474.52	16.720
474.87	16.606
475.22	16.718
475.57	16.883
475.92	17.279
476.27	16.997
476.61	17.130
476.96	16.174
477.31	17.793
477.66	16.685
478.01	17.125
478.36	16.449
478.70	17.346
479.05	17.308
479.40	17.276
479.75	16.736
480.10	16.999
480.45	17.050
480.79	17.825
481.14	16.906
481.49	16.404
481.84	16.988
482.19	16.370
482.53	17.074
482.88	17.232
483.23	17.179
483.58	16.698
483.92	17.231
484.27	16.910
484.62	17.122
484.97	17.206
485.31	16.221
485.66	16.201
486.01	16.716
486.36	16.041
486.70	16.541
487.05	16.708
487.40	16.830
487.75	16.225
488.09	16.255
488.44	17.056
488.79	16.660
489.13	16.306
489.48	16.802
489.83	16.771
490.17	16.809
490.52	17.090
490.87	16.474
491.22	17.240
491.56	16.793
491.91	16.969
492.26	16.966
492.60	17.322
492.95	18.347
493.30	17.489
493.64	16.798
493.99	17.633
494.34	16.214
494.68	17.000
495.03	16.399
495.37	17.125
495.72	16.810
496.07	18.000
496.41	17.170
496.76	17.688
497.11	16.814
497.45	17.900
497.80	18.063
498.14	17.685
498.49	17.318
498.84	16.517
499.18	17.319
499.53	17.361
499.87	16.975
500.22	16.914
500.56	18.053
500.91	17.620
501.26	17.449
501.60	17.216
501.95	17.516
502.29	17.627
502.64	16.651
502.98	17.366
503.33	16.763
503.67	17.494
504.02	17.986
504.36	18.110
504.71	17.121
505.06	17.111
505.40	16.954
505.75	17.216
506.09	17.942
506.44	17.916
506.78	17.857
507.13	17.787
507.47	16.919
507.82	16.880
508.16	17.908
508.51	17.629
508.85	18.367
509.19	17.243
509.54	17.641
509.88	17.152
510.23	18.289
510.57	17.638
510.92	16.684
511.26	17.076
511.61	18.262
511.95	18.027
512.30	17.794
512.64	18.308
512.98	18.024
513.33	18.019
513.67	17.567
514.02	18.764
514.36	19.029
514.70	18.240
515.05	18.038
515.39	17.946
515.74	18.443
516.08	18.410
516.42	18.551
516.77	18.432
517.11	17.982
517.46	19.330
517.80	18.832
518.14	19.167
518.49	18.389
518.83	19.259
519.17	18.435
519.52	18.887
519.86	17.947
520.20	18.955
520.55	18.011
520.89	19.762
521.23	19.189
521.58	19.243
521.92	19.359
522.26	18.673
522.61	19.416
522.95	19.934
523.29	19.123
523.64	19.187
523.98	19.119
524.32	18.879
524.66	19.974
525.01	19.221
525.35	20.026
525.69	19.461
526.04	19.048
526.38	19.974
526.72	18.247
527.06	19.261
527.41	19.327
527.75	19.638
528.09	18.538
528.43	21.067
528.78	19.076
529.12	19.161
529.46	19.688
529.80	20.203
530.15	20.000
530.49	19.529
530.83	19.220
531.17	19.140
531.51	19.904
531.86	18.491
532.20	18.720
532.54	20.490
532.88	19.781
533.22	19.624
533.57	19.004
533.91	18.930
534.25	19.792
534.59	18.538
534.93	18.691
535.27	18.845
535.62	18.406
535.96	19.309
536.30	19.987
536.64	19.228
536.98	19.094
537.32	19.275
537.66	19.986
538.01	18.462
538.35	19.417
538.69	19.774
539.03	19.959
539.37	18.910
539.71	19.223
540.05	19.959
540.39	19.598
540.73	19.665
541.07	20.097
541.42	18.414
541.76	19.683
542.10	19.133
542.44	18.902
542.78	18.032
543.12	18.269
543.46	19.750
543.80	19.292
544.14	18.892
544.48	18.921
544.82	19.822
545.16	19.945
545.50	18.959
545.84	19.759
546.18	18.794
546.52	18.601
546.86	19.339
547.20	18.670
547.54	19.152
547.88	19.837
548.22	18.146
548.56	18.272
548.90	19.340
549.24	18.939
549.58	19.041
549.92	18.442
550.26	18.755
550.60	19.926
550.94	19.642
551.28	19.861
551.62	19.462
551.96	19.850
552.30	18.933
552.64	19.182
552.98	19.691
553.32	18.759
553.66	18.070
554.00	17.956
554.34	20.384
554.68	18.805
555.02	19.345
555.36	18.624
555.69	18.681
556.03	19.129
556.37	18.505
556.71	19.783
557.05	19.239
557.39	18.885
557.73	20.090
558.07	19.306
558.41	18.913
558.75	18.940
559.08	19.543
559.42	20.635
559.76	19.696
560.10	19.725
560.44	18.541
560.78	20.000
561.12	19.605
561.45	19.606
561.79	19.748
562.13	19.446
562.47	20.144
562.81	19.092
563.15	19.605
563.48	19.307
563.82	19.012
564.16	18.872
564.50	18.784
564.84	18.742
565.17	19.316
565.51	19.740
565.85	19.410
566.19	19.032
566.52	19.973
566.86	19.344
567.20	18.804
567.54	18.796
567.88	19.801
568.21	19.740
568.55	18.696
568.89	18.583
569.23	18.729
569.56	17.995
569.90	18.798
570.24	18.310
570.57	18.000
570.91	18.090
571.25	17.692
571.59	17.284
571.92	17.363
572.26	17.301
572.60	17.147
572.93	17.634
573.27	17.429
573.61	16.945
573.95	17.395
574.28	17.293
574.62	17.137
574.96	17.228
575.29	17.062
575.63	16.973
575.97	17.376
576.30	17.655
576.64	16.795
576.98	17.889
577.31	17.941
577.65	17.569
577.98	17.498
578.32	17.727
578.66	16.720
578.99	16.893
579.33	16.912
579.67	17.108
580.00	17.544
580.34	16.841
580.67	16.939
581.01	17.555
581.35	17.227
581.68	17.221
582.02	17.067
582.35	17.103
582.69	17.491
583.02	17.283
583.36	17.246
583.70	17.238
584.03	17.959
584.37	18.069
584.70	17.473
585.04	17.254
585.37	17.174
585.71	17.502
586.04	17.196
586.38	17.471
586.72	17.762
587.05	17.880
587.39	17.668
587.72	18.343
588.06	17.769
588.39	17.488
588.73	17.674
589.06	18.265
589.40	17.767
589.73	18.255
590.07	18.505
590.40	18.382
590.73	18.822
591.07	18.617
591.40	18.789
591.74	18.507
592.07	19.202
592.41	18.993
592.74	18.240
593.08	17.709
593.41	18.320
593.75	18.057
594.08	17.714
594.41	18.268
594.75	18.397
595.08	18.880
595.42	18.255
595.75	18.100
596.09	18.335
596.42	19.057
596.75	19.405
597.09	18.724
597.42	19.196
597.75	18.919
598.09	19.285
598.42	18.366
598.76	18.704
599.09	18.630
599.42	18.340
599.76	19.187
600.09	18.778
600.42	18.726
600.76	18.239
601.09	18.130
601.42	18.018
601.76	18.777
602.09	19.431
602.42	19.629
602.76	19.100
603.09	19.269
603.42	19.398
603.76	18.710
604.09	19.077
604.42	19.205
604.76	19.181
605.09	19.561
605.42	19.503
605.75	19.133
606.09	19.406
606.42	18.891
606.75	18.918
607.09	19.736
607.42	19.096
607.75	18.783
608.08	18.913
608.42	19.050
608.75	19.807
609.08	19.432
609.41	19.594
609.75	19.355
610.08	19.471
610.41	19.179
610.74	19.600
611.07	19.587
611.41	19.564
611.74	20.629
612.07	19.379
612.40	19.420
612.73	19.548
613.07	19.516
613.40	20.186
613.73	19.530
614.06	20.868
614.39	19.684
614.72	19.440
615.06	19.721
615.39	19.432
615.72	20.291
616.05	20.056
616.38	19.430
616.71	19.878
617.05	20.630
617.38	20.113
617.71	19.874
618.04	21.143
618.37	21.375
618.70	20.924
619.03	21.111
619.36	19.609
619.69	21.228
620.03	21.183
620.36	20.672
620.69	19.700
621.02	20.413
621.35	21.577
621.68	20.323
622.01	22.417
622.34	22.107
622.67	21.767
623.00	21.363
623.33	21.037
623.66	21.167
623.99	21.483
624.32	20.608
624.65	19.774
624.99	21.144
625.32	19.939
625.65	21.838
625.98	21.595
626.31	19.784
626.64	21.317
626.97	21.640
627.30	20.753
627.63	22.184
627.96	22.462
628.29	20.999
628.62	21.534
628.95	21.242
629.28	21.169
629.61	22.333
629.94	23.069
630.26	21.344
630.59	23.829
630.92	20.410
631.25	21.538
631.58	21.916
631.91	22.039
632.24	22.248
632.57	22.727
632.90	21.471
