SpectraSuite Data File
++++++++++++++++++++++++++++++++++++
Date: Fri May 15 20:57:59 PDT 2015
User: schluterlab
Dark Spectrum Present: Yes
Reference Spectrum Present: Yes
Number of Sampled Component Spectra: 1
Spectrometers: USB2E3373
Integration Time (usec): 3000 (USB2E3373)
Spectra Averaged: 3 (USB2E3373)
Boxcar Smoothing: 0 (USB2E3373)
Correct for Electrical Dark: No (USB2E3373)
Strobe/Lamp Enabled: No (USB2E3373)
Correct for Detector Non-linearity: No (USB2E3373)
Correct for Stray Light: No (USB2E3373)
Number of Pixels in Processed Spectrum: 2048
>>>>>Begin Processed Spectral Data<<<<<
178.53	0.000
178.91	0.000
179.29	37.500
179.67	-250.000
180.04	-42.857
180.42	-100.000
180.80	-500.000
181.18	233.333
181.56	450.000
181.94	300.000
182.31	600.000
182.69	-40.000
183.07	-566.667
183.45	-40.000
183.83	-0.000
184.20	-36.364
184.58	166.667
184.96	-0.000
185.34	400.000
185.72	-250.000
186.09	100.000
186.47	-2200.000
186.85	150.000
187.23	177.778
187.61	500.000
187.98	-166.667
188.36	-77.778
188.74	33.333
189.12	23.529
189.49	22.222
189.87	0.000
190.25	14.286
190.63	-50.000
191.00	-600.000
191.38	5.263
191.76	100.000
192.14	300.000
192.51	-300.000
192.89	-144.444
193.27	-57.143
193.65	200.000
194.02	227.273
194.40	-30.000
194.78	-225.000
195.15	-25.000
195.53	-137.500
195.91	125.000
196.29	75.000
196.66	184.615
197.04	114.286
197.42	-77.778
197.79	-433.333
198.17	-84.615
198.55	1900.000
198.92	-600.000
199.30	-300.000
199.68	-180.000
200.05	-233.333
200.43	0.000
200.81	-333.333
201.18	-133.333
201.56	1500.000
201.94	-300.000
202.31	-33.333
202.69	-320.000
203.07	275.000
203.44	-700.000
203.82	0.000
204.19	50.000
204.57	-200.000
204.95	37.500
205.32	10.000
205.70	-171.429
206.08	-25.000
206.45	266.667
206.83	107.143
207.20	-171.429
207.58	1300.000
207.96	-133.333
208.33	-140.000
208.71	-150.000
209.08	-133.333
209.46	-1300.000
209.84	-20.000
210.21	-800.000
210.59	-85.714
210.96	-50.000
211.34	-25.000
211.71	20.000
212.09	-157.143
212.46	-600.000
212.84	0.000
213.22	20.000
213.59	350.000
213.97	7.692
214.34	0.000
214.72	-50.000
215.09	450.000
215.47	30.769
215.84	-36.364
216.22	-166.667
216.59	0.000
216.97	-100.000
217.34	-50.000
217.72	-400.000
218.09	125.000
218.47	37.500
218.84	-1400.000
219.22	-155.556
219.59	-180.000
219.97	300.000
220.34	225.000
220.72	-57.143
221.09	-75.000
221.47	250.000
221.84	-650.000
222.22	-650.000
222.59	27.273
222.97	-25.000
223.34	-133.333
223.72	0.000
224.09	-38.095
224.46	21.429
224.84	466.667
225.21	-40.000
225.59	-13.333
225.96	-700.000
226.34	500.000
226.71	-28.571
227.08	-66.667
227.46	12.500
227.83	-350.000
228.21	-22.222
228.58	-81.818
228.95	62.500
229.33	110.000
229.70	-12.500
230.08	12.500
230.45	-57.143
230.82	14.286
231.20	6.667
231.57	7.143
231.95	-57.143
232.32	-10.000
232.69	21.429
233.07	66.667
233.44	-160.000
233.81	-60.000
234.19	55.556
234.56	-41.176
234.93	150.000
235.31	-150.000
235.68	-260.000
236.05	-38.462
236.43	-50.000
236.80	-11.765
237.17	21.875
237.55	-10.000
237.92	-7.407
238.29	2.778
238.67	36.667
239.04	-2.941
239.41	-12.195
239.79	-16.667
240.16	-14.634
240.53	-10.526
240.91	4.348
241.28	9.524
241.65	25.000
242.02	31.507
242.40	30.000
242.77	5.085
243.14	16.667
243.51	18.750
243.89	18.391
244.26	8.046
244.63	8.333
245.00	15.464
245.38	21.649
245.75	-1.124
246.12	14.655
246.49	14.876
246.87	20.192
247.24	21.008
247.61	14.035
247.98	10.569
248.36	14.375
248.73	19.737
249.10	21.429
249.47	10.759
249.84	16.993
250.22	18.824
250.59	21.569
250.96	25.352
251.33	11.628
251.70	20.000
252.08	22.335
252.45	18.317
252.82	18.090
253.19	21.198
253.56	14.019
253.94	21.171
254.31	16.957
254.68	22.807
255.05	19.685
255.42	21.834
255.79	23.166
256.16	22.179
256.54	24.627
256.91	18.251
257.28	19.703
257.65	19.101
258.02	16.667
258.39	20.202
258.76	23.077
259.14	19.269
259.51	17.799
259.88	21.649
260.25	21.242
260.62	22.917
260.99	17.288
261.36	22.260
261.73	18.354
262.10	20.973
262.47	19.632
262.85	19.436
263.22	20.615
263.59	23.364
263.96	22.050
264.33	24.545
264.70	19.940
265.07	19.643
265.44	23.229
265.81	22.881
266.18	19.399
266.55	20.823
266.92	22.798
267.29	22.715
267.66	20.460
268.03	20.419
268.40	19.843
268.77	24.866
269.14	21.583
269.51	24.422
269.88	19.950
270.25	17.857
270.62	19.268
270.99	18.159
271.36	21.760
271.73	20.892
272.10	20.195
272.47	21.277
272.84	19.059
273.21	20.650
273.58	20.241
273.95	21.739
274.32	19.400
274.69	18.778
275.06	20.313
275.43	18.821
275.80	19.205
276.17	19.310
276.54	19.700
276.91	22.368
277.28	20.087
277.65	20.248
278.02	18.723
278.39	18.381
278.76	20.545
279.13	15.768
279.50	20.798
279.87	20.518
280.23	19.140
280.60	20.078
280.97	22.020
281.34	19.615
281.71	21.355
282.08	18.200
282.45	18.591
282.82	18.147
283.19	18.375
283.56	20.039
283.92	18.027
284.29	17.308
284.66	18.798
285.03	18.664
285.40	20.416
285.77	17.926
286.14	17.870
286.51	21.956
286.87	19.378
287.24	19.521
287.61	19.929
287.98	20.000
288.35	19.584
288.72	19.264
289.08	17.188
289.45	19.156
289.82	20.455
290.19	17.235
290.56	18.353
290.93	18.519
291.29	16.949
291.66	17.953
292.03	17.225
292.40	18.065
292.77	16.746
293.13	13.799
293.50	16.237
293.87	18.168
294.24	16.692
294.60	16.692
294.97	16.369
295.34	15.951
295.71	16.990
296.08	14.948
296.44	13.371
296.81	15.694
297.18	15.217
297.55	15.718
297.91	15.205
298.28	16.491
298.65	15.468
299.02	14.555
299.38	11.902
299.75	15.172
300.12	13.743
300.48	12.516
300.85	14.702
301.22	13.247
301.59	12.895
301.95	15.823
302.32	15.824
302.69	14.303
303.05	13.119
303.42	13.200
303.79	13.435
304.15	14.815
304.52	11.653
304.89	13.333
305.25	13.559
305.62	12.369
305.99	12.281
306.35	13.873
306.72	12.036
307.09	13.227
307.45	13.203
307.82	12.963
308.19	13.821
308.55	13.850
308.92	14.597
309.29	11.732
309.65	13.025
310.02	12.321
310.38	12.733
310.75	13.443
311.12	13.348
311.48	12.619
311.85	12.565
312.22	13.080
312.58	12.527
312.95	12.914
313.31	11.594
313.68	13.089
314.05	12.449
314.41	13.505
314.78	12.784
315.14	13.772
315.51	12.733
315.87	14.242
316.24	13.347
316.61	13.386
316.97	12.202
317.34	12.793
317.70	12.237
318.07	13.654
318.43	13.039
318.80	11.080
319.16	12.598
319.53	13.200
319.89	12.697
320.26	11.842
320.62	13.240
320.99	11.691
321.35	14.183
321.72	13.915
322.08	14.804
322.45	13.807
322.81	12.083
323.18	11.776
323.54	12.838
323.91	12.171
324.27	12.500
324.64	13.015
325.00	12.500
325.37	14.050
325.73	12.693
326.10	12.807
326.46	14.260
326.83	12.861
327.19	12.903
327.56	13.380
327.92	13.820
328.29	13.571
328.65	11.887
329.01	13.603
329.38	12.350
329.74	11.992
330.11	13.438
330.47	12.152
330.84	12.981
331.20	13.593
331.56	12.500
331.93	14.064
332.29	13.566
332.66	11.946
333.02	12.361
333.38	13.199
333.75	13.645
334.11	12.265
334.48	13.327
334.84	13.004
335.20	11.619
335.57	13.146
335.93	13.098
336.29	13.536
336.66	11.989
337.02	10.967
337.38	11.759
337.75	13.636
338.11	12.263
338.47	12.591
338.84	12.015
339.20	11.883
339.56	13.578
339.93	12.265
340.29	13.303
340.65	12.814
341.02	11.879
341.38	12.832
341.74	12.544
342.11	11.265
342.47	12.011
342.83	13.841
343.20	13.328
343.56	12.783
343.92	13.286
344.28	13.322
344.65	12.608
345.01	11.927
345.37	12.616
345.73	13.138
346.10	12.425
346.46	12.111
346.82	13.011
347.19	11.388
347.55	11.863
347.91	13.026
348.27	12.288
348.63	12.351
349.00	10.911
349.36	12.136
349.72	12.769
350.08	12.213
350.45	12.211
350.81	12.625
351.17	11.482
351.53	12.408
351.89	10.735
352.26	11.760
352.62	12.581
352.98	11.566
353.34	12.077
353.70	12.298
354.07	12.661
354.43	12.090
354.79	12.799
355.15	12.937
355.51	12.500
355.87	11.408
356.24	10.767
356.60	13.096
356.96	12.460
357.32	12.061
357.68	11.493
358.04	11.470
358.40	12.219
358.77	12.998
359.13	11.930
359.49	12.096
359.85	11.778
360.21	11.643
360.57	11.630
360.93	11.346
361.29	10.650
361.66	11.442
362.02	12.045
362.38	11.957
362.74	11.885
363.10	11.889
363.46	11.045
363.82	12.397
364.18	11.365
364.54	11.544
364.90	11.613
365.26	11.790
365.62	12.774
365.98	11.657
366.35	12.891
366.71	11.456
367.07	12.046
367.43	11.215
367.79	11.590
368.15	10.983
368.51	12.163
368.87	9.835
369.23	11.047
369.59	11.662
369.95	11.657
370.31	10.983
370.67	10.970
371.03	10.904
371.39	10.430
371.75	11.136
372.11	10.913
372.47	10.059
372.83	11.568
373.19	12.197
373.55	10.975
373.91	11.807
374.27	11.198
374.63	11.342
374.99	10.993
375.35	11.072
375.71	11.748
376.07	11.728
376.42	11.293
376.78	11.141
377.14	11.713
377.50	10.624
377.86	11.245
378.22	11.806
378.58	10.705
378.94	10.901
379.30	10.979
379.66	11.787
380.02	11.711
380.38	11.260
380.74	10.533
381.09	11.779
381.45	10.826
381.81	10.796
382.17	10.977
382.53	10.493
382.89	10.734
383.25	11.014
383.61	12.012
383.97	9.397
384.32	10.569
384.68	11.455
385.04	10.662
385.40	10.454
385.76	11.384
386.12	11.514
386.48	10.345
386.83	10.717
387.19	10.379
387.55	10.665
387.91	10.575
388.27	10.562
388.62	10.761
388.98	10.497
389.34	10.868
389.70	11.436
390.06	11.328
390.42	10.492
390.77	9.876
391.13	10.656
391.49	10.737
391.85	10.656
392.20	10.358
392.56	10.235
392.92	11.568
393.28	10.024
393.64	10.931
393.99	11.348
394.35	9.867
394.71	11.047
395.07	9.742
395.42	10.383
395.78	10.293
396.14	10.971
396.50	10.780
396.85	10.882
397.21	10.338
397.57	10.345
397.92	10.306
398.28	10.805
398.64	10.361
399.00	10.779
399.35	9.594
399.71	10.856
400.07	9.855
400.42	11.016
400.78	11.390
401.14	10.284
401.49	11.674
401.85	10.725
402.21	11.084
402.57	10.813
402.92	9.348
403.28	11.466
403.63	10.908
403.99	9.949
404.35	10.556
404.70	10.179
405.06	10.635
405.42	10.814
405.77	9.587
406.13	10.361
406.49	10.420
406.84	10.513
407.20	10.716
407.55	10.303
407.91	10.762
408.27	9.751
408.62	10.708
408.98	10.228
409.34	10.223
409.69	10.207
410.05	9.914
410.40	9.815
410.76	10.495
411.11	10.437
411.47	10.125
411.83	9.730
412.18	10.360
412.54	9.363
412.89	10.591
413.25	10.469
413.60	10.373
413.96	10.491
414.31	10.976
414.67	10.263
415.03	9.987
415.38	10.640
415.74	10.228
416.09	10.451
416.45	9.926
416.80	10.773
417.16	10.083
417.51	10.660
417.87	10.561
418.22	10.687
418.58	10.167
418.93	10.846
419.29	10.691
419.64	10.499
420.00	10.390
420.35	10.925
420.71	10.814
421.06	10.252
421.42	11.058
421.77	10.000
422.12	9.875
422.48	10.287
422.83	10.441
423.19	10.553
423.54	9.818
423.90	10.012
424.25	10.218
424.61	10.465
424.96	9.988
425.31	10.572
425.67	10.798
426.02	11.131
426.38	11.271
426.73	10.472
427.09	11.139
427.44	10.529
427.79	11.019
428.15	11.165
428.50	10.297
428.85	10.381
429.21	11.545
429.56	11.375
429.92	11.299
430.27	10.677
430.62	9.671
430.98	10.934
431.33	10.988
431.68	9.838
432.04	10.285
432.39	10.268
432.74	10.042
433.10	11.149
433.45	10.514
433.80	10.157
434.16	9.584
434.51	11.022
434.86	10.627
435.22	10.488
435.57	10.418
435.92	10.299
436.28	10.316
436.63	10.496
436.98	10.371
437.34	10.163
437.69	10.853
438.04	10.427
438.39	9.835
438.75	9.654
439.10	10.413
439.45	10.651
439.81	10.703
440.16	10.926
440.51	10.866
440.86	11.662
441.22	10.633
441.57	10.265
441.92	10.703
442.27	10.477
442.63	11.081
442.98	11.200
443.33	11.018
443.68	11.353
444.03	10.929
444.39	10.723
444.74	11.483
445.09	11.136
445.44	10.598
445.79	11.501
446.15	10.573
446.50	10.039
446.85	11.371
447.20	10.532
447.55	11.607
447.91	10.660
448.26	11.326
448.61	11.284
448.96	10.843
449.31	9.653
449.66	11.150
450.02	11.010
450.37	10.433
450.72	11.397
451.07	10.570
451.42	10.737
451.77	10.910
452.12	10.646
452.47	9.916
452.83	10.777
453.18	11.069
453.53	11.378
453.88	10.747
454.23	11.432
454.58	11.020
454.93	12.113
455.28	10.159
455.63	11.593
455.98	11.004
456.34	10.345
456.69	10.165
457.04	11.972
457.39	10.267
457.74	10.218
458.09	10.359
458.44	11.001
458.79	10.084
459.14	10.526
459.49	11.522
459.84	11.224
460.19	11.468
460.54	11.064
460.89	11.591
461.24	10.745
461.59	11.342
461.94	10.943
462.29	11.339
462.64	11.096
462.99	11.374
463.34	10.848
463.69	9.331
464.04	10.472
464.39	11.704
464.74	10.798
465.09	10.979
465.44	11.194
465.79	10.658
466.14	11.003
466.49	10.638
466.84	11.719
467.19	10.638
467.54	10.217
467.89	11.118
468.24	11.375
468.59	11.619
468.94	10.730
469.29	11.738
469.64	11.962
469.99	12.263
470.34	10.034
470.68	11.782
471.03	11.323
471.38	11.127
471.73	11.134
472.08	11.262
472.43	10.470
472.78	11.241
473.13	11.293
473.48	11.140
473.83	10.585
474.17	11.010
474.52	11.359
474.87	11.333
475.22	10.555
475.57	10.898
475.92	10.697
476.27	10.594
476.61	11.400
476.96	10.318
477.31	11.736
477.66	10.449
478.01	10.556
478.36	10.784
478.70	10.875
479.05	10.989
479.40	10.864
479.75	11.053
480.10	11.009
480.45	11.500
480.79	11.581
481.14	11.578
481.49	10.739
481.84	10.666
482.19	10.103
482.53	11.559
482.88	11.074
483.23	10.653
483.58	10.896
483.92	10.503
484.27	10.483
484.62	11.340
484.97	10.904
485.31	10.477
485.66	10.398
486.01	10.823
486.36	10.599
486.70	11.081
487.05	11.481
487.40	11.401
487.75	11.437
488.09	11.310
488.44	11.004
488.79	10.908
489.13	11.418
489.48	11.116
489.83	10.717
490.17	10.876
490.52	10.716
490.87	10.689
491.22	10.840
491.56	11.195
491.91	10.899
492.26	11.133
492.60	11.276
492.95	11.117
493.30	10.747
493.64	10.806
493.99	11.449
494.34	10.388
494.68	10.714
495.03	10.414
495.37	11.187
495.72	11.106
496.07	11.220
496.41	10.660
496.76	11.285
497.11	10.573
497.45	11.408
497.80	11.201
498.14	10.184
498.49	10.615
498.84	11.477
499.18	11.094
499.53	11.359
499.87	10.311
500.22	10.287
500.56	11.094
500.91	11.145
501.26	10.529
501.60	10.526
501.95	11.208
502.29	11.477
502.64	11.100
502.98	10.261
503.33	10.423
503.67	10.217
504.02	11.437
504.36	11.183
504.71	9.949
505.06	10.871
505.40	10.508
505.75	10.722
506.09	10.796
506.44	11.704
506.78	11.633
507.13	11.375
507.47	10.966
507.82	10.684
508.16	10.671
508.51	10.703
508.85	10.989
509.19	10.378
509.54	11.475
509.88	11.003
510.23	11.027
510.57	11.331
510.92	10.394
511.26	10.147
511.61	11.331
511.95	10.630
512.30	10.421
512.64	11.575
512.98	10.331
513.33	10.353
513.67	10.688
514.02	10.812
514.36	11.429
514.70	10.781
515.05	11.222
515.39	10.626
515.74	11.078
516.08	11.058
516.42	11.307
516.77	11.176
517.11	10.267
517.46	11.610
517.80	11.263
518.14	10.655
518.49	10.817
518.83	11.665
519.17	10.067
519.52	10.480
519.86	10.684
520.20	10.936
520.55	11.194
520.89	11.481
521.23	11.020
521.58	11.041
521.92	10.833
522.26	10.605
522.61	11.169
522.95	11.523
523.29	11.055
523.64	10.991
523.98	10.953
524.32	10.245
524.66	11.460
525.01	11.688
525.35	10.564
525.69	10.572
526.04	10.582
526.38	11.997
526.72	10.661
527.06	10.636
527.41	12.137
527.75	9.987
528.09	11.296
528.43	11.816
528.78	10.693
529.12	10.581
529.46	10.396
529.80	11.336
530.15	11.485
530.49	10.572
530.83	11.560
531.17	11.283
531.51	11.423
531.86	10.605
532.20	10.090
532.54	11.096
532.88	11.567
533.22	11.895
533.57	11.271
533.91	10.640
534.25	11.198
534.59	10.904
534.93	10.069
535.27	11.675
535.62	10.758
535.96	11.676
536.30	12.269
536.64	11.096
536.98	11.150
537.32	10.811
537.66	11.641
538.01	11.608
538.35	10.541
538.69	11.385
539.03	10.731
539.37	11.036
539.71	11.247
540.05	10.455
540.39	11.911
540.73	10.948
541.07	12.155
541.42	11.492
541.76	11.218
542.10	11.425
542.44	12.092
542.78	10.048
543.12	11.607
543.46	11.613
543.80	11.797
544.14	10.614
544.48	11.193
544.82	11.210
545.16	11.407
545.50	11.148
545.84	11.544
546.18	12.057
546.52	11.968
546.86	11.287
547.20	11.445
547.54	10.954
547.88	10.870
548.22	11.243
548.56	10.818
548.90	11.456
549.24	10.537
549.58	10.719
549.92	10.365
550.26	11.136
550.60	10.260
550.94	11.128
551.28	10.896
551.62	11.769
551.96	11.429
552.30	10.819
552.64	11.283
552.98	11.252
553.32	10.699
553.66	10.740
554.00	11.533
554.34	10.931
554.68	11.209
555.02	12.500
555.36	11.219
555.69	11.136
556.03	10.136
556.37	11.174
556.71	11.625
557.05	11.559
557.39	11.004
557.73	12.144
558.07	12.217
558.41	11.256
558.75	10.678
559.08	11.111
559.42	11.111
559.76	10.969
560.10	10.092
560.44	10.350
560.78	11.049
561.12	11.072
561.45	10.822
561.79	11.345
562.13	11.072
562.47	10.504
562.81	11.599
563.15	11.777
563.48	10.396
563.82	11.668
564.16	10.167
564.50	10.270
564.84	11.178
565.17	10.530
565.51	12.022
565.85	10.837
566.19	11.538
566.52	11.662
566.86	11.054
567.20	11.519
567.54	10.462
567.88	11.189
568.21	11.991
568.55	10.598
568.89	11.088
569.23	11.651
569.56	11.077
569.90	11.693
570.24	11.239
570.57	11.164
570.91	11.781
571.25	11.115
571.59	10.807
571.92	10.815
572.26	10.628
572.60	11.349
572.93	11.641
573.27	11.254
573.61	11.038
573.95	11.333
574.28	11.017
574.62	10.959
574.96	11.169
575.29	10.752
575.63	10.702
575.97	11.114
576.30	11.189
576.64	10.887
576.98	11.480
577.31	11.108
577.65	10.986
577.98	11.137
578.32	10.636
578.66	11.176
578.99	11.277
579.33	11.192
579.67	11.153
580.00	11.620
580.34	11.119
580.67	11.696
581.01	11.383
581.35	10.767
581.68	11.218
582.02	10.864
582.35	11.291
582.69	11.005
583.02	11.237
583.36	11.687
583.70	11.786
584.03	11.899
584.37	11.773
584.70	11.703
585.04	10.959
585.37	11.007
585.71	11.577
586.04	11.447
586.38	10.963
586.72	11.564
587.05	11.352
587.39	11.574
587.72	11.263
588.06	11.265
588.39	11.564
588.73	11.233
589.06	11.611
589.40	11.994
589.73	11.866
590.07	11.782
590.40	12.152
590.73	11.656
591.07	10.984
591.40	11.398
591.74	11.357
592.07	11.827
592.41	11.926
592.74	11.509
593.08	10.898
593.41	10.741
593.75	11.253
594.08	11.466
594.41	11.681
594.75	10.992
595.08	11.086
595.42	11.152
595.75	11.679
596.09	11.806
596.42	11.410
596.75	12.034
597.09	11.572
597.42	11.382
597.75	11.269
598.09	11.408
598.42	11.958
598.76	11.369
599.09	11.338
599.42	11.103
599.76	10.835
600.09	11.237
600.42	11.145
600.76	11.181
601.09	11.298
601.42	11.163
601.76	11.790
602.09	11.262
602.42	11.710
602.76	10.951
603.09	11.545
603.42	11.371
603.76	11.008
604.09	11.260
604.42	11.125
604.76	12.016
605.09	11.380
605.42	11.919
605.75	11.471
606.09	11.380
606.42	11.259
606.75	11.472
607.09	12.000
607.42	11.653
607.75	11.101
608.08	11.096
608.42	11.147
608.75	11.373
609.08	11.510
609.41	11.117
609.75	10.887
610.08	12.032
610.41	10.725
610.74	11.312
611.07	11.628
611.41	11.936
611.74	12.047
612.07	10.760
612.40	11.543
612.73	11.751
613.07	11.530
613.40	11.761
613.73	11.080
614.06	11.352
614.39	12.070
614.72	11.709
615.06	11.453
615.39	11.627
615.72	11.302
616.05	11.899
616.38	10.598
616.71	10.703
617.05	10.933
617.38	11.942
617.71	11.321
618.04	11.238
618.37	11.791
618.70	11.419
619.03	11.806
619.36	10.637
619.69	11.069
620.03	11.980
620.36	11.660
620.69	11.706
621.02	11.239
621.35	11.535
621.68	11.054
622.01	11.333
622.34	10.455
622.67	12.303
623.00	11.332
623.33	11.966
623.66	10.696
623.99	11.346
624.32	12.319
624.65	11.203
624.99	10.910
625.32	10.917
625.65	12.097
625.98	11.684
626.31	11.222
626.64	11.872
626.97	12.129
627.30	11.909
627.63	12.132
627.96	11.141
628.29	12.581
628.62	11.504
628.95	12.224
629.28	11.694
629.61	9.970
629.94	10.557
630.26	11.067
630.59	9.781
630.92	10.462
631.25	11.795
631.58	11.454
631.91	11.842
632.24	11.009
632.57	12.500
632.90	9.846
633.23	11.294
633.56	10.453
633.89	10.234
