SpectraSuite Data File
++++++++++++++++++++++++++++++++++++
Date: Fri May 15 20:35:40 PDT 2015
User: schluterlab
Dark Spectrum Present: Yes
Reference Spectrum Present: Yes
Number of Sampled Component Spectra: 1
Spectrometers: USB2E3373
Integration Time (usec): 3000 (USB2E3373)
Spectra Averaged: 3 (USB2E3373)
Boxcar Smoothing: 0 (USB2E3373)
Correct for Electrical Dark: No (USB2E3373)
Strobe/Lamp Enabled: No (USB2E3373)
Correct for Detector Non-linearity: No (USB2E3373)
Correct for Stray Light: No (USB2E3373)
Number of Pixels in Processed Spectrum: 2048
>>>>>Begin Processed Spectral Data<<<<<
178.53	0.000
178.91	0.000
179.29	-50.000
179.67	-550.000
180.04	28.571
180.42	75.000
180.80	-1300.000
181.18	100.000
181.56	650.000
181.94	100.000
182.31	800.000
182.69	20.000
183.07	-300.000
183.45	-300.000
183.83	266.667
184.20	-90.909
184.58	133.333
184.96	200.000
185.34	66.667
185.72	-550.000
186.09	123.077
186.47	-900.000
186.85	83.333
187.23	233.333
187.61	-400.000
187.98	133.333
188.36	-44.444
188.74	-133.333
189.12	-11.765
189.49	44.444
189.87	0.000
190.25	107.143
190.63	-50.000
191.00	-333.333
191.38	-36.842
191.76	0.000
192.14	50.000
192.51	-100.000
192.89	-55.556
193.27	-71.429
193.65	166.667
194.02	154.545
194.40	-110.000
194.78	-237.500
195.15	-16.667
195.53	-162.500
195.91	175.000
196.29	-100.000
196.66	161.538
197.04	128.571
197.42	-100.000
197.79	-466.667
198.17	-69.231
198.55	1800.000
198.92	-533.333
199.30	-1100.000
199.68	-180.000
200.05	-533.333
200.43	0.000
200.81	-233.333
201.18	100.000
201.56	900.000
201.94	-650.000
202.31	433.333
202.69	-320.000
203.07	225.000
203.44	-1400.000
203.82	0.000
204.19	21.429
204.57	-833.333
204.95	150.000
205.32	-90.000
205.70	-71.429
206.08	-275.000
206.45	111.111
206.83	28.571
207.20	-185.714
207.58	700.000
207.96	-400.000
208.33	-170.000
208.71	-25.000
209.08	-150.000
209.46	-500.000
209.84	-400.000
210.21	-1500.000
210.59	28.571
210.96	-116.667
211.34	-300.000
211.71	-13.333
212.09	-242.857
212.46	-2000.000
212.84	0.000
213.22	-40.000
213.59	150.000
213.97	84.615
214.34	-54.545
214.72	-66.667
215.09	475.000
215.47	-15.385
215.84	-18.182
216.22	-500.000
216.59	-175.000
216.97	-250.000
217.34	-75.000
217.72	-140.000
218.09	-100.000
218.47	150.000
218.84	-800.000
219.22	-88.889
219.59	-200.000
219.97	433.333
220.34	275.000
220.72	-42.857
221.09	-350.000
221.47	-450.000
221.84	-950.000
222.22	-1050.000
222.59	72.727
222.97	-16.667
223.34	-400.000
223.72	-78.571
224.09	-23.810
224.46	0.000
224.84	433.333
225.21	60.000
225.59	-6.667
225.96	-250.000
226.34	200.000
226.71	-128.571
227.08	-66.667
227.46	-75.000
227.83	-350.000
228.21	-33.333
228.58	-36.364
228.95	-100.000
229.33	90.000
229.70	18.750
230.08	-150.000
230.45	-142.857
230.82	28.571
231.20	-33.333
231.57	50.000
231.95	-71.429
232.32	-130.000
232.69	-28.571
233.07	-133.333
233.44	-200.000
233.81	-80.000
234.19	-88.889
234.56	-76.471
234.93	-0.000
235.31	25.000
235.68	-240.000
236.05	-69.231
236.43	-95.000
236.80	-52.941
237.17	-12.500
237.55	-55.000
237.92	-14.815
238.29	2.778
238.67	-10.000
239.04	-17.647
239.41	-12.195
239.79	-10.000
240.16	-7.317
240.53	-13.158
240.91	4.348
241.28	15.873
241.65	8.929
242.02	10.959
242.40	18.333
242.77	6.780
243.14	6.061
243.51	8.750
243.89	-3.448
244.26	10.345
244.63	2.381
245.00	4.124
245.38	7.216
245.75	-4.494
246.12	-2.586
246.49	10.744
246.87	8.654
247.24	4.202
247.61	2.632
247.98	4.065
248.36	8.750
248.73	7.895
249.10	10.390
249.47	5.063
249.84	6.536
250.22	8.824
250.59	9.150
250.96	11.737
251.33	5.233
251.70	10.588
252.08	13.198
252.45	4.455
252.82	8.543
253.19	9.677
253.56	6.075
253.94	9.009
254.31	7.391
254.68	10.088
255.05	10.630
255.42	9.607
255.79	12.741
256.16	13.230
256.54	11.940
256.91	9.886
257.28	8.550
257.65	13.858
258.02	10.284
258.39	12.458
258.76	9.524
259.14	12.625
259.51	9.709
259.88	10.653
260.25	9.150
260.62	9.375
260.99	6.780
261.36	8.219
261.73	8.544
262.10	10.638
262.47	8.282
262.85	7.210
263.22	8.615
263.59	9.657
263.96	12.422
264.33	10.000
264.70	11.012
265.07	3.869
265.44	9.348
265.81	10.452
266.18	10.656
266.55	10.540
266.92	12.435
267.29	12.010
267.66	11.253
268.03	10.209
268.40	9.661
268.77	12.834
269.14	11.990
269.51	8.997
269.88	8.229
270.25	7.143
270.62	7.805
270.99	10.486
271.36	8.068
271.73	10.329
272.10	9.246
272.47	10.402
272.84	8.911
273.21	11.833
273.58	11.807
273.95	12.357
274.32	8.545
274.69	5.882
275.06	10.491
275.43	5.896
275.80	11.700
276.17	7.816
276.54	10.278
276.91	9.868
277.28	9.607
277.65	12.190
278.02	10.426
278.39	6.565
278.76	10.692
279.13	7.261
279.50	10.294
279.87	9.719
280.23	9.247
280.60	7.407
280.97	11.111
281.34	10.385
281.71	10.678
282.08	8.384
282.45	6.654
282.82	7.722
283.19	9.865
283.56	11.368
283.92	8.349
284.29	9.231
284.66	9.302
285.03	7.073
285.40	8.885
285.77	9.315
286.14	8.303
286.51	9.963
286.87	8.410
287.24	9.576
287.61	10.406
287.98	10.702
288.35	10.399
288.72	11.033
289.08	10.243
289.45	10.369
289.82	9.091
290.19	7.338
290.56	9.949
290.93	7.071
291.29	9.091
291.66	9.291
292.03	7.974
292.40	8.226
292.77	8.134
293.13	7.468
293.50	5.615
293.87	7.481
294.24	6.801
294.60	8.346
294.97	7.589
295.34	7.055
295.71	7.750
296.08	7.474
296.44	6.543
296.81	8.611
297.18	7.101
297.55	7.588
297.91	7.945
298.28	8.575
298.65	6.649
299.02	7.547
299.38	5.882
299.75	6.345
300.12	8.115
300.48	6.719
300.85	5.957
301.22	7.662
301.59	6.579
301.95	7.595
302.32	8.690
302.69	6.343
303.05	7.302
303.42	7.347
303.79	8.411
304.15	8.244
304.52	5.826
304.89	6.199
305.25	7.264
305.62	5.368
305.99	6.082
306.35	6.358
306.72	7.199
307.09	6.727
307.45	6.889
307.82	5.440
308.19	6.736
308.55	6.979
308.92	7.190
309.29	7.039
309.65	6.781
310.02	6.271
310.38	5.928
310.75	7.760
311.12	7.535
311.48	6.575
311.85	7.435
312.22	6.435
312.58	5.202
312.95	6.083
313.31	6.522
313.68	6.387
314.05	7.653
314.41	8.247
314.78	7.113
315.14	8.119
315.51	7.867
315.87	7.377
316.24	9.201
316.61	8.563
316.97	8.532
317.34	8.203
317.70	8.031
318.07	8.750
318.43	8.922
318.80	8.144
319.16	8.398
319.53	9.022
319.89	9.350
320.26	8.198
320.62	10.231
320.99	9.290
321.35	8.325
321.72	9.242
322.08	8.963
322.45	10.660
322.81	10.413
323.18	10.304
323.54	10.328
323.91	10.808
324.27	10.449
324.64	11.236
325.00	11.861
325.37	13.131
325.73	11.151
326.10	10.536
326.46	11.659
326.83	11.986
327.19	11.421
327.56	12.250
327.92	13.204
328.29	12.589
328.65	13.679
329.01	11.949
329.38	12.074
329.74	11.426
330.11	12.882
330.47	12.616
330.84	12.019
331.20	13.308
331.56	12.963
331.93	13.333
332.29	12.832
332.66	12.670
333.02	12.918
333.38	11.916
333.75	12.821
334.11	11.370
334.48	13.418
334.84	12.546
335.20	12.168
335.57	11.967
335.93	12.376
336.29	13.904
336.66	11.626
337.02	12.454
337.38	11.389
337.75	12.545
338.11	12.624
338.47	13.230
338.84	12.107
339.20	12.431
339.56	12.018
339.93	12.802
340.29	12.202
340.65	13.172
341.02	11.879
341.38	11.947
341.74	11.926
342.11	11.525
342.47	12.011
342.83	12.803
343.20	12.108
343.56	11.913
343.92	12.755
344.28	12.468
344.65	12.349
345.01	11.150
345.37	11.775
345.73	12.887
346.10	11.993
346.46	11.775
346.82	11.375
347.19	11.388
347.55	11.362
347.91	11.974
348.27	11.075
348.63	11.584
349.00	10.993
349.36	11.222
349.72	12.023
350.08	12.541
350.45	12.211
350.81	10.299
351.17	11.889
351.53	11.429
351.89	10.735
352.26	11.360
352.62	12.177
352.98	11.004
353.34	11.192
353.70	12.783
354.07	11.371
354.43	11.049
354.79	11.065
355.15	11.349
355.51	11.709
355.87	11.731
356.24	11.501
356.60	10.752
356.96	12.937
357.32	11.022
357.68	10.868
358.04	10.824
358.40	10.611
358.77	11.643
359.13	10.649
359.49	11.017
359.85	10.608
360.21	11.324
360.57	11.477
360.93	10.741
361.29	10.498
361.66	11.599
362.02	11.515
362.38	12.034
362.74	10.447
363.10	10.910
363.46	12.009
363.82	12.096
364.18	10.923
364.54	9.559
364.90	11.039
365.26	10.990
365.62	11.825
365.98	11.290
366.35	12.017
366.71	11.086
367.07	11.393
367.43	11.862
367.79	11.590
368.15	10.983
368.51	11.362
368.87	10.481
369.23	10.686
369.59	11.224
369.95	10.997
370.31	11.416
370.67	10.896
371.03	10.829
371.39	10.430
371.75	10.842
372.11	11.698
372.47	11.243
372.83	11.001
373.19	11.769
373.55	10.758
373.91	11.159
374.27	11.481
374.63	11.414
374.99	10.426
375.35	10.724
375.71	11.888
376.07	10.815
376.42	10.816
376.78	11.342
377.14	11.036
377.50	11.089
377.86	11.111
378.22	10.976
378.58	10.769
378.94	11.090
379.30	12.289
379.66	11.912
380.02	11.159
380.38	11.016
380.74	11.670
381.09	11.656
381.45	11.193
381.81	11.906
382.17	11.358
382.53	11.555
382.89	11.990
383.25	11.637
383.61	12.378
383.97	10.857
384.32	11.945
384.68	11.146
385.04	11.520
385.40	10.890
385.76	11.950
386.12	11.643
386.48	12.005
386.83	11.858
387.19	11.661
387.55	11.669
387.91	12.347
388.27	12.088
388.62	11.202
388.98	12.093
389.34	11.555
389.70	12.244
390.06	11.391
390.42	11.528
390.77	10.726
391.13	10.782
391.49	11.190
391.85	11.566
392.20	11.551
392.56	11.316
392.92	12.507
393.28	11.557
393.64	11.592
393.99	12.351
394.35	11.132
394.71	11.622
395.07	11.502
395.42	11.840
395.78	11.010
396.14	11.980
396.50	11.477
396.85	12.363
397.21	12.093
397.57	11.724
397.92	11.504
398.28	12.241
398.64	12.048
399.00	12.020
399.35	11.456
399.71	11.488
400.07	12.394
400.42	11.628
400.78	12.615
401.14	12.039
401.49	11.495
401.85	11.578
402.21	11.747
402.57	12.000
402.92	11.292
403.28	12.657
403.63	11.223
403.99	10.842
404.35	12.055
404.70	11.786
405.06	11.046
405.42	12.057
405.77	10.691
406.13	12.340
406.49	11.308
406.84	11.247
407.20	12.101
407.55	11.075
407.91	11.163
408.27	10.707
408.62	11.754
408.98	12.015
409.34	12.330
409.69	12.080
410.05	11.638
410.40	11.481
410.76	12.425
411.11	11.812
411.47	11.703
411.83	10.923
412.18	11.583
412.54	11.673
412.89	12.007
413.25	12.274
413.60	11.739
413.96	12.209
414.31	12.134
414.67	11.225
415.03	11.385
415.38	12.010
415.74	11.922
416.09	12.606
416.45	11.276
416.80	12.227
417.16	11.464
417.51	11.726
417.87	12.256
418.22	12.047
418.58	12.241
418.93	12.414
419.29	11.140
419.64	11.536
420.00	13.791
420.35	12.358
420.71	12.090
421.06	12.277
421.42	11.659
421.77	11.792
422.12	11.918
422.48	11.857
422.83	11.717
423.19	12.359
423.54	11.758
423.90	11.307
424.25	12.400
424.61	11.812
424.96	12.137
425.31	12.478
425.67	11.972
426.02	12.191
426.38	12.336
426.73	12.228
427.09	12.468
427.44	11.882
427.79	11.786
428.15	12.985
428.50	12.235
428.85	11.978
429.21	12.054
429.56	11.752
429.92	12.173
430.27	12.381
430.62	12.180
430.98	11.677
431.33	12.671
431.68	11.826
432.04	11.850
432.39	12.721
432.74	12.568
433.10	12.989
433.45	12.067
433.80	12.014
434.16	12.022
434.51	11.667
434.86	12.660
435.22	12.227
435.57	11.978
435.92	13.114
436.28	11.330
436.63	11.580
436.98	11.877
437.34	12.039
437.69	12.999
438.04	12.308
438.39	11.851
438.75	11.415
439.10	11.885
439.45	11.564
439.81	12.294
440.16	12.411
440.51	12.657
440.86	12.870
441.22	12.952
441.57	11.645
441.92	12.434
442.27	12.639
442.63	13.009
442.98	12.234
443.33	12.465
443.68	12.042
444.03	12.618
444.39	12.789
444.74	12.598
445.09	12.639
445.44	12.251
445.79	12.481
446.15	12.665
446.50	12.590
446.85	12.965
447.20	12.357
447.55	13.114
447.91	12.860
448.26	13.432
448.61	12.953
448.96	12.966
449.31	12.023
449.66	12.776
450.02	11.751
450.37	11.915
450.72	12.715
451.07	12.848
451.42	12.734
451.77	12.839
452.12	11.543
452.47	11.784
452.83	12.367
453.18	12.777
453.53	12.579
453.88	13.054
454.23	12.723
454.58	12.657
454.93	13.080
455.28	12.317
455.63	12.771
455.98	12.989
456.34	12.963
456.69	13.342
457.04	13.233
457.39	11.968
457.74	13.059
458.09	12.419
458.44	12.990
458.79	12.885
459.14	13.272
459.49	13.134
459.84	13.367
460.19	12.379
460.54	12.653
460.89	12.841
461.24	13.230
461.59	13.124
461.94	12.327
462.29	13.510
462.64	13.156
462.99	13.067
463.34	12.517
463.69	12.741
464.04	12.893
464.39	12.674
464.74	12.638
465.09	12.539
465.44	13.618
465.79	12.302
466.14	13.341
466.49	13.053
466.84	13.444
467.19	13.079
467.54	12.261
467.89	13.140
468.24	12.348
468.59	13.079
468.94	12.190
469.29	12.721
469.64	13.534
469.99	13.174
470.34	11.877
470.68	13.796
471.03	13.376
471.38	12.054
471.73	13.445
472.08	12.958
472.43	11.477
472.78	12.611
473.13	12.925
473.48	13.290
473.83	12.765
474.17	13.277
474.52	13.401
474.87	12.727
475.22	12.752
475.57	12.309
475.92	13.220
476.27	12.980
476.61	12.269
476.96	12.883
477.31	14.170
477.66	12.360
478.01	12.802
478.36	12.745
478.70	13.377
479.05	13.516
479.40	13.037
479.75	12.774
480.10	13.108
480.45	12.400
480.79	13.142
481.14	13.576
481.49	12.069
481.84	12.355
482.19	12.301
482.53	12.806
482.88	13.652
483.23	12.524
483.58	12.736
483.92	12.536
484.27	12.625
484.62	12.057
484.97	12.645
485.31	12.247
485.66	12.090
486.01	11.982
486.36	12.452
486.70	12.559
487.05	12.441
487.40	12.435
487.75	12.958
488.09	12.423
488.44	12.724
488.79	12.365
489.13	12.981
489.48	11.928
489.83	12.466
490.17	12.404
490.52	12.564
490.87	12.818
491.22	12.560
491.56	12.239
491.91	11.855
492.26	11.862
492.60	11.996
492.95	12.641
493.30	12.555
493.64	11.591
493.99	13.333
494.34	11.699
494.68	12.048
495.03	11.971
495.37	12.022
495.72	12.065
496.07	12.049
496.41	11.604
496.76	11.561
497.11	11.551
497.45	12.220
497.80	12.260
498.14	11.724
498.49	11.783
498.84	12.176
499.18	11.998
499.53	11.756
499.87	11.965
500.22	11.968
500.56	12.002
500.91	12.149
501.26	11.122
501.60	12.051
501.95	12.470
502.29	11.622
502.64	12.210
502.98	12.185
503.33	11.527
503.67	11.518
504.02	12.708
504.36	11.925
504.71	11.616
505.06	11.827
505.40	12.183
505.75	11.134
506.09	12.012
506.44	12.680
506.78	12.143
507.13	11.634
507.47	11.958
507.82	11.432
508.16	12.097
508.51	12.382
508.85	11.146
509.19	11.602
509.54	11.367
509.88	11.111
510.23	11.888
510.57	12.239
510.92	10.768
511.26	11.566
511.61	11.716
511.95	11.342
512.30	11.364
512.64	12.410
512.98	11.567
513.33	12.199
513.67	11.995
514.02	11.957
514.36	11.771
514.70	11.422
515.05	12.280
515.39	11.688
515.74	12.515
516.08	11.715
516.42	12.132
516.77	12.639
517.11	11.632
517.46	12.328
517.80	11.323
518.14	11.574
518.49	10.577
518.83	11.968
519.17	11.098
519.52	11.190
519.86	11.585
520.20	12.333
520.55	10.381
520.89	11.481
521.23	11.210
521.58	11.735
521.92	11.795
522.26	11.191
522.61	11.234
522.95	11.854
523.29	10.673
523.64	12.389
523.98	11.147
524.32	10.760
524.66	11.460
525.01	11.753
525.35	11.471
525.69	10.707
526.04	11.376
526.38	11.608
526.72	10.661
527.06	10.830
527.41	11.609
527.75	10.657
528.09	10.432
528.43	11.681
528.78	10.297
529.12	10.774
529.46	10.981
529.80	11.526
530.15	12.541
530.49	11.650
530.83	11.081
531.17	10.947
531.51	10.944
531.86	11.013
532.20	11.343
532.54	10.483
532.88	12.183
533.22	11.290
533.57	10.550
533.91	11.031
534.25	11.263
534.59	11.161
534.93	10.258
535.27	11.485
535.62	10.305
535.96	11.676
536.30	12.137
536.64	10.889
536.98	10.314
537.32	11.238
537.66	11.921
538.01	11.259
538.35	9.847
538.69	11.185
539.03	10.731
539.37	11.238
539.71	10.975
540.05	10.862
540.39	11.427
540.73	10.809
541.07	10.635
541.42	11.290
541.76	11.012
542.10	10.255
542.44	10.493
542.78	10.255
543.12	10.234
543.46	11.544
543.80	10.201
544.14	10.147
544.48	10.460
544.82	10.185
545.16	10.178
545.50	11.749
545.84	11.615
546.18	10.355
546.52	10.310
546.86	10.568
547.20	10.944
547.54	10.035
547.88	10.462
548.22	10.125
548.56	10.620
548.90	11.321
549.24	10.606
549.58	10.226
549.92	9.650
550.26	9.963
550.60	10.260
550.94	10.754
551.28	10.046
551.62	10.154
551.96	10.902
552.30	10.307
552.64	9.803
552.98	10.759
553.32	10.556
553.66	9.289
554.00	9.051
554.34	10.561
554.68	11.283
555.02	11.384
555.36	9.948
555.69	9.670
556.03	8.851
556.37	9.395
556.71	9.892
557.05	9.620
557.39	10.335
557.73	8.621
558.07	10.181
558.41	10.031
558.75	9.899
559.08	9.929
559.42	9.127
559.76	9.448
560.10	9.786
560.44	9.903
560.78	10.070
561.12	10.437
561.45	9.628
561.79	10.014
562.13	9.297
562.47	9.640
562.81	9.942
563.15	9.803
563.48	10.042
563.82	9.883
564.16	9.680
564.50	9.797
564.84	10.174
565.17	9.792
565.51	9.563
565.85	9.328
566.19	9.615
566.52	10.188
566.86	10.090
567.20	9.714
567.54	9.732
567.88	9.900
568.21	10.294
568.55	9.511
568.89	10.472
569.23	9.677
569.56	9.807
569.90	9.866
570.24	9.751
570.57	10.364
570.91	10.178
571.25	9.405
571.59	9.841
571.92	9.363
572.26	9.300
572.60	9.581
572.93	10.072
573.27	9.655
573.61	9.905
573.95	9.721
574.28	9.825
574.62	9.458
574.96	9.723
575.29	9.642
575.63	9.173
575.97	9.352
576.30	9.053
576.64	8.954
576.98	9.704
577.31	9.536
577.65	9.541
577.98	9.679
578.32	8.968
578.66	9.112
578.99	9.265
579.33	9.343
579.67	9.412
580.00	9.342
580.34	9.453
580.67	9.075
581.01	9.558
581.35	9.195
581.68	9.486
582.02	9.451
582.35	9.396
582.69	9.369
583.02	9.442
583.36	9.487
583.70	9.683
584.03	9.536
584.37	9.571
584.70	9.725
585.04	9.275
585.37	9.484
585.71	9.282
586.04	9.380
586.38	9.069
586.72	9.842
587.05	9.561
587.39	9.673
587.72	9.951
588.06	9.549
588.39	9.342
588.73	9.219
589.06	9.687
589.40	9.713
589.73	9.456
590.07	9.252
590.40	9.443
590.73	9.843
591.07	9.203
591.40	9.305
591.74	9.050
592.07	10.019
592.41	9.629
592.74	9.638
593.08	9.675
593.41	9.325
593.75	9.454
594.08	9.475
594.41	9.498
594.75	8.740
595.08	9.232
595.42	8.870
595.75	9.238
596.09	9.304
596.42	9.797
596.75	9.680
597.09	9.431
597.42	9.756
597.75	8.612
598.09	9.144
598.42	9.025
598.76	9.009
599.09	9.014
599.42	8.943
599.76	9.029
600.09	9.276
600.42	9.591
600.76	8.730
601.09	9.008
601.42	8.500
601.76	8.932
602.09	9.117
602.42	9.436
602.76	9.423
603.09	9.551
603.42	9.574
603.76	8.306
604.09	8.870
604.42	9.433
604.76	9.168
605.09	9.735
605.42	8.804
605.75	8.888
606.09	9.554
606.42	8.882
606.75	9.351
607.09	9.538
607.42	8.773
607.75	8.703
608.08	8.401
608.42	9.182
608.75	9.253
609.08	8.769
609.41	9.137
609.75	8.367
610.08	9.336
610.41	8.937
610.74	8.825
611.07	9.096
611.41	9.549
611.74	9.755
612.07	8.512
612.40	9.847
612.73	9.266
613.07	8.324
613.40	9.956
613.73	8.002
614.06	9.293
614.39	9.193
614.72	8.908
615.06	9.162
615.39	9.498
615.72	8.450
616.05	8.994
616.38	7.578
616.71	9.235
617.05	9.018
617.38	9.239
617.71	8.616
618.04	9.587
618.37	9.521
618.70	9.307
619.03	10.069
619.36	8.394
619.69	8.946
620.03	9.277
620.36	9.871
620.69	9.279
621.02	8.869
621.35	9.627
621.68	9.694
622.01	9.083
622.34	8.619
622.67	9.621
623.00	8.882
623.33	8.918
623.66	8.227
623.99	7.716
624.32	8.137
624.65	7.895
624.99	9.029
625.32	8.643
625.65	9.269
625.98	8.622
626.31	8.063
626.64	9.619
626.97	9.860
627.30	8.231
627.63	10.485
627.96	8.086
628.29	9.343
628.62	9.046
628.95	9.419
629.28	7.661
629.61	8.076
629.94	9.580
630.26	8.794
630.59	9.365
630.92	8.718
631.25	7.795
631.58	8.590
631.91	7.456
632.24	9.518
632.57	9.886
632.90	8.778
633.23	8.118
633.56	8.186
633.89	8.385
634.22	8.519
634.55	8.767
634.88	6.897
635.20	8.846
635.53	9.333
635.86	7.542
636.19	8.797
636.52	9.056
636.85	6.576
637.18	8.050
637.51	7.547
637.83	8.673
638.16	9.686
638.49	6.540
638.82	9.737
639.15	8.277
639.48	8.116
639.81	9.344
640.13	6.926
640.46	10.204
640.79	7.806
641.12	9.158
