SpectraSuite Data File
++++++++++++++++++++++++++++++++++++
Date: Fri May 15 21:03:11 PDT 2015
User: schluterlab
Dark Spectrum Present: Yes
Reference Spectrum Present: Yes
Number of Sampled Component Spectra: 1
Spectrometers: USB2E3373
Integration Time (usec): 3000 (USB2E3373)
Spectra Averaged: 3 (USB2E3373)
Boxcar Smoothing: 0 (USB2E3373)
Correct for Electrical Dark: No (USB2E3373)
Strobe/Lamp Enabled: No (USB2E3373)
Correct for Detector Non-linearity: No (USB2E3373)
Correct for Stray Light: No (USB2E3373)
Number of Pixels in Processed Spectrum: 2048
>>>>>Begin Processed Spectral Data<<<<<
178.53	0.000
178.91	0.000
179.29	-75.000
179.67	-850.000
180.04	185.714
180.42	25.000
180.80	-900.000
181.18	266.667
181.56	500.000
181.94	-450.000
182.31	700.000
182.69	-200.000
183.07	-300.000
183.45	-240.000
183.83	-50.000
184.20	-27.273
184.58	133.333
184.96	-75.000
185.34	300.000
185.72	-550.000
186.09	38.462
186.47	-200.000
186.85	116.667
187.23	144.444
187.61	1100.000
187.98	-300.000
188.36	-77.778
188.74	-433.333
189.12	35.294
189.49	-11.111
189.87	0.000
190.25	28.571
190.63	-650.000
191.00	-433.333
191.38	0.000
191.76	-200.000
192.14	125.000
192.51	-150.000
192.89	-111.111
193.27	-128.571
193.65	233.333
194.02	190.909
194.40	-80.000
194.78	-137.500
195.15	-8.333
195.53	-25.000
195.91	250.000
196.29	-300.000
196.66	76.923
197.04	214.286
197.42	-166.667
197.79	-366.667
198.17	-123.077
198.55	1900.000
198.92	-266.667
199.30	-700.000
199.68	-200.000
200.05	-300.000
200.43	0.000
200.81	66.667
201.18	-333.333
201.56	1800.000
201.94	-700.000
202.31	66.667
202.69	-400.000
203.07	200.000
203.44	-200.000
203.82	0.000
204.19	-57.143
204.57	-433.333
204.95	137.500
205.32	-50.000
205.70	-100.000
206.08	-325.000
206.45	111.111
206.83	14.286
207.20	-128.571
207.58	600.000
207.96	-400.000
208.33	-90.000
208.71	-475.000
209.08	-150.000
209.46	0.000
209.84	-60.000
210.21	-1300.000
210.59	-85.714
210.96	-116.667
211.34	-150.000
211.71	13.333
212.09	-85.714
212.46	-1800.000
212.84	0.000
213.22	10.000
213.59	900.000
213.97	-46.154
214.34	-54.545
214.72	-216.667
215.09	450.000
215.47	-61.538
215.84	-45.455
216.22	-233.333
216.59	25.000
216.97	-50.000
217.34	-175.000
217.72	-280.000
218.09	-75.000
218.47	112.500
218.84	-600.000
219.22	-44.444
219.59	-80.000
219.97	366.667
220.34	375.000
220.72	-71.429
221.09	-150.000
221.47	150.000
221.84	-900.000
222.22	-650.000
222.59	-9.091
222.97	-8.333
223.34	-433.333
223.72	-78.571
224.09	-28.571
224.46	-3.571
224.84	800.000
225.21	-90.000
225.59	40.000
225.96	-200.000
226.34	525.000
226.71	-28.571
227.08	-116.667
227.46	-125.000
227.83	-550.000
228.21	-77.778
228.58	-18.182
228.95	-75.000
229.33	150.000
229.70	-12.500
230.08	-100.000
230.45	-14.286
230.82	14.286
231.20	-73.333
231.57	0.000
231.95	-85.714
232.32	-80.000
232.69	7.143
233.07	200.000
233.44	-440.000
233.81	10.000
234.19	-55.556
234.56	-35.294
234.93	550.000
235.31	-25.000
235.68	-220.000
236.05	-146.154
236.43	-50.000
236.80	41.176
237.17	0.000
237.55	-25.000
237.92	-29.630
238.29	-8.333
238.67	13.333
239.04	-29.412
239.41	-7.317
239.79	-3.333
240.16	4.878
240.53	-7.895
240.91	-23.913
241.28	9.524
241.65	23.214
242.02	27.397
242.40	-5.000
242.77	8.475
243.14	-4.545
243.51	-3.750
243.89	12.644
244.26	5.747
244.63	5.952
245.00	12.371
245.38	9.278
245.75	12.360
246.12	9.483
246.49	9.091
246.87	6.731
247.24	5.042
247.61	1.754
247.98	8.130
248.36	3.750
248.73	6.579
249.10	5.844
249.47	14.557
249.84	5.229
250.22	10.000
250.59	10.458
250.96	14.554
251.33	15.116
251.70	15.882
252.08	6.091
252.45	13.861
252.82	11.558
253.19	13.825
253.56	8.879
253.94	10.811
254.31	14.348
254.68	18.860
255.05	10.236
255.42	12.664
255.79	14.672
256.16	14.397
256.54	14.552
256.91	9.506
257.28	11.152
257.65	8.614
258.02	14.184
258.39	20.202
258.76	16.117
259.14	11.628
259.51	15.534
259.88	8.935
260.25	11.765
260.62	15.972
260.99	7.458
261.36	11.986
261.73	11.392
262.10	17.325
262.47	10.429
262.85	12.226
263.22	14.154
263.59	14.642
263.96	17.391
264.33	15.152
264.70	9.821
265.07	14.286
265.44	17.280
265.81	14.124
266.18	15.301
266.55	14.396
266.92	15.026
267.29	12.010
267.66	16.368
268.03	13.874
268.40	13.055
268.77	17.380
269.14	14.628
269.51	15.681
269.88	11.471
270.25	13.010
270.62	13.415
270.99	12.020
271.36	12.714
271.73	14.319
272.10	17.032
272.47	12.293
272.84	13.614
273.21	16.009
273.58	14.458
273.95	16.018
274.32	14.319
274.69	12.443
275.06	14.509
275.43	13.605
275.80	14.349
276.17	14.713
276.54	12.848
276.91	16.667
277.28	14.629
277.65	15.909
278.02	15.106
278.39	15.098
278.76	12.579
279.13	11.618
279.50	14.286
279.87	11.879
280.23	10.753
280.60	16.179
280.97	15.152
281.34	13.077
281.71	12.936
282.08	12.474
282.45	13.307
282.82	13.707
283.19	13.733
283.56	15.414
283.92	9.867
284.29	11.538
284.66	12.597
285.03	12.377
285.40	11.342
285.77	12.302
286.14	13.899
286.51	13.838
286.87	12.249
287.24	14.549
287.61	13.051
287.98	13.684
288.35	11.958
288.72	14.886
289.08	12.500
289.45	12.302
289.82	13.636
290.19	9.556
290.56	12.864
290.93	12.290
291.29	11.864
291.66	11.969
292.03	12.759
292.40	12.581
292.77	10.845
293.13	9.416
293.50	10.319
293.87	11.298
294.24	10.665
294.60	10.879
294.97	11.458
295.34	13.190
295.71	10.581
296.08	12.257
296.44	8.677
296.81	11.806
297.18	11.014
297.55	10.705
297.91	11.507
298.28	11.609
298.65	11.398
299.02	10.647
299.38	7.661
299.75	10.207
300.12	9.817
300.48	9.881
300.85	11.153
301.22	10.390
301.59	9.605
301.95	10.127
302.32	11.673
302.69	10.323
303.05	10.149
303.42	9.091
303.79	10.164
304.15	10.514
304.52	8.680
304.89	9.240
305.25	9.685
305.62	8.051
305.99	9.357
306.35	9.827
306.72	9.561
307.09	10.604
307.45	9.414
307.82	8.912
308.19	10.337
308.55	10.251
308.92	10.893
309.29	9.162
309.65	9.688
310.02	10.341
310.38	10.209
310.75	8.634
311.12	10.657
311.48	9.862
311.85	9.215
312.22	9.177
312.58	10.510
312.95	9.605
313.31	10.766
313.68	9.843
314.05	10.612
314.41	12.268
314.78	10.825
315.14	12.230
315.51	9.834
315.87	10.656
316.24	12.437
316.61	11.811
316.97	11.905
317.34	11.816
317.70	11.855
318.07	10.962
318.43	12.843
318.80	12.689
319.16	13.477
319.53	13.675
319.89	15.650
320.26	13.866
320.62	15.848
320.99	13.466
321.35	14.183
321.72	15.888
322.08	15.710
322.45	17.766
322.81	16.306
323.18	16.879
323.54	17.278
323.91	16.553
324.27	18.848
324.64	17.416
325.00	19.617
325.37	20.202
325.73	19.583
326.10	19.437
326.46	20.628
326.83	21.872
327.19	21.796
327.56	22.155
327.92	22.359
328.29	22.500
328.65	22.453
329.01	21.967
329.38	23.226
329.74	22.568
330.11	23.355
330.47	22.078
330.84	23.846
331.20	25.475
331.56	23.519
331.93	24.018
332.29	25.023
332.66	24.615
333.02	24.628
333.38	24.381
333.75	25.366
334.11	24.440
334.48	25.839
334.84	25.366
335.20	25.618
335.57	23.300
335.93	25.836
336.29	24.401
336.66	24.523
337.02	25.279
337.38	24.352
337.75	26.000
338.11	25.068
338.47	25.182
338.84	25.046
339.20	25.137
339.56	26.055
339.93	24.888
340.29	25.321
340.65	26.075
341.02	24.823
341.38	25.841
341.74	24.735
342.11	24.263
342.47	25.000
342.83	25.519
343.20	24.826
343.56	26.348
343.92	25.332
344.28	25.619
344.65	25.389
345.01	24.028
345.37	24.643
345.73	25.272
346.10	25.884
346.46	25.568
346.82	24.959
347.19	23.940
347.55	26.734
347.91	25.728
348.27	24.980
348.63	25.639
349.00	24.528
349.36	25.270
349.72	26.451
350.08	26.230
350.45	24.581
350.81	25.581
351.17	24.511
351.53	26.204
351.89	25.929
352.26	24.160
352.62	25.726
352.98	24.578
353.34	25.201
353.70	25.890
354.07	25.645
354.43	24.980
354.79	26.177
355.15	26.190
355.51	26.345
355.87	24.515
356.24	25.449
356.60	25.141
356.96	25.794
357.32	25.319
357.68	26.036
358.04	24.556
358.40	23.875
358.77	24.402
359.13	24.660
359.49	25.424
359.85	24.961
360.21	24.242
360.57	25.325
360.93	25.340
361.29	23.640
361.66	25.784
362.02	25.606
362.38	25.362
362.74	24.678
363.10	24.755
363.46	25.130
363.82	26.296
364.18	24.797
364.54	25.074
364.90	24.803
365.26	25.619
365.62	25.839
365.98	25.367
366.35	25.492
366.71	26.164
367.07	26.923
367.43	25.521
367.79	25.583
368.15	25.915
368.51	24.836
368.87	24.551
369.23	24.982
369.59	25.364
369.95	25.440
370.31	25.795
370.67	25.373
371.03	25.392
371.39	24.799
371.75	25.055
372.11	25.250
372.47	24.704
372.83	25.550
373.19	25.678
373.55	25.343
373.91	25.198
374.27	25.868
374.63	24.910
374.99	24.610
375.35	24.304
375.71	25.664
376.07	25.351
376.42	25.306
376.78	26.107
377.14	24.645
377.50	25.631
377.86	25.234
378.22	25.399
378.58	25.192
378.94	25.583
379.30	25.390
379.66	25.266
380.02	25.506
380.38	24.467
380.74	25.673
381.09	26.442
381.45	24.832
381.81	25.910
382.17	24.746
382.53	25.359
382.89	26.177
383.25	26.198
383.61	26.220
383.97	24.762
384.32	25.766
384.68	25.759
385.04	24.877
385.40	24.953
385.76	25.660
386.12	24.903
386.48	25.862
386.83	25.872
387.19	25.214
387.55	25.533
387.91	26.100
388.27	24.054
388.62	25.739
388.98	25.599
389.34	25.734
389.70	25.730
390.06	25.614
390.42	25.065
390.77	25.834
391.13	25.284
391.49	25.485
391.85	25.081
392.20	25.487
392.56	25.302
392.92	25.073
393.28	25.236
393.64	25.045
393.99	25.266
394.35	24.858
394.71	24.713
395.07	25.016
395.42	25.683
395.78	25.928
396.14	26.293
396.50	24.794
396.85	25.628
397.21	24.624
397.57	26.082
397.92	25.524
398.28	24.253
398.64	24.337
399.00	25.113
399.35	24.492
399.71	24.871
400.07	26.239
400.42	25.643
400.78	26.209
401.14	25.227
401.49	25.491
401.85	24.863
402.21	26.024
402.57	25.313
402.92	23.902
403.28	26.003
403.63	24.905
403.99	24.745
404.35	25.359
404.70	23.988
405.06	25.382
405.42	24.487
405.77	24.695
406.13	24.796
406.49	24.156
406.84	26.528
407.20	24.865
407.55	24.082
407.91	25.201
408.27	24.984
408.62	25.846
408.98	24.831
409.34	25.898
409.69	24.225
410.05	24.692
410.40	25.741
410.76	25.392
411.11	25.250
411.47	25.707
411.83	25.487
412.18	26.448
412.54	26.030
412.89	24.938
413.25	24.729
413.60	24.534
413.96	24.172
414.31	25.488
414.67	24.439
415.03	25.566
415.38	24.151
415.74	25.081
416.09	25.800
416.45	25.726
416.80	25.050
417.16	24.862
417.51	25.716
417.87	24.381
418.22	25.842
418.58	24.615
418.93	26.082
419.29	24.264
419.64	24.109
420.00	25.315
420.35	24.478
420.71	25.213
421.06	24.125
421.42	25.481
421.77	25.376
422.12	24.858
422.48	25.609
422.83	25.058
423.19	24.436
423.54	24.456
423.90	25.088
424.25	24.971
424.61	24.480
424.96	24.739
425.31	25.650
425.67	24.824
426.02	25.795
426.38	26.049
426.73	25.303
427.09	26.266
427.44	25.235
427.79	25.044
428.15	25.243
428.50	25.924
428.85	24.570
429.21	25.297
429.56	25.391
429.92	25.167
430.27	24.261
430.62	24.516
430.98	24.522
431.33	25.289
431.68	25.798
432.04	25.266
432.39	24.244
432.74	23.812
433.10	26.149
433.45	24.910
433.80	24.608
434.16	24.543
434.51	25.323
434.86	25.900
435.22	25.351
435.57	25.951
435.92	24.790
436.28	24.806
436.63	25.157
436.98	24.565
437.34	24.803
437.69	26.058
438.04	25.869
438.39	25.229
438.75	26.047
439.10	25.297
439.45	26.415
439.81	25.199
440.16	25.772
440.51	26.388
440.86	26.103
441.22	25.283
441.57	25.938
441.92	25.656
442.27	25.443
442.63	25.857
442.98	26.307
443.33	25.654
443.68	24.668
444.03	25.683
444.39	25.184
444.74	25.864
445.09	24.610
445.44	25.299
445.79	25.838
446.15	24.945
446.50	24.570
446.85	24.814
447.20	24.974
447.55	25.949
447.91	25.550
448.26	25.839
448.61	25.561
448.96	25.990
449.31	26.358
449.66	26.307
450.02	25.499
450.37	26.082
450.72	25.430
451.07	25.949
451.42	25.406
451.77	25.377
452.12	25.179
452.47	25.885
452.83	25.559
453.18	25.933
453.53	25.221
453.88	26.351
454.23	25.507
454.58	26.322
454.93	26.482
455.28	24.635
455.63	26.100
455.98	25.676
456.34	26.117
456.69	27.192
457.04	26.528
457.39	26.610
457.74	25.756
458.09	25.015
458.44	25.571
458.79	25.266
459.14	26.201
459.49	26.269
459.84	26.509
460.19	26.153
460.54	26.895
460.89	25.341
461.24	26.273
461.59	26.722
461.94	25.912
462.29	27.141
462.64	26.113
462.99	26.879
463.34	25.661
463.69	25.418
464.04	26.211
464.39	25.894
464.74	26.196
465.09	25.016
465.44	25.678
465.79	25.340
466.14	26.682
466.49	25.474
466.84	25.877
467.19	26.783
467.54	26.181
467.89	25.837
468.24	25.365
468.59	26.603
468.94	25.333
469.29	26.885
469.64	26.521
469.99	27.190
470.34	25.461
470.68	26.920
471.03	26.327
471.38	26.034
471.73	26.190
472.08	25.780
472.43	26.577
472.78	25.634
473.13	26.599
473.48	26.124
473.83	25.716
474.17	26.425
474.52	26.165
474.87	26.727
475.22	26.236
475.57	25.466
475.92	26.495
476.27	26.193
476.61	26.678
476.96	25.600
477.31	26.284
477.66	25.225
478.01	25.940
478.36	26.471
478.70	26.645
479.05	25.714
479.40	26.338
479.75	25.756
480.10	26.165
480.45	25.850
480.79	26.939
481.14	26.486
481.49	26.404
481.84	26.014
482.19	25.959
482.53	25.995
482.88	25.871
483.23	26.296
483.58	25.236
483.92	25.508
484.27	24.749
484.62	25.415
484.97	25.249
485.31	25.108
485.66	24.046
486.01	23.335
486.36	23.151
486.70	24.360
487.05	24.570
487.40	24.819
487.75	25.211
488.09	24.660
488.44	25.172
488.79	25.439
489.13	24.800
489.48	25.994
489.83	26.054
490.17	26.067
490.52	26.097
490.87	25.729
491.22	26.170
491.56	25.664
491.91	25.526
492.26	25.814
492.60	26.056
492.95	26.217
493.30	25.208
493.64	26.473
493.99	25.749
494.34	25.777
494.68	25.476
495.03	25.012
495.37	26.300
495.72	26.249
496.07	26.195
496.41	25.519
496.76	25.564
497.11	25.198
497.45	26.301
497.80	26.287
498.14	25.584
498.49	25.952
498.84	26.597
499.18	26.506
499.53	26.389
499.87	25.438
500.22	25.816
500.56	25.466
500.91	27.309
501.26	24.815
501.60	25.873
501.95	25.861
502.29	26.441
502.64	25.531
502.98	25.703
503.33	24.784
503.67	25.735
504.02	25.855
504.36	26.175
504.71	25.606
505.06	25.164
505.40	26.041
505.75	26.082
506.09	26.001
506.44	26.899
506.78	26.224
507.13	26.267
507.47	24.334
507.82	25.214
508.16	26.096
508.51	25.656
508.85	26.321
509.19	24.800
509.54	25.308
509.88	25.728
510.23	25.605
510.57	25.815
510.92	24.574
511.26	24.932
511.61	26.238
511.95	25.479
512.30	25.388
512.64	26.155
512.98	25.660
513.33	26.133
513.67	25.583
514.02	26.373
514.36	26.171
514.70	26.515
515.05	26.498
515.39	26.269
515.74	27.126
516.08	27.077
516.42	26.266
516.77	26.975
517.11	26.291
517.46	25.673
517.80	25.924
518.14	25.964
518.49	25.721
518.83	26.306
519.17	25.713
519.52	25.518
519.86	25.030
520.20	26.124
520.55	25.891
520.89	27.039
521.23	26.219
521.58	27.382
521.92	26.667
522.26	26.480
522.61	26.883
522.95	26.821
523.29	27.128
523.64	27.065
523.98	26.636
524.32	26.160
524.66	27.913
525.01	26.688
525.35	26.377
525.69	26.397
526.04	25.860
526.38	27.951
526.72	25.768
527.06	25.811
527.41	27.111
527.75	26.340
528.09	26.379
528.43	27.009
528.78	27.063
529.12	26.129
529.46	25.601
529.80	26.536
530.15	27.261
530.49	26.263
530.83	26.676
531.17	25.991
531.51	26.265
531.86	26.717
532.20	25.052
532.54	26.549
532.88	27.379
533.22	27.151
533.57	25.623
533.91	26.110
534.25	28.125
534.59	25.786
534.93	24.858
535.27	25.698
535.62	26.507
535.96	25.766
536.30	26.649
536.64	25.293
536.98	24.808
537.32	26.743
537.66	25.526
538.01	25.455
538.35	26.422
538.69	24.967
539.03	24.402
539.37	25.707
539.71	25.767
540.05	26.001
540.39	25.831
540.73	25.941
541.07	26.519
541.42	25.941
541.76	26.772
542.10	25.809
542.44	26.129
542.78	24.845
543.12	24.725
543.46	26.147
543.80	25.607
544.14	24.433
544.48	26.382
544.82	25.222
545.16	26.503
545.50	26.368
545.84	27.054
546.18	25.816
546.52	25.595
546.86	25.737
547.20	25.536
547.54	24.806
547.88	25.068
548.22	24.392
548.56	24.340
548.90	25.270
549.24	23.485
549.58	25.317
549.92	23.874
550.26	24.615
550.60	24.981
550.94	26.214
551.28	25.348
551.62	25.615
551.96	24.135
552.30	24.561
552.64	23.484
552.98	24.332
553.32	24.822
553.66	23.730
554.00	25.547
554.34	25.037
554.68	24.705
555.02	25.298
555.36	24.308
555.69	24.396
556.03	24.126
556.37	23.488
556.71	23.827
557.05	24.236
557.39	23.494
557.73	24.363
558.07	26.094
558.41	24.349
558.75	25.409
559.08	24.350
559.42	25.079
559.76	25.620
560.10	24.159
560.44	24.200
560.78	24.196
561.12	24.753
561.45	24.455
561.79	24.160
562.13	25.124
562.47	24.245
562.81	23.703
563.15	23.977
563.48	23.692
563.82	24.296
564.16	24.164
564.50	23.581
564.84	24.029
565.17	23.273
565.51	24.932
565.85	24.074
566.19	24.867
566.52	23.123
566.86	23.265
567.20	22.976
567.54	23.479
567.88	22.730
568.21	23.586
568.55	22.500
568.89	22.998
569.23	22.532
569.56	21.191
569.90	22.412
570.24	21.548
570.57	21.927
570.91	21.262
571.25	21.144
571.59	20.679
571.92	20.296
572.26	19.867
572.60	20.527
572.93	20.301
573.27	20.376
573.61	20.286
573.95	20.399
574.28	20.418
574.62	19.375
574.96	20.045
575.29	19.965
575.63	19.383
575.97	19.002
576.30	19.961
576.64	19.656
576.98	19.743
577.31	19.612
577.65	19.495
577.98	19.844
578.32	19.103
578.66	19.041
578.99	19.022
579.33	19.136
579.67	19.076
580.00	19.443
580.34	19.478
580.67	19.214
581.01	19.765
581.35	19.035
581.68	19.012
582.02	18.884
582.35	18.719
582.69	18.640
583.02	19.013
583.36	18.997
583.70	19.782
584.03	19.655
584.37	19.706
584.70	19.643
585.04	18.834
585.37	19.115
585.71	18.761
586.04	19.062
586.38	19.045
586.72	19.484
587.05	19.526
587.39	19.318
587.72	19.738
588.06	19.291
588.39	19.624
588.73	19.231
589.06	20.254
589.40	20.152
589.73	20.884
590.07	20.279
590.40	20.201
590.73	20.840
591.07	19.678
591.40	20.525
591.74	20.543
592.07	20.547
592.41	20.848
592.74	20.032
593.08	18.547
593.41	19.275
593.75	19.006
594.08	18.778
594.41	19.578
594.75	19.733
595.08	19.712
595.42	19.617
595.75	19.564
596.09	19.507
596.42	20.008
596.75	20.160
597.09	19.408
597.42	20.280
597.75	19.789
598.09	19.647
598.42	19.856
598.76	18.704
599.09	19.631
599.42	19.060
599.76	18.736
600.09	19.118
600.42	18.840
600.76	18.796
601.09	18.511
601.42	19.036
601.76	18.539
602.09	19.637
602.42	19.082
602.76	19.907
603.09	18.854
603.42	20.569
603.76	18.911
604.09	18.469
604.42	19.374
604.76	19.582
605.09	19.516
605.42	19.503
605.75	19.221
606.09	19.406
606.42	18.849
606.75	18.874
607.09	19.692
607.42	18.653
607.75	19.272
608.08	18.733
608.42	19.552
608.75	19.518
609.08	19.631
609.41	19.949
609.75	19.254
610.08	19.471
610.41	19.372
610.74	18.625
611.07	19.587
611.41	19.875
611.74	20.096
612.07	20.075
612.40	20.077
612.73	20.734
613.07	19.516
613.40	19.967
613.73	19.138
614.06	19.087
614.39	20.192
614.72	19.608
615.06	19.609
615.39	19.378
615.72	19.160
616.05	19.497
616.38	19.373
616.71	19.205
617.05	19.642
617.38	20.490
617.71	18.805
618.04	20.508
618.37	21.627
618.70	20.264
619.03	19.931
619.36	19.754
619.69	20.697
620.03	22.060
620.36	20.100
620.69	20.914
621.02	20.413
621.35	21.577
621.68	21.173
622.01	20.500
622.34	22.027
622.67	21.924
623.00	20.291
623.33	19.588
623.66	19.222
623.99	20.575
624.32	21.065
624.65	20.000
624.99	20.993
625.32	20.091
625.65	21.288
625.98	19.984
626.31	20.615
626.64	22.270
626.97	21.990
627.30	22.592
627.63	21.057
627.96	21.473
628.29	22.294
628.62	23.697
628.95	22.545
629.28	22.581
629.61	21.037
629.94	22.483
630.26	21.443
630.59	22.581
630.92	24.000
631.25	21.949
631.58	23.678
631.91	22.697
632.24	23.165
632.57	22.841
632.90	23.132
633.23	23.059
633.56	22.040
