SpectraSuite Data File
++++++++++++++++++++++++++++++++++++
Date: Fri May 15 20:48:05 PDT 2015
User: schluterlab
Dark Spectrum Present: Yes
Reference Spectrum Present: Yes
Number of Sampled Component Spectra: 1
Spectrometers: USB2E3373
Integration Time (usec): 3000 (USB2E3373)
Spectra Averaged: 3 (USB2E3373)
Boxcar Smoothing: 0 (USB2E3373)
Correct for Electrical Dark: No (USB2E3373)
Strobe/Lamp Enabled: No (USB2E3373)
Correct for Detector Non-linearity: No (USB2E3373)
Correct for Stray Light: No (USB2E3373)
Number of Pixels in Processed Spectrum: 2048
>>>>>Begin Processed Spectral Data<<<<<
178.53	0.000
178.91	0.000
179.29	-12.500
179.67	-800.000
180.04	42.857
180.42	-50.000
180.80	-100.000
181.18	66.667
181.56	600.000
181.94	-250.000
182.31	700.000
182.69	-180.000
183.07	-400.000
183.45	-100.000
183.83	183.333
184.20	-18.182
184.58	122.222
184.96	225.000
185.34	100.000
185.72	-550.000
186.09	84.615
186.47	-1100.000
186.85	50.000
187.23	66.667
187.61	1100.000
187.98	-333.333
188.36	-100.000
188.74	-366.667
189.12	29.412
189.49	-22.222
189.87	0.000
190.25	42.857
190.63	-350.000
191.00	-200.000
191.38	-57.895
191.76	-50.000
192.14	-125.000
192.51	100.000
192.89	-88.889
193.27	14.286
193.65	116.667
194.02	181.818
194.40	-30.000
194.78	-175.000
195.15	41.667
195.53	-212.500
195.91	600.000
196.29	-250.000
196.66	46.154
197.04	114.286
197.42	-111.111
197.79	-400.000
198.17	-130.769
198.55	1800.000
198.92	-633.333
199.30	-1200.000
199.68	-260.000
200.05	-266.667
200.43	0.000
200.81	-433.333
201.18	-266.667
201.56	1300.000
201.94	-600.000
202.31	-0.000
202.69	-180.000
203.07	325.000
203.44	-300.000
203.82	0.000
204.19	-35.714
204.57	-100.000
204.95	175.000
205.32	-20.000
205.70	-128.571
206.08	-350.000
206.45	44.444
206.83	14.286
207.20	-114.286
207.58	300.000
207.96	-266.667
208.33	-180.000
208.71	-300.000
209.08	-416.667
209.46	-2200.000
209.84	-340.000
210.21	-1400.000
210.59	-100.000
210.96	-33.333
211.34	-75.000
211.71	60.000
212.09	-142.857
212.46	-1000.000
212.84	0.000
213.22	40.000
213.59	350.000
213.97	30.769
214.34	63.636
214.72	-100.000
215.09	300.000
215.47	-38.462
215.84	-109.091
216.22	-33.333
216.59	-87.500
216.97	-200.000
217.34	-275.000
217.72	-320.000
218.09	-62.500
218.47	137.500
218.84	-900.000
219.22	-88.889
219.59	200.000
219.97	433.333
220.34	375.000
220.72	0.000
221.09	-175.000
221.47	-400.000
221.84	-1000.000
222.22	-1050.000
222.59	0.000
222.97	25.000
223.34	-66.667
223.72	-42.857
224.09	-57.143
224.46	21.429
224.84	666.667
225.21	-80.000
225.59	26.667
225.96	150.000
226.34	400.000
226.71	-185.714
227.08	-116.667
227.46	-12.500
227.83	-400.000
228.21	-66.667
228.58	-27.273
228.95	-125.000
229.33	180.000
229.70	-68.750
230.08	-62.500
230.45	-185.714
230.82	14.286
231.20	-80.000
231.57	57.143
231.95	-157.143
232.32	-110.000
232.69	7.143
233.07	-400.000
233.44	-60.000
233.81	-190.000
234.19	-55.556
234.56	-82.353
234.93	550.000
235.31	75.000
235.68	-520.000
236.05	-100.000
236.43	-85.000
236.80	-5.882
237.17	3.125
237.55	-50.000
237.92	-29.630
238.29	-5.556
238.67	3.333
239.04	-2.941
239.41	-46.341
239.79	-33.333
240.16	-4.878
240.53	-42.105
240.91	-21.739
241.28	-6.349
241.65	3.571
242.02	5.479
242.40	-15.000
242.77	6.780
243.14	-21.212
243.51	-3.750
243.89	3.448
244.26	0.000
244.63	-7.143
245.00	-5.155
245.38	-2.062
245.75	-21.348
246.12	-13.793
246.49	-8.264
246.87	-7.692
247.24	-15.126
247.61	-7.895
247.98	-3.252
248.36	-1.250
248.73	4.605
249.10	-1.948
249.47	-10.127
249.84	-2.614
250.22	-2.353
250.59	-4.575
250.96	4.695
251.33	-8.140
251.70	-6.471
252.08	-3.553
252.45	-3.465
252.82	-4.523
253.19	-2.765
253.56	-7.944
253.94	-0.450
254.31	0.870
254.68	-1.316
255.05	-2.756
255.42	-2.183
255.79	-1.544
256.16	0.389
256.54	1.866
256.91	0.000
257.28	-2.974
257.65	-1.124
258.02	-5.674
258.39	1.010
258.76	1.099
259.14	-0.332
259.51	-1.618
259.88	-3.780
260.25	-2.288
260.62	0.000
260.99	-5.424
261.36	-4.795
261.73	-5.380
262.10	0.000
262.47	-1.227
262.85	0.000
263.22	0.000
263.59	2.492
263.96	-0.311
264.33	-3.333
264.70	0.298
265.07	-2.679
265.44	-0.567
265.81	-1.977
266.18	1.639
266.55	1.542
266.92	0.259
267.29	-0.783
267.66	-1.023
268.03	-0.262
268.40	-3.394
268.77	2.406
269.14	1.439
269.51	2.571
269.88	-1.496
270.25	-3.316
270.62	-2.439
270.99	-4.859
271.36	-3.667
271.73	-1.174
272.10	-0.487
272.47	-1.418
272.84	-2.475
273.21	1.160
273.58	-1.446
273.95	-1.373
274.32	-0.924
274.69	-3.167
275.06	0.446
275.43	-1.361
275.80	-0.221
276.17	-3.218
276.54	1.499
276.91	-2.412
277.28	-2.620
277.65	0.000
278.02	-2.340
278.39	-2.626
278.76	-2.096
279.13	-3.112
279.50	-1.261
279.87	-0.432
280.23	-2.796
280.60	0.000
280.97	-0.606
281.34	-0.962
281.71	2.259
282.08	-1.636
282.45	-1.174
282.82	-3.475
283.19	0.387
283.56	0.000
283.92	-1.708
284.29	-1.154
284.66	-0.388
285.03	-1.179
285.40	0.567
285.77	-2.460
286.14	-1.264
286.51	0.554
286.87	-2.194
287.24	-1.105
287.61	-1.058
287.98	0.702
288.35	-0.867
288.72	0.175
289.08	-1.042
289.45	-0.879
289.82	0.000
290.19	-2.048
290.56	-0.858
290.93	-1.347
291.29	-0.462
291.66	1.102
292.03	0.319
292.40	0.645
292.77	-2.233
293.13	-2.922
293.50	-1.214
293.87	0.305
294.24	-0.927
294.60	0.149
294.97	1.190
295.34	-1.534
295.71	-0.596
296.08	0.000
296.44	-0.569
296.81	-0.556
297.18	-0.580
297.55	0.678
297.91	1.507
298.28	1.583
298.65	-0.271
299.02	-0.270
299.38	-1.915
299.75	-1.931
300.12	-2.225
300.48	-1.976
300.85	-0.380
301.22	-1.169
301.59	-2.632
301.95	1.013
302.32	0.130
302.69	-0.124
303.05	-0.866
303.42	-0.249
303.79	1.402
304.15	0.478
304.52	-2.140
304.89	0.000
305.25	0.000
305.62	-0.350
305.99	-1.170
306.35	-0.925
306.72	-1.462
307.09	0.228
307.45	0.000
307.82	-1.389
308.19	-0.465
308.55	0.654
308.92	0.436
309.29	-1.006
309.65	-0.861
310.02	-1.100
310.38	-0.220
310.75	-1.093
311.12	-0.215
311.48	0.530
311.85	0.628
312.22	-0.949
312.58	0.531
312.95	-0.640
313.31	-1.553
313.68	-0.942
314.05	0.918
314.41	0.722
314.78	-0.309
315.14	0.617
315.51	0.207
315.87	-1.230
316.24	2.022
316.61	0.984
316.97	0.893
317.34	0.684
317.70	1.912
318.07	1.154
318.43	1.471
318.80	0.663
319.16	1.758
319.53	2.374
319.89	1.870
320.26	2.024
320.62	2.909
320.99	0.522
321.35	2.364
321.72	3.842
322.08	3.122
322.45	3.858
322.81	3.536
323.18	3.435
323.54	2.799
323.91	3.992
324.27	4.102
324.64	5.805
325.00	5.109
325.37	5.510
325.73	5.077
326.10	5.177
326.46	5.740
326.83	6.649
327.19	5.841
327.56	6.169
327.92	8.187
328.29	6.518
328.65	6.887
329.01	6.985
329.38	7.742
329.74	7.082
330.11	7.322
330.47	7.050
330.84	6.923
331.20	8.745
331.56	7.685
331.93	8.037
332.29	8.799
332.66	8.054
333.02	9.108
333.38	7.791
333.75	7.967
334.11	8.684
334.48	8.613
334.84	8.150
335.20	9.424
335.57	9.248
335.93	9.395
336.29	9.576
336.66	8.992
337.02	8.086
337.38	7.037
337.75	8.727
338.11	7.755
338.47	8.668
338.84	9.704
339.20	9.781
339.56	8.716
339.93	10.206
340.29	9.266
340.65	9.857
341.02	9.929
341.38	9.027
341.74	9.806
342.11	8.319
342.47	9.875
342.83	10.467
343.20	10.017
343.56	8.957
343.92	9.035
344.28	9.821
344.65	8.981
345.01	8.557
345.37	9.167
345.73	9.372
346.10	10.785
346.46	9.672
346.82	9.083
347.19	9.559
347.55	9.607
347.91	9.304
348.27	9.216
348.63	10.221
349.00	8.942
349.36	9.476
349.72	9.453
350.08	9.426
350.45	10.136
350.81	8.887
351.17	9.853
351.53	10.122
351.89	8.588
352.26	9.600
352.62	9.274
352.98	8.996
353.34	9.662
353.70	10.356
354.07	8.952
354.43	9.528
354.79	9.001
355.15	10.476
355.51	9.731
355.87	9.871
356.24	8.075
356.60	9.054
356.96	10.476
357.32	9.665
357.68	8.366
358.04	9.774
358.40	9.727
358.77	9.649
359.13	8.647
359.49	8.860
359.85	8.814
360.21	8.852
360.57	9.564
360.93	9.077
361.29	7.931
361.66	9.483
362.02	9.470
362.38	9.977
362.74	8.403
363.10	9.707
363.46	8.821
363.82	10.518
364.18	9.004
364.54	8.824
364.90	9.319
365.26	8.370
365.62	10.365
365.98	9.384
366.35	9.614
366.71	9.387
367.07	9.724
367.43	8.483
367.79	8.834
368.15	9.189
368.51	9.541
368.87	8.471
369.23	7.870
369.59	9.184
369.95	10.191
370.31	8.743
370.67	8.955
371.03	9.111
371.39	8.242
371.75	9.084
372.11	10.342
372.47	9.172
372.83	9.865
373.19	9.486
373.55	8.448
373.91	10.079
374.27	9.213
374.63	9.548
374.99	8.369
375.35	8.774
375.71	10.070
376.07	8.778
376.42	9.116
376.78	9.530
377.14	9.072
377.50	9.097
377.86	9.438
378.22	9.892
378.58	9.359
378.94	8.633
379.30	10.356
379.66	9.091
380.02	8.890
380.38	8.156
380.74	9.096
381.09	10.061
381.45	8.807
381.81	9.439
382.17	8.820
382.53	8.994
382.89	7.972
383.25	9.708
383.61	9.146
383.97	7.429
384.32	9.193
384.68	8.359
385.04	8.640
385.40	7.592
385.76	8.868
386.12	8.926
386.48	8.748
386.83	8.244
387.19	8.669
387.55	8.407
387.91	8.435
388.27	8.547
388.62	8.559
388.98	7.551
389.34	8.807
389.70	10.068
390.06	7.678
390.42	8.808
390.77	8.568
391.13	8.071
391.49	8.732
391.85	8.252
392.20	8.223
392.56	7.374
392.92	8.749
393.28	8.608
393.64	7.568
393.99	9.154
394.35	6.894
394.71	9.004
395.07	8.485
395.42	7.286
395.78	8.599
396.14	8.323
396.50	8.180
396.85	8.113
397.21	8.835
397.57	8.088
397.92	7.909
398.28	7.931
398.64	7.410
399.00	8.126
399.35	7.619
399.71	8.501
400.07	8.162
400.42	7.405
400.78	8.451
401.14	7.985
401.49	8.636
401.85	7.800
402.21	8.675
402.57	8.438
402.92	7.905
403.28	8.835
403.63	7.755
403.99	7.398
404.35	7.870
404.70	6.905
405.06	7.344
405.42	7.334
405.77	7.147
406.13	7.218
406.49	7.223
406.84	7.885
407.20	7.706
407.55	6.954
407.91	6.618
408.27	7.266
408.62	7.938
408.98	7.948
409.34	8.302
409.69	7.364
410.05	6.835
410.40	6.852
410.76	7.720
411.11	6.937
411.47	7.232
411.83	6.403
412.18	7.207
412.54	6.804
412.89	6.897
413.25	7.581
413.60	6.708
413.96	7.362
414.31	7.195
414.67	7.441
415.03	6.391
415.38	7.507
415.74	6.710
416.09	7.642
416.45	6.887
416.80	6.874
417.16	8.425
417.51	7.062
417.87	7.366
418.22	7.060
418.58	7.023
418.93	7.837
419.29	6.658
419.64	6.351
420.00	8.060
420.35	6.567
420.71	6.683
421.06	6.814
421.42	6.971
421.77	6.416
422.12	6.981
422.48	6.930
422.83	6.381
423.19	6.659
423.54	5.879
423.90	6.478
424.25	6.429
424.61	7.344
424.96	7.085
425.31	6.586
425.67	6.279
426.02	7.538
426.38	6.700
426.73	7.082
427.09	6.962
427.44	6.882
427.79	6.187
428.15	7.221
428.50	6.905
428.85	5.774
429.21	7.187
429.56	6.792
429.92	6.780
430.27	6.366
430.62	6.064
430.98	6.104
431.33	6.782
431.68	5.651
432.04	5.981
432.39	6.161
432.74	6.073
433.10	6.609
433.45	6.452
433.80	5.223
434.16	5.429
434.51	6.129
434.86	6.620
435.22	6.674
435.57	5.989
435.92	6.527
436.28	6.023
436.63	5.990
436.98	6.025
437.34	5.445
437.69	6.321
438.04	6.154
438.39	5.681
438.75	5.100
439.10	6.169
439.45	6.573
439.81	5.382
440.16	6.176
440.51	6.209
440.86	7.190
441.22	6.052
441.57	6.347
441.92	6.139
442.27	6.098
442.63	7.120
442.98	6.433
443.33	6.288
443.68	5.782
444.03	6.855
444.39	6.936
444.74	6.745
445.09	6.403
445.44	6.268
445.79	6.601
446.15	6.443
446.50	6.212
446.85	5.898
447.20	6.465
447.55	6.752
447.91	5.866
448.26	6.830
448.61	6.851
448.96	6.196
449.31	6.763
449.66	6.562
450.02	5.990
450.37	6.343
450.72	7.045
451.07	7.278
451.42	6.180
451.77	6.751
452.12	6.160
452.47	6.053
452.83	6.243
453.18	6.452
453.53	6.827
453.88	6.193
454.23	6.761
454.58	6.675
454.93	6.894
455.28	5.460
455.63	7.440
455.98	7.336
456.34	6.258
456.69	7.560
457.04	6.994
457.39	5.893
457.74	6.711
458.09	6.416
458.44	5.617
458.79	6.499
459.14	6.979
459.49	7.343
459.84	6.486
460.19	6.250
460.54	7.213
460.89	6.250
461.24	6.708
461.59	7.007
461.94	6.918
462.29	7.780
462.64	6.777
462.99	6.770
463.34	5.981
463.69	6.692
464.04	6.901
464.39	6.610
464.74	7.607
465.09	5.677
465.44	7.155
465.79	7.313
466.14	7.070
466.49	6.671
466.84	6.484
467.19	7.384
467.54	6.577
467.89	6.064
468.24	6.995
468.59	7.746
468.94	6.413
469.29	7.541
469.64	7.109
469.99	7.078
470.34	5.597
470.68	6.637
471.03	7.289
471.38	6.348
471.73	6.863
472.08	5.970
472.43	5.906
472.78	6.100
473.13	6.871
473.48	7.036
473.83	6.413
474.17	6.541
474.52	7.275
474.87	6.182
475.22	6.101
475.57	5.872
475.92	6.583
476.27	7.043
476.61	6.771
476.96	6.135
477.31	6.814
477.66	6.461
478.01	6.345
478.36	6.536
478.70	6.852
479.05	7.033
479.40	6.677
479.75	6.309
480.10	6.554
480.45	6.400
480.79	6.798
481.14	6.660
481.49	6.650
481.84	6.129
482.19	6.548
482.53	6.139
482.88	5.967
483.23	6.190
483.58	6.415
483.92	6.680
484.27	6.108
484.62	6.499
484.97	5.929
485.31	6.286
485.66	6.314
486.01	6.207
486.36	6.009
486.70	6.505
487.05	6.411
487.40	5.946
487.75	5.887
488.09	5.902
488.44	6.431
488.79	6.201
489.13	6.210
489.48	6.114
489.83	6.861
490.17	5.528
490.52	6.282
490.87	6.386
491.22	6.686
491.56	5.835
491.91	6.405
492.26	6.417
492.60	7.102
492.95	6.936
493.30	5.813
493.64	6.139
493.99	6.087
494.34	5.388
494.68	6.048
495.03	5.450
495.37	5.986
495.72	5.704
496.07	6.195
496.41	5.802
496.76	5.942
497.11	5.217
497.45	6.539
497.80	6.357
498.14	5.564
498.49	5.688
498.84	6.387
499.18	6.124
499.53	6.002
499.87	5.350
500.22	5.935
500.56	6.304
500.91	5.271
501.26	5.536
501.60	5.755
501.95	6.016
502.29	5.811
502.64	6.467
502.98	5.624
503.33	5.235
503.67	5.639
504.02	5.816
504.36	6.086
504.71	6.111
505.06	5.788
505.40	5.736
505.75	5.567
506.09	6.031
506.44	6.571
506.78	5.918
507.13	6.360
507.47	5.326
507.82	5.395
508.16	6.128
508.51	5.247
508.85	5.913
509.19	4.311
509.54	6.166
509.88	5.016
510.23	5.971
510.57	6.093
510.92	4.744
511.26	5.074
511.61	5.391
511.95	5.753
512.30	4.878
512.64	5.398
512.98	5.278
513.33	6.547
513.67	5.287
514.02	6.064
514.36	6.286
514.70	5.711
515.05	6.052
515.39	5.254
515.74	6.467
516.08	5.858
516.42	5.830
516.77	6.378
517.11	5.638
517.46	5.925
517.80	5.721
518.14	5.756
518.49	5.709
518.83	4.617
519.17	4.730
519.52	5.329
519.86	5.162
520.20	5.468
520.55	4.440
520.89	5.772
521.23	5.446
521.58	5.804
521.92	5.641
522.26	5.465
522.61	5.909
522.95	5.762
523.29	5.781
523.64	5.400
523.98	5.574
524.32	5.090
524.66	5.762
525.01	5.714
525.35	5.638
525.69	4.781
526.04	4.299
526.38	6.615
526.72	5.428
527.06	5.447
527.41	5.541
527.75	4.759
528.09	5.847
528.43	5.672
528.78	4.884
529.12	5.484
529.46	5.263
529.80	5.446
530.15	5.281
530.49	4.444
530.83	5.267
531.17	5.843
531.51	4.993
531.86	4.691
532.20	4.941
532.54	5.582
532.88	5.818
533.22	5.511
533.57	4.915
533.91	4.634
534.25	5.469
534.59	4.682
534.93	4.405
535.27	4.949
535.62	5.185
535.96	5.219
536.30	5.805
536.64	5.169
536.98	4.808
537.32	5.548
537.66	5.750
538.01	5.175
538.35	4.785
538.69	5.593
539.03	4.238
539.37	5.451
539.71	5.317
540.05	5.227
540.39	4.778
540.73	4.254
541.07	5.318
541.42	5.981
541.76	5.024
542.10	5.024
542.44	5.420
542.78	3.785
543.12	5.014
543.46	5.076
543.80	5.135
544.14	4.539
544.48	4.863
544.82	4.306
545.16	4.577
545.50	5.874
545.84	5.241
546.18	5.816
546.52	4.686
546.86	4.385
547.20	4.936
547.54	4.452
547.88	5.367
548.22	4.536
548.56	4.749
548.90	5.458
549.24	5.372
549.58	5.571
549.92	4.003
550.26	4.542
550.60	4.535
550.94	5.004
551.28	4.946
551.62	3.846
551.96	4.812
552.30	4.094
552.64	4.584
552.98	4.782
553.32	4.708
553.66	4.282
554.00	4.453
554.34	4.727
554.68	4.941
555.02	5.134
555.36	4.263
555.69	3.810
556.03	3.997
556.37	4.484
556.71	4.765
557.05	4.176
557.39	4.089
557.73	4.498
558.07	4.977
558.41	4.211
558.75	4.988
559.08	4.492
559.42	3.492
559.76	4.404
560.10	3.058
560.44	4.617
560.78	4.895
561.12	3.667
561.45	5.622
561.79	4.552
562.13	4.542
562.47	3.957
562.81	4.395
563.15	4.725
563.48	4.243
563.82	4.049
564.16	4.109
564.50	4.730
564.84	4.618
565.17	4.561
565.51	4.372
565.85	4.184
566.19	4.377
566.52	4.558
566.86	4.692
567.20	4.047
567.54	4.440
567.88	4.511
568.21	4.751
568.55	4.891
568.89	4.825
569.23	5.007
569.56	4.860
569.90	4.913
570.24	4.280
570.57	4.327
570.91	5.019
571.25	4.308
571.59	4.547
571.92	4.533
572.26	4.408
572.60	4.806
572.93	4.550
573.27	4.671
573.61	4.594
573.95	4.642
574.28	4.502
574.62	4.755
574.96	4.463
575.29	4.190
575.63	4.172
575.97	4.283
576.30	4.301
576.64	4.238
576.98	4.453
577.31	4.448
577.65	4.404
577.98	4.628
578.32	4.317
578.66	4.363
578.99	4.492
579.33	4.047
579.67	4.189
580.00	4.278
580.34	4.254
580.67	4.327
581.01	4.467
581.35	4.436
581.68	4.507
582.02	4.203
582.35	4.215
582.69	4.227
583.02	4.465
583.36	4.353
583.70	4.491
584.03	4.420
584.37	4.065
584.70	4.396
585.04	4.067
585.37	4.619
585.71	4.295
586.04	4.286
586.38	4.081
586.72	4.103
587.05	4.333
587.39	4.277
587.72	4.593
588.06	4.733
588.39	4.472
588.73	4.731
589.06	4.795
589.40	4.494
589.73	5.075
590.07	4.305
590.40	4.760
590.73	4.778
591.07	4.368
591.40	4.319
591.74	4.977
592.07	4.731
592.41	4.638
592.74	4.540
593.08	4.960
593.41	4.415
593.75	4.383
594.08	4.325
594.41	4.403
594.75	4.504
595.08	4.502
595.42	4.380
595.75	3.980
596.09	4.300
596.42	4.299
596.75	4.529
597.09	4.647
597.42	4.788
597.75	4.443
598.09	4.753
598.42	4.468
598.76	3.904
599.09	4.688
599.42	4.282
599.76	4.251
600.09	4.487
600.42	4.208
600.76	4.012
601.09	3.931
601.42	3.917
601.76	4.605
602.09	4.290
602.42	4.465
602.76	4.202
603.09	4.651
603.42	4.640
603.76	3.992
604.09	4.253
604.42	4.526
604.76	5.029
605.09	4.753
605.42	4.289
605.75	3.897
606.09	4.076
606.42	4.837
606.75	4.113
607.09	4.484
607.42	4.121
607.75	4.796
608.08	3.998
608.42	5.025
608.75	4.096
609.08	3.936
609.41	4.569
609.75	4.637
610.08	4.393
610.41	4.348
610.74	4.096
611.07	4.393
611.41	4.826
611.74	3.785
612.07	4.122
612.40	4.212
612.73	4.463
613.07	4.049
613.40	5.306
613.73	3.917
614.06	5.787
614.39	4.738
614.72	4.258
615.06	4.413
615.39	4.694
615.72	4.198
616.05	3.799
616.38	4.330
616.71	4.465
617.05	4.571
617.38	4.274
617.71	4.277
618.04	4.000
618.37	4.918
618.70	4.818
619.03	6.111
619.36	3.690
619.69	4.776
620.03	4.383
620.36	3.720
620.69	4.568
621.02	3.670
621.35	4.896
621.68	4.337
622.01	4.167
622.34	5.587
622.67	4.101
623.00	4.900
623.33	5.183
623.66	4.413
623.99	4.690
624.32	5.019
624.65	3.534
624.99	3.988
625.32	3.942
625.65	5.656
625.98	3.948
626.31	3.990
626.64	4.766
626.97	5.061
627.30	4.904
627.63	4.593
627.96	5.571
628.29	4.440
628.62	5.801
628.95	4.108
629.28	5.141
629.61	4.586
629.94	5.767
630.26	4.150
630.59	4.579
630.92	3.385
631.25	4.410
631.58	3.855
631.91	3.399
632.24	3.670
632.57	5.114
632.90	4.152
633.23	4.235
633.56	3.149
633.89	4.316
634.22	3.951
634.55	2.922
634.88	4.087
635.20	2.564
635.53	3.333
635.86	3.771
636.19	4.010
636.52	2.806
636.85	3.350
637.18	4.528
637.51	4.277
637.83	4.599
638.16	5.321
638.49	2.180
638.82	4.474
639.15	4.749
639.48	4.264
639.81	4.045
640.13	4.762
640.46	3.207
640.79	2.504
641.12	3.988
641.45	4.505
641.77	5.185
642.10	6.635
642.43	3.376
642.76	2.640
643.09	3.877
643.41	4.207
643.74	2.306
644.07	4.433
644.40	7.601
644.73	4.729
645.05	3.356
645.38	3.175
645.71	3.723
646.04	3.052
646.36	4.078
646.69	6.835
647.02	1.701
647.35	5.037
647.67	2.925
648.00	5.224
648.33	6.143
648.66	3.220
648.98	2.848
649.31	2.810
649.64	5.024
649.96	2.269
650.29	4.089
650.62	3.932
650.94	3.889
651.27	1.676
651.60	4.505
651.92	3.322
652.25	3.552
652.58	4.500
652.90	4.460
653.23	3.697
653.56	3.384
653.88	3.436
654.21	1.401
654.54	2.886
