SpectraSuite Data File
++++++++++++++++++++++++++++++++++++
Date: Fri May 15 20:35:36 PDT 2015
User: schluterlab
Dark Spectrum Present: Yes
Reference Spectrum Present: Yes
Number of Sampled Component Spectra: 1
Spectrometers: USB2E3373
Integration Time (usec): 3000 (USB2E3373)
Spectra Averaged: 3 (USB2E3373)
Boxcar Smoothing: 0 (USB2E3373)
Correct for Electrical Dark: No (USB2E3373)
Strobe/Lamp Enabled: No (USB2E3373)
Correct for Detector Non-linearity: No (USB2E3373)
Correct for Stray Light: No (USB2E3373)
Number of Pixels in Processed Spectrum: 2048
>>>>>Begin Processed Spectral Data<<<<<
178.53	0.000
178.91	0.000
179.29	62.500
179.67	-150.000
180.04	71.429
180.42	-25.000
180.80	0.000
181.18	233.333
181.56	500.000
181.94	200.000
182.31	1500.000
182.69	-20.000
183.07	-366.667
183.45	-80.000
183.83	350.000
184.20	9.091
184.58	177.778
184.96	325.000
185.34	100.000
185.72	-500.000
186.09	169.231
186.47	-1400.000
186.85	266.667
187.23	33.333
187.61	700.000
187.98	-166.667
188.36	-44.444
188.74	-366.667
189.12	5.882
189.49	-5.556
189.87	0.000
190.25	35.714
190.63	-50.000
191.00	-100.000
191.38	21.053
191.76	-50.000
192.14	200.000
192.51	600.000
192.89	-22.222
193.27	-100.000
193.65	116.667
194.02	172.727
194.40	-20.000
194.78	-200.000
195.15	-33.333
195.53	-125.000
195.91	325.000
196.29	-100.000
196.66	123.077
197.04	228.571
197.42	-88.889
197.79	-600.000
198.17	-100.000
198.55	1800.000
198.92	-266.667
199.30	-300.000
199.68	-160.000
200.05	-600.000
200.43	0.000
200.81	-100.000
201.18	-166.667
201.56	1000.000
201.94	-450.000
202.31	-100.000
202.69	-380.000
203.07	-0.000
203.44	-200.000
203.82	0.000
204.19	42.857
204.57	-700.000
204.95	137.500
205.32	-50.000
205.70	-85.714
206.08	-250.000
206.45	22.222
206.83	78.571
207.20	-171.429
207.58	1300.000
207.96	-166.667
208.33	-190.000
208.71	-475.000
209.08	-316.667
209.46	-1100.000
209.84	-140.000
210.21	-1500.000
210.59	-14.286
210.96	-116.667
211.34	-50.000
211.71	13.333
212.09	-242.857
212.46	-2000.000
212.84	0.000
213.22	180.000
213.59	50.000
213.97	53.846
214.34	18.182
214.72	-66.667
215.09	425.000
215.47	-46.154
215.84	-9.091
216.22	-133.333
216.59	-62.500
216.97	-50.000
217.34	-25.000
217.72	-280.000
218.09	37.500
218.47	137.500
218.84	-700.000
219.22	-66.667
219.59	-80.000
219.97	400.000
220.34	375.000
220.72	14.286
221.09	-300.000
221.47	-900.000
221.84	-600.000
222.22	-400.000
222.59	90.909
222.97	-50.000
223.34	-300.000
223.72	-35.714
224.09	-28.571
224.46	17.857
224.84	666.667
225.21	-40.000
225.59	26.667
225.96	-250.000
226.34	300.000
226.71	-142.857
227.08	-66.667
227.46	-62.500
227.83	-1000.000
228.21	-66.667
228.58	-45.455
228.95	-62.500
229.33	120.000
229.70	12.500
230.08	-275.000
230.45	-157.143
230.82	-14.286
231.20	-26.667
231.57	28.571
231.95	-57.143
232.32	-120.000
232.69	57.143
233.07	0.000
233.44	20.000
233.81	-130.000
234.19	22.222
234.56	-82.353
234.93	400.000
235.31	-75.000
235.68	-320.000
236.05	-115.385
236.43	-50.000
236.80	-5.882
237.17	-15.625
237.55	5.000
237.92	-3.704
238.29	0.000
238.67	-30.000
239.04	-29.412
239.41	-2.439
239.79	6.667
240.16	12.195
240.53	-10.526
240.91	-8.696
241.28	-3.175
241.65	1.786
242.02	16.438
242.40	0.000
242.77	-3.390
243.14	-9.091
243.51	10.000
243.89	2.299
244.26	-3.448
244.63	-1.190
245.00	8.247
245.38	3.093
245.75	-12.360
246.12	-3.448
246.49	9.917
246.87	-3.846
247.24	10.924
247.61	-1.754
247.98	-0.813
248.36	4.375
248.73	10.526
249.10	5.195
249.47	8.861
249.84	9.150
250.22	9.412
250.59	10.458
250.96	10.798
251.33	4.070
251.70	5.882
252.08	12.183
252.45	11.386
252.82	8.543
253.19	11.982
253.56	4.206
253.94	9.910
254.31	7.826
254.68	9.649
255.05	9.055
255.42	9.170
255.79	11.969
256.16	9.728
256.54	9.328
256.91	9.506
257.28	5.948
257.65	3.745
258.02	8.156
258.39	8.754
258.76	11.722
259.14	10.963
259.51	11.003
259.88	7.904
260.25	10.784
260.62	9.028
260.99	7.797
261.36	6.507
261.73	7.911
262.10	9.422
262.47	7.055
262.85	7.524
263.22	6.462
263.59	9.969
263.96	9.627
264.33	10.909
264.70	8.036
265.07	9.821
265.44	13.598
265.81	10.169
266.18	10.109
266.55	8.740
266.92	9.326
267.29	10.183
267.66	10.230
268.03	8.639
268.40	8.355
268.77	10.963
269.14	10.072
269.51	6.941
269.88	9.726
270.25	8.163
270.62	7.073
270.99	7.673
271.36	7.579
271.73	10.563
272.10	9.732
272.47	12.293
272.84	7.921
273.21	13.921
273.58	11.807
273.95	13.043
274.32	10.855
274.69	8.371
275.06	13.170
275.43	8.617
275.80	10.155
276.17	11.034
276.54	10.493
276.91	9.868
277.28	9.607
277.65	10.331
278.02	8.723
278.39	7.221
278.76	8.176
279.13	6.432
279.50	8.193
279.87	10.151
280.23	8.172
280.60	11.696
280.97	9.899
281.34	9.231
281.71	8.830
282.08	9.202
282.45	10.176
282.82	10.039
283.19	10.058
283.56	7.322
283.92	8.539
284.29	8.462
284.66	9.109
285.03	8.841
285.40	9.452
285.77	7.206
286.14	8.845
286.51	8.672
286.87	6.947
287.24	9.208
287.61	10.406
287.98	9.825
288.35	10.399
288.72	11.208
289.08	7.465
289.45	8.612
289.82	8.217
290.19	7.850
290.56	7.376
290.93	8.754
291.29	8.783
291.66	10.394
292.03	7.974
292.40	9.839
292.77	7.018
293.13	7.468
293.50	7.284
293.87	7.634
294.24	9.892
294.60	7.899
294.97	7.143
295.34	5.982
295.71	8.793
296.08	9.417
296.44	7.112
296.81	7.500
297.18	7.536
297.55	8.401
297.91	7.671
298.28	8.443
298.65	7.734
299.02	6.739
299.38	5.472
299.75	8.414
300.12	6.021
300.48	7.378
300.85	6.971
301.22	7.403
301.59	6.842
301.95	7.848
302.32	6.615
302.69	6.468
303.05	6.683
303.42	7.223
303.79	8.411
304.15	8.841
304.52	4.875
304.89	7.485
305.25	6.538
305.62	5.951
305.99	6.199
306.35	6.358
306.72	5.287
307.09	7.298
307.45	5.511
307.82	6.134
308.19	7.085
308.55	7.197
308.92	8.279
309.29	7.039
309.65	7.427
310.02	7.811
310.38	7.245
310.75	8.415
311.12	6.674
311.48	7.105
311.85	7.958
312.22	8.228
312.58	8.068
312.95	7.044
313.31	7.453
313.68	6.911
314.05	8.061
314.41	7.938
314.78	7.423
315.14	9.661
315.51	8.696
315.87	9.426
316.24	10.212
316.61	9.547
316.97	10.218
317.34	9.863
317.70	10.038
318.07	10.000
318.43	11.078
318.80	11.553
319.16	11.719
319.53	12.156
319.89	12.205
320.26	13.259
320.62	13.641
320.99	12.526
321.35	15.211
321.72	14.434
322.08	15.206
322.45	16.142
322.81	16.405
323.18	16.977
323.54	17.375
323.91	17.527
324.27	19.727
324.64	20.225
325.00	21.442
325.37	21.947
325.73	20.490
326.10	22.979
326.46	23.587
326.83	24.234
327.19	24.150
327.56	25.456
327.92	26.585
328.29	27.054
328.65	29.151
329.01	27.941
329.38	28.756
329.74	27.195
330.11	29.472
330.47	30.148
330.84	29.808
331.20	32.129
331.56	31.574
331.93	32.146
332.29	33.639
332.66	31.855
333.02	31.970
333.38	32.172
333.75	32.418
334.11	32.677
334.48	34.633
334.84	34.707
335.20	34.767
335.57	32.457
335.93	34.508
336.29	34.438
336.66	34.514
337.02	35.223
337.38	34.352
337.75	34.455
338.11	35.347
338.47	34.763
338.84	36.044
339.20	35.558
339.56	36.789
339.93	37.064
340.29	36.789
340.65	37.993
341.02	36.791
341.38	36.991
341.74	37.456
342.11	36.828
342.47	34.875
342.83	37.716
343.20	36.934
343.56	37.652
343.92	39.593
344.28	37.489
344.65	35.924
345.01	36.560
345.37	36.754
345.73	37.657
346.10	38.223
346.46	38.436
346.82	37.971
347.19	35.411
347.55	38.680
347.91	37.702
348.27	36.783
348.63	38.756
349.00	38.474
349.36	38.820
349.72	39.386
350.08	38.934
350.45	39.106
350.81	39.203
351.17	38.111
351.53	38.612
351.89	37.903
352.26	37.360
352.62	38.387
352.98	37.831
353.34	37.118
353.70	38.107
354.07	37.661
354.43	38.431
354.79	39.802
355.15	38.810
355.51	38.924
355.87	38.107
356.24	38.662
356.60	39.774
356.96	39.524
357.32	36.821
357.68	38.389
358.04	38.934
358.40	39.228
358.77	39.952
359.13	38.671
359.49	37.596
359.85	39.470
360.21	39.952
360.57	38.256
360.93	39.486
361.29	37.311
361.66	40.282
362.02	39.091
362.38	38.842
362.74	40.954
363.10	39.579
363.46	39.956
363.82	41.172
364.18	38.598
364.54	39.853
364.90	39.427
365.26	38.937
365.62	40.584
365.98	40.982
366.35	40.131
366.71	40.798
367.07	40.493
367.43	39.180
367.79	39.364
368.15	39.052
368.51	40.204
368.87	40.201
369.23	40.289
369.59	40.743
369.95	41.422
370.31	40.246
370.67	40.448
371.03	39.955
371.39	39.387
371.75	38.974
372.11	39.230
372.47	40.015
372.83	39.957
373.19	39.800
373.55	39.567
373.91	39.957
374.27	41.673
374.63	40.704
374.99	40.142
375.35	40.529
375.71	41.049
376.07	40.239
376.42	40.136
376.78	40.268
377.14	40.149
377.50	41.833
377.86	38.956
378.22	38.609
378.58	40.705
378.94	42.029
379.30	40.549
379.66	41.630
380.02	40.589
380.38	39.623
380.74	40.455
381.09	40.000
381.45	40.306
381.81	41.086
382.17	40.102
382.53	40.350
382.89	40.992
383.25	41.195
383.61	40.976
383.97	40.254
384.32	39.775
384.68	40.619
385.04	38.848
385.40	39.390
385.76	42.138
386.12	41.915
386.48	40.868
386.83	40.140
387.19	40.171
387.55	40.402
387.91	40.526
388.27	39.133
388.62	41.284
388.98	40.209
389.34	40.162
389.70	40.522
390.06	39.962
390.42	38.342
390.77	40.222
391.13	39.344
391.49	40.362
391.85	40.806
392.20	40.239
392.56	41.004
392.92	40.223
393.28	40.448
393.64	39.459
393.99	40.815
394.35	39.911
394.71	40.421
395.07	39.849
395.42	40.134
395.78	40.456
396.14	39.344
396.50	39.062
396.85	38.764
397.21	38.659
397.57	40.690
397.92	39.245
398.28	40.517
398.64	39.277
399.00	40.463
399.35	38.883
399.71	39.518
400.07	40.145
400.42	40.147
400.78	40.171
401.14	39.685
401.49	40.203
401.85	40.037
402.21	39.096
402.57	39.500
402.92	38.519
403.28	40.100
403.63	38.588
403.99	38.584
404.35	39.850
404.70	38.095
405.06	38.367
405.42	38.844
405.77	37.594
406.13	38.068
406.49	38.840
406.84	40.098
407.20	39.253
407.55	38.957
407.91	39.104
408.27	38.305
408.62	40.062
408.98	39.248
409.34	38.848
409.69	37.791
410.05	37.746
410.40	38.704
410.76	38.963
411.11	39.125
411.47	40.105
411.83	38.167
412.18	38.739
412.54	37.266
412.89	37.192
413.25	38.508
413.60	38.075
413.96	37.178
414.31	37.683
414.67	37.652
415.03	37.683
415.38	37.533
415.74	38.762
416.09	38.145
416.45	38.285
416.80	37.541
417.16	38.467
417.51	37.642
417.87	36.767
418.22	37.889
418.58	38.127
418.93	39.185
419.29	36.364
419.64	38.367
420.00	38.161
420.35	37.015
420.71	38.092
421.06	37.630
421.42	37.680
421.77	37.225
422.12	37.571
422.48	37.087
422.83	36.195
423.19	37.585
423.54	36.155
423.90	36.631
424.25	37.313
424.61	38.311
424.96	38.153
425.31	38.128
425.67	37.852
426.02	37.750
426.38	37.570
426.73	38.015
427.09	37.089
427.44	37.412
427.79	38.833
428.15	37.925
428.50	38.098
428.85	36.241
429.21	38.031
429.56	38.059
429.92	36.775
430.27	36.190
430.62	37.167
430.98	36.093
431.33	37.119
431.68	36.682
432.04	37.060
432.39	36.794
432.74	35.899
433.10	38.161
433.45	36.141
433.80	37.086
434.16	35.789
434.51	37.419
434.86	36.876
435.22	36.960
435.57	36.931
435.92	36.587
436.28	36.076
436.63	37.136
436.98	36.790
437.34	36.116
437.69	37.746
438.04	36.524
438.39	36.225
438.75	37.037
439.10	37.012
439.45	37.188
439.81	35.902
440.16	36.698
440.51	37.672
440.86	37.523
441.22	36.425
441.57	36.976
441.92	36.254
442.27	35.477
442.63	37.473
442.98	36.990
443.33	35.337
443.68	37.347
444.03	36.165
444.39	35.711
444.74	36.901
445.09	37.249
445.44	36.353
445.79	37.236
446.15	35.958
446.50	35.275
446.85	37.301
447.20	35.662
447.55	35.882
447.91	36.041
448.26	36.084
448.61	36.903
448.96	36.317
449.31	35.549
449.66	35.540
450.02	35.368
450.37	36.455
450.72	34.880
451.07	36.899
451.42	35.643
451.77	36.106
452.12	34.809
452.47	34.771
452.83	35.866
453.18	35.927
453.53	35.841
453.88	35.337
454.23	34.911
454.58	35.202
454.93	36.211
455.28	34.540
455.63	35.586
455.98	35.658
456.34	35.185
456.69	36.404
457.04	36.232
457.39	35.480
457.74	34.885
458.09	35.256
458.44	35.810
458.79	34.566
459.14	35.412
459.49	34.746
459.84	35.138
460.19	33.799
460.54	34.413
460.89	34.659
461.24	34.783
461.59	35.511
461.94	34.277
462.29	34.379
462.64	35.282
462.99	33.785
463.34	34.631
463.69	34.041
464.04	34.504
464.39	33.960
464.74	33.252
465.09	34.560
465.44	34.622
465.79	32.483
466.14	34.322
466.49	33.237
466.84	34.741
467.19	33.917
467.54	33.716
467.89	33.607
468.24	33.212
468.59	34.476
468.94	33.143
469.29	33.443
469.64	34.518
469.99	35.319
470.34	33.242
470.68	33.408
471.03	34.253
471.38	34.736
471.73	32.983
472.08	32.564
472.43	33.624
472.78	32.488
473.13	32.721
473.48	33.094
473.83	33.624
474.17	33.355
474.52	32.100
474.87	32.848
475.22	32.154
475.57	32.693
475.92	32.584
476.27	33.003
476.61	32.465
476.96	32.850
477.31	31.693
477.66	31.629
478.01	32.173
478.36	31.863
478.70	32.463
479.05	31.593
479.40	32.220
479.75	31.804
480.10	32.053
480.45	31.450
480.79	32.175
481.14	32.121
481.49	31.921
481.84	31.419
482.19	31.291
482.53	32.422
482.88	32.029
483.23	32.054
483.58	32.170
483.92	30.736
484.27	30.720
484.62	31.914
484.97	30.597
485.31	29.227
485.66	28.802
486.01	29.228
486.36	29.294
486.70	29.279
487.05	29.238
487.40	29.111
487.75	28.958
488.09	29.635
488.44	29.333
488.79	30.146
489.13	29.527
489.48	29.714
489.83	29.552
490.17	29.438
490.52	29.977
490.87	29.107
491.22	30.659
491.56	30.266
491.91	29.924
492.26	31.308
492.60	30.086
492.95	30.448
493.30	28.725
493.64	30.501
493.99	30.048
494.34	29.612
494.68	28.952
495.03	29.246
495.37	29.882
495.72	29.430
496.07	29.756
496.41	29.292
496.76	28.973
497.11	28.365
497.45	29.021
497.80	29.465
498.14	28.862
498.49	28.796
498.84	29.092
499.18	29.367
499.53	28.869
499.87	27.626
500.22	28.289
500.56	28.694
500.91	28.715
501.26	28.324
501.60	28.628
501.95	28.287
502.29	27.893
502.64	28.282
502.98	29.107
503.33	26.753
503.67	27.904
504.02	27.761
504.36	28.352
504.71	27.424
505.06	27.730
505.40	28.528
505.75	27.474
506.09	28.637
506.44	28.131
506.78	27.755
507.13	28.128
507.47	27.363
507.82	27.350
508.16	27.839
508.51	27.912
508.85	26.740
509.19	27.355
509.54	27.078
509.88	26.591
510.23	27.918
510.57	27.365
510.92	26.333
511.26	27.169
511.61	27.558
511.95	27.233
512.30	27.827
512.64	27.101
512.98	28.074
513.33	27.588
513.67	26.151
514.02	28.089
514.36	27.771
514.70	27.331
515.05	27.967
515.39	26.682
515.74	27.545
516.08	27.675
516.42	27.326
516.77	26.565
517.11	26.884
517.46	27.349
517.80	27.414
518.14	27.250
518.49	26.803
518.83	26.671
519.17	25.894
519.52	25.873
519.86	25.990
520.20	26.245
520.55	26.704
520.89	27.353
521.23	26.472
521.58	26.877
521.92	26.154
522.26	26.350
522.61	25.974
522.95	27.417
523.29	26.366
523.64	26.302
523.98	27.220
524.32	25.773
524.66	26.953
525.01	25.455
525.35	27.544
525.69	26.734
526.04	25.860
526.38	26.329
526.72	25.311
527.06	25.681
527.41	26.385
527.75	25.469
528.09	25.914
528.43	26.401
528.78	24.950
529.12	25.742
529.46	25.211
529.80	25.839
530.15	25.677
530.49	24.579
530.83	26.060
531.17	25.789
531.51	24.897
531.86	24.677
532.20	24.217
532.54	26.004
532.88	25.462
533.22	24.664
533.57	24.640
533.91	24.674
534.25	25.195
534.59	24.888
534.93	23.914
535.27	23.794
535.62	24.109
535.96	25.636
536.30	24.208
536.64	24.535
536.98	25.436
537.32	25.320
537.66	25.316
538.01	24.825
538.35	24.064
538.69	24.501
539.03	24.129
539.37	23.755
539.71	23.177
540.05	24.508
540.39	24.792
540.73	24.826
541.07	23.826
541.42	24.395
541.76	24.776
542.10	23.538
542.44	23.836
542.78	22.712
543.12	23.214
543.46	23.505
543.80	23.109
544.14	22.096
544.48	23.718
544.82	23.377
545.16	23.497
545.50	24.166
545.84	23.725
546.18	23.262
546.52	24.081
546.86	23.364
547.20	23.033
547.54	22.544
547.88	23.641
548.22	21.893
548.56	22.955
548.90	23.113
549.24	21.970
549.58	22.073
549.92	21.658
550.26	22.564
550.60	23.420
550.94	22.405
551.28	22.798
551.62	24.000
551.96	21.805
552.30	22.149
552.64	22.496
552.98	22.714
553.32	22.468
553.66	21.626
554.00	22.190
554.34	21.935
554.68	23.230
555.02	22.917
555.36	22.214
555.69	22.125
556.03	21.556
556.37	21.423
556.71	21.733
557.05	21.924
557.39	22.602
557.73	21.514
558.07	21.342
558.41	22.205
558.75	22.603
559.08	22.143
559.42	22.778
559.76	22.018
560.10	21.636
560.44	21.147
560.78	20.420
561.12	21.016
561.45	21.996
561.79	21.709
562.13	21.363
562.47	20.863
562.81	21.254
563.15	20.592
563.48	21.711
563.82	20.933
564.16	21.170
564.50	20.000
564.84	20.950
565.17	19.920
565.51	21.243
565.85	21.605
566.19	21.353
566.52	21.046
566.86	22.044
567.20	19.738
567.54	20.742
567.88	20.387
568.21	20.984
568.55	20.109
568.89	20.534
569.23	19.933
569.56	18.870
569.90	19.326
570.24	18.608
570.57	18.400
570.91	18.717
571.25	18.119
571.59	18.343
571.92	17.896
572.26	17.844
572.60	18.202
572.93	18.042
573.27	18.276
573.61	17.751
573.95	18.323
574.28	18.061
574.62	17.137
574.96	17.627
575.29	17.643
575.63	17.492
575.97	17.132
576.30	17.402
576.64	17.245
576.98	17.889
577.31	17.646
577.65	17.431
577.98	17.181
578.32	17.372
578.66	17.000
578.99	16.869
579.33	16.812
579.67	17.083
580.00	17.114
580.34	17.065
580.67	17.062
581.01	16.835
581.35	16.904
581.68	16.709
582.02	16.352
582.35	16.750
582.69	16.771
583.02	16.727
583.36	17.081
583.70	17.264
584.03	17.070
584.37	17.617
584.70	17.088
585.04	16.399
585.37	16.806
585.71	16.638
586.04	16.742
586.38	16.431
586.72	16.901
587.05	16.984
587.39	17.361
587.72	17.387
588.06	16.358
588.39	17.032
588.73	17.002
589.06	17.091
589.40	17.214
589.73	17.853
590.07	17.409
590.40	17.570
590.73	17.216
591.07	17.218
591.40	16.919
591.74	17.692
592.07	17.996
592.41	17.977
592.74	17.284
593.08	16.381
593.41	16.969
593.75	16.323
594.08	16.341
594.41	16.266
594.75	17.061
595.08	16.459
595.42	17.078
595.75	17.161
596.09	15.872
596.42	16.618
596.75	16.874
597.09	17.312
597.42	17.209
597.75	16.858
598.09	16.433
598.42	17.419
598.76	16.774
599.09	16.546
599.42	16.332
599.76	16.667
600.09	16.629
600.42	16.073
600.76	16.270
601.09	16.336
601.42	16.255
601.76	16.395
602.09	16.130
602.42	17.228
602.76	16.129
603.09	16.819
603.42	16.639
603.76	16.008
604.09	16.039
604.42	16.836
604.76	16.555
605.09	16.636
605.42	16.569
605.75	16.550
606.09	16.221
606.42	15.513
606.75	16.580
607.09	17.143
607.42	16.659
607.75	15.986
608.08	16.038
608.42	15.852
608.75	16.627
609.08	16.542
609.41	16.548
609.75	16.935
610.08	16.825
610.41	16.135
610.74	16.090
611.07	16.899
611.41	16.814
611.74	17.004
612.07	16.435
612.40	17.396
612.73	16.384
613.07	16.142
613.40	16.794
613.73	16.172
614.06	16.249
614.39	16.413
614.72	16.134
615.06	16.704
615.39	15.939
615.72	16.416
616.05	17.263
616.38	16.068
616.71	16.697
617.05	17.295
617.38	16.719
617.71	16.164
618.04	17.079
618.37	17.781
618.70	16.634
619.03	17.500
619.36	16.570
619.69	17.134
620.03	17.166
620.36	16.881
620.69	16.988
621.02	17.737
621.35	18.589
621.68	17.007
622.01	17.500
622.34	17.079
622.67	18.218
623.00	17.994
623.33	17.302
623.66	17.203
623.99	17.852
624.32	17.795
624.65	17.068
624.99	16.930
625.32	15.542
625.65	18.303
625.98	17.325
626.31	16.126
626.64	16.464
626.97	17.801
627.30	18.739
627.63	17.764
627.96	19.587
628.29	17.206
628.62	17.994
628.95	18.737
629.28	18.145
629.61	17.547
629.94	17.986
630.26	17.292
630.59	18.418
630.92	18.667
631.25	17.846
631.58	17.841
631.91	17.215
632.24	18.005
632.57	19.659
632.90	18.980
633.23	20.235
633.56	17.632
633.89	19.112
634.22	20.000
634.55	20.457
634.88	17.625
635.20	17.179
635.53	20.000
635.86	18.466
