SpectraSuite Data File
++++++++++++++++++++++++++++++++++++
Date: Fri May 15 20:31:56 PDT 2015
User: schluterlab
Dark Spectrum Present: Yes
Reference Spectrum Present: Yes
Number of Sampled Component Spectra: 1
Spectrometers: USB2E3373
Integration Time (usec): 3000 (USB2E3373)
Spectra Averaged: 3 (USB2E3373)
Boxcar Smoothing: 0 (USB2E3373)
Correct for Electrical Dark: No (USB2E3373)
Strobe/Lamp Enabled: No (USB2E3373)
Correct for Detector Non-linearity: No (USB2E3373)
Correct for Stray Light: No (USB2E3373)
Number of Pixels in Processed Spectrum: 2048
>>>>>Begin Processed Spectral Data<<<<<
178.53	0.000
178.91	0.000
179.29	100.000
179.67	-450.000
180.04	-14.286
180.42	150.000
180.80	-1500.000
181.18	300.000
181.56	700.000
181.94	-50.000
182.31	1200.000
182.69	40.000
183.07	-633.333
183.45	20.000
183.83	183.333
184.20	-36.364
184.58	133.333
184.96	-100.000
185.34	200.000
185.72	-250.000
186.09	146.154
186.47	-100.000
186.85	233.333
187.23	111.111
187.61	-700.000
187.98	-166.667
188.36	-22.222
188.74	-33.333
189.12	17.647
189.49	0.000
189.87	0.000
190.25	-14.286
190.63	-200.000
191.00	-66.667
191.38	31.579
191.76	300.000
192.14	-125.000
192.51	600.000
192.89	11.111
193.27	-85.714
193.65	400.000
194.02	163.636
194.40	-10.000
194.78	-125.000
195.15	0.000
195.53	-12.500
195.91	125.000
196.29	-250.000
196.66	69.231
197.04	285.714
197.42	100.000
197.79	-566.667
198.17	-115.385
198.55	1400.000
198.92	-333.333
199.30	-1400.000
199.68	-120.000
200.05	-100.000
200.43	0.000
200.81	66.667
201.18	66.667
201.56	1400.000
201.94	-350.000
202.31	-166.667
202.69	-40.000
203.07	175.000
203.44	-800.000
203.82	0.000
204.19	50.000
204.57	-500.000
204.95	150.000
205.32	70.000
205.70	-71.429
206.08	-325.000
206.45	111.111
206.83	21.429
207.20	-100.000
207.58	500.000
207.96	-66.667
208.33	-130.000
208.71	-125.000
209.08	-166.667
209.46	-1700.000
209.84	-40.000
210.21	-1600.000
210.59	85.714
210.96	-16.667
211.34	-175.000
211.71	46.667
212.09	-200.000
212.46	-1400.000
212.84	0.000
213.22	30.000
213.59	500.000
213.97	107.692
214.34	27.273
214.72	-100.000
215.09	100.000
215.47	-46.154
215.84	-72.727
216.22	-533.333
216.59	-137.500
216.97	-200.000
217.34	-50.000
217.72	-200.000
218.09	-75.000
218.47	125.000
218.84	-400.000
219.22	-33.333
219.59	-100.000
219.97	366.667
220.34	325.000
220.72	-85.714
221.09	-100.000
221.47	-550.000
221.84	-700.000
222.22	-550.000
222.59	9.091
222.97	-41.667
223.34	-200.000
223.72	-135.714
224.09	-9.524
224.46	14.286
224.84	200.000
225.21	20.000
225.59	13.333
225.96	100.000
226.34	575.000
226.71	-142.857
227.08	-100.000
227.46	0.000
227.83	-450.000
228.21	-55.556
228.58	100.000
228.95	12.500
229.33	170.000
229.70	31.250
230.08	-50.000
230.45	-171.429
230.82	0.000
231.20	-13.333
231.57	21.429
231.95	-71.429
232.32	-100.000
232.69	42.857
233.07	-366.667
233.44	-100.000
233.81	-100.000
234.19	44.444
234.56	-23.529
234.93	600.000
235.31	-75.000
235.68	-300.000
236.05	-46.154
236.43	-5.000
236.80	-17.647
237.17	12.500
237.55	35.000
237.92	-22.222
238.29	50.000
238.67	-6.667
239.04	17.647
239.41	7.317
239.79	3.333
240.16	34.146
240.53	5.263
240.91	15.217
241.28	28.571
241.65	21.429
242.02	24.658
242.40	31.667
242.77	25.424
243.14	13.636
243.51	25.000
243.89	31.034
244.26	16.092
244.63	32.143
245.00	25.773
245.38	16.495
245.75	8.989
246.12	22.414
246.49	12.397
246.87	26.923
247.24	21.008
247.61	11.404
247.98	12.195
248.36	25.000
248.73	20.395
249.10	21.429
249.47	15.190
249.84	16.340
250.22	25.294
250.59	26.797
250.96	27.700
251.33	25.581
251.70	27.059
252.08	24.365
252.45	22.277
252.82	27.638
253.19	27.189
253.56	21.028
253.94	27.027
254.31	24.783
254.68	27.632
255.05	23.228
255.42	20.087
255.79	25.097
256.16	23.735
256.54	25.746
256.91	26.996
257.28	21.933
257.65	23.970
258.02	24.113
258.39	26.263
258.76	25.641
259.14	29.900
259.51	22.006
259.88	21.649
260.25	24.510
260.62	28.472
260.99	22.373
261.36	20.205
261.73	26.582
262.10	22.796
262.47	24.540
262.85	21.317
263.22	27.692
263.59	24.611
263.96	27.019
264.33	21.515
264.70	25.595
265.07	24.405
265.44	26.629
265.81	22.316
266.18	25.956
266.55	30.077
266.92	25.648
267.29	24.282
267.66	25.575
268.03	24.869
268.40	25.065
268.77	27.540
269.14	23.261
269.51	28.021
269.88	27.431
270.25	23.214
270.62	24.146
270.99	21.483
271.36	24.205
271.73	25.587
272.10	24.574
272.47	27.187
272.84	27.475
273.21	25.290
273.58	25.542
273.95	22.197
274.32	21.940
274.69	23.077
275.06	27.232
275.43	23.129
275.80	24.724
276.17	25.287
276.54	24.197
276.91	24.123
277.28	24.236
277.65	23.967
278.02	23.191
278.39	23.632
278.76	25.367
279.13	22.199
279.50	23.950
279.87	25.054
280.23	21.075
280.60	23.587
280.97	24.848
281.34	20.577
281.71	25.462
282.08	21.063
282.45	21.918
282.82	22.008
283.19	24.952
283.56	23.314
283.92	24.099
284.29	21.923
284.66	21.124
285.03	22.200
285.40	24.953
285.77	23.023
286.14	22.202
286.51	25.461
286.87	21.024
287.24	22.836
287.61	21.869
287.98	24.211
288.35	19.931
288.72	22.417
289.08	21.701
289.45	23.726
289.82	22.028
290.19	21.160
290.56	20.069
290.93	21.212
291.29	21.109
291.66	20.315
292.03	21.691
292.40	20.806
292.77	21.053
293.13	19.481
293.50	20.334
293.87	19.084
294.24	20.093
294.60	20.566
294.97	18.601
295.34	19.325
295.71	17.884
296.08	19.432
296.44	16.927
296.81	19.167
297.18	17.971
297.55	19.106
297.91	16.712
298.28	19.129
298.65	17.368
299.02	18.598
299.38	14.911
299.75	18.207
300.12	18.455
300.48	16.206
300.85	18.504
301.22	17.532
301.59	16.316
301.95	17.215
302.32	18.807
302.69	17.164
303.05	17.327
303.42	17.186
303.79	16.939
304.15	17.682
304.52	16.052
304.89	15.205
305.25	16.102
305.62	15.636
305.99	16.374
306.35	15.607
306.72	16.310
307.09	16.306
307.45	16.992
307.82	17.361
308.19	17.538
308.55	16.031
308.92	17.538
309.29	17.207
309.65	17.223
310.02	15.512
310.38	16.685
310.75	17.268
311.12	17.115
311.48	16.543
311.85	17.277
312.22	16.245
312.58	16.348
312.95	17.609
313.31	16.046
313.68	16.230
314.05	16.939
314.41	16.598
314.78	17.113
315.14	18.499
315.51	17.495
315.87	16.906
316.24	18.908
316.61	19.587
316.97	18.056
317.34	17.188
317.70	17.495
318.07	19.038
318.43	18.824
318.80	19.318
319.16	19.531
319.53	19.563
319.89	19.685
320.26	19.130
320.62	20.662
320.99	17.328
321.35	20.041
321.72	21.495
322.08	20.947
322.45	22.538
322.81	22.299
323.18	21.001
323.54	21.429
323.91	20.740
324.27	22.168
324.64	22.566
325.00	22.172
325.37	23.783
325.73	22.121
326.10	23.070
326.46	23.767
326.83	23.797
327.19	24.150
327.56	24.848
327.92	24.736
328.29	23.661
328.65	24.906
329.01	25.092
329.38	24.332
329.74	24.646
330.11	25.116
330.47	24.026
330.84	24.712
331.20	27.186
331.56	24.167
331.93	24.932
332.29	24.656
332.66	26.425
333.02	25.186
333.38	24.290
333.75	25.641
334.11	24.261
334.48	26.564
334.84	26.465
335.20	25.709
335.57	24.569
335.93	25.565
336.29	25.691
336.66	24.523
337.02	24.721
337.38	25.926
337.75	25.091
338.11	25.158
338.47	25.365
338.84	24.677
339.20	25.411
339.56	25.229
339.93	25.962
340.29	25.046
340.65	25.000
341.02	25.798
341.38	26.106
341.74	25.088
342.11	24.263
342.47	24.644
342.83	25.433
343.20	25.436
343.56	25.565
343.92	25.775
344.28	26.217
344.65	25.475
345.01	24.028
345.37	25.063
345.73	26.360
346.10	25.626
346.46	25.904
346.82	24.386
347.19	23.608
347.55	25.146
347.91	26.052
348.27	24.576
348.63	25.980
349.00	26.251
349.36	25.520
349.72	25.456
350.08	25.082
350.45	25.778
350.81	24.751
351.17	24.511
351.53	24.898
351.89	24.690
352.26	24.240
352.62	25.726
352.98	25.382
353.34	25.845
353.70	24.838
354.07	24.113
354.43	24.980
354.79	24.525
355.15	26.190
355.51	25.712
355.87	25.243
356.24	23.654
356.60	25.627
356.96	25.873
357.32	24.681
357.68	24.238
358.04	24.556
358.40	24.759
358.77	26.555
359.13	25.060
359.49	25.039
359.85	25.975
360.21	25.758
360.57	24.637
360.93	24.962
361.29	24.849
361.66	25.157
362.02	25.303
362.38	24.600
362.74	25.057
363.10	24.153
363.46	25.352
363.82	27.198
364.18	25.387
364.54	24.412
364.90	25.735
365.26	24.236
365.62	25.912
365.98	25.293
366.35	27.167
366.71	26.164
367.07	26.996
367.43	25.665
367.79	25.866
368.15	26.059
368.51	26.220
368.87	26.131
369.23	25.271
369.59	25.729
369.95	26.979
370.31	26.734
370.67	27.015
371.03	25.093
371.39	25.456
371.75	26.447
372.11	26.462
372.47	26.997
372.83	26.402
373.19	26.534
373.55	25.993
373.91	27.862
374.27	27.215
374.63	27.638
374.99	26.950
375.35	27.437
375.71	27.343
376.07	26.756
376.42	27.483
376.78	26.779
377.14	26.676
377.50	27.357
377.86	27.510
378.22	27.632
378.58	28.077
378.94	28.166
379.30	27.823
379.66	29.216
380.02	27.468
380.38	27.815
380.74	28.546
381.09	29.018
381.45	28.196
381.81	28.316
382.17	27.919
382.53	28.607
382.89	28.123
383.25	29.496
383.61	29.634
383.97	28.698
384.32	28.705
384.68	29.721
385.04	29.228
385.40	28.687
385.76	29.937
386.12	29.884
386.48	29.885
386.83	30.501
387.19	29.670
387.55	30.615
387.91	30.685
388.27	29.121
388.62	31.278
388.98	30.939
389.34	30.918
389.70	30.951
390.06	29.830
390.42	30.376
390.77	30.804
391.13	30.454
391.49	30.789
391.85	32.099
392.20	30.571
392.56	30.706
392.92	31.650
393.28	31.663
393.64	30.811
393.99	31.850
394.35	31.562
394.71	31.801
395.07	31.490
395.42	31.087
395.78	32.378
396.14	32.598
396.50	32.403
396.85	32.518
397.21	31.955
397.57	33.103
397.92	32.055
398.28	32.241
398.64	31.325
399.00	33.070
399.35	31.151
399.71	32.625
400.07	33.011
400.42	32.681
400.78	33.558
401.14	33.212
401.49	32.758
401.85	32.480
402.21	33.072
402.57	33.250
402.92	31.932
403.28	33.647
403.63	32.976
403.99	32.781
404.35	32.792
404.70	31.488
405.06	32.844
405.42	31.759
405.77	32.016
406.13	32.247
406.49	33.215
406.84	34.230
407.20	32.691
407.55	33.162
407.91	32.353
408.27	32.441
408.62	33.354
408.98	32.840
409.34	33.333
409.69	32.752
410.05	33.436
410.40	33.025
410.76	33.293
411.11	33.812
411.47	33.333
411.83	32.706
412.18	34.749
412.54	33.645
412.89	33.436
413.25	34.116
413.60	33.106
413.96	33.804
414.31	33.537
414.67	33.419
415.03	33.888
415.38	33.094
415.74	33.616
416.09	34.030
416.45	34.234
416.80	32.981
417.16	35.221
417.51	33.378
417.87	33.963
418.22	34.003
418.58	34.381
418.93	33.981
419.29	32.714
419.64	35.126
420.00	34.068
420.35	34.507
420.71	34.326
421.06	34.193
421.42	33.894
421.77	34.451
422.12	33.485
422.48	33.622
422.83	33.875
423.19	33.973
423.54	34.274
423.90	33.098
424.25	34.386
424.61	34.945
424.96	33.914
425.31	35.298
425.67	33.803
426.02	36.278
426.38	34.815
426.73	34.504
427.09	35.633
427.44	34.941
427.79	34.355
428.15	35.376
428.50	33.677
428.85	35.012
429.21	34.126
429.56	35.418
429.92	34.874
430.27	34.737
430.62	34.083
430.98	34.236
431.33	35.226
431.68	33.857
432.04	35.942
432.39	35.083
432.74	34.095
433.10	35.747
433.45	33.751
433.80	34.417
434.16	33.629
434.51	34.194
434.86	34.262
435.22	35.558
435.57	34.872
435.92	35.449
436.28	34.407
436.63	33.942
436.98	34.820
437.34	34.301
437.69	35.659
438.04	34.758
438.39	34.881
438.75	34.062
439.10	34.126
439.45	35.301
439.81	34.985
440.16	35.273
440.51	36.060
440.86	35.408
441.22	35.068
441.57	34.603
441.92	35.729
442.27	34.368
442.63	35.332
442.98	34.348
443.33	35.170
443.68	35.385
444.03	36.215
444.39	35.022
444.74	35.730
445.09	34.800
445.44	35.100
445.79	35.998
446.15	35.407
446.50	35.829
446.85	36.504
447.20	35.297
447.55	36.384
447.91	34.969
448.26	35.743
448.61	35.694
448.96	35.858
449.31	34.335
449.66	35.830
450.02	35.653
450.37	35.210
450.72	34.078
451.07	36.709
451.42	34.644
451.77	35.805
452.12	34.749
452.47	34.900
452.83	35.748
453.18	35.231
453.53	35.841
453.88	35.944
454.23	34.419
454.58	35.831
454.93	36.211
455.28	33.778
455.63	35.276
455.98	35.177
456.34	34.738
456.69	36.404
457.04	36.610
457.39	36.270
457.74	36.215
458.09	35.197
458.44	34.582
458.79	35.462
459.14	35.069
459.49	35.642
459.84	35.082
460.19	35.133
460.54	36.125
460.89	35.795
461.24	35.155
461.59	36.639
461.94	35.220
462.29	36.369
462.64	36.412
462.99	35.816
463.34	35.396
463.69	34.556
464.04	35.351
464.39	34.870
464.74	35.337
465.09	34.623
465.44	35.603
465.79	34.524
466.14	34.493
466.49	34.560
466.84	35.158
467.19	35.357
467.54	34.930
467.89	35.502
468.24	35.097
468.59	36.889
468.94	35.175
469.29	35.869
469.64	35.748
469.99	36.370
470.34	35.085
470.68	36.838
471.03	34.820
471.38	36.163
471.73	36.625
472.08	35.007
472.43	35.503
472.78	35.093
473.13	35.034
473.48	34.658
473.83	34.994
474.17	35.622
474.52	35.546
474.87	35.879
475.22	35.937
475.57	35.743
475.92	35.272
476.27	36.496
476.61	34.491
476.96	34.467
477.31	35.803
477.66	34.101
478.01	35.149
478.36	34.749
478.70	35.237
479.05	35.440
479.40	35.294
479.75	35.141
480.10	34.767
480.45	34.850
480.79	35.851
481.14	35.400
481.49	35.616
481.84	35.521
482.19	35.407
482.53	35.492
482.88	34.893
483.23	35.509
483.58	35.047
483.92	34.753
484.27	33.956
484.62	33.662
484.97	34.163
485.31	33.707
485.66	32.106
486.01	32.685
486.36	32.749
486.70	33.640
487.05	34.041
487.40	34.617
487.75	34.113
488.09	34.333
488.44	34.629
488.79	34.740
489.13	35.537
489.48	34.331
489.83	34.619
490.17	34.022
490.52	34.226
490.87	34.151
491.22	34.670
491.56	34.250
491.91	34.560
492.26	35.002
492.60	34.453
492.95	35.514
493.30	35.076
493.64	35.511
493.99	33.816
494.34	33.932
494.68	34.810
495.03	33.285
495.37	34.200
495.72	34.730
496.07	35.073
496.41	34.906
496.76	33.395
497.11	34.141
497.45	34.368
497.80	34.359
498.14	34.575
498.49	33.316
498.84	33.483
499.18	34.689
499.53	34.722
499.87	33.512
500.22	33.482
500.56	34.191
500.91	33.936
501.26	33.663
501.60	33.596
501.95	34.352
502.29	34.334
502.64	33.639
502.98	34.139
503.33	33.718
503.67	33.398
504.02	34.213
504.36	33.845
504.71	33.737
505.06	33.317
505.40	33.909
505.75	34.691
506.09	33.097
506.44	34.292
506.78	34.184
507.13	33.609
507.47	33.003
507.82	33.013
508.16	33.756
508.51	33.473
508.85	34.171
509.19	33.528
509.54	34.316
509.88	33.711
510.23	34.266
510.57	33.298
510.92	33.049
511.26	33.879
511.61	33.663
511.95	33.315
512.30	33.814
512.64	33.667
512.98	32.622
513.33	34.975
513.67	32.803
514.02	34.668
514.36	34.171
514.70	34.441
515.05	35.194
515.39	33.471
515.74	34.790
516.08	33.831
516.42	34.158
516.77	33.645
517.11	32.878
517.46	34.231
517.80	33.671
518.14	34.109
518.49	33.353
518.83	33.050
519.17	33.414
519.52	32.386
519.86	32.773
520.20	33.414
520.55	32.645
520.89	32.936
521.23	32.236
521.58	34.132
521.92	34.167
522.26	33.442
522.61	33.571
522.95	34.040
523.29	33.799
523.64	33.672
523.98	34.802
524.32	32.410
524.66	34.059
525.01	32.792
525.35	34.673
525.69	33.872
526.04	33.201
526.38	35.279
526.72	31.916
527.06	31.842
527.41	33.707
527.75	33.579
528.09	32.292
528.43	33.356
528.78	32.739
529.12	33.032
529.46	32.554
529.80	32.299
530.15	33.729
530.49	33.603
530.83	32.900
531.17	32.572
531.51	33.789
531.86	32.427
532.20	32.916
532.54	33.696
532.88	31.896
533.22	32.392
533.57	32.569
533.91	32.245
534.25	33.854
534.59	31.495
534.93	32.096
535.27	31.409
535.62	31.173
535.96	31.963
536.30	32.124
536.64	33.012
536.98	32.544
537.32	32.646
537.66	33.941
538.01	31.678
538.35	31.692
538.69	32.157
539.03	32.604
539.37	32.840
539.71	31.902
540.05	31.704
540.39	32.756
540.73	31.590
541.07	33.218
541.42	31.855
541.76	31.452
542.10	30.695
542.44	30.994
542.78	31.383
543.12	30.632
543.46	32.337
543.80	31.020
544.14	30.975
544.48	31.179
544.82	30.212
545.16	31.352
545.50	30.507
545.84	31.516
546.18	32.624
546.52	31.218
546.86	30.769
547.20	30.329
547.54	29.823
547.88	31.182
548.22	30.046
548.56	30.211
548.90	31.065
549.24	29.959
549.58	31.100
549.92	30.450
550.26	30.769
550.60	31.524
550.94	30.396
551.28	30.912
551.62	31.769
551.96	30.602
552.30	29.825
552.64	29.690
552.98	29.817
553.32	30.171
553.66	29.390
554.00	29.927
554.34	29.838
554.68	29.425
555.02	28.943
555.36	30.067
555.69	28.352
556.03	28.694
556.37	29.680
556.71	29.603
557.05	30.052
557.39	29.665
557.73	29.385
558.07	30.241
558.41	29.709
558.75	30.553
559.08	29.078
559.42	29.444
559.76	29.223
560.10	28.440
560.44	28.965
560.78	29.650
561.12	30.606
561.45	29.164
561.79	29.832
562.13	29.312
562.47	28.561
562.81	28.602
563.15	28.773
563.48	28.359
563.82	29.307
564.16	27.646
564.50	28.176
564.84	28.983
565.17	28.370
565.51	29.645
565.85	28.944
566.19	28.780
566.52	29.088
566.86	28.728
567.20	27.148
567.54	28.893
567.88	28.588
568.21	28.846
568.55	28.533
568.89	28.131
569.23	27.636
569.56	26.313
569.90	27.406
570.24	26.647
570.57	27.527
570.91	26.943
571.25	26.044
571.59	26.316
571.92	25.748
572.26	26.540
572.60	26.822
572.93	26.890
573.27	26.364
573.61	26.581
573.95	26.406
574.28	25.768
574.62	25.477
574.96	25.804
575.29	25.820
575.63	25.551
575.97	26.078
576.30	25.836
576.64	25.113
576.98	25.869
577.31	26.100
577.65	25.573
577.98	25.592
578.32	25.360
578.66	25.016
578.99	26.088
579.33	25.706
579.67	25.612
580.00	25.646
580.34	25.473
580.67	25.198
581.01	25.336
581.35	25.301
581.68	24.798
582.02	24.977
582.35	24.995
582.69	25.730
583.02	25.422
583.36	25.716
583.70	26.220
584.03	26.049
584.37	26.567
584.70	25.604
585.04	24.689
585.37	24.693
585.71	24.858
586.04	24.912
586.38	24.833
586.72	25.452
587.05	25.737
587.39	25.468
587.72	25.424
588.06	25.574
588.39	25.463
588.73	25.183
589.06	25.995
589.40	25.026
589.73	25.447
590.07	25.831
590.40	25.658
590.73	27.142
591.07	25.997
591.40	26.046
591.74	26.154
592.07	25.417
592.41	25.265
592.74	24.572
593.08	24.170
593.41	23.921
593.75	24.501
594.08	24.305
594.41	24.709
594.75	24.580
595.08	24.934
595.42	24.365
595.75	24.559
596.09	25.137
596.42	25.052
596.75	25.577
597.09	25.148
597.42	24.616
597.75	25.103
598.09	24.989
598.42	24.865
598.76	23.938
599.09	23.918
599.42	23.418
599.76	23.552
600.09	24.057
600.42	24.375
600.76	23.403
601.09	23.893
601.42	24.168
601.76	23.978
602.09	24.464
602.42	24.810
602.76	24.576
603.09	24.252
603.42	25.000
603.76	22.863
604.09	23.653
604.42	24.069
604.76	24.967
605.09	24.497
605.42	23.883
605.75	23.292
606.09	23.227
606.42	23.186
606.75	24.242
607.09	24.527
607.42	23.527
607.75	23.179
608.08	23.450
608.42	23.572
608.75	23.807
609.08	23.667
609.41	23.807
609.75	24.395
610.08	23.065
610.41	22.754
610.74	23.062
611.07	24.341
611.41	23.975
611.74	23.774
612.07	22.859
612.40	23.742
612.73	23.503
613.07	23.341
613.40	23.085
613.73	23.391
614.06	23.595
614.39	23.350
614.72	23.417
615.06	22.849
615.39	23.090
615.72	22.820
616.05	23.184
616.38	22.963
616.71	23.486
617.05	23.286
617.38	23.759
617.71	22.956
618.04	23.556
618.37	23.644
618.70	22.904
619.03	24.931
619.36	23.444
619.69	23.578
620.03	23.886
620.36	23.748
620.69	23.769
621.02	23.318
621.35	23.071
621.68	23.724
622.01	23.583
622.34	22.586
622.67	23.344
623.00	23.583
623.33	23.171
623.66	23.710
623.99	22.390
624.32	23.270
624.65	22.481
624.99	23.476
625.32	22.062
625.65	24.430
625.98	22.724
626.31	23.026
626.64	24.003
626.97	22.775
627.30	21.891
627.63	23.744
627.96	23.091
628.29	22.757
628.62	23.304
628.95	23.848
629.28	23.992
629.61	23.629
629.94	23.460
630.26	22.925
630.59	25.078
630.92	23.590
631.25	22.462
631.58	23.128
631.91	23.575
632.24	22.821
632.57	22.841
632.90	22.183
