SpectraSuite Data File
++++++++++++++++++++++++++++++++++++
Date: Fri May 15 20:36:40 PDT 2015
User: schluterlab
Dark Spectrum Present: Yes
Reference Spectrum Present: Yes
Number of Sampled Component Spectra: 1
Spectrometers: USB2E3373
Integration Time (usec): 3000 (USB2E3373)
Spectra Averaged: 3 (USB2E3373)
Boxcar Smoothing: 0 (USB2E3373)
Correct for Electrical Dark: No (USB2E3373)
Strobe/Lamp Enabled: No (USB2E3373)
Correct for Detector Non-linearity: No (USB2E3373)
Correct for Stray Light: No (USB2E3373)
Number of Pixels in Processed Spectrum: 2048
>>>>>Begin Processed Spectral Data<<<<<
178.53	0.000
178.91	0.000
179.29	75.000
179.67	0.000
180.04	14.286
180.42	300.000
180.80	-800.000
181.18	-0.000
181.56	-100.000
181.94	-400.000
182.31	400.000
182.69	-260.000
183.07	-133.333
183.45	-80.000
183.83	83.333
184.20	81.818
184.58	111.111
184.96	125.000
185.34	466.667
185.72	-200.000
186.09	115.385
186.47	0.000
186.85	33.333
187.23	100.000
187.61	600.000
187.98	-300.000
188.36	0.000
188.74	-133.333
189.12	5.882
189.49	0.000
189.87	0.000
190.25	0.000
190.63	100.000
191.00	-333.333
191.38	-47.368
191.76	-150.000
192.14	25.000
192.51	0.000
192.89	-55.556
193.27	-85.714
193.65	216.667
194.02	127.273
194.40	20.000
194.78	-200.000
195.15	-50.000
195.53	-100.000
195.91	250.000
196.29	-175.000
196.66	53.846
197.04	214.286
197.42	33.333
197.79	-433.333
198.17	-69.231
198.55	1700.000
198.92	-566.667
199.30	-1000.000
199.68	-80.000
200.05	-400.000
200.43	0.000
200.81	-366.667
201.18	-300.000
201.56	1300.000
201.94	-600.000
202.31	100.000
202.69	-340.000
203.07	200.000
203.44	700.000
203.82	0.000
204.19	64.286
204.57	-566.667
204.95	25.000
205.32	-20.000
205.70	57.143
206.08	-200.000
206.45	77.778
206.83	92.857
207.20	-57.143
207.58	-0.000
207.96	-566.667
208.33	-100.000
208.71	-225.000
209.08	-250.000
209.46	-400.000
209.84	-100.000
210.21	-900.000
210.59	-14.286
210.96	-83.333
211.34	-300.000
211.71	46.667
212.09	-57.143
212.46	-1600.000
212.84	0.000
213.22	0.000
213.59	550.000
213.97	38.462
214.34	27.273
214.72	-183.333
215.09	325.000
215.47	-23.077
215.84	-81.818
216.22	0.000
216.59	-87.500
216.97	150.000
217.34	0.000
217.72	-340.000
218.09	-25.000
218.47	62.500
218.84	-800.000
219.22	11.111
219.59	-180.000
219.97	166.667
220.34	250.000
220.72	-214.286
221.09	-175.000
221.47	-50.000
221.84	-750.000
222.22	-500.000
222.59	-45.455
222.97	8.333
223.34	-100.000
223.72	7.143
224.09	9.524
224.46	-17.857
224.84	700.000
225.21	0.000
225.59	-20.000
225.96	300.000
226.34	475.000
226.71	-142.857
227.08	-133.333
227.46	-112.500
227.83	-750.000
228.21	-11.111
228.58	-100.000
228.95	-75.000
229.33	70.000
229.70	37.500
230.08	-125.000
230.45	-171.429
230.82	71.429
231.20	-33.333
231.57	85.714
231.95	71.429
232.32	-50.000
232.69	-14.286
233.07	-366.667
233.44	-80.000
233.81	-60.000
234.19	-55.556
234.56	-11.765
234.93	650.000
235.31	-250.000
235.68	-200.000
236.05	-53.846
236.43	-5.000
236.80	0.000
237.17	-15.625
237.55	-20.000
237.92	-3.704
238.29	-16.667
238.67	10.000
239.04	-20.588
239.41	-36.585
239.79	-43.333
240.16	0.000
240.53	-21.053
240.91	-15.217
241.28	20.635
241.65	14.286
242.02	8.219
242.40	-1.667
242.77	-5.085
243.14	6.061
243.51	5.000
243.89	24.138
244.26	-6.897
244.63	5.952
245.00	15.464
245.38	11.340
245.75	-2.247
246.12	1.724
246.49	7.438
246.87	5.769
247.24	21.008
247.61	-3.509
247.98	7.317
248.36	9.375
248.73	8.553
249.10	7.143
249.47	5.696
249.84	9.804
250.22	11.176
250.59	3.922
250.96	12.207
251.33	6.395
251.70	14.706
252.08	8.122
252.45	11.881
252.82	11.055
253.19	9.677
253.56	7.944
253.94	12.613
254.31	13.043
254.68	14.474
255.05	11.417
255.42	13.100
255.79	10.039
256.16	7.782
256.54	11.194
256.91	10.646
257.28	11.896
257.65	7.116
258.02	7.801
258.39	14.141
258.76	14.652
259.14	10.631
259.51	10.680
259.88	10.309
260.25	14.052
260.62	10.417
260.99	10.508
261.36	6.164
261.73	8.861
262.10	11.550
262.47	10.736
262.85	9.404
263.22	12.000
263.59	15.576
263.96	13.043
264.33	9.697
264.70	10.119
265.07	9.226
265.44	16.431
265.81	9.887
266.18	13.115
266.55	10.283
266.92	10.622
267.29	8.877
267.66	12.276
268.03	11.257
268.40	11.749
268.77	11.230
269.14	11.990
269.51	11.054
269.88	12.968
270.25	7.398
270.62	10.000
270.99	10.742
271.36	9.780
271.73	11.502
272.10	9.976
272.47	9.456
272.84	9.653
273.21	12.065
273.58	12.530
273.95	13.043
274.32	9.007
274.69	10.181
275.06	8.929
275.43	11.111
275.80	10.375
276.17	7.816
276.54	10.707
276.91	12.061
277.28	10.044
277.65	11.777
278.02	11.915
278.39	12.910
278.76	8.595
279.13	7.261
279.50	12.605
279.87	9.935
280.23	9.462
280.60	14.425
280.97	10.101
281.34	10.769
281.71	13.347
282.08	10.634
282.45	9.785
282.82	8.687
283.19	11.219
283.56	10.790
283.92	10.816
284.29	10.000
284.66	9.884
285.03	8.644
285.40	9.074
285.77	8.612
286.14	11.552
286.51	10.701
286.87	10.238
287.24	11.786
287.61	9.524
287.98	10.702
288.35	10.052
288.72	11.033
289.08	9.722
289.45	10.896
289.82	10.664
290.19	9.215
290.56	10.292
290.93	8.586
291.29	9.091
291.66	11.811
292.03	10.686
292.40	8.548
292.77	9.729
293.13	6.981
293.50	8.953
293.87	9.924
294.24	10.201
294.60	9.985
294.97	9.226
295.34	7.822
295.71	8.495
296.08	8.670
296.44	7.112
296.81	9.861
297.18	8.986
297.55	9.621
297.91	7.808
298.28	10.290
298.65	8.141
299.02	8.491
299.38	5.882
299.75	8.690
300.12	6.545
300.48	7.246
300.85	8.999
301.22	7.143
301.59	8.553
301.95	7.975
302.32	9.079
302.69	8.582
303.05	9.158
303.42	7.721
303.79	9.930
304.15	9.558
304.52	7.015
304.89	7.251
305.25	7.143
305.62	7.001
305.99	8.655
306.35	7.052
306.72	6.637
307.09	8.324
307.45	8.037
307.82	8.218
308.19	7.782
308.55	6.761
308.92	8.279
309.29	6.480
309.65	6.566
310.02	7.041
310.38	6.696
310.75	8.415
311.12	8.396
311.48	6.787
311.85	7.225
312.22	6.540
312.58	7.962
312.95	8.218
313.31	6.315
313.68	6.806
314.05	7.551
314.41	7.835
314.78	6.598
315.14	7.708
315.51	7.246
315.87	7.070
316.24	8.291
316.61	7.480
316.97	7.937
317.34	7.031
317.70	7.935
318.07	7.019
318.43	8.333
318.80	7.386
319.16	7.910
319.53	8.737
319.89	8.071
320.26	8.198
320.62	9.127
320.99	7.516
321.35	7.708
321.72	7.788
322.08	7.251
322.45	7.614
322.81	8.251
323.18	6.968
323.54	7.819
323.91	7.011
324.27	7.910
324.64	8.521
325.00	7.664
325.37	9.091
325.73	6.800
326.10	8.356
326.46	8.341
326.83	9.011
327.19	8.457
327.56	8.167
327.92	8.099
328.29	7.321
328.65	8.396
329.01	8.640
329.38	8.571
329.74	7.838
330.11	8.526
330.47	8.256
330.84	7.500
331.20	10.171
331.56	8.241
331.93	8.311
332.29	9.074
332.66	8.326
333.02	8.457
333.38	7.699
333.75	8.425
334.11	8.326
334.48	8.432
334.84	8.516
335.20	8.692
335.57	8.522
335.93	9.033
336.29	9.300
336.66	7.993
337.02	7.900
337.38	7.130
337.75	7.545
338.11	8.747
338.47	8.394
338.84	9.519
339.20	8.318
339.56	8.257
339.93	8.684
340.29	8.899
340.65	8.871
341.02	8.156
341.38	7.611
341.74	7.686
342.11	7.626
342.47	8.630
342.83	8.131
343.20	7.578
343.56	8.087
343.92	8.503
344.28	8.711
344.65	8.204
345.01	7.779
345.37	8.074
345.73	8.703
346.10	9.318
346.46	8.495
346.82	8.101
347.19	7.232
347.55	8.187
347.91	8.333
348.27	8.084
348.63	7.411
349.00	7.301
349.36	8.146
349.72	8.706
350.08	8.279
350.45	9.976
350.81	6.645
351.17	9.365
351.53	8.735
351.89	7.267
352.26	8.320
352.62	7.903
352.98	7.871
353.34	8.213
353.70	8.657
354.07	7.661
354.43	7.046
354.79	7.845
355.15	8.730
355.51	8.623
355.87	8.172
356.24	7.423
356.60	7.357
356.96	8.254
357.32	7.987
357.68	7.740
358.04	7.027
358.40	8.923
358.77	7.656
359.13	6.645
359.49	8.166
359.85	8.034
360.21	8.134
360.57	7.575
360.93	7.186
361.29	6.269
361.66	7.053
362.02	8.258
362.38	7.997
362.74	7.267
363.10	7.750
363.46	7.858
363.82	8.941
364.18	7.749
364.54	7.574
364.90	6.810
365.26	8.006
365.62	8.175
365.98	7.551
366.35	8.521
366.71	7.021
367.07	8.273
367.43	7.620
367.79	7.774
368.15	7.968
368.51	7.356
368.87	7.107
369.23	7.365
369.59	7.289
369.95	7.258
370.31	7.298
370.67	7.015
371.03	6.871
371.39	6.929
371.75	7.619
372.11	7.489
372.47	6.879
372.83	7.239
373.19	8.559
373.55	6.787
373.91	7.343
374.27	6.378
374.63	8.112
374.99	6.667
375.35	7.033
375.71	8.112
376.07	6.952
376.42	7.007
376.78	7.584
377.14	7.041
377.50	6.441
377.86	7.764
378.22	7.403
378.58	7.500
378.94	6.994
379.30	7.236
379.66	8.276
380.02	7.971
380.38	6.269
380.74	7.002
381.09	7.485
381.45	6.850
381.81	6.971
382.17	6.409
382.53	7.745
382.89	6.717
383.25	7.032
383.61	7.439
383.97	6.794
384.32	7.505
384.68	6.563
385.04	7.230
385.40	5.787
385.76	8.113
386.12	7.568
386.48	7.024
386.83	7.292
387.19	7.692
387.55	7.528
387.91	6.663
388.27	7.143
388.62	6.986
388.98	6.814
389.34	7.745
389.70	7.582
390.06	6.545
390.42	7.578
390.77	7.456
391.13	7.377
391.49	6.662
391.85	7.083
392.20	6.842
392.56	6.675
392.92	7.927
393.28	7.193
393.64	7.027
393.99	8.840
394.35	7.211
394.71	7.727
395.07	7.228
395.42	6.982
395.78	6.645
396.14	7.314
396.50	6.595
396.85	7.663
397.21	7.206
397.57	7.085
397.92	7.669
398.28	7.586
398.64	6.386
399.00	6.828
399.35	6.264
399.71	7.467
400.07	7.981
400.42	7.038
400.78	7.900
401.14	6.897
401.49	8.100
401.85	7.130
402.21	7.410
402.57	7.438
402.92	6.023
403.28	7.080
403.63	7.503
403.99	6.569
404.35	7.183
404.70	7.500
405.06	7.109
405.42	6.899
405.77	6.275
406.13	7.625
406.49	7.934
406.84	6.907
407.20	7.706
407.55	6.246
407.91	7.086
408.27	6.437
408.62	7.569
408.98	7.887
409.34	7.621
409.69	7.364
410.05	7.328
410.40	6.975
410.76	7.841
411.11	7.563
411.47	7.166
411.83	6.403
412.18	7.079
412.54	7.491
412.89	7.204
413.25	7.401
413.60	7.516
413.96	6.871
414.31	7.256
414.67	6.543
415.03	7.190
415.38	7.180
415.74	7.687
416.09	8.165
416.45	7.225
416.80	7.138
417.16	7.597
417.51	8.061
417.87	7.432
418.22	7.578
418.58	8.094
418.93	7.712
419.29	7.042
419.64	6.610
420.00	8.501
420.35	6.985
420.71	8.262
421.06	7.366
421.42	7.692
421.77	7.572
422.12	7.264
422.48	7.526
422.83	7.425
423.19	7.336
423.54	6.937
423.90	8.009
424.25	7.290
424.61	7.772
424.96	7.143
425.31	7.568
425.67	7.746
426.02	7.715
426.38	8.328
426.73	7.930
427.09	7.595
427.44	8.294
427.79	7.837
428.15	9.041
428.50	6.905
428.85	6.450
429.21	8.149
429.56	8.464
429.92	8.269
430.27	7.920
430.62	7.475
430.98	7.803
431.33	7.781
431.68	7.797
432.04	7.937
432.39	7.758
432.74	8.298
433.10	8.046
433.45	7.587
433.80	7.255
434.16	7.479
434.51	8.118
434.86	7.724
435.22	8.301
435.57	7.860
435.92	7.725
436.28	6.977
436.63	7.929
436.98	7.764
437.34	7.381
437.69	8.229
438.04	7.920
438.39	7.392
438.75	7.650
439.10	8.489
439.45	8.156
439.81	6.911
440.16	7.957
440.51	8.537
440.86	8.278
441.22	7.919
441.57	8.057
441.92	9.024
442.27	8.093
442.63	9.047
442.98	8.041
443.33	7.679
443.68	8.117
444.03	8.644
444.39	8.018
444.74	8.361
445.09	8.018
445.44	8.319
445.79	8.458
446.15	8.095
446.50	7.765
446.85	8.608
447.20	8.290
447.55	8.761
447.91	7.727
448.26	8.708
448.61	8.808
448.96	8.778
449.31	7.399
449.66	8.246
450.02	7.815
450.37	8.180
450.72	8.305
451.07	8.608
451.42	8.240
451.77	8.379
452.12	8.254
452.47	8.435
452.83	8.186
453.18	8.792
453.53	8.407
453.88	8.500
454.23	9.035
454.58	9.005
454.93	9.472
455.28	8.000
455.63	9.423
455.98	8.779
456.34	8.301
456.69	9.212
457.04	8.948
457.39	8.688
457.74	8.102
458.09	8.711
458.44	7.958
458.79	8.179
459.14	8.867
459.49	9.433
459.84	9.250
460.19	8.131
460.54	8.374
460.89	8.693
461.24	8.261
461.59	9.442
461.94	8.302
462.29	9.288
462.64	9.169
462.99	8.328
463.34	8.623
463.69	8.559
464.04	8.838
464.39	8.611
464.74	9.387
465.09	8.921
465.44	9.117
465.79	8.730
466.14	8.039
466.49	8.396
466.84	9.340
467.19	8.135
467.54	9.004
467.89	9.223
468.24	9.550
468.59	9.524
468.94	8.635
469.29	9.049
469.64	9.433
469.99	10.301
470.34	8.328
470.68	9.843
471.03	9.766
471.38	8.987
471.73	8.123
472.08	8.548
472.43	8.255
472.78	8.842
473.13	9.116
473.48	9.381
473.83	8.780
474.17	9.909
474.52	8.679
474.87	9.636
475.22	8.786
475.57	8.583
475.92	9.435
476.27	9.488
476.61	9.375
476.96	9.202
477.31	9.356
477.66	9.045
478.01	8.871
478.36	8.769
478.70	9.570
479.05	9.835
479.40	8.320
479.75	9.489
480.10	9.063
480.45	8.950
480.79	9.668
481.14	9.068
481.49	8.571
481.84	9.459
482.19	9.121
482.53	9.400
482.88	9.165
483.23	9.453
483.58	9.953
483.92	8.809
484.27	8.933
484.62	8.875
484.97	8.997
485.31	8.779
485.66	8.759
486.01	9.134
486.36	9.264
486.70	9.171
487.05	9.314
487.40	9.178
487.75	9.352
488.09	9.178
488.44	9.594
488.79	9.488
489.13	9.976
489.48	8.978
489.83	9.058
490.17	9.169
490.52	9.284
490.87	9.255
491.22	9.312
491.56	9.298
491.91	8.939
492.26	9.528
492.60	9.357
492.95	9.690
493.30	8.745
493.64	9.528
493.99	9.710
494.34	8.883
494.68	9.143
495.03	9.489
495.37	9.274
495.72	9.743
496.07	9.659
496.41	9.057
496.76	9.489
497.11	8.803
497.45	9.690
497.80	10.091
498.14	9.538
498.49	9.497
498.84	9.232
499.18	9.990
499.53	9.573
499.87	8.949
500.22	9.644
500.56	9.632
500.91	9.639
501.26	9.639
501.60	9.346
501.95	9.947
502.29	9.443
502.64	9.797
502.98	8.732
503.33	8.886
503.67	9.783
504.02	9.677
504.36	10.341
504.71	8.939
505.06	9.864
505.40	9.746
505.75	9.381
506.09	9.427
506.44	9.908
506.78	9.847
507.13	10.445
507.47	9.138
507.82	8.868
508.16	10.248
508.51	10.336
508.85	9.681
509.19	8.888
509.54	10.080
509.88	9.601
510.23	9.736
510.57	9.621
510.92	9.115
511.26	9.656
511.61	9.736
511.95	9.589
512.30	9.701
512.64	10.295
512.98	9.882
513.33	10.800
513.67	9.380
514.02	11.041
514.36	10.571
514.70	10.490
515.05	10.282
515.39	10.272
515.74	10.599
516.08	10.281
516.42	10.012
516.77	11.001
517.11	9.555
517.46	9.994
517.80	9.833
518.14	10.043
518.49	10.517
518.83	10.267
519.17	9.945
519.52	9.947
519.86	10.204
520.20	10.207
520.55	9.193
520.89	10.038
521.23	10.260
521.58	11.041
521.92	10.385
522.26	10.215
522.61	10.390
522.95	10.530
523.29	10.102
523.64	11.372
523.98	10.953
524.32	9.536
524.66	10.691
525.01	10.519
525.35	10.629
525.69	9.226
526.04	9.458
526.38	11.933
526.72	10.072
527.06	10.700
527.41	10.554
527.75	10.255
528.09	10.100
528.43	11.479
528.78	10.429
529.12	10.452
529.46	10.721
529.80	11.400
530.15	10.561
530.49	10.370
530.83	10.465
531.17	10.611
531.51	10.602
531.86	10.197
532.20	10.647
532.54	10.619
532.88	11.636
533.22	11.223
533.57	11.075
533.91	10.183
534.25	11.263
534.59	10.584
534.93	9.943
535.27	9.708
535.62	9.657
535.96	11.024
536.30	11.082
536.64	10.889
536.98	10.801
537.32	11.024
537.66	11.851
538.01	10.070
538.35	11.304
538.69	10.852
539.03	10.458
539.37	10.969
539.71	10.975
540.05	10.794
540.39	11.634
540.73	11.715
541.07	11.050
541.42	11.962
541.76	10.392
542.10	11.012
542.44	10.632
542.78	9.016
543.12	10.920
543.46	11.474
543.80	10.201
544.14	10.681
544.48	10.660
544.82	10.458
545.16	11.544
545.50	11.282
545.84	12.252
546.18	11.418
546.52	11.608
546.86	10.784
547.20	11.302
547.54	9.965
547.88	11.481
548.22	11.177
548.56	10.554
548.90	11.388
549.24	10.399
549.58	10.649
549.92	10.508
550.26	10.549
550.60	11.450
550.94	10.456
551.28	10.819
551.62	11.000
551.96	11.203
552.30	10.673
552.64	11.283
552.98	10.197
553.32	11.626
553.66	9.797
554.00	10.438
554.34	11.226
554.68	11.578
555.02	11.607
555.36	10.471
555.69	10.476
556.03	10.278
556.37	10.819
556.71	11.191
557.05	10.365
557.39	11.822
557.73	11.244
558.07	11.765
558.41	10.873
558.75	11.146
559.08	10.008
559.42	10.873
559.76	10.729
560.10	9.862
560.44	11.020
560.78	10.420
561.12	11.213
561.45	11.103
561.79	11.765
562.13	10.788
562.47	11.367
562.81	11.455
563.15	12.694
563.48	11.598
563.82	10.776
564.16	10.237
564.50	11.554
564.84	12.048
565.17	10.597
565.51	10.792
565.85	11.728
566.19	11.406
566.52	11.595
566.86	11.889
567.20	11.208
567.54	11.010
567.88	11.189
568.21	10.690
568.55	10.543
568.89	11.191
569.23	10.833
569.56	11.033
569.90	11.165
570.24	10.644
570.57	11.127
570.91	11.014
571.25	10.687
571.59	10.713
571.92	10.637
572.26	10.628
572.60	10.667
572.93	10.951
573.27	10.690
573.61	11.128
573.95	10.868
574.28	10.434
574.62	10.247
574.96	10.371
575.29	10.550
575.63	10.495
575.97	10.653
576.30	10.683
576.64	10.358
576.98	11.068
577.31	10.568
577.65	11.009
577.98	10.672
578.32	10.532
578.66	10.746
578.99	10.880
579.33	10.292
579.67	10.573
580.00	10.658
580.34	10.746
580.67	10.732
581.01	10.783
581.35	10.702
581.68	10.707
582.02	10.663
582.35	10.529
582.69	10.849
583.02	10.553
583.36	10.622
583.70	11.163
584.03	11.176
584.37	11.124
584.70	10.879
585.04	10.363
585.37	10.663
585.71	10.763
586.04	10.565
586.38	10.589
586.72	11.277
587.05	10.976
587.39	10.987
587.72	10.990
588.06	11.016
588.39	11.136
588.73	11.142
589.06	11.122
589.40	10.716
589.73	11.026
590.07	10.952
590.40	10.991
590.73	10.914
591.07	10.899
591.40	11.131
591.74	11.719
592.07	11.596
592.41	11.837
592.74	10.713
593.08	10.374
593.41	10.280
593.75	10.729
594.08	10.642
594.41	10.735
594.75	10.878
595.08	11.237
595.42	10.894
595.75	10.777
596.09	10.516
596.42	11.492
596.75	11.368
597.09	11.025
597.42	10.885
597.75	10.444
598.09	10.548
598.42	11.191
598.76	10.854
599.09	10.938
599.42	10.837
599.76	10.609
600.09	10.747
600.42	10.690
600.76	10.253
601.09	10.115
601.42	10.380
601.76	11.235
602.09	10.974
602.42	11.457
602.76	10.526
603.09	10.922
603.42	11.246
603.76	10.726
604.09	10.693
604.42	10.575
604.76	11.348
605.09	11.106
605.42	11.332
605.75	11.077
606.09	10.573
606.42	10.926
606.75	11.299
607.09	11.297
607.42	11.032
607.75	10.879
608.08	10.916
608.42	10.918
608.75	10.988
609.08	10.762
609.41	10.812
609.75	11.744
610.08	10.584
610.41	10.531
610.74	10.775
611.07	11.214
611.41	11.365
611.74	11.674
612.07	10.385
612.40	11.488
612.73	10.508
613.07	10.405
613.40	11.488
613.73	10.297
614.06	11.241
614.39	11.506
614.72	10.756
615.06	10.391
615.39	10.972
615.72	10.603
616.05	10.670
616.38	10.712
616.71	9.847
617.05	11.736
617.38	11.942
617.71	11.195
618.04	11.810
618.37	11.665
618.70	11.155
619.03	11.875
619.36	9.913
619.69	10.690
620.03	11.395
620.36	11.373
620.69	10.849
621.02	10.856
621.35	11.535
621.68	11.480
622.01	10.917
622.34	12.131
622.67	10.726
623.00	11.945
623.33	10.747
623.66	11.444
623.99	11.120
624.32	11.331
624.65	9.699
624.99	11.362
625.32	11.524
625.65	11.076
625.98	11.442
626.31	10.308
626.64	11.265
626.97	11.257
627.30	11.384
627.63	11.785
627.96	11.321
628.29	10.453
628.62	11.013
628.95	10.120
629.28	9.980
629.61	11.067
629.94	10.655
630.26	11.265
630.59	11.134
630.92	12.205
631.25	10.462
631.58	11.784
631.91	9.759
632.24	11.927
632.57	11.477
632.90	12.456
633.23	11.412
633.56	10.957
633.89	10.481
634.22	12.222
634.55	11.055
634.88	10.473
635.20	10.769
635.53	11.867
635.86	9.233
636.19	11.772
636.52	9.821
636.85	9.926
637.18	9.057
637.51	11.824
637.83	11.432
638.16	12.005
638.49	10.763
638.82	12.368
639.15	10.719
639.48	11.554
639.81	11.297
640.13	11.111
640.46	10.787
640.79	9.426
641.12	11.078
641.45	10.511
641.77	11.852
642.10	11.532
642.43	9.646
642.76	11.716
643.09	12.601
643.41	12.621
643.74	10.708
644.07	11.002
644.40	12.838
644.73	11.734
645.05	12.584
645.38	11.464
645.71	12.589
646.04	11.490
646.36	9.043
646.69	10.971
647.02	10.964
647.35	11.754
647.67	10.603
648.00	13.619
648.33	12.969
