SpectraSuite Data File
++++++++++++++++++++++++++++++++++++
Date: Fri May 15 20:40:59 PDT 2015
User: schluterlab
Dark Spectrum Present: Yes
Reference Spectrum Present: Yes
Number of Sampled Component Spectra: 1
Spectrometers: USB2E3373
Integration Time (usec): 3000 (USB2E3373)
Spectra Averaged: 3 (USB2E3373)
Boxcar Smoothing: 0 (USB2E3373)
Correct for Electrical Dark: No (USB2E3373)
Strobe/Lamp Enabled: No (USB2E3373)
Correct for Detector Non-linearity: No (USB2E3373)
Correct for Stray Light: No (USB2E3373)
Number of Pixels in Processed Spectrum: 2048
>>>>>Begin Processed Spectral Data<<<<<
178.53	0.000
178.91	0.000
179.29	125.000
179.67	-850.000
180.04	-114.286
180.42	350.000
180.80	-500.000
181.18	100.000
181.56	650.000
181.94	-600.000
182.31	1200.000
182.69	-80.000
183.07	-166.667
183.45	-20.000
183.83	150.000
184.20	0.000
184.58	211.111
184.96	-0.000
185.34	-100.000
185.72	-350.000
186.09	100.000
186.47	-300.000
186.85	233.333
187.23	177.778
187.61	300.000
187.98	-233.333
188.36	-11.111
188.74	-166.667
189.12	64.706
189.49	16.667
189.87	0.000
190.25	71.429
190.63	250.000
191.00	-266.667
191.38	21.053
191.76	150.000
192.14	-25.000
192.51	150.000
192.89	-33.333
193.27	-142.857
193.65	250.000
194.02	200.000
194.40	30.000
194.78	-200.000
195.15	-25.000
195.53	-162.500
195.91	250.000
196.29	0.000
196.66	69.231
197.04	-14.286
197.42	-100.000
197.79	-133.333
198.17	-161.538
198.55	1300.000
198.92	-300.000
199.30	0.000
199.68	-180.000
200.05	-300.000
200.43	0.000
200.81	-200.000
201.18	-366.667
201.56	700.000
201.94	-150.000
202.31	-133.333
202.69	-240.000
203.07	325.000
203.44	0.000
203.82	0.000
204.19	28.571
204.57	-366.667
204.95	50.000
205.32	40.000
205.70	-28.571
206.08	-200.000
206.45	88.889
206.83	35.714
207.20	-85.714
207.58	700.000
207.96	-366.667
208.33	-110.000
208.71	-50.000
209.08	-183.333
209.46	-300.000
209.84	-100.000
210.21	-700.000
210.59	-42.857
210.96	-116.667
211.34	-25.000
211.71	66.667
212.09	-200.000
212.46	-1200.000
212.84	0.000
213.22	70.000
213.59	800.000
213.97	7.692
214.34	-27.273
214.72	-100.000
215.09	300.000
215.47	53.846
215.84	36.364
216.22	0.000
216.59	87.500
216.97	-100.000
217.34	-25.000
217.72	-260.000
218.09	-12.500
218.47	237.500
218.84	-600.000
219.22	-11.111
219.59	20.000
219.97	600.000
220.34	250.000
220.72	0.000
221.09	-150.000
221.47	-550.000
221.84	-300.000
222.22	-350.000
222.59	-45.455
222.97	83.333
223.34	166.667
223.72	-14.286
224.09	19.048
224.46	10.714
224.84	133.333
225.21	-50.000
225.59	-6.667
225.96	-300.000
226.34	325.000
226.71	-71.429
227.08	-83.333
227.46	-12.500
227.83	-450.000
228.21	-55.556
228.58	72.727
228.95	150.000
229.33	110.000
229.70	25.000
230.08	12.500
230.45	-28.571
230.82	28.571
231.20	-20.000
231.57	14.286
231.95	157.143
232.32	-70.000
232.69	42.857
233.07	0.000
233.44	-60.000
233.81	-120.000
234.19	-55.556
234.56	-5.882
234.93	450.000
235.31	-150.000
235.68	-40.000
236.05	53.846
236.43	-30.000
236.80	0.000
237.17	28.125
237.55	35.000
237.92	0.000
238.29	47.222
238.67	40.000
239.04	29.412
239.41	-2.439
239.79	56.667
240.16	34.146
240.53	26.316
240.91	10.870
241.28	11.111
241.65	39.286
242.02	35.616
242.40	31.667
242.77	33.898
243.14	24.242
243.51	23.750
243.89	37.931
244.26	14.943
244.63	27.381
245.00	26.804
245.38	40.206
245.75	23.596
246.12	18.966
246.49	28.926
246.87	28.846
247.24	24.370
247.61	30.702
247.98	29.268
248.36	25.625
248.73	25.000
249.10	29.221
249.47	29.114
249.84	33.987
250.22	31.176
250.59	32.680
250.96	35.211
251.33	34.302
251.70	34.706
252.08	32.995
252.45	33.168
252.82	34.171
253.19	34.562
253.56	29.439
253.94	36.937
254.31	33.478
254.68	33.772
255.05	32.677
255.42	33.188
255.79	30.888
256.16	28.794
256.54	35.821
256.91	34.601
257.28	29.368
257.65	32.959
258.02	33.688
258.39	30.976
258.76	35.531
259.14	31.561
259.51	31.392
259.88	31.615
260.25	32.353
260.62	32.292
260.99	31.864
261.36	29.452
261.73	34.810
262.10	33.131
262.47	32.515
262.85	29.154
263.22	31.077
263.59	34.268
263.96	34.161
264.33	33.939
264.70	31.845
265.07	33.036
265.44	35.977
265.81	32.203
266.18	34.426
266.55	34.447
266.92	33.679
267.29	33.943
267.66	33.504
268.03	30.628
268.40	32.115
268.77	35.294
269.14	34.053
269.51	35.733
269.88	32.918
270.25	33.418
270.62	30.732
270.99	32.481
271.36	29.584
271.73	31.455
272.10	32.603
272.47	31.206
272.84	32.921
273.21	34.571
273.58	33.253
273.95	30.892
274.32	31.640
274.69	31.222
275.06	33.705
275.43	32.880
275.80	32.892
276.17	33.793
276.54	32.120
276.91	31.798
277.28	34.498
277.65	32.645
278.02	30.851
278.39	29.978
278.76	30.398
279.13	30.913
279.50	33.403
279.87	31.317
280.23	30.108
280.60	31.384
280.97	33.939
281.34	29.423
281.71	33.060
282.08	29.857
282.45	30.528
282.82	29.344
283.19	33.462
283.56	32.563
283.92	31.120
284.29	31.731
284.66	33.140
285.03	31.827
285.40	29.868
285.77	29.701
286.14	29.603
286.51	33.210
286.87	29.250
287.24	30.571
287.61	32.275
287.98	30.702
288.35	29.983
288.72	28.371
289.08	29.340
289.45	30.404
289.82	29.021
290.19	27.474
290.56	28.473
290.93	28.788
291.29	26.040
291.66	27.087
292.03	27.911
292.40	28.710
292.77	26.475
293.13	27.110
293.50	25.797
293.87	26.260
294.24	24.730
294.60	27.720
294.97	26.786
295.34	24.693
295.71	26.677
296.08	25.411
296.44	22.617
296.81	24.028
297.18	25.942
297.55	25.474
297.91	22.877
298.28	23.747
298.65	23.609
299.02	24.798
299.38	23.393
299.75	22.207
300.12	24.346
300.48	23.452
300.85	24.081
301.22	22.727
301.59	22.895
301.95	24.430
302.32	24.903
302.69	21.891
303.05	22.277
303.42	24.035
303.79	22.079
304.15	22.820
304.52	20.690
304.89	21.053
305.25	20.702
305.62	20.420
305.99	21.871
306.35	21.734
306.72	21.035
307.09	21.893
307.45	23.307
307.82	23.032
308.19	21.370
308.55	22.137
308.92	22.658
309.29	20.894
309.65	20.452
310.02	21.562
310.38	21.405
310.75	22.623
311.12	20.883
311.48	21.527
311.85	21.152
312.22	19.198
312.58	21.975
312.95	20.491
313.31	19.358
313.68	20.314
314.05	20.408
314.41	21.134
314.78	20.722
315.14	21.788
315.51	22.464
315.87	19.980
316.24	21.031
316.61	21.555
316.97	19.841
317.34	21.484
317.70	20.459
318.07	19.615
318.43	20.686
318.80	19.129
319.16	20.996
319.53	21.273
319.89	20.374
320.26	21.559
320.62	20.762
320.99	20.042
321.35	21.480
321.72	20.872
322.08	20.040
322.45	21.726
322.81	19.352
323.18	19.823
323.54	19.305
323.91	20.740
324.27	21.875
324.64	20.974
325.00	20.620
325.37	21.763
325.73	20.308
326.10	20.618
326.46	20.807
326.83	21.522
327.19	20.488
327.56	19.722
327.92	21.303
328.29	20.982
328.65	21.038
329.01	20.772
329.38	20.922
329.74	20.113
330.11	19.741
330.47	19.109
330.84	19.423
331.20	21.578
331.56	20.463
331.93	20.365
332.29	21.448
332.66	19.729
333.02	19.703
333.38	21.265
333.75	21.062
334.11	18.442
334.48	20.308
334.84	20.604
335.20	21.500
335.57	19.583
335.93	21.319
336.29	21.363
336.66	20.073
337.02	19.238
337.38	18.981
337.75	20.727
338.11	19.657
338.47	20.347
338.84	20.795
339.20	20.475
339.56	21.101
339.93	20.680
340.29	19.817
340.65	19.534
341.02	19.681
341.38	19.027
341.74	19.435
342.11	18.544
342.47	19.128
342.83	20.934
343.20	18.902
343.56	19.043
343.92	19.575
344.28	20.154
344.65	18.912
345.01	19.447
345.37	18.755
345.73	20.335
346.10	20.708
346.46	19.680
346.82	19.804
347.19	17.789
347.55	19.549
347.91	20.550
348.27	19.644
348.63	18.654
349.00	18.704
349.36	18.703
349.72	19.071
350.08	19.754
350.45	19.792
350.81	19.269
351.17	18.893
351.53	19.265
351.89	18.993
352.26	19.280
352.62	18.790
352.98	18.394
353.34	18.841
353.70	18.932
354.07	19.194
354.43	18.975
354.79	19.075
355.15	18.889
355.51	20.016
355.87	19.256
356.24	18.026
356.60	19.321
356.96	18.730
357.32	18.371
357.68	18.843
358.04	19.144
358.40	18.971
358.77	19.936
359.13	18.735
359.49	18.259
359.85	17.161
360.21	18.262
360.57	18.057
360.93	18.608
361.29	16.767
361.66	18.182
362.02	18.939
362.38	17.974
362.74	18.017
363.10	19.263
363.46	18.681
363.82	19.159
364.18	18.229
364.54	17.721
364.90	18.853
365.26	17.977
365.62	19.489
365.98	18.402
366.35	17.990
366.71	18.182
367.07	17.562
367.43	17.829
367.79	18.516
368.15	17.732
368.51	18.645
368.87	18.162
369.23	17.834
369.59	18.367
369.95	18.182
370.31	18.064
370.67	17.687
371.03	17.177
371.39	17.870
371.75	18.462
372.11	17.332
372.47	17.751
372.83	18.098
373.19	18.474
373.55	17.906
373.91	18.071
374.27	17.860
374.63	18.090
374.99	17.801
375.35	17.061
375.71	17.692
376.07	16.994
376.42	18.095
376.78	18.188
377.14	17.197
377.50	17.065
377.86	17.537
378.22	16.784
378.58	18.205
378.94	17.517
379.30	17.779
379.66	18.182
380.02	16.616
380.38	17.590
380.74	18.073
381.09	18.282
381.45	17.003
381.81	18.322
382.17	18.718
382.53	17.739
382.89	18.267
383.25	17.673
383.61	18.415
383.97	16.825
384.32	16.573
384.68	17.276
385.04	17.770
385.40	17.175
385.76	18.176
386.12	17.853
386.48	18.199
386.83	17.248
387.19	17.521
387.55	17.817
387.91	17.176
388.27	16.667
388.62	17.810
388.98	16.882
389.34	17.676
389.70	18.148
390.06	17.432
390.42	17.163
390.77	17.593
391.13	16.835
391.49	16.559
391.85	17.609
392.20	17.389
392.56	16.211
392.92	17.733
393.28	16.981
393.64	16.336
393.99	18.182
394.35	16.256
394.71	17.241
395.07	17.725
395.42	16.272
395.78	16.352
396.14	15.952
396.50	16.741
396.85	16.935
397.21	16.792
397.57	16.113
397.92	17.076
398.28	17.069
398.64	15.783
399.00	16.930
399.35	16.535
399.71	17.002
400.07	16.626
400.42	16.646
400.78	17.024
401.14	16.939
401.49	17.094
401.85	16.088
402.21	16.446
402.57	16.562
402.92	16.186
403.28	17.105
403.63	17.402
403.99	16.964
404.35	16.677
404.70	17.024
405.06	16.216
405.42	16.843
405.77	17.025
406.13	16.473
406.49	15.749
406.84	16.504
407.20	17.339
407.55	15.068
407.91	16.912
408.27	17.081
408.62	17.354
408.98	16.821
409.34	16.605
409.69	15.956
410.05	16.564
410.40	16.296
410.76	17.008
411.11	17.250
411.47	17.028
411.83	16.321
412.18	15.701
412.54	16.792
412.89	16.810
413.25	16.787
413.60	16.149
413.96	16.564
414.31	17.073
414.67	15.715
415.03	17.577
415.38	15.992
415.74	16.743
416.09	16.460
416.45	16.880
416.80	16.920
417.16	16.644
417.51	16.922
417.87	15.841
418.22	17.358
418.58	16.187
418.93	17.492
419.29	16.133
419.64	17.045
420.00	17.254
420.35	17.134
420.71	17.193
421.06	17.434
421.42	17.007
421.77	17.168
422.12	16.402
422.48	16.838
422.83	16.125
423.19	16.140
423.54	15.814
423.90	16.372
424.25	17.164
424.61	17.381
424.96	17.073
425.31	16.638
425.67	16.608
426.02	17.314
426.38	16.218
426.73	17.252
427.09	17.722
427.44	17.647
427.79	16.971
428.15	17.597
428.50	16.657
428.85	16.462
429.21	16.525
429.56	17.035
429.92	17.155
430.27	16.591
430.62	15.734
430.98	16.561
431.33	17.245
431.68	15.908
432.04	17.440
432.39	16.486
432.74	16.717
433.10	17.471
433.45	16.189
433.80	16.889
434.16	15.956
434.51	17.581
434.86	17.422
435.22	17.723
435.57	17.031
435.92	17.246
436.28	17.233
436.63	16.999
436.98	16.338
437.34	16.878
437.69	18.128
438.04	16.923
438.39	17.471
438.75	17.365
439.10	17.374
439.45	17.833
439.81	16.330
440.16	17.399
440.51	17.970
440.86	17.885
441.22	16.403
441.57	16.943
441.92	17.838
442.27	17.406
442.63	18.415
442.98	17.806
443.33	17.919
443.68	17.401
444.03	17.536
444.39	17.806
444.74	17.781
445.09	17.929
445.44	17.778
445.79	19.340
446.15	18.172
446.50	17.138
446.85	17.800
447.20	17.727
447.55	18.806
447.91	17.428
448.26	17.871
448.61	18.768
448.96	18.130
449.31	18.035
449.66	18.351
450.02	18.083
450.37	18.494
450.72	18.156
451.07	18.418
451.42	18.102
451.77	18.867
452.12	17.225
452.47	17.901
452.83	18.198
453.18	19.292
453.53	18.963
453.88	19.429
454.23	19.730
454.58	18.577
454.93	18.299
455.28	17.714
455.63	17.917
455.98	19.302
456.34	18.966
456.69	18.869
457.04	19.345
457.39	18.651
457.74	19.045
458.09	18.187
458.44	18.724
458.79	18.655
459.14	19.050
459.49	18.866
459.84	18.725
460.19	19.175
460.54	18.399
460.89	19.659
461.24	18.820
461.59	19.537
461.94	18.679
462.29	18.516
462.64	19.535
462.99	18.009
463.34	18.011
463.69	18.790
464.04	19.007
464.39	19.102
464.74	18.466
465.09	19.276
465.44	19.850
465.79	18.367
466.14	19.156
466.49	18.976
466.84	20.048
467.19	19.212
467.54	19.604
467.89	18.509
468.24	19.404
468.59	19.556
468.94	18.222
469.29	19.016
469.64	19.754
469.99	18.991
470.34	18.567
470.68	19.985
471.03	19.816
471.38	18.973
471.73	19.818
472.08	18.996
472.43	19.060
472.78	18.986
473.13	19.660
473.48	19.739
473.83	19.303
474.17	19.624
474.52	19.655
474.87	19.212
475.22	19.341
475.57	19.311
475.92	20.187
476.27	19.965
476.61	19.965
476.96	19.074
477.31	19.254
477.66	19.944
478.01	19.147
478.36	19.281
478.70	19.956
479.05	19.835
479.40	19.979
479.75	19.447
480.10	19.508
480.45	19.500
480.79	20.544
481.14	19.570
481.49	19.458
481.84	19.450
482.19	19.504
482.53	19.376
482.88	19.570
483.23	19.194
483.58	19.670
483.92	19.361
484.27	19.690
484.62	19.767
484.97	19.196
485.31	19.400
485.66	19.130
486.01	19.191
486.36	19.062
486.70	19.748
487.05	20.058
487.40	19.571
487.75	19.127
488.09	18.789
488.44	18.569
488.79	19.163
489.13	19.631
489.48	19.324
489.83	19.507
490.17	19.775
490.52	19.492
490.87	19.621
491.22	20.583
491.56	19.545
491.91	19.407
492.26	19.446
492.60	19.578
492.95	19.823
493.30	19.345
493.64	19.990
493.99	18.937
494.34	19.126
494.68	19.810
495.03	19.562
495.37	20.069
495.72	20.596
496.07	19.707
496.41	19.528
496.76	19.346
497.11	19.329
497.45	20.095
497.80	20.131
498.14	19.871
498.49	20.315
498.84	20.110
499.18	20.432
499.53	19.891
499.87	19.455
500.22	19.634
500.56	20.121
500.91	19.930
501.26	19.328
501.60	19.675
501.95	19.796
502.29	19.613
502.64	20.270
502.98	20.326
503.33	18.828
503.67	19.277
504.02	19.892
504.36	20.188
504.71	20.202
505.06	19.376
505.40	20.305
505.75	19.794
506.09	18.956
506.44	20.329
506.78	20.204
507.13	19.545
507.47	19.739
507.82	18.964
508.16	19.493
508.51	20.252
508.85	19.728
509.19	19.532
509.54	20.858
509.88	18.878
510.23	19.580
510.57	20.257
510.92	19.510
511.26	19.913
511.61	19.912
511.95	19.726
512.30	20.233
512.64	20.367
512.98	19.315
513.33	20.985
513.67	19.557
514.02	20.824
514.36	21.143
514.70	20.979
515.05	21.328
515.39	19.894
515.74	20.958
516.08	20.263
516.42	21.378
516.77	20.772
517.11	20.475
517.46	20.886
517.80	20.441
518.14	20.453
518.49	20.012
518.83	20.231
519.17	19.830
519.52	19.953
519.86	19.748
520.20	19.988
520.55	19.262
520.89	20.828
521.23	20.329
521.58	20.757
521.92	20.064
522.26	20.625
522.61	21.234
522.95	21.457
523.29	21.792
523.64	21.410
523.98	21.841
524.32	20.554
524.66	20.551
525.01	21.688
525.35	21.322
525.69	20.673
526.04	20.370
526.38	21.920
526.72	20.667
527.06	20.169
527.41	20.053
527.75	21.247
528.09	20.465
528.43	21.540
528.78	20.330
529.12	21.226
529.46	20.078
529.80	21.406
530.15	20.726
530.49	20.000
530.83	20.588
531.17	21.357
531.51	21.204
531.86	20.870
532.20	21.016
532.54	20.830
532.88	20.055
533.22	20.228
533.57	21.035
533.91	20.170
534.25	22.266
534.59	20.783
534.93	20.013
535.27	20.241
535.62	21.322
535.96	20.352
536.30	21.108
536.64	21.296
536.98	19.930
537.32	20.839
537.66	21.809
538.01	20.280
538.35	21.012
538.69	20.506
539.03	19.344
539.37	21.131
539.71	20.518
540.05	20.299
540.39	21.330
540.73	21.130
541.07	20.994
541.42	21.976
541.76	21.404
542.10	19.683
542.44	20.639
542.78	20.647
543.12	20.055
543.46	21.905
543.80	20.819
544.14	20.427
544.48	21.519
544.82	20.711
545.16	21.380
545.50	21.028
545.84	20.538
546.18	21.773
546.52	20.836
546.86	20.920
547.20	21.674
547.54	20.424
547.88	20.924
548.22	21.368
548.56	20.449
548.90	21.698
549.24	20.868
549.58	21.721
549.92	20.443
550.26	21.538
550.60	21.190
550.94	21.509
551.28	19.629
551.62	21.462
551.96	21.880
552.30	21.053
552.64	21.086
552.98	20.886
553.32	20.970
553.66	20.972
554.00	21.752
554.34	21.713
554.68	19.985
555.02	21.205
555.36	20.120
555.69	20.733
556.03	20.700
556.37	20.498
556.71	21.227
557.05	22.297
557.39	21.041
557.73	21.364
558.07	21.644
558.41	21.440
558.75	21.434
559.08	21.119
559.42	20.952
559.76	21.457
560.10	21.177
560.44	21.296
560.78	22.098
561.12	22.779
561.45	20.450
561.79	23.039
562.13	20.724
562.47	21.223
562.81	21.326
563.15	20.451
563.48	21.924
563.82	21.620
564.16	21.797
564.50	21.622
564.84	21.553
565.17	21.663
565.51	21.790
565.85	21.331
566.19	21.220
566.52	21.180
566.86	22.558
567.20	20.610
567.54	21.594
567.88	21.090
568.21	21.889
568.55	20.815
568.89	21.458
569.23	20.944
569.56	20.884
569.90	21.803
570.24	21.362
570.57	21.164
570.91	21.610
571.25	20.355
571.59	21.053
571.92	20.711
572.26	19.928
572.60	20.279
572.93	20.238
573.27	19.624
573.61	20.376
573.95	20.863
574.28	20.445
574.62	20.214
574.96	20.843
575.29	19.838
575.63	19.668
575.97	20.114
576.30	20.017
576.64	19.841
576.98	20.489
577.31	20.619
577.65	20.550
577.98	20.245
578.32	19.979
578.66	20.331
578.99	20.122
579.33	19.710
579.67	20.061
580.00	19.823
580.34	20.199
580.67	20.030
581.01	20.509
581.35	20.370
581.68	20.311
582.02	20.371
582.35	20.409
582.69	20.374
583.02	20.637
583.36	20.251
583.70	20.768
584.03	20.406
584.37	20.695
584.70	21.099
585.04	20.337
585.37	20.958
585.71	20.464
586.04	20.701
586.38	20.379
586.72	20.976
587.05	20.971
587.39	20.855
587.72	21.350
588.06	21.063
588.39	20.906
588.73	20.757
589.06	21.657
589.40	20.878
589.73	21.358
590.07	21.526
590.40	21.478
590.73	21.705
591.07	21.501
591.40	21.327
591.74	21.674
592.07	22.449
592.41	21.820
592.74	20.988
593.08	20.992
593.41	21.186
593.75	21.295
594.08	21.044
594.41	21.434
594.75	21.107
595.08	21.756
595.42	21.678
595.75	21.329
596.09	21.306
596.42	21.869
596.75	22.114
597.09	21.595
597.42	21.951
597.75	21.805
598.09	21.865
598.42	20.984
598.76	21.193
599.09	21.875
599.42	21.182
599.76	21.068
600.09	21.493
600.42	21.759
600.76	21.025
601.09	21.145
601.42	21.269
601.76	21.358
602.09	21.535
602.42	22.704
602.76	21.986
603.09	21.927
603.42	22.199
603.76	21.452
604.09	21.466
604.42	21.616
604.76	22.830
605.09	22.258
605.42	21.986
605.75	21.891
606.09	21.911
606.42	21.393
606.75	21.126
607.09	21.670
607.42	22.331
607.75	21.092
608.08	20.889
608.42	22.019
608.75	22.602
609.08	21.574
609.41	21.929
609.75	22.883
610.08	22.516
610.41	21.836
610.74	21.648
611.07	22.326
611.41	22.730
611.74	22.708
612.07	22.216
612.40	21.827
612.73	22.373
613.07	23.003
613.40	22.593
613.73	21.824
614.06	22.482
614.39	22.109
614.72	21.401
615.06	22.346
615.39	22.380
615.72	22.121
616.05	23.184
616.38	21.937
616.71	22.385
617.05	21.804
617.38	21.119
617.71	22.390
618.04	22.413
618.37	22.446
618.70	23.234
619.03	23.750
619.36	22.214
619.69	22.365
620.03	23.521
620.36	22.818
620.69	23.198
621.02	21.789
621.35	24.315
621.68	23.810
622.01	23.000
622.34	23.384
622.67	23.028
623.00	22.435
623.33	23.476
623.66	22.962
623.99	21.785
624.32	23.422
624.65	22.180
624.99	22.423
625.32	22.365
625.65	24.038
625.98	24.416
626.31	22.195
626.64	23.657
626.97	25.044
627.30	23.030
627.63	24.870
627.96	24.349
628.29	24.792
628.62	25.270
628.95	23.647
629.28	24.395
629.61	24.826
629.94	24.047
630.26	23.617
630.59	24.142
630.92	24.718
631.25	23.692
631.58	23.018
631.91	23.355
632.24	24.656
632.57	24.205
632.90	23.369
633.23	25.294
