SpectraSuite Data File
++++++++++++++++++++++++++++++++++++
Date: Fri May 15 20:59:40 PDT 2015
User: schluterlab
Dark Spectrum Present: Yes
Reference Spectrum Present: Yes
Number of Sampled Component Spectra: 1
Spectrometers: USB2E3373
Integration Time (usec): 3000 (USB2E3373)
Spectra Averaged: 3 (USB2E3373)
Boxcar Smoothing: 0 (USB2E3373)
Correct for Electrical Dark: No (USB2E3373)
Strobe/Lamp Enabled: No (USB2E3373)
Correct for Detector Non-linearity: No (USB2E3373)
Correct for Stray Light: No (USB2E3373)
Number of Pixels in Processed Spectrum: 2048
>>>>>Begin Processed Spectral Data<<<<<
178.53	0.000
178.91	0.000
179.29	50.000
179.67	-300.000
180.04	-0.000
180.42	100.000
180.80	200.000
181.18	-100.000
181.56	400.000
181.94	200.000
182.31	200.000
182.69	-120.000
183.07	-300.000
183.45	-20.000
183.83	183.333
184.20	9.091
184.58	222.222
184.96	-125.000
185.34	33.333
185.72	-500.000
186.09	92.308
186.47	-800.000
186.85	83.333
187.23	166.667
187.61	1200.000
187.98	-166.667
188.36	44.444
188.74	133.333
189.12	17.647
189.49	-16.667
189.87	0.000
190.25	64.286
190.63	100.000
191.00	-333.333
191.38	-5.263
191.76	300.000
192.14	275.000
192.51	200.000
192.89	-11.111
193.27	0.000
193.65	266.667
194.02	172.727
194.40	-30.000
194.78	-125.000
195.15	0.000
195.53	-62.500
195.91	475.000
196.29	0.000
196.66	123.077
197.04	128.571
197.42	-55.556
197.79	-633.333
198.17	-130.769
198.55	2000.000
198.92	-400.000
199.30	-1100.000
199.68	-20.000
200.05	-700.000
200.43	0.000
200.81	-133.333
201.18	-333.333
201.56	1700.000
201.94	-200.000
202.31	-66.667
202.69	0.000
203.07	225.000
203.44	-500.000
203.82	0.000
204.19	7.143
204.57	-366.667
204.95	137.500
205.32	-30.000
205.70	-42.857
206.08	-125.000
206.45	122.222
206.83	7.143
207.20	-214.286
207.58	1300.000
207.96	-266.667
208.33	-110.000
208.71	-175.000
209.08	-300.000
209.46	-1100.000
209.84	-60.000
210.21	-1400.000
210.59	-114.286
210.96	0.000
211.34	-25.000
211.71	-6.667
212.09	-200.000
212.46	-1400.000
212.84	0.000
213.22	100.000
213.59	650.000
213.97	38.462
214.34	45.455
214.72	83.333
215.09	550.000
215.47	-38.462
215.84	-81.818
216.22	-166.667
216.59	-62.500
216.97	-800.000
217.34	-175.000
217.72	-260.000
218.09	-37.500
218.47	212.500
218.84	-1300.000
219.22	0.000
219.59	-180.000
219.97	533.333
220.34	475.000
220.72	42.857
221.09	-175.000
221.47	-100.000
221.84	-550.000
222.22	-250.000
222.59	0.000
222.97	-33.333
223.34	-266.667
223.72	-50.000
224.09	4.762
224.46	-14.286
224.84	566.667
225.21	-10.000
225.59	33.333
225.96	-600.000
226.34	250.000
226.71	28.571
227.08	-166.667
227.46	-25.000
227.83	-700.000
228.21	0.000
228.58	-118.182
228.95	-25.000
229.33	140.000
229.70	50.000
230.08	-75.000
230.45	42.857
230.82	57.143
231.20	-26.667
231.57	21.429
231.95	14.286
232.32	-170.000
232.69	35.714
233.07	-200.000
233.44	-40.000
233.81	-130.000
234.19	-44.444
234.56	-58.824
234.93	450.000
235.31	-50.000
235.68	-420.000
236.05	-53.846
236.43	-35.000
236.80	-35.294
237.17	3.125
237.55	-40.000
237.92	-11.111
238.29	-5.556
238.67	-23.333
239.04	-8.824
239.41	-39.024
239.79	-30.000
240.16	-4.878
240.53	-18.421
240.91	-21.739
241.28	4.762
241.65	5.357
242.02	0.000
242.40	5.000
242.77	0.000
243.14	-9.091
243.51	5.000
243.89	14.943
244.26	1.149
244.63	-3.571
245.00	5.155
245.38	1.031
245.75	-3.371
246.12	-2.586
246.49	5.785
246.87	-1.923
247.24	0.840
247.61	-11.404
247.98	2.439
248.36	-1.250
248.73	0.658
249.10	5.195
249.47	-1.266
249.84	1.961
250.22	-1.176
250.59	4.575
250.96	6.103
251.33	5.233
251.70	2.941
252.08	6.091
252.45	1.485
252.82	5.025
253.19	3.226
253.56	3.738
253.94	3.153
254.31	2.609
254.68	7.018
255.05	1.181
255.42	4.367
255.79	7.722
256.16	3.502
256.54	4.851
256.91	4.183
257.28	6.320
257.65	1.498
258.02	2.128
258.39	6.734
258.76	2.564
259.14	6.645
259.51	6.149
259.88	5.498
260.25	7.190
260.62	4.514
260.99	5.424
261.36	5.822
261.73	4.430
262.10	5.471
262.47	4.601
262.85	5.016
263.22	3.692
263.59	5.607
263.96	5.280
264.33	5.152
264.70	5.655
265.07	2.381
265.44	3.683
265.81	4.237
266.18	7.104
266.55	6.684
266.92	6.218
267.29	7.050
267.66	7.417
268.03	4.712
268.40	6.266
268.77	6.684
269.14	5.516
269.51	9.254
269.88	3.741
270.25	4.592
270.62	7.317
270.99	3.325
271.36	3.667
271.73	6.103
272.10	5.109
272.47	3.783
272.84	8.168
273.21	7.889
273.58	5.783
273.95	6.636
274.32	3.464
274.69	4.977
275.06	5.357
275.43	3.175
275.80	3.974
276.17	4.828
276.54	7.709
276.91	4.605
277.28	6.332
277.65	7.025
278.02	6.383
278.39	5.252
278.76	6.289
279.13	1.867
279.50	5.882
279.87	6.263
280.23	4.516
280.60	7.212
280.97	3.030
281.34	5.769
281.71	7.803
282.08	3.476
282.45	6.458
282.82	4.054
283.19	3.868
283.56	3.854
283.92	4.934
284.29	4.038
284.66	6.395
285.03	3.536
285.40	5.482
285.77	5.975
286.14	6.318
286.51	5.720
286.87	4.570
287.24	3.683
287.61	2.646
287.98	7.895
288.35	3.813
288.72	6.480
289.08	5.556
289.45	5.448
289.82	4.545
290.19	4.778
290.56	5.146
290.93	4.545
291.29	3.852
291.66	5.039
292.03	4.306
292.40	4.032
292.77	3.828
293.13	3.409
293.50	3.035
293.87	5.496
294.24	4.946
294.60	6.408
294.97	4.762
295.34	5.368
295.71	3.726
296.08	4.185
296.44	2.845
296.81	4.167
297.18	5.362
297.55	5.014
297.91	5.205
298.28	6.464
298.65	3.664
299.02	4.717
299.38	2.189
299.75	4.552
300.12	3.796
300.48	2.635
300.85	5.577
301.22	5.844
301.59	4.737
301.95	5.696
302.32	6.096
302.69	3.980
303.05	4.084
303.42	4.857
303.79	5.958
304.15	5.735
304.52	3.448
304.89	3.509
305.25	5.569
305.62	4.317
305.99	4.795
306.35	4.393
306.72	5.512
307.09	5.017
307.45	3.904
307.82	3.588
308.19	4.297
308.55	4.580
308.92	6.754
309.29	4.469
309.65	4.306
310.02	6.271
310.38	4.830
310.75	5.355
311.12	5.813
311.48	4.666
311.85	4.712
312.22	5.591
312.58	4.883
312.95	4.803
313.31	5.280
313.68	6.283
314.05	5.408
314.41	6.701
314.78	6.289
315.14	7.194
315.51	8.075
315.87	6.865
316.24	8.696
316.61	7.677
316.97	7.937
317.34	7.324
317.70	7.648
318.07	7.692
318.43	8.333
318.80	9.470
319.16	9.668
319.53	9.972
319.89	10.039
320.26	8.401
320.62	10.431
320.99	9.290
321.35	11.100
321.72	11.734
322.08	10.473
322.45	12.893
322.81	11.690
323.18	12.954
323.54	12.066
323.91	13.048
324.27	13.867
324.64	15.262
325.00	15.785
325.37	16.896
325.73	15.684
326.10	16.530
326.46	17.758
326.83	18.023
327.19	18.483
327.56	19.722
327.92	19.102
328.29	19.375
328.65	18.585
329.01	20.404
329.38	22.949
329.74	22.096
330.11	22.984
330.47	23.006
330.84	23.077
331.20	25.856
331.56	23.426
331.93	25.023
332.29	26.123
332.66	25.792
333.02	27.138
333.38	24.931
333.75	25.733
334.11	26.500
334.48	27.199
334.84	27.198
335.20	27.630
335.57	26.111
335.93	27.733
336.29	27.993
336.66	27.520
337.02	28.253
337.38	27.778
337.75	28.455
338.11	27.863
338.47	29.288
338.84	28.743
339.20	28.428
339.56	28.349
339.93	29.096
340.29	29.633
340.65	29.749
341.02	29.167
341.38	28.053
341.74	29.240
342.11	28.510
342.47	29.359
342.83	29.498
343.20	28.833
343.56	28.783
343.92	28.964
344.28	29.804
344.65	29.275
345.01	28.695
345.37	28.007
345.73	29.791
346.10	29.508
346.46	29.689
346.82	28.478
347.19	27.598
347.55	29.741
347.91	29.854
348.27	28.698
348.63	29.131
349.00	29.040
349.36	28.761
349.72	30.182
350.08	30.164
350.45	30.088
350.81	29.983
351.17	29.397
351.53	29.959
351.89	28.984
352.26	29.200
352.62	30.000
352.98	30.442
353.34	28.824
353.70	30.340
354.07	29.839
354.43	29.624
354.79	29.810
355.15	29.921
355.51	28.639
355.87	29.207
356.24	29.201
356.60	29.749
356.96	29.841
357.32	28.674
357.68	29.476
358.04	28.837
358.40	29.421
358.77	29.585
359.13	29.704
359.49	28.737
359.85	28.861
360.21	29.426
360.57	29.304
360.93	29.047
361.29	29.003
361.66	28.918
362.02	30.833
362.38	30.084
362.74	29.447
363.10	29.947
363.46	29.429
363.82	29.977
364.18	28.635
364.54	30.000
364.90	28.315
365.26	29.476
365.62	30.292
365.98	30.132
366.35	30.226
366.71	31.190
367.07	29.753
367.43	29.907
367.79	30.459
368.15	30.007
368.51	30.153
368.87	29.505
369.23	30.253
369.59	30.102
369.95	30.205
370.31	30.347
370.67	29.851
371.03	29.649
371.39	29.613
371.75	31.062
372.11	29.244
372.47	29.438
372.83	30.092
373.19	31.027
373.55	29.531
373.91	30.310
374.27	31.963
374.63	30.151
374.99	31.348
375.35	30.501
375.71	30.490
376.07	30.478
376.42	30.408
376.78	30.537
377.14	29.993
377.50	30.943
377.86	31.258
378.22	30.951
378.58	30.513
378.94	29.490
379.30	30.069
379.66	31.223
380.02	29.491
380.38	29.763
380.74	30.580
381.09	31.472
381.45	31.193
381.81	30.598
382.17	30.520
382.53	30.231
382.89	30.571
383.25	31.301
383.61	30.854
383.97	29.841
384.32	30.519
384.68	30.898
385.04	30.270
385.40	30.741
385.76	31.635
386.12	30.983
386.48	31.609
386.83	31.008
387.19	30.769
387.55	31.179
387.91	30.685
388.27	29.609
388.62	30.522
388.98	30.939
389.34	30.856
389.70	31.759
390.06	30.019
390.42	30.635
390.77	30.412
391.13	30.769
391.49	30.660
391.85	30.669
392.20	30.132
392.56	30.197
392.92	31.122
393.28	30.660
393.64	30.270
393.99	31.473
394.35	30.550
394.71	31.609
395.07	31.113
395.42	30.662
395.78	30.879
396.14	31.463
396.50	30.501
396.85	31.359
397.21	31.328
397.57	30.345
397.92	31.336
398.28	31.494
398.64	29.940
399.00	31.151
399.35	31.546
399.71	31.017
400.07	31.439
400.42	31.028
400.78	30.863
401.14	31.155
401.49	30.673
401.85	31.200
402.21	30.723
402.57	30.500
402.92	29.862
403.28	31.391
403.63	31.274
403.99	30.867
404.35	31.730
404.70	29.583
405.06	31.140
405.42	30.143
405.77	29.518
406.13	29.919
406.49	30.432
406.84	31.724
407.20	30.343
407.55	31.165
407.91	29.545
408.27	29.382
408.62	31.323
408.98	30.376
409.34	30.235
409.69	29.910
410.05	28.756
410.40	29.012
410.76	30.338
411.11	30.750
411.47	30.243
411.83	30.822
412.18	31.210
412.54	30.462
412.89	29.126
413.25	30.927
413.60	29.814
413.96	30.184
414.31	32.012
414.67	30.853
415.03	30.959
415.38	30.418
415.74	31.075
416.09	30.830
416.45	29.440
416.80	30.271
417.16	31.215
417.51	31.312
417.87	29.400
418.22	31.088
418.58	30.435
418.93	30.972
419.29	30.346
419.64	30.266
420.00	30.919
420.35	30.209
420.71	31.349
421.06	30.264
421.42	30.769
421.77	30.578
422.12	30.193
422.48	31.240
422.83	30.800
423.19	30.813
423.54	30.100
423.90	30.271
424.25	31.056
424.61	31.518
424.96	30.081
425.31	31.600
425.67	30.927
426.02	31.037
426.38	31.371
426.73	31.174
427.09	31.013
427.44	31.529
427.79	31.585
428.15	31.614
428.50	31.375
428.85	31.204
429.21	31.353
429.56	31.429
429.92	30.817
430.27	30.877
430.62	30.789
430.98	30.414
431.33	31.598
431.68	31.293
432.04	30.911
432.39	30.633
432.74	30.788
433.10	32.816
433.45	31.302
433.80	31.863
434.16	30.305
434.51	31.882
434.86	31.998
435.22	31.408
435.57	32.876
435.92	31.557
436.28	30.531
436.63	31.375
436.98	30.881
437.34	31.760
437.69	32.737
438.04	31.795
438.39	31.949
438.75	31.998
439.10	32.767
439.45	32.562
439.81	32.110
440.16	33.789
440.51	33.493
440.86	33.414
441.22	32.353
441.57	33.278
441.92	33.421
442.27	33.093
442.63	32.655
442.98	33.831
443.33	33.166
443.68	32.944
444.03	33.284
444.39	33.350
444.74	34.225
445.09	33.408
445.44	33.504
445.79	33.780
446.15	33.040
446.50	33.500
446.85	33.634
447.20	33.212
447.55	33.594
447.91	33.559
448.26	34.377
448.61	33.909
448.96	33.735
449.31	32.775
449.66	33.914
450.02	33.828
450.37	33.906
450.72	34.021
451.07	33.797
451.42	34.082
451.77	34.117
452.12	33.433
452.47	33.290
452.83	34.099
453.18	33.460
453.53	34.640
453.88	34.123
454.23	34.419
454.58	35.705
454.93	35.052
455.28	32.444
455.63	35.028
455.98	34.095
456.34	34.355
456.69	34.435
457.04	34.026
457.39	34.447
457.74	34.341
458.09	33.843
458.44	34.172
458.79	33.557
459.14	35.240
459.49	33.731
459.84	34.743
460.19	35.073
460.54	34.841
460.89	34.489
461.24	35.342
461.59	34.798
461.94	33.711
462.29	35.223
462.64	35.482
462.99	33.785
463.34	33.936
463.69	34.234
464.04	34.383
464.39	34.930
464.74	34.294
465.09	34.872
465.44	35.718
465.79	33.503
466.14	34.493
466.49	34.905
466.84	35.634
467.19	34.731
467.54	34.738
467.89	35.944
468.24	34.063
468.59	34.921
468.94	34.222
469.29	35.672
469.64	35.612
469.99	36.300
470.34	35.290
470.68	35.272
471.03	34.890
471.38	35.307
471.73	35.014
472.08	35.278
472.43	35.369
472.78	34.476
473.13	34.762
473.48	35.244
473.83	35.492
474.17	34.974
474.52	35.418
474.87	35.091
475.22	35.082
475.57	33.992
475.92	34.997
476.27	35.681
476.61	36.285
476.96	33.965
477.31	34.613
477.66	34.326
478.01	35.036
478.36	35.022
478.70	35.835
479.05	35.165
479.40	35.188
479.75	34.567
480.10	34.767
480.45	35.200
480.79	35.650
481.14	35.963
481.49	34.384
481.84	35.280
482.19	34.892
482.53	34.676
482.88	34.177
483.23	35.317
483.58	35.236
483.92	34.221
484.27	34.594
484.62	34.783
484.97	33.955
485.31	33.454
485.66	32.886
486.01	32.980
486.36	32.816
486.70	33.297
487.05	33.594
487.40	33.583
487.75	33.324
488.09	33.282
488.44	33.494
488.79	34.105
489.13	34.415
489.48	34.203
489.83	34.529
490.17	34.742
490.52	33.949
490.87	33.873
491.22	35.673
491.56	35.104
491.91	34.799
492.26	35.877
492.60	35.605
492.95	35.563
493.30	34.636
493.64	36.149
493.99	34.783
494.34	34.854
494.68	34.714
495.03	34.696
495.37	34.151
495.72	34.326
496.07	34.927
496.41	35.283
496.76	33.994
497.11	33.908
497.45	35.084
497.80	35.368
498.14	34.923
498.49	34.332
498.84	34.631
499.18	34.739
499.53	34.623
499.87	33.998
500.22	35.361
500.56	35.199
500.91	34.739
501.26	34.503
501.60	35.268
501.95	34.643
502.29	34.722
502.64	35.232
502.98	34.978
503.33	32.805
503.67	34.313
504.02	34.409
504.36	35.131
504.71	33.838
505.06	34.424
505.40	34.873
505.75	34.485
506.09	34.668
506.44	35.113
506.78	35.102
507.13	35.109
507.47	34.569
507.82	34.455
508.16	34.760
508.51	34.785
508.85	35.374
509.19	35.444
509.54	34.692
509.88	33.711
510.23	35.395
510.57	34.206
510.92	33.689
511.26	34.806
511.61	35.259
511.95	34.027
512.30	35.033
512.64	35.559
512.98	35.598
513.33	35.982
513.67	35.702
514.02	35.069
514.36	36.400
514.70	36.072
515.05	36.016
515.39	35.950
515.74	36.527
516.08	35.386
516.42	35.925
516.77	36.396
517.11	36.083
517.46	36.864
517.80	35.757
518.14	35.150
518.49	34.796
518.83	36.148
519.17	34.688
519.52	35.761
519.86	35.714
520.20	35.541
520.55	36.023
520.89	35.759
521.23	36.415
521.58	36.593
521.92	36.731
522.26	36.565
522.61	35.779
522.95	37.152
523.29	36.213
523.64	36.213
523.98	37.006
524.32	35.696
524.66	36.748
525.01	36.169
525.35	37.200
525.69	35.017
526.04	36.177
526.38	37.873
526.72	35.513
527.06	35.798
527.41	36.478
527.75	35.590
528.09	36.213
528.43	36.935
528.78	36.304
529.12	34.968
529.46	35.218
529.80	35.212
530.15	36.634
530.49	35.286
530.83	35.568
531.17	36.535
531.51	36.320
531.86	35.690
532.20	35.421
532.54	36.624
532.88	36.619
533.22	35.753
533.57	36.042
533.91	35.183
534.25	36.198
534.59	35.664
534.93	35.305
535.27	34.201
535.62	34.932
535.96	35.486
536.30	35.422
536.64	36.458
536.98	34.425
537.32	36.344
537.66	35.694
538.01	35.455
538.35	34.119
538.69	34.687
539.03	34.381
539.37	35.801
539.71	35.242
540.05	34.827
540.39	35.803
540.73	35.774
541.07	35.359
541.42	35.282
541.76	35.375
542.10	35.169
542.44	35.372
542.78	35.169
543.12	34.478
543.46	35.466
543.80	34.906
544.14	34.646
544.48	35.110
544.82	33.630
545.16	35.246
545.50	34.513
545.84	35.765
546.18	33.617
546.52	34.535
546.86	33.645
547.20	34.764
547.54	33.640
547.88	35.054
548.22	33.859
548.56	33.707
548.90	34.569
549.24	33.196
549.58	34.344
549.92	33.024
550.26	34.139
550.60	35.316
550.94	34.354
551.28	32.998
551.62	33.923
551.96	34.060
552.30	33.480
552.64	32.440
552.98	33.685
553.32	34.237
553.66	34.325
554.00	35.328
554.34	34.417
554.68	34.366
555.02	34.598
555.36	33.807
555.69	33.260
556.03	33.119
556.37	32.598
556.71	32.780
557.05	34.004
557.39	33.011
557.73	32.759
558.07	34.163
558.41	33.002
558.75	34.762
559.08	33.570
559.42	34.524
559.76	33.627
560.10	33.257
560.44	33.060
560.78	32.517
561.12	32.793
561.45	33.942
561.79	33.683
562.13	33.499
562.47	32.950
562.81	33.429
563.15	32.440
563.48	33.593
563.82	32.944
564.16	32.939
564.50	31.892
564.84	32.865
565.17	31.254
565.51	33.402
565.85	32.785
566.19	32.958
566.52	33.311
566.86	32.455
567.20	31.943
567.54	32.360
567.88	33.216
568.21	31.787
568.55	30.707
568.89	31.725
569.23	31.343
569.56	31.655
569.90	30.857
570.24	29.736
570.57	30.582
570.91	30.498
571.25	30.122
571.59	28.870
571.92	28.563
572.26	28.804
572.60	29.147
572.93	29.118
573.27	28.683
573.61	28.729
573.95	28.864
574.28	27.834
574.62	27.918
574.96	27.873
575.29	28.370
575.63	27.987
575.97	28.111
576.30	27.720
576.64	27.523
576.98	27.645
577.31	27.722
577.65	28.119
577.98	27.959
578.32	27.237
578.66	27.058
578.99	27.398
579.33	27.280
579.67	27.530
580.00	27.468
580.34	27.637
580.67	27.473
581.01	27.642
581.35	27.735
581.68	26.806
582.02	27.436
582.35	26.815
582.69	27.211
583.02	27.174
583.36	28.247
583.70	28.011
584.03	27.328
584.37	28.007
584.70	27.802
585.04	27.047
585.37	27.224
585.71	27.549
586.04	26.979
586.38	27.047
586.72	27.547
587.05	27.787
587.39	28.320
587.72	27.966
588.06	27.152
588.39	27.770
588.73	27.900
589.06	27.919
589.40	28.033
589.73	28.478
590.07	28.588
590.40	28.831
590.73	29.160
591.07	28.753
591.40	28.629
591.74	28.507
592.07	29.406
592.41	28.666
592.74	27.599
593.08	27.279
593.41	27.381
593.75	27.478
594.08	27.669
594.41	27.584
594.75	27.252
595.08	27.242
595.42	27.199
595.75	27.150
596.09	27.600
596.42	28.111
596.75	28.064
597.09	27.563
597.42	27.958
597.75	28.401
598.09	27.569
598.42	27.347
598.76	27.799
599.09	27.003
599.42	27.321
599.76	27.239
600.09	27.036
600.42	27.483
600.76	27.229
601.09	26.756
601.42	26.792
601.76	26.995
602.09	26.815
602.42	27.843
602.76	27.801
603.09	28.156
603.42	27.885
603.76	26.532
604.09	27.542
604.42	26.988
604.76	27.548
605.09	28.473
605.42	27.043
605.75	27.452
606.09	27.431
606.42	26.814
606.75	26.840
607.09	27.560
607.42	25.786
607.75	26.243
608.08	26.685
608.42	27.501
608.75	27.566
609.08	28.002
609.41	27.360
609.75	27.319
610.08	27.509
610.41	27.053
610.74	26.914
611.07	27.597
611.41	27.556
611.74	28.198
612.07	26.927
612.40	28.228
612.73	27.175
613.07	27.615
613.40	27.462
613.73	27.700
614.06	27.268
614.39	27.524
614.72	26.667
615.06	26.480
615.39	27.183
615.72	26.857
616.05	27.486
616.38	26.724
616.71	27.095
617.05	28.227
617.38	27.341
617.71	28.050
618.04	28.508
618.37	29.571
618.70	28.449
619.03	29.653
619.36	27.786
619.69	27.900
620.03	29.803
620.36	27.325
620.69	27.623
621.02	28.287
621.35	29.129
621.68	29.677
622.01	28.417
622.34	29.210
622.67	29.022
623.00	28.790
623.33	27.744
623.66	27.973
623.99	28.139
624.32	28.973
624.65	26.767
624.99	29.120
625.32	27.900
625.65	29.301
625.98	29.734
626.31	28.845
626.64	29.116
626.97	30.192
627.30	30.123
627.63	29.549
627.96	29.290
628.29	29.140
628.62	30.678
628.95	29.459
629.28	30.444
629.61	29.611
629.94	31.281
630.26	28.953
630.59	30.697
630.92	30.872
631.25	28.308
631.58	29.515
631.91	29.386
632.24	30.390
632.57	31.023
632.90	30.249
633.23	29.294
633.56	31.990
633.89	31.073
634.22	31.358
634.55	32.529
634.88	31.418
635.20	28.718
635.53	32.000
635.86	30.949
636.19	32.212
636.52	30.867
636.85	29.280
637.18	29.308
637.51	30.440
