SpectraSuite Data File
++++++++++++++++++++++++++++++++++++
Date: Fri May 15 20:58:28 PDT 2015
User: schluterlab
Dark Spectrum Present: Yes
Reference Spectrum Present: Yes
Number of Sampled Component Spectra: 1
Spectrometers: USB2E3373
Integration Time (usec): 3000 (USB2E3373)
Spectra Averaged: 3 (USB2E3373)
Boxcar Smoothing: 0 (USB2E3373)
Correct for Electrical Dark: No (USB2E3373)
Strobe/Lamp Enabled: No (USB2E3373)
Correct for Detector Non-linearity: No (USB2E3373)
Correct for Stray Light: No (USB2E3373)
Number of Pixels in Processed Spectrum: 2048
>>>>>Begin Processed Spectral Data<<<<<
178.53	0.000
178.91	0.000
179.29	62.500
179.67	-650.000
180.04	-42.857
180.42	25.000
180.80	-400.000
181.18	-266.667
181.56	600.000
181.94	-50.000
182.31	-100.000
182.69	-120.000
183.07	-400.000
183.45	-220.000
183.83	133.333
184.20	9.091
184.58	44.444
184.96	-200.000
185.34	100.000
185.72	-200.000
186.09	138.462
186.47	-1500.000
186.85	100.000
187.23	88.889
187.61	700.000
187.98	-300.000
188.36	44.444
188.74	-100.000
189.12	17.647
189.49	-22.222
189.87	0.000
190.25	64.286
190.63	150.000
191.00	-366.667
191.38	-26.316
191.76	150.000
192.14	100.000
192.51	-100.000
192.89	-55.556
193.27	-171.429
193.65	116.667
194.02	100.000
194.40	-40.000
194.78	-175.000
195.15	0.000
195.53	-25.000
195.91	125.000
196.29	-175.000
196.66	84.615
197.04	228.571
197.42	-66.667
197.79	-433.333
198.17	-76.923
198.55	1500.000
198.92	-300.000
199.30	-500.000
199.68	-280.000
200.05	-233.333
200.43	0.000
200.81	-200.000
201.18	-200.000
201.56	1300.000
201.94	-250.000
202.31	33.333
202.69	-40.000
203.07	250.000
203.44	100.000
203.82	0.000
204.19	35.714
204.57	-466.667
204.95	287.500
205.32	10.000
205.70	-28.571
206.08	25.000
206.45	133.333
206.83	42.857
207.20	-128.571
207.58	1300.000
207.96	-266.667
208.33	-120.000
208.71	-50.000
209.08	-150.000
209.46	-1300.000
209.84	-120.000
210.21	-200.000
210.59	100.000
210.96	-50.000
211.34	-275.000
211.71	-6.667
212.09	100.000
212.46	-1300.000
212.84	0.000
213.22	20.000
213.59	250.000
213.97	-7.692
214.34	45.455
214.72	16.667
215.09	450.000
215.47	0.000
215.84	27.273
216.22	-433.333
216.59	0.000
216.97	550.000
217.34	-75.000
217.72	-260.000
218.09	50.000
218.47	50.000
218.84	200.000
219.22	88.889
219.59	80.000
219.97	333.333
220.34	75.000
220.72	-85.714
221.09	-300.000
221.47	-300.000
221.84	-500.000
222.22	-850.000
222.59	0.000
222.97	58.333
223.34	-100.000
223.72	-57.143
224.09	19.048
224.46	3.571
224.84	500.000
225.21	-50.000
225.59	46.667
225.96	-50.000
226.34	100.000
226.71	-128.571
227.08	-33.333
227.46	-25.000
227.83	-100.000
228.21	-33.333
228.58	-45.455
228.95	-37.500
229.33	170.000
229.70	43.750
230.08	-87.500
230.45	-114.286
230.82	85.714
231.20	-73.333
231.57	28.571
231.95	-100.000
232.32	-120.000
232.69	71.429
233.07	266.667
233.44	-260.000
233.81	-90.000
234.19	55.556
234.56	-41.176
234.93	450.000
235.31	325.000
235.68	-140.000
236.05	-38.462
236.43	-35.000
236.80	0.000
237.17	6.250
237.55	-5.000
237.92	25.926
238.29	44.444
238.67	36.667
239.04	41.176
239.41	-2.439
239.79	0.000
240.16	29.268
240.53	2.632
240.91	8.696
241.28	15.873
241.65	26.786
242.02	17.808
242.40	10.000
242.77	30.508
243.14	27.273
243.51	31.250
243.89	33.333
244.26	25.287
244.63	22.619
245.00	22.680
245.38	23.711
245.75	13.483
246.12	19.828
246.49	28.099
246.87	30.769
247.24	23.529
247.61	24.561
247.98	27.642
248.36	23.125
248.73	23.684
249.10	18.182
249.47	34.177
249.84	31.373
250.22	24.118
250.59	22.876
250.96	27.230
251.33	25.000
251.70	27.647
252.08	26.904
252.45	27.228
252.82	30.151
253.19	30.415
253.56	24.299
253.94	28.378
254.31	31.304
254.68	29.825
255.05	29.528
255.42	27.074
255.79	29.344
256.16	28.794
256.54	29.851
256.91	25.095
257.28	28.253
257.65	24.719
258.02	25.177
258.39	28.620
258.76	27.839
259.14	28.239
259.51	24.272
259.88	25.773
260.25	25.490
260.62	27.431
260.99	25.763
261.36	24.658
261.73	24.051
262.10	27.356
262.47	26.074
262.85	22.571
263.22	25.538
263.59	26.168
263.96	29.503
264.33	28.485
264.70	26.786
265.07	29.762
265.44	23.796
265.81	24.859
266.18	28.962
266.55	26.992
266.92	26.166
267.29	28.198
267.66	25.831
268.03	29.058
268.40	26.893
268.77	29.412
269.14	26.619
269.51	28.278
269.88	26.434
270.25	23.980
270.62	24.634
270.99	25.320
271.36	22.494
271.73	27.230
272.10	25.791
272.47	24.113
272.84	28.218
273.21	23.666
273.58	25.783
273.95	28.146
274.32	21.709
274.69	23.529
275.06	24.330
275.43	24.263
275.80	24.062
276.17	26.437
276.54	25.268
276.91	25.658
277.28	23.362
277.65	26.653
278.02	24.468
278.39	26.477
278.76	24.948
279.13	21.162
279.50	25.840
279.87	25.270
280.23	23.871
280.60	24.172
280.97	25.253
281.34	24.231
281.71	28.337
282.08	24.131
282.45	24.070
282.82	22.973
283.19	25.919
283.56	22.736
283.92	21.822
284.29	24.808
284.66	23.643
285.03	24.361
285.40	24.764
285.77	21.617
286.14	23.105
286.51	28.044
286.87	23.035
287.24	24.309
287.61	20.635
287.98	24.035
288.35	22.877
288.72	23.643
289.08	21.354
289.45	22.496
289.82	23.077
290.19	22.184
290.56	21.098
290.93	22.727
291.29	21.418
291.66	22.677
292.03	21.212
292.40	20.484
292.77	19.458
293.13	16.721
293.50	19.727
293.87	21.069
294.24	19.784
294.60	20.417
294.97	19.345
295.34	19.632
295.71	20.417
296.08	20.628
296.44	18.350
296.81	18.889
297.18	19.130
297.55	21.274
297.91	17.123
298.28	19.261
298.65	17.368
299.02	17.385
299.38	18.057
299.75	17.931
300.12	17.670
300.48	18.445
300.85	18.504
301.22	17.532
301.59	18.684
301.95	17.595
302.32	18.807
302.69	17.537
303.05	19.059
303.42	18.306
303.79	18.575
304.15	18.996
304.52	16.647
304.89	19.298
305.25	17.433
305.62	16.686
305.99	17.310
306.35	16.879
306.72	17.660
307.09	18.130
307.45	17.107
307.82	16.088
308.19	18.235
308.55	17.121
308.92	18.954
309.29	16.983
309.65	15.823
310.02	17.162
310.38	18.002
310.75	17.596
311.12	17.976
311.48	17.603
311.85	17.801
312.22	17.194
312.58	16.667
312.95	16.756
313.31	17.081
313.68	18.743
314.05	18.265
314.41	19.175
314.78	18.144
315.14	19.630
315.51	18.427
315.87	17.316
316.24	19.312
316.61	18.799
316.97	19.643
317.34	18.164
317.70	18.260
318.07	19.038
318.43	20.686
318.80	20.549
319.16	20.117
319.53	20.798
319.89	19.390
320.26	20.648
320.62	21.665
320.99	19.624
321.35	21.172
321.72	21.288
322.08	23.263
322.45	21.827
322.81	21.807
323.18	21.982
323.54	22.490
323.91	22.687
324.27	22.656
324.64	23.783
325.00	22.993
325.37	24.242
325.73	22.484
326.10	25.250
326.46	24.395
326.83	25.022
327.19	25.022
327.56	25.369
327.92	26.496
328.29	25.000
328.65	26.226
329.01	25.919
329.38	27.465
329.74	25.779
330.11	25.950
330.47	24.119
330.84	26.154
331.20	28.422
331.56	27.037
331.93	25.479
332.29	27.773
332.66	26.335
333.02	26.394
333.38	25.665
333.75	28.205
334.11	26.589
334.48	28.015
334.84	28.022
335.20	27.905
335.57	28.015
335.93	27.100
336.29	28.085
336.66	27.520
337.02	26.580
337.38	28.241
337.75	28.364
338.11	28.765
338.47	28.650
338.84	29.113
339.20	27.148
339.56	27.890
339.93	29.096
340.29	28.991
340.65	28.853
341.02	28.546
341.38	27.434
341.74	28.004
342.11	27.210
342.47	29.181
342.83	28.460
343.20	27.265
343.56	29.217
343.92	29.052
344.28	28.864
344.65	29.016
345.01	28.522
345.37	28.343
345.73	28.368
346.10	29.681
346.46	28.764
346.82	28.805
347.19	29.011
347.55	29.741
347.91	30.663
348.27	28.052
348.63	30.750
349.00	29.122
349.36	29.593
349.72	29.187
350.08	28.115
350.45	28.332
350.81	29.236
351.17	29.805
351.53	30.694
351.89	27.828
352.26	29.120
352.62	30.806
352.98	28.755
353.34	28.824
353.70	29.854
354.07	29.516
354.43	29.223
354.79	29.893
355.15	30.714
355.51	30.301
355.87	30.663
356.24	29.690
356.60	30.800
356.96	30.476
357.32	30.591
357.68	29.242
358.04	30.533
358.40	29.260
358.77	30.144
359.13	30.344
359.49	29.507
359.85	31.045
360.21	30.303
360.57	30.222
360.93	31.846
361.29	28.927
361.66	31.661
362.02	33.030
362.38	31.683
362.74	31.794
363.10	31.452
363.46	31.727
363.82	30.579
364.18	30.332
364.54	31.838
364.90	30.896
365.26	31.951
365.62	32.628
365.98	31.232
366.35	32.993
366.71	32.964
367.07	32.293
367.43	32.063
367.79	31.943
368.15	32.879
368.51	32.629
368.87	32.304
369.23	32.563
369.59	32.289
369.95	32.405
370.31	31.792
370.67	32.090
371.03	32.487
371.39	33.187
371.75	33.480
372.11	32.668
372.47	33.358
372.83	33.570
373.19	33.096
373.55	33.213
373.91	33.549
374.27	34.160
374.63	34.386
374.99	33.262
375.35	33.635
375.71	33.916
376.07	33.708
376.42	33.878
376.78	33.423
377.14	34.326
377.50	33.732
377.86	33.936
378.22	34.525
378.58	34.744
378.94	34.720
379.30	34.311
379.66	35.172
380.02	34.457
380.38	35.849
380.74	34.411
381.09	36.012
381.45	35.229
381.81	35.534
382.17	34.835
382.53	35.228
382.89	36.033
383.25	36.030
383.61	36.220
383.97	35.492
384.32	35.460
384.68	36.161
385.04	35.784
385.40	35.781
385.76	36.792
386.12	37.387
386.48	35.951
386.83	36.525
387.19	35.348
387.55	36.826
387.91	36.980
388.27	35.043
388.62	37.004
388.98	35.543
389.34	37.664
389.70	36.793
390.06	36.375
390.42	36.593
390.77	37.802
391.13	36.822
391.49	37.904
391.85	37.427
392.20	36.535
392.56	36.745
392.92	37.522
393.28	37.500
393.64	37.237
393.99	36.865
394.35	37.318
394.71	36.782
395.07	38.341
395.42	36.855
395.78	37.720
396.14	36.444
396.50	37.413
396.85	37.347
397.21	37.469
397.57	37.555
397.92	37.028
398.28	37.414
398.64	35.663
399.00	37.528
399.35	36.456
399.71	37.507
400.07	38.150
400.42	36.842
400.78	38.702
401.14	37.508
401.49	38.773
401.85	37.599
402.21	37.048
402.57	38.063
402.92	36.198
403.28	37.907
403.63	37.453
403.99	37.436
404.35	37.539
404.70	36.726
405.06	37.309
405.42	37.042
405.77	35.328
406.13	36.903
406.49	37.537
406.84	37.958
407.20	36.785
407.55	36.446
407.91	37.500
408.27	37.285
408.62	37.292
408.98	36.291
409.34	37.608
409.69	35.982
410.05	36.084
410.40	37.037
410.76	36.791
411.11	37.375
411.47	36.686
411.83	35.970
412.18	37.130
412.54	36.767
412.89	35.837
413.25	37.124
413.60	37.081
413.96	35.951
414.31	37.317
414.67	35.471
415.03	36.152
415.38	35.640
415.74	36.873
416.09	35.402
416.45	36.327
416.80	36.153
417.16	37.983
417.51	36.043
417.87	35.789
418.22	37.630
418.58	37.324
418.93	36.803
419.29	35.275
419.64	36.293
420.00	36.398
420.35	36.478
420.71	36.027
421.06	35.850
421.42	36.538
421.77	36.416
422.12	36.379
422.48	36.004
422.83	34.977
423.19	35.779
423.54	35.979
423.90	35.512
424.25	35.936
424.61	36.659
424.96	36.179
425.31	37.724
425.67	37.383
426.02	37.102
426.38	36.882
426.73	37.046
427.09	37.278
427.44	35.765
427.79	36.889
428.15	35.740
428.50	35.251
428.85	34.767
429.21	36.729
429.56	36.011
429.92	35.593
430.27	35.489
430.62	35.233
430.98	34.979
431.33	35.910
431.68	35.322
432.04	35.383
432.39	34.569
432.74	35.238
433.10	36.207
433.45	35.066
433.80	36.042
434.16	34.404
434.51	36.075
434.86	35.830
435.22	36.399
435.57	35.808
435.92	35.868
436.28	35.659
436.63	35.083
436.98	34.762
437.34	35.632
437.69	35.957
438.04	35.783
438.39	35.553
438.75	35.337
439.10	35.710
439.45	35.362
439.81	35.657
440.16	37.411
440.51	37.612
440.86	36.677
441.22	36.256
441.57	36.479
441.92	35.992
442.27	36.475
442.63	36.296
442.98	35.669
443.33	35.615
443.68	34.907
444.03	35.718
444.39	35.858
444.74	36.343
445.09	36.804
445.44	37.208
445.79	38.061
446.15	36.509
446.50	35.164
446.85	36.451
447.20	37.174
447.55	36.328
447.91	35.477
448.26	36.767
448.61	37.018
448.96	37.120
449.31	36.416
449.66	35.772
450.02	36.281
450.37	37.937
450.72	36.770
451.07	37.342
451.42	36.017
451.77	35.925
452.12	35.706
452.47	35.866
452.83	36.042
453.18	35.547
453.53	37.611
453.88	36.916
454.23	35.648
454.58	35.390
454.93	36.791
455.28	35.365
455.63	36.268
455.98	35.418
456.34	35.568
456.69	36.213
457.04	35.917
457.39	35.115
457.74	36.094
458.09	34.785
458.44	34.991
458.79	35.630
459.14	36.098
459.49	35.701
459.84	34.969
460.19	34.648
460.54	36.919
460.89	35.909
461.24	35.901
461.59	36.105
461.94	34.843
462.29	34.861
462.64	36.611
462.99	36.357
463.34	36.648
463.69	34.942
464.04	36.199
464.39	34.142
464.74	34.663
465.09	34.997
465.44	34.391
465.79	34.410
466.14	34.778
466.49	33.525
466.84	34.801
467.19	34.105
467.54	34.802
467.89	35.186
468.24	35.036
468.59	35.238
468.94	34.603
469.29	35.410
469.64	34.450
469.99	35.809
470.34	34.130
470.68	34.899
471.03	35.810
471.38	34.665
471.73	34.594
472.08	34.939
472.43	34.966
472.78	34.887
473.13	34.558
473.48	34.528
473.83	33.748
474.17	34.326
474.52	33.567
474.87	34.061
475.22	33.252
475.57	32.693
475.92	33.571
476.27	33.527
476.61	34.549
476.96	33.687
477.31	33.694
477.66	33.596
478.01	33.577
478.36	32.571
478.70	34.149
479.05	33.846
479.40	33.439
479.75	33.316
480.10	32.975
480.45	32.300
480.79	33.031
481.14	33.658
481.49	32.562
481.84	32.432
482.19	32.460
482.53	32.950
482.88	32.363
483.23	32.917
483.58	32.594
483.92	32.381
484.27	32.088
484.62	32.541
484.97	31.841
485.31	31.503
485.66	29.661
486.01	29.424
486.36	29.327
486.70	30.414
487.05	30.891
487.40	31.256
487.75	31.070
488.09	31.119
488.44	31.465
488.79	32.200
489.13	32.332
489.48	31.723
489.83	31.973
490.17	31.506
490.52	31.178
490.87	31.236
491.22	30.707
491.56	31.214
491.91	30.736
492.26	31.891
492.60	31.622
492.95	32.464
493.30	30.923
493.64	31.974
493.99	31.739
494.34	31.602
494.68	31.667
495.03	30.900
495.37	31.747
495.72	31.297
496.07	31.512
496.41	31.274
496.76	30.539
497.11	30.973
497.45	31.026
497.80	30.626
498.14	30.849
498.49	30.879
498.84	31.587
499.18	31.024
499.53	31.101
499.87	30.545
500.22	30.712
500.56	30.963
500.91	31.426
501.26	29.906
501.60	30.103
501.95	29.985
502.29	30.944
502.64	30.743
502.98	31.080
503.33	30.163
503.67	30.651
504.02	30.303
504.36	31.667
504.71	30.303
505.06	30.599
505.40	30.203
505.75	30.206
506.09	29.752
506.44	30.955
506.78	30.765
507.13	30.507
507.47	29.452
507.82	30.502
508.16	29.952
508.51	30.483
508.85	30.246
509.19	29.324
509.54	29.651
509.88	29.504
510.23	29.962
510.57	31.053
510.92	28.891
511.26	29.296
511.61	30.253
511.95	30.521
512.30	30.100
512.64	30.161
512.98	29.478
513.33	30.050
513.67	29.847
514.02	30.492
514.36	31.029
514.70	30.711
515.05	31.199
515.39	30.401
515.74	30.659
516.08	30.305
516.42	31.037
516.77	30.603
517.11	29.614
517.46	29.862
517.80	29.619
518.14	29.455
518.49	29.507
518.83	30.620
519.17	29.472
519.52	29.485
519.86	29.772
520.20	30.680
520.55	29.081
520.89	30.615
521.23	29.069
521.58	30.032
521.92	30.321
522.26	29.928
522.61	29.935
522.95	30.331
523.29	30.750
523.64	30.750
523.98	30.784
524.32	28.222
524.66	29.449
525.01	29.870
525.35	29.877
525.69	29.832
526.04	29.563
526.38	30.739
526.72	28.450
527.06	29.702
527.41	30.145
527.75	29.357
528.09	29.103
528.43	30.520
528.78	29.967
529.12	28.968
529.46	29.045
529.80	29.132
530.15	29.241
530.49	28.552
530.83	30.096
531.17	29.550
531.51	28.796
531.86	29.028
532.20	28.671
532.54	28.387
532.88	27.926
533.22	29.301
533.57	29.227
533.91	28.133
534.25	30.013
534.59	27.967
534.93	28.005
535.27	28.046
535.62	28.386
535.96	27.919
536.30	28.760
536.64	28.463
536.98	28.571
537.32	28.521
537.66	28.471
538.01	28.951
538.35	28.086
538.69	27.031
539.03	27.614
539.37	27.456
539.71	27.471
540.05	26.952
540.39	28.116
540.73	28.243
541.07	28.315
541.42	27.218
541.76	28.149
542.10	28.011
542.44	27.797
542.78	25.809
543.12	26.854
543.46	28.025
543.80	27.550
544.14	25.968
544.48	27.315
544.82	27.273
545.16	26.708
545.50	27.170
545.84	28.187
546.18	28.440
546.52	27.541
546.86	27.390
547.20	26.896
547.54	26.502
547.88	26.766
548.22	27.219
548.56	26.715
548.90	27.089
549.24	26.033
549.58	27.080
549.92	27.162
550.26	27.179
550.60	28.253
550.94	27.483
551.28	26.275
551.62	27.000
551.96	26.617
552.30	26.243
552.64	25.740
552.98	26.723
553.32	25.250
553.66	25.254
554.00	27.226
554.34	25.923
554.68	26.254
555.02	27.455
555.36	25.879
555.69	26.300
556.03	25.839
556.37	26.548
556.71	26.643
557.05	26.174
557.39	25.353
557.73	27.136
558.07	25.415
558.41	26.493
558.75	26.111
559.08	26.399
559.42	26.190
559.76	26.982
560.10	25.000
560.44	25.316
560.78	26.294
561.12	25.247
561.45	25.720
561.79	26.751
562.13	26.189
562.47	24.748
562.81	25.793
563.15	25.529
563.48	25.248
563.82	24.983
564.16	26.184
564.50	24.595
564.84	25.636
565.17	25.151
565.51	26.161
565.85	25.926
566.19	26.260
566.52	25.402
566.86	25.900
567.20	25.280
567.54	24.027
567.88	24.605
568.21	25.057
568.55	24.185
568.89	24.743
569.23	24.025
569.56	23.818
569.90	24.198
570.24	22.739
570.57	23.418
570.91	23.806
571.25	22.657
571.59	23.077
571.92	22.370
572.26	23.007
572.60	22.357
572.93	22.843
573.27	22.696
573.61	22.643
573.95	22.174
574.28	22.458
574.62	21.739
574.96	21.990
575.29	21.883
575.63	21.897
575.97	22.364
576.30	22.266
576.64	22.146
576.98	22.368
577.31	21.701
577.65	22.317
577.98	21.746
578.32	21.502
578.66	21.513
578.99	21.876
579.33	21.434
579.67	21.524
580.00	22.481
580.34	21.990
580.67	21.761
581.01	21.566
581.35	21.382
581.68	21.059
582.02	21.178
582.35	21.263
582.69	21.504
583.02	21.662
583.36	22.025
583.70	22.482
584.03	22.686
584.37	22.756
584.70	22.747
585.04	21.062
585.37	21.499
585.71	21.451
586.04	21.180
586.38	21.979
586.72	22.152
587.05	21.895
587.39	21.862
587.72	21.624
588.06	21.423
588.39	21.675
588.73	21.947
589.06	22.211
589.40	22.226
589.73	22.563
590.07	22.054
590.40	22.252
590.73	23.064
591.07	22.434
591.40	21.995
591.74	23.213
592.07	23.609
592.41	22.747
592.74	21.346
593.08	21.167
593.41	20.824
593.75	21.361
594.08	21.044
594.41	22.016
594.75	21.985
595.08	22.134
595.42	21.605
595.75	21.930
596.09	22.635
596.42	22.199
596.75	22.602
597.09	22.323
597.42	21.996
597.75	22.217
598.09	22.046
598.42	21.931
598.76	22.008
599.09	21.394
599.42	20.576
599.76	20.993
600.09	21.682
600.42	21.607
600.76	21.025
601.09	21.603
601.42	21.582
601.76	21.675
602.09	21.700
602.42	22.367
602.76	21.477
603.09	21.595
603.42	22.074
603.76	21.331
604.09	21.345
604.42	21.235
604.76	22.608
605.09	21.435
605.42	21.490
605.75	21.410
606.09	21.274
606.42	21.476
606.75	20.866
607.09	21.626
607.42	21.267
607.75	21.226
608.08	20.530
608.42	21.334
608.75	21.687
609.08	21.824
609.41	21.472
609.75	21.321
610.08	21.268
610.41	21.063
610.74	21.648
611.07	21.964
611.41	21.951
611.74	22.228
612.07	21.413
612.40	21.772
612.73	21.864
613.07	21.710
613.40	21.827
613.73	20.929
614.06	21.480
614.39	21.771
614.72	21.289
615.06	21.564
615.39	21.343
615.72	20.667
616.05	21.453
616.38	21.026
616.71	22.080
617.05	21.989
617.38	21.182
617.71	21.824
618.04	22.349
618.37	23.455
618.70	21.716
619.03	23.194
619.36	22.648
619.69	21.911
620.03	22.790
620.36	22.389
620.69	23.198
621.02	23.242
621.35	23.154
621.68	22.959
622.01	22.667
622.34	22.506
622.67	22.319
623.00	22.435
623.33	22.180
623.66	21.690
623.99	21.104
624.32	23.118
624.65	21.353
624.99	22.272
625.32	21.304
625.65	22.467
625.98	22.562
626.31	22.943
626.64	23.397
626.97	23.560
627.30	22.242
627.63	23.137
627.96	23.989
628.29	22.757
628.62	24.582
628.95	22.846
629.28	23.185
629.61	21.436
629.94	23.558
630.26	22.036
630.59	23.205
630.92	22.564
631.25	22.154
631.58	23.789
631.91	23.465
632.24	22.706
632.57	24.091
632.90	22.539
633.23	23.294
