SpectraSuite Data File
++++++++++++++++++++++++++++++++++++
Date: Fri May 15 20:37:05 PDT 2015
User: schluterlab
Dark Spectrum Present: Yes
Reference Spectrum Present: Yes
Number of Sampled Component Spectra: 1
Spectrometers: USB2E3373
Integration Time (usec): 3000 (USB2E3373)
Spectra Averaged: 3 (USB2E3373)
Boxcar Smoothing: 0 (USB2E3373)
Correct for Electrical Dark: No (USB2E3373)
Strobe/Lamp Enabled: No (USB2E3373)
Correct for Detector Non-linearity: No (USB2E3373)
Correct for Stray Light: No (USB2E3373)
Number of Pixels in Processed Spectrum: 2048
>>>>>Begin Processed Spectral Data<<<<<
178.53	0.000
178.91	0.000
179.29	-37.500
179.67	-500.000
180.04	-114.286
180.42	50.000
180.80	-300.000
181.18	166.667
181.56	150.000
181.94	-150.000
182.31	-100.000
182.69	0.000
183.07	-433.333
183.45	-140.000
183.83	233.333
184.20	9.091
184.58	122.222
184.96	-125.000
185.34	400.000
185.72	-400.000
186.09	53.846
186.47	-1200.000
186.85	83.333
187.23	66.667
187.61	-700.000
187.98	-200.000
188.36	-33.333
188.74	-333.333
189.12	0.000
189.49	33.333
189.87	0.000
190.25	121.429
190.63	400.000
191.00	-33.333
191.38	0.000
191.76	0.000
192.14	-125.000
192.51	300.000
192.89	-44.444
193.27	-85.714
193.65	33.333
194.02	109.091
194.40	-60.000
194.78	-162.500
195.15	-25.000
195.53	-137.500
195.91	350.000
196.29	-300.000
196.66	123.077
197.04	214.286
197.42	-11.111
197.79	-366.667
198.17	-84.615
198.55	2000.000
198.92	-166.667
199.30	-900.000
199.68	-160.000
200.05	-200.000
200.43	0.000
200.81	-266.667
201.18	200.000
201.56	900.000
201.94	-350.000
202.31	-100.000
202.69	-140.000
203.07	150.000
203.44	0.000
203.82	0.000
204.19	14.286
204.57	-566.667
204.95	50.000
205.32	-20.000
205.70	-142.857
206.08	-25.000
206.45	55.556
206.83	50.000
207.20	-128.571
207.58	1000.000
207.96	-266.667
208.33	-140.000
208.71	-125.000
209.08	-100.000
209.46	-100.000
209.84	-240.000
210.21	-1400.000
210.59	0.000
210.96	-133.333
211.34	-325.000
211.71	53.333
212.09	-200.000
212.46	-900.000
212.84	0.000
213.22	50.000
213.59	450.000
213.97	76.923
214.34	36.364
214.72	-150.000
215.09	350.000
215.47	-38.462
215.84	-63.636
216.22	-233.333
216.59	-25.000
216.97	250.000
217.34	25.000
217.72	-280.000
218.09	75.000
218.47	187.500
218.84	-800.000
219.22	-166.667
219.59	-80.000
219.97	466.667
220.34	275.000
220.72	57.143
221.09	-275.000
221.47	250.000
221.84	-900.000
222.22	-1150.000
222.59	-81.818
222.97	-25.000
223.34	-166.667
223.72	-35.714
224.09	-14.286
224.46	7.143
224.84	400.000
225.21	60.000
225.59	73.333
225.96	-250.000
226.34	350.000
226.71	-85.714
227.08	-33.333
227.46	-150.000
227.83	-1000.000
228.21	44.444
228.58	0.000
228.95	-150.000
229.33	70.000
229.70	0.000
230.08	-75.000
230.45	-71.429
230.82	0.000
231.20	-13.333
231.57	42.857
231.95	-71.429
232.32	-60.000
232.69	-28.571
233.07	-300.000
233.44	20.000
233.81	-90.000
234.19	-88.889
234.56	0.000
234.93	350.000
235.31	-200.000
235.68	-120.000
236.05	-69.231
236.43	-75.000
236.80	47.059
237.17	21.875
237.55	-5.000
237.92	-14.815
238.29	27.778
238.67	13.333
239.04	20.588
239.41	-17.073
239.79	-20.000
240.16	24.390
240.53	-2.632
240.91	-13.043
241.28	14.286
241.65	8.929
242.02	19.178
242.40	5.000
242.77	1.695
243.14	-6.061
243.51	12.500
243.89	20.690
244.26	-1.149
244.63	8.333
245.00	9.278
245.38	13.402
245.75	-5.618
246.12	2.586
246.49	18.182
246.87	25.962
247.24	5.042
247.61	15.789
247.98	12.195
248.36	13.750
248.73	23.026
249.10	13.636
249.47	15.823
249.84	14.379
250.22	18.235
250.59	18.954
250.96	17.371
251.33	16.279
251.70	15.294
252.08	15.736
252.45	13.861
252.82	16.080
253.19	19.355
253.56	14.019
253.94	12.162
254.31	16.522
254.68	17.544
255.05	17.323
255.42	13.974
255.79	16.216
256.16	15.175
256.54	19.403
256.91	14.068
257.28	14.498
257.65	12.734
258.02	17.376
258.39	20.875
258.76	15.018
259.14	15.282
259.51	17.152
259.88	18.557
260.25	10.784
260.62	19.444
260.99	12.881
261.36	14.384
261.73	17.722
262.10	18.237
262.47	14.110
262.85	19.436
263.22	16.308
263.59	16.822
263.96	16.149
264.33	16.061
264.70	15.179
265.07	14.583
265.44	16.997
265.81	15.537
266.18	14.481
266.55	19.280
266.92	17.876
267.29	15.405
267.66	17.391
268.03	16.230
268.40	12.794
268.77	16.845
269.14	15.588
269.51	17.995
269.88	18.454
270.25	14.031
270.62	15.366
270.99	15.090
271.36	16.381
271.73	16.667
272.10	17.518
272.47	15.603
272.84	18.564
273.21	16.473
273.58	19.518
273.95	19.222
274.32	15.473
274.69	13.801
275.06	19.643
275.43	13.832
275.80	15.673
276.17	14.253
276.54	12.634
276.91	14.693
277.28	14.410
277.65	14.669
278.02	13.830
278.39	15.098
278.76	17.610
279.13	13.278
279.50	15.966
279.87	16.415
280.23	14.839
280.60	17.154
280.97	16.970
281.34	15.000
281.71	16.222
282.08	14.110
282.45	14.873
282.82	16.216
283.19	15.667
283.56	15.029
283.92	14.421
284.29	13.846
284.66	15.891
285.03	15.914
285.40	18.147
285.77	14.236
286.14	14.982
286.51	16.974
286.87	15.722
287.24	15.101
287.61	15.344
287.98	15.263
288.35	13.518
288.72	15.412
289.08	12.500
289.45	14.587
289.82	14.860
290.19	13.481
290.56	13.036
290.93	12.121
291.29	12.943
291.66	11.811
292.03	14.354
292.40	12.097
292.77	13.876
293.13	11.201
293.50	10.774
293.87	11.603
294.24	11.747
294.60	12.370
294.97	12.500
295.34	11.503
295.71	12.966
296.08	13.004
296.44	10.811
296.81	14.444
297.18	11.884
297.55	13.686
297.91	13.425
298.28	13.193
298.65	12.619
299.02	11.051
299.38	8.892
299.75	11.724
300.12	9.948
300.48	10.540
300.85	13.561
301.22	11.039
301.59	11.711
301.95	12.278
302.32	12.322
302.69	10.945
303.05	11.510
303.42	11.582
303.79	10.864
304.15	12.545
304.52	11.653
304.89	10.409
305.25	11.017
305.62	10.152
305.99	11.462
306.35	9.827
306.72	10.686
307.09	9.350
307.45	13.088
307.82	10.301
308.19	10.801
308.55	10.142
308.92	10.240
309.29	9.721
309.65	10.764
310.02	11.221
310.38	11.855
310.75	12.022
311.12	9.257
311.48	9.650
311.85	9.843
312.22	10.021
312.58	10.297
312.95	8.965
313.31	11.698
313.68	10.366
314.05	11.224
314.41	11.340
314.78	10.515
315.14	11.305
315.51	11.905
315.87	10.758
316.24	12.235
316.61	11.024
316.97	12.798
317.34	12.109
317.70	11.568
318.07	11.827
318.43	13.627
318.80	11.837
319.16	14.258
319.53	13.675
319.89	13.287
320.26	13.563
320.62	13.541
320.99	11.900
321.35	13.669
321.72	14.538
322.08	14.703
322.45	15.228
322.81	15.815
323.18	14.917
323.54	15.637
323.91	15.385
324.27	19.043
324.64	17.697
325.00	18.157
325.37	21.028
325.73	18.948
326.10	19.437
326.46	19.013
326.83	19.073
327.19	20.663
327.56	21.373
327.92	23.063
328.29	21.518
328.65	23.962
329.01	23.989
329.38	23.226
329.74	22.946
330.11	23.818
330.47	23.191
330.84	23.654
331.20	25.951
331.56	23.981
331.93	26.849
332.29	26.673
332.66	25.430
333.02	27.323
333.38	26.031
333.75	27.289
334.11	26.321
334.48	26.655
334.84	27.473
335.20	27.264
335.57	25.929
335.93	27.281
336.29	27.532
336.66	25.341
337.02	27.695
337.38	27.222
337.75	28.273
338.11	27.322
338.47	27.372
338.84	27.264
339.20	28.336
339.56	27.798
339.93	28.111
340.29	28.349
340.65	28.315
341.02	28.457
341.38	29.115
341.74	26.678
342.11	28.423
342.47	30.071
342.83	27.855
343.20	28.484
343.56	28.087
343.92	27.901
344.28	29.462
344.65	28.584
345.01	28.781
345.37	28.175
345.73	28.033
346.10	29.249
346.46	29.100
346.82	27.823
347.19	27.431
347.55	27.318
347.91	28.317
348.27	27.405
348.63	27.513
349.00	27.810
349.36	27.681
349.72	28.441
350.08	27.459
350.45	27.454
350.81	27.159
351.17	27.036
351.53	28.163
351.89	27.415
352.26	27.680
352.62	27.097
352.98	28.032
353.34	27.617
353.70	28.155
354.07	27.419
354.43	27.382
354.79	28.076
355.15	27.937
355.51	28.402
355.87	28.479
356.24	26.998
356.60	27.567
356.96	28.333
357.32	28.035
357.68	27.834
358.04	27.383
358.40	27.090
358.77	27.512
359.13	26.982
359.49	26.888
359.85	28.549
360.21	27.512
360.57	27.927
360.93	27.534
361.29	26.737
361.66	27.194
362.02	27.045
362.38	28.789
362.74	26.646
363.10	28.969
363.46	27.650
363.82	28.249
364.18	28.118
364.54	27.353
364.90	27.742
365.26	26.856
365.62	27.956
365.98	26.833
366.35	27.604
366.71	27.938
367.07	27.939
367.43	27.822
367.79	27.420
368.15	27.495
368.51	27.822
368.87	27.638
369.23	28.087
369.59	26.749
369.95	27.859
370.31	26.879
370.67	27.239
371.03	26.886
371.39	26.769
371.75	27.179
372.11	26.819
372.47	28.254
372.83	28.034
373.19	28.174
373.55	27.004
373.91	27.502
374.27	28.561
374.63	27.351
374.99	27.660
375.35	27.507
375.71	28.531
376.07	26.615
376.42	27.075
376.78	27.718
377.14	26.743
377.50	27.357
377.86	27.778
378.22	26.803
378.58	26.859
378.94	27.473
379.30	26.326
379.66	27.210
380.02	27.713
380.38	26.659
380.74	27.110
381.09	26.994
381.45	27.462
381.81	26.897
382.17	26.967
382.53	27.795
382.89	26.805
383.25	27.505
383.61	27.256
383.97	27.746
384.32	26.329
384.68	27.059
385.04	26.593
385.40	26.198
385.76	27.862
386.12	27.426
386.48	27.522
386.83	27.964
387.19	27.778
387.55	27.917
387.91	26.834
388.27	27.350
388.62	27.313
388.98	27.379
389.34	27.295
389.70	26.973
390.06	26.872
390.42	26.813
390.77	27.404
391.13	27.364
391.49	27.102
391.85	27.290
392.20	27.119
392.56	26.383
392.92	26.072
393.28	27.123
393.64	26.366
393.99	27.273
394.35	27.198
394.71	26.628
395.07	26.524
395.42	27.080
395.78	27.166
396.14	26.166
396.50	26.126
396.85	27.238
397.21	26.253
397.57	27.524
397.92	26.663
398.28	27.414
398.64	27.169
399.00	26.072
399.35	26.185
399.71	25.790
400.07	27.328
400.42	27.234
400.78	27.250
401.14	26.316
401.49	26.802
401.85	26.021
402.21	27.289
402.57	26.625
402.92	25.345
403.28	27.130
403.63	26.103
403.99	25.638
404.35	27.420
404.70	26.488
405.06	25.676
405.42	25.855
405.77	25.567
406.13	25.611
406.49	26.051
406.84	26.345
407.20	26.851
407.55	25.435
407.91	25.334
408.27	25.940
408.62	25.969
408.98	26.556
409.34	25.774
409.69	26.034
410.05	24.446
410.40	25.370
410.76	25.935
411.11	25.937
411.47	25.510
411.83	25.863
412.18	26.641
412.54	25.593
412.89	24.631
413.25	25.692
413.60	24.969
413.96	25.399
414.31	25.610
414.67	25.978
415.03	24.767
415.38	25.392
415.74	25.147
416.09	26.911
416.45	25.861
416.80	25.777
417.16	26.036
417.51	25.250
417.87	25.619
418.22	25.648
418.58	25.753
418.93	26.395
419.29	25.288
419.64	25.729
420.00	26.637
420.35	24.358
420.71	25.334
421.06	24.371
421.42	25.841
421.77	24.566
422.12	25.142
422.48	25.501
422.83	24.826
423.19	25.000
423.54	24.515
423.90	24.558
424.25	25.431
424.61	25.704
424.96	24.681
425.31	25.881
425.67	25.000
426.02	26.207
426.38	26.362
426.73	25.363
427.09	25.696
427.44	24.882
427.79	24.750
428.15	25.425
428.50	24.773
428.85	24.509
429.21	25.920
429.56	25.229
429.92	24.910
430.27	24.862
430.62	24.151
430.98	24.575
431.33	25.079
431.68	24.123
432.04	24.762
432.39	24.872
432.74	24.895
433.10	25.805
433.45	24.910
433.80	25.247
434.16	25.097
434.51	24.516
434.86	25.087
435.22	24.902
435.57	25.078
435.92	25.928
436.28	24.150
436.63	24.872
436.98	24.334
437.34	24.077
437.69	25.641
438.04	25.356
438.39	24.863
438.75	25.258
439.10	25.241
439.45	25.624
439.81	25.321
440.16	25.950
440.51	25.194
440.86	26.888
441.22	24.830
441.57	25.386
441.92	25.236
442.27	25.776
442.63	25.321
442.98	24.986
443.33	24.430
443.68	24.668
444.03	25.236
444.39	25.283
444.74	25.864
445.09	26.058
445.44	25.869
445.79	26.147
446.15	25.826
446.50	24.958
446.85	25.505
447.20	25.391
447.55	26.451
447.91	24.873
448.26	26.295
448.61	25.158
448.96	25.186
449.31	24.451
449.66	24.913
450.02	24.701
450.37	25.193
450.72	25.200
451.07	25.759
451.42	25.655
451.77	26.221
452.12	24.880
452.47	25.628
452.83	25.029
453.18	25.806
453.53	25.537
453.88	25.622
454.23	26.306
454.58	26.322
454.93	26.418
455.28	24.952
455.63	26.162
455.98	25.616
456.34	25.479
456.69	24.587
457.04	25.520
457.39	25.273
457.74	25.756
458.09	24.720
458.44	25.336
458.79	25.154
459.14	26.430
459.49	25.254
459.84	25.099
460.19	25.425
460.54	25.489
460.89	25.625
461.24	25.217
461.59	26.128
461.94	24.717
462.29	25.694
462.64	25.050
462.99	25.660
463.34	24.757
463.69	25.032
464.04	25.484
464.39	25.531
464.74	26.074
465.09	24.953
465.44	25.620
465.79	25.000
466.14	24.173
466.49	25.187
466.84	25.996
467.19	26.033
467.54	24.713
467.89	25.205
468.24	25.000
468.59	26.857
468.94	24.508
469.29	26.033
469.64	25.564
469.99	25.648
470.34	25.051
470.68	26.771
471.03	26.044
471.38	25.820
471.73	26.471
472.08	25.170
472.43	25.772
472.78	24.674
473.13	25.646
473.48	25.798
473.83	25.592
474.17	25.972
474.52	25.718
474.87	26.364
475.22	25.625
475.57	24.675
475.92	25.398
476.27	25.669
476.61	25.174
476.96	24.707
477.31	25.690
477.66	24.213
478.01	25.323
478.36	25.054
478.70	25.884
479.05	25.604
479.40	25.808
479.75	25.026
480.10	24.629
480.45	25.350
480.79	25.629
481.14	25.666
481.49	24.680
481.84	24.421
482.19	24.836
482.53	25.612
482.88	25.060
483.23	24.472
483.58	25.425
483.92	25.121
484.27	24.886
484.62	24.832
484.97	23.383
485.31	23.772
485.66	22.246
486.01	22.078
486.36	21.349
486.70	22.144
487.05	22.225
487.40	22.596
487.75	23.042
488.09	23.115
488.44	23.384
488.79	23.683
489.13	24.239
489.48	23.899
489.83	24.574
490.17	24.360
490.52	24.665
490.87	24.618
491.22	25.167
491.56	24.953
491.91	25.096
492.26	25.328
492.60	25.528
492.95	25.775
493.30	23.937
493.64	25.147
493.99	25.314
494.34	24.272
494.68	24.762
495.03	24.428
495.37	25.613
495.72	24.129
496.07	25.073
496.41	24.387
496.76	24.321
497.11	24.499
497.45	24.296
497.80	25.479
498.14	25.087
498.49	24.733
498.84	24.950
499.18	24.649
499.53	24.653
499.87	23.638
500.22	25.272
500.56	25.315
500.91	23.494
501.26	24.666
501.60	23.906
501.95	24.600
502.29	24.939
502.64	24.566
502.98	24.420
503.33	23.679
503.67	24.482
504.02	24.682
504.36	24.443
504.71	24.343
505.06	24.006
505.40	25.076
505.75	24.897
506.09	23.923
506.44	25.154
506.78	25.255
507.13	25.957
507.47	23.969
507.82	24.145
508.16	24.881
508.51	24.974
508.85	24.333
509.19	24.481
509.54	24.504
509.88	24.811
510.23	24.798
510.57	24.800
510.92	23.134
511.26	24.877
511.61	25.303
511.95	24.932
512.30	25.000
512.64	24.819
512.98	24.200
513.33	25.238
513.67	25.242
514.02	25.858
514.36	26.171
514.70	25.233
515.05	26.381
515.39	24.203
515.74	27.066
516.08	25.523
516.42	26.620
516.77	24.868
517.11	26.053
517.46	25.075
517.80	26.281
518.14	25.658
518.49	24.639
518.83	25.577
519.17	25.409
519.52	24.985
519.86	25.330
520.20	25.091
520.55	25.766
520.89	25.345
521.23	25.649
521.58	25.174
521.92	25.321
522.26	25.439
522.61	26.558
522.95	26.424
523.29	25.476
523.64	26.112
523.98	26.248
524.32	24.420
524.66	26.248
525.01	25.455
525.35	26.377
525.69	25.589
526.04	26.389
526.38	26.200
526.72	25.376
527.06	24.968
527.41	25.462
527.75	24.866
528.09	24.452
528.43	26.334
528.78	24.884
529.12	25.290
529.46	24.951
529.80	25.712
530.15	26.007
530.49	25.185
530.83	24.966
531.17	24.715
531.51	25.239
531.86	25.561
532.20	25.122
532.54	24.847
532.88	24.914
533.22	26.075
533.57	25.033
533.91	25.131
534.25	24.935
534.59	24.246
534.93	23.411
535.27	23.985
535.62	23.396
535.96	24.918
536.30	24.802
536.64	25.706
536.98	25.157
537.32	25.320
537.66	24.825
538.01	24.336
538.35	23.925
538.69	24.501
539.03	24.197
539.37	25.034
539.71	24.540
540.05	24.033
540.39	24.931
540.73	23.361
541.07	24.586
541.42	24.597
541.76	24.845
542.10	24.845
542.44	24.322
542.78	23.675
543.12	23.695
543.46	24.618
543.80	24.219
544.14	23.632
544.48	24.117
544.82	23.718
545.16	23.839
545.50	24.166
545.84	25.496
546.18	24.894
546.52	25.234
546.86	23.868
547.20	24.821
547.54	23.746
547.88	24.049
548.22	22.880
548.56	23.087
548.90	23.585
549.24	23.691
549.58	24.401
549.92	23.445
550.26	24.689
550.60	24.164
550.94	24.795
551.28	24.189
551.62	24.538
551.96	24.737
552.30	23.977
552.64	23.202
552.98	23.629
553.32	23.110
553.66	23.585
554.00	23.650
554.34	24.668
554.68	23.230
555.02	24.479
555.36	23.261
555.69	22.637
556.03	22.698
556.37	22.776
556.71	23.538
557.05	24.161
557.39	23.494
557.73	23.988
558.07	23.982
558.41	22.435
558.75	24.318
559.08	23.562
559.42	24.286
559.76	24.580
560.10	23.624
560.44	22.338
560.78	22.797
561.12	23.554
561.45	23.261
561.79	23.039
562.13	22.640
562.47	21.942
562.81	23.559
563.15	22.426
563.48	23.055
563.82	23.542
564.16	22.981
564.50	22.095
564.84	22.959
565.17	22.535
565.51	22.746
565.85	23.457
566.19	22.347
566.52	22.721
566.86	23.393
567.20	22.167
567.54	22.019
567.88	21.851
568.21	20.758
568.55	20.435
568.89	21.099
569.23	20.510
569.56	19.702
569.90	20.382
570.24	19.166
570.57	18.727
570.91	19.589
571.25	18.448
571.59	17.783
571.92	17.837
572.26	17.663
572.60	18.326
572.93	18.073
573.27	18.025
573.61	18.228
573.95	18.405
574.28	17.744
574.62	17.290
574.96	17.253
575.29	17.214
575.63	16.792
575.97	17.186
576.30	17.121
576.64	17.033
576.98	17.529
577.31	17.130
577.65	17.317
577.98	16.864
578.32	16.642
578.66	16.462
578.99	17.127
579.33	16.987
579.67	17.083
580.00	16.835
580.34	17.164
580.67	16.790
581.01	16.979
581.35	16.839
581.68	16.788
582.02	16.462
582.35	16.045
582.69	16.848
583.02	16.492
583.36	16.773
583.70	17.290
584.03	17.348
584.37	17.815
584.70	17.225
585.04	16.788
585.37	16.781
585.71	16.638
586.04	16.465
586.38	16.378
586.72	17.618
587.05	17.591
587.39	17.529
587.72	17.059
588.06	16.856
588.39	17.345
588.73	17.277
589.06	18.200
589.40	17.905
589.73	17.707
590.07	18.051
590.40	18.266
590.73	18.904
591.07	18.787
591.40	18.789
591.74	18.778
592.07	19.573
592.41	18.507
592.74	18.240
593.08	17.185
593.41	17.694
593.75	17.370
594.08	17.096
594.41	17.904
594.75	17.214
595.08	17.972
595.42	17.004
595.75	17.612
596.09	17.631
596.42	18.065
596.75	18.384
597.09	18.405
597.42	18.022
597.75	18.507
598.09	18.742
598.42	17.780
598.76	17.846
599.09	17.869
599.42	16.749
599.76	17.344
600.09	17.647
600.42	16.945
600.76	16.976
601.09	16.832
601.42	17.078
601.76	18.102
602.09	17.079
602.42	18.408
602.76	17.105
603.09	17.940
603.42	18.645
603.76	17.823
604.09	17.051
604.42	17.132
604.76	18.736
605.09	18.510
605.42	17.652
605.75	17.557
606.09	17.452
606.42	17.556
606.75	17.922
607.09	18.330
607.42	17.944
607.75	17.584
608.08	17.206
608.42	17.451
608.75	18.361
609.08	18.535
609.41	18.883
609.75	18.095
610.08	18.872
610.41	18.309
610.74	18.381
611.07	18.760
611.41	18.371
611.74	18.977
612.07	19.218
612.40	19.639
612.73	19.718
613.07	18.391
613.40	19.475
613.73	18.355
614.06	19.032
614.39	19.007
614.72	18.095
615.06	19.497
615.39	17.849
615.72	18.138
616.05	19.106
616.38	18.177
616.71	19.205
617.05	19.642
617.38	19.862
617.71	18.805
618.04	19.746
618.37	20.177
618.70	20.132
619.03	20.208
619.36	20.333
619.69	20.849
620.03	20.818
620.36	20.744
620.69	21.413
621.02	20.183
621.35	22.407
621.68	20.663
622.01	21.750
622.34	20.271
622.67	21.215
623.00	21.746
623.33	20.884
623.66	19.671
623.99	21.180
624.32	20.076
624.65	19.248
624.99	20.918
625.32	19.636
625.65	21.760
625.98	21.757
626.31	21.613
626.64	21.750
626.97	22.426
627.30	22.067
627.63	21.664
627.96	22.013
628.29	21.092
628.62	23.009
628.95	23.347
629.28	23.085
629.61	22.832
629.94	23.460
630.26	21.245
630.59	24.246
630.92	23.487
631.25	22.359
631.58	22.467
631.91	22.588
632.24	24.197
632.57	24.432
632.90	21.708
633.23	23.765
