SpectraSuite Data File
++++++++++++++++++++++++++++++++++++
Date: Fri May 15 20:45:36 PDT 2015
User: schluterlab
Dark Spectrum Present: Yes
Reference Spectrum Present: Yes
Number of Sampled Component Spectra: 1
Spectrometers: USB2E3373
Integration Time (usec): 3000 (USB2E3373)
Spectra Averaged: 3 (USB2E3373)
Boxcar Smoothing: 0 (USB2E3373)
Correct for Electrical Dark: No (USB2E3373)
Strobe/Lamp Enabled: No (USB2E3373)
Correct for Detector Non-linearity: No (USB2E3373)
Correct for Stray Light: No (USB2E3373)
Number of Pixels in Processed Spectrum: 2048
>>>>>Begin Processed Spectral Data<<<<<
178.53	0.000
178.91	0.000
179.29	75.000
179.67	-300.000
180.04	28.571
180.42	-125.000
180.80	200.000
181.18	-33.333
181.56	500.000
181.94	-100.000
182.31	1100.000
182.69	-160.000
183.07	-33.333
183.45	-40.000
183.83	-0.000
184.20	0.000
184.58	133.333
184.96	-125.000
185.34	400.000
185.72	-350.000
186.09	61.538
186.47	-1100.000
186.85	133.333
187.23	222.222
187.61	400.000
187.98	-433.333
188.36	22.222
188.74	-333.333
189.12	47.059
189.49	27.778
189.87	0.000
190.25	21.429
190.63	-400.000
191.00	133.333
191.38	21.053
191.76	200.000
192.14	125.000
192.51	100.000
192.89	0.000
193.27	-185.714
193.65	300.000
194.02	172.727
194.40	-10.000
194.78	-112.500
195.15	-50.000
195.53	-62.500
195.91	325.000
196.29	-175.000
196.66	130.769
197.04	128.571
197.42	-44.444
197.79	-133.333
198.17	-161.538
198.55	1900.000
198.92	-500.000
199.30	-600.000
199.68	-340.000
200.05	-533.333
200.43	0.000
200.81	100.000
201.18	0.000
201.56	1100.000
201.94	-850.000
202.31	200.000
202.69	-20.000
203.07	325.000
203.44	-600.000
203.82	0.000
204.19	42.857
204.57	-400.000
204.95	62.500
205.32	-60.000
205.70	-28.571
206.08	-300.000
206.45	111.111
206.83	64.286
207.20	-142.857
207.58	1300.000
207.96	-566.667
208.33	-140.000
208.71	50.000
209.08	-133.333
209.46	-900.000
209.84	-200.000
210.21	-200.000
210.59	57.143
210.96	0.000
211.34	-125.000
211.71	80.000
212.09	-142.857
212.46	-800.000
212.84	0.000
213.22	80.000
213.59	600.000
213.97	-23.077
214.34	45.455
214.72	-33.333
215.09	575.000
215.47	-61.538
215.84	-118.182
216.22	-300.000
216.59	-62.500
216.97	-50.000
217.34	-150.000
217.72	-180.000
218.09	50.000
218.47	50.000
218.84	-400.000
219.22	-22.222
219.59	-280.000
219.97	366.667
220.34	300.000
220.72	14.286
221.09	-150.000
221.47	-100.000
221.84	-750.000
222.22	-550.000
222.59	27.273
222.97	8.333
223.34	-500.000
223.72	-100.000
224.09	14.286
224.46	-7.143
224.84	533.333
225.21	0.000
225.59	6.667
225.96	-450.000
226.34	300.000
226.71	0.000
227.08	-183.333
227.46	-25.000
227.83	-400.000
228.21	-55.556
228.58	45.455
228.95	-137.500
229.33	40.000
229.70	-12.500
230.08	-200.000
230.45	-71.429
230.82	85.714
231.20	-6.667
231.57	21.429
231.95	-85.714
232.32	-160.000
232.69	64.286
233.07	-66.667
233.44	120.000
233.81	-20.000
234.19	-44.444
234.56	-35.294
234.93	50.000
235.31	25.000
235.68	-140.000
236.05	-53.846
236.43	-25.000
236.80	-5.882
237.17	56.250
237.55	40.000
237.92	-3.704
238.29	44.444
238.67	33.333
239.04	17.647
239.41	4.878
239.79	3.333
240.16	56.098
240.53	34.211
240.91	39.130
241.28	19.048
241.65	21.429
242.02	30.137
242.40	40.000
242.77	30.508
243.14	16.667
243.51	47.500
243.89	49.425
244.26	31.034
244.63	42.857
245.00	42.268
245.38	51.546
245.75	43.820
246.12	34.483
246.49	40.496
246.87	40.385
247.24	39.496
247.61	46.491
247.98	50.407
248.36	46.875
248.73	39.474
249.10	40.260
249.47	45.570
249.84	41.830
250.22	40.588
250.59	44.444
250.96	46.948
251.33	43.023
251.70	42.353
252.08	37.563
252.45	42.079
252.82	44.724
253.19	43.318
253.56	45.327
253.94	44.144
254.31	45.652
254.68	47.807
255.05	44.882
255.42	51.528
255.79	49.035
256.16	43.191
256.54	44.403
256.91	43.726
257.28	46.097
257.65	42.322
258.02	44.681
258.39	43.434
258.76	46.154
259.14	48.837
259.51	42.718
259.88	43.643
260.25	40.523
260.62	43.750
260.99	41.695
261.36	44.863
261.73	49.051
262.10	46.201
262.47	45.399
262.85	42.006
263.22	40.923
263.59	44.860
263.96	47.826
264.33	41.818
264.70	46.131
265.07	43.750
265.44	46.459
265.81	50.282
266.18	44.536
266.55	44.730
266.92	42.746
267.29	46.214
267.66	45.269
268.03	45.550
268.40	43.603
268.77	44.652
269.14	43.165
269.51	45.244
269.88	42.145
270.25	44.898
270.62	40.976
270.99	46.292
271.36	40.098
271.73	45.540
272.10	42.579
272.47	42.790
272.84	45.050
273.21	43.387
273.58	44.096
273.95	42.105
274.32	44.342
274.69	41.629
275.06	43.304
275.43	40.363
275.80	45.916
276.17	42.529
276.54	42.612
276.91	44.079
277.28	40.175
277.65	41.942
278.02	42.766
278.39	42.670
278.76	43.816
279.13	40.249
279.50	43.697
279.87	41.253
280.23	43.226
280.60	44.055
280.97	40.606
281.34	41.154
281.71	45.175
282.08	39.673
282.45	41.096
282.82	42.085
283.19	43.133
283.56	43.738
283.92	39.469
284.29	41.154
284.66	41.473
285.03	41.650
285.40	44.234
285.77	38.840
286.14	40.072
286.51	41.328
286.87	40.037
287.24	40.147
287.61	40.741
287.98	42.632
288.35	37.955
288.72	40.981
289.08	38.194
289.45	38.313
289.82	36.189
290.19	39.590
290.56	37.736
290.93	38.552
291.29	36.980
291.66	38.740
292.03	37.321
292.40	37.419
292.77	36.045
293.13	34.091
293.50	35.508
293.87	34.504
294.24	35.549
294.60	34.575
294.97	34.821
295.34	34.969
295.71	33.532
296.08	32.436
296.44	32.290
296.81	33.472
297.18	33.478
297.55	34.824
297.91	31.644
298.28	32.850
298.65	32.293
299.02	34.367
299.38	31.190
299.75	31.034
300.12	32.592
300.48	30.830
300.85	32.826
301.22	33.117
301.59	31.184
301.95	33.165
302.32	32.166
302.69	29.851
303.05	30.569
303.42	29.888
303.79	30.491
304.15	32.497
304.52	29.727
304.89	28.421
305.25	29.661
305.62	27.771
305.99	28.421
306.35	29.133
306.72	28.234
307.09	29.761
307.45	32.032
307.82	30.093
308.19	32.636
308.55	29.335
308.92	32.135
309.29	29.274
309.65	31.647
310.02	29.593
310.38	30.845
310.75	31.148
311.12	31.109
311.48	29.692
311.85	30.471
312.22	28.692
312.58	30.786
312.95	28.922
313.31	30.435
313.68	29.948
314.05	29.694
314.41	30.928
314.78	30.412
315.14	31.346
315.51	31.781
315.87	31.352
316.24	32.356
316.61	31.791
316.97	31.944
317.34	31.934
317.70	31.740
318.07	31.635
318.43	33.431
318.80	31.913
319.16	32.910
319.53	32.764
319.89	33.858
320.26	34.312
320.62	33.601
320.99	34.447
321.35	33.710
321.72	35.099
322.08	35.045
322.45	35.228
322.81	35.069
323.18	35.721
323.54	35.039
323.91	35.151
324.27	36.035
324.64	34.738
325.00	35.766
325.37	37.374
325.73	35.358
326.10	37.148
326.46	38.386
326.83	38.233
327.19	37.576
327.56	39.618
327.92	39.525
328.29	38.839
328.65	39.717
329.01	38.327
329.38	38.618
329.74	39.377
330.11	40.037
330.47	38.312
330.84	39.615
331.20	41.350
331.56	39.537
331.93	38.995
332.29	40.422
332.66	40.271
333.02	39.405
333.38	39.322
333.75	40.018
334.11	38.317
334.48	40.073
334.84	39.560
335.20	39.707
335.57	38.894
335.93	39.928
336.29	39.503
336.66	38.874
337.02	39.405
337.38	38.056
337.75	39.818
338.11	39.766
338.47	40.420
338.84	39.556
339.20	39.305
339.56	39.174
339.93	40.197
340.29	40.550
340.65	39.964
341.02	39.628
341.38	39.381
341.74	38.516
342.11	38.042
342.47	39.502
342.83	39.187
343.20	39.286
343.56	40.957
343.92	39.858
344.28	40.051
344.65	39.292
345.01	39.758
345.37	39.445
345.73	40.669
346.10	40.897
346.46	38.604
346.82	39.116
347.19	39.651
347.55	38.513
347.91	40.534
348.27	37.672
348.63	40.290
349.00	38.966
349.36	39.568
349.72	39.469
350.08	38.197
350.45	39.106
350.81	38.289
351.17	37.785
351.53	38.694
351.89	38.233
352.26	38.400
352.62	39.516
352.98	37.831
353.34	39.372
353.70	40.129
354.07	38.790
354.43	38.191
354.79	38.646
355.15	39.286
355.51	39.003
355.87	39.320
356.24	36.868
356.60	37.591
356.96	38.651
357.32	38.099
357.68	38.702
358.04	38.772
358.40	38.585
358.77	39.553
359.13	39.151
359.49	36.826
359.85	38.066
360.21	37.560
360.57	38.638
360.93	38.956
361.29	38.066
361.66	39.890
362.02	39.091
362.38	39.985
362.74	39.894
363.10	39.729
363.46	39.881
363.82	40.872
364.18	38.376
364.54	38.015
364.90	39.140
365.26	39.665
365.62	41.679
365.98	40.323
366.35	39.330
366.71	40.281
367.07	40.348
367.43	38.462
367.79	39.576
368.15	40.704
368.51	40.714
368.87	39.340
369.23	39.278
369.59	39.869
369.95	40.103
370.31	39.162
370.67	40.299
371.03	40.851
371.39	40.263
371.75	40.293
372.11	39.943
372.47	41.420
372.83	41.377
373.19	39.158
373.55	39.206
373.91	40.893
374.27	40.397
374.63	40.488
374.99	40.000
375.35	41.226
375.71	41.818
376.07	41.784
376.42	41.905
376.78	41.141
377.14	41.097
377.50	41.102
377.86	41.232
378.22	42.055
378.58	42.692
378.94	40.769
379.30	41.048
379.66	42.257
380.02	41.754
380.38	42.301
380.74	39.797
381.09	43.252
381.45	42.569
381.81	43.307
382.17	43.084
382.53	43.410
382.89	44.444
383.25	43.684
383.61	43.354
383.97	44.254
384.32	42.964
384.68	43.282
385.04	44.363
385.40	43.684
385.76	44.465
386.12	43.920
386.48	45.147
386.83	44.071
387.19	44.628
387.55	45.734
387.91	45.232
388.27	44.933
388.62	45.563
388.98	44.138
389.34	44.660
389.70	44.624
390.06	43.738
390.42	46.114
390.77	45.585
391.13	44.893
391.49	45.537
391.85	46.264
392.20	45.198
392.56	44.755
392.92	45.567
393.28	46.167
393.64	45.706
393.99	46.270
394.35	46.300
394.71	46.041
395.07	45.820
395.42	46.023
395.78	46.450
396.14	46.028
396.50	46.164
396.85	46.233
397.21	46.554
397.57	46.207
397.92	46.195
398.28	45.977
398.64	44.759
399.00	47.573
399.35	46.840
399.71	46.410
400.07	48.126
400.42	46.879
400.78	47.214
401.14	46.521
401.49	46.635
401.85	46.984
402.21	46.325
402.57	47.625
402.92	47.051
403.28	47.807
403.63	47.037
403.99	46.556
404.35	47.595
404.70	47.560
405.06	46.886
405.42	47.234
405.77	45.904
406.13	46.275
406.49	47.839
406.84	48.105
407.20	47.863
407.55	46.555
407.91	46.992
408.27	48.247
408.62	47.754
408.98	46.765
409.34	47.584
409.69	46.641
410.05	46.675
410.40	47.654
410.76	48.191
411.11	47.438
411.47	47.929
411.83	47.458
412.18	48.520
412.54	46.629
412.89	46.305
413.25	47.653
413.60	47.764
413.96	47.301
414.31	48.049
414.67	46.376
415.03	47.337
415.38	47.977
415.74	48.469
416.09	47.747
416.45	48.143
416.80	47.455
417.16	49.517
417.51	47.702
417.87	47.458
418.22	48.187
418.58	47.692
418.93	48.150
419.29	46.671
419.64	46.598
420.00	48.929
420.35	46.149
420.71	48.603
421.06	46.470
421.42	47.837
421.77	48.092
422.12	46.538
422.48	47.320
422.83	47.564
423.19	47.573
423.54	47.149
423.90	46.761
424.25	47.532
424.61	47.430
424.96	47.213
425.31	48.469
425.67	49.061
426.02	48.351
426.38	48.341
426.73	49.031
427.09	48.924
427.44	48.294
427.79	48.321
428.15	48.301
428.50	48.092
428.85	47.052
429.21	47.934
429.56	48.841
429.92	47.098
430.27	46.466
430.62	48.353
430.98	46.497
431.33	47.213
431.68	47.200
432.04	48.686
432.39	47.290
432.74	46.542
433.10	48.678
433.45	47.790
433.80	47.475
434.16	46.427
434.51	47.258
434.86	48.142
435.22	46.158
435.57	48.284
435.92	47.006
436.28	45.915
436.63	46.834
436.98	46.234
437.34	47.973
437.69	48.002
438.04	46.952
438.39	47.098
438.75	47.480
439.10	48.048
439.45	47.596
439.81	46.606
440.16	47.981
440.51	48.896
440.86	49.063
441.22	46.437
441.57	46.468
441.92	48.793
442.27	48.448
442.63	47.216
442.98	47.616
443.33	47.078
443.68	45.995
444.03	47.491
444.39	46.040
444.74	48.941
445.09	48.107
445.44	47.863
445.79	48.014
446.15	46.311
446.50	47.587
446.85	48.778
447.20	46.976
447.55	47.321
447.91	47.772
448.26	47.695
448.61	47.841
448.96	47.217
449.31	46.590
449.66	47.619
450.02	46.207
450.37	47.125
450.72	46.735
451.07	47.658
451.42	47.316
451.77	46.594
452.12	46.770
452.47	46.040
452.83	47.055
453.18	46.047
453.53	47.408
453.88	48.027
454.23	45.667
454.58	47.418
454.93	46.392
455.28	45.841
455.63	46.993
455.98	45.640
456.34	47.893
456.69	46.633
457.04	46.881
457.39	46.598
457.74	45.889
458.09	45.792
458.44	46.109
458.79	46.050
459.14	46.911
459.49	46.925
459.84	46.531
460.19	46.117
460.54	45.232
460.89	46.534
461.24	47.267
461.59	47.862
461.94	45.220
462.29	46.080
462.64	46.379
462.99	45.498
463.34	46.453
463.69	44.981
464.04	44.976
464.39	45.543
464.74	45.276
465.09	46.725
465.44	45.932
465.79	44.388
466.14	45.610
466.49	45.371
466.84	45.211
467.19	44.931
467.54	45.466
467.89	45.357
468.24	44.221
468.59	46.032
468.94	44.698
469.29	45.180
469.64	44.429
469.99	45.900
470.34	44.027
470.68	45.488
471.03	45.648
471.38	44.793
471.73	45.028
472.08	43.555
472.43	44.094
472.78	43.523
473.13	45.442
473.48	45.147
473.83	44.334
474.17	45.013
474.52	44.225
474.87	44.424
475.22	43.624
475.57	45.172
475.92	44.213
476.27	44.529
476.61	43.866
476.96	42.833
477.31	43.970
477.66	42.697
478.01	43.908
478.36	43.028
478.70	45.296
479.05	44.341
479.40	43.667
479.75	43.118
480.10	43.420
480.45	43.550
480.79	44.864
481.14	44.416
481.49	42.956
481.84	44.402
482.19	42.797
482.53	44.173
482.88	43.150
483.23	42.466
483.58	43.255
483.92	42.691
484.27	42.571
484.62	42.447
484.97	42.247
485.31	42.486
485.66	41.805
486.01	42.821
486.36	43.348
486.70	43.694
487.05	43.489
487.40	43.046
487.75	42.479
488.09	41.718
488.44	42.297
488.79	40.792
489.13	41.987
489.48	42.326
489.83	41.390
490.17	42.022
490.52	41.155
490.87	40.305
491.22	41.691
491.56	40.085
491.91	40.822
492.26	41.371
492.60	40.835
492.95	41.663
493.30	41.182
493.64	41.454
493.99	41.836
494.34	40.146
494.68	41.286
495.03	40.633
495.37	41.119
495.72	40.485
496.07	41.561
496.41	40.802
496.76	40.166
497.11	39.730
497.45	39.857
497.80	40.464
498.14	40.089
498.49	40.427
498.84	40.220
499.18	40.763
499.53	40.923
499.87	39.640
500.22	39.367
500.56	39.586
500.91	39.910
501.26	39.891
501.60	40.138
501.95	39.641
502.29	40.097
502.64	40.734
502.98	38.925
503.33	38.377
503.67	39.325
504.02	39.492
504.36	39.683
504.71	38.232
505.06	39.054
505.40	39.036
505.75	39.897
506.09	38.013
506.44	39.322
506.78	39.643
507.13	39.245
507.47	37.911
507.82	37.767
508.16	38.141
508.51	38.930
508.85	38.828
509.19	37.839
509.54	38.284
509.88	36.516
510.23	38.246
510.57	39.177
510.92	37.207
511.26	38.298
511.61	37.459
511.95	38.411
512.30	36.863
512.64	37.730
512.98	38.237
513.33	37.381
513.67	37.067
514.02	37.471
514.36	38.686
514.70	38.170
515.05	38.425
515.39	36.659
515.74	38.383
516.08	36.342
516.42	37.279
516.77	37.683
517.11	38.338
517.46	37.163
517.80	36.889
518.14	37.048
518.49	36.418
518.83	36.270
519.17	37.113
519.52	37.715
519.86	36.855
520.20	36.574
520.55	35.397
520.89	36.826
521.23	36.479
521.58	36.278
521.92	37.179
522.26	37.150
522.61	36.299
522.95	37.616
523.29	35.642
523.64	35.260
523.98	36.682
524.32	35.180
524.66	35.659
525.01	35.974
525.35	35.710
525.69	35.892
526.04	34.722
526.38	36.187
526.72	36.298
527.06	35.473
527.41	34.367
527.75	35.657
528.09	35.681
528.43	35.314
528.78	35.050
529.12	34.710
529.46	34.763
529.80	35.592
530.15	36.040
530.49	35.421
530.83	35.021
531.17	34.587
531.51	34.542
531.86	35.690
532.20	34.238
532.54	33.764
532.88	35.524
533.22	34.677
533.57	35.649
533.91	34.726
534.25	34.635
534.59	34.317
534.93	33.291
535.27	34.137
535.62	34.089
535.96	34.051
536.30	35.488
536.64	34.528
536.98	34.425
537.32	35.349
537.66	34.572
538.01	33.916
538.35	33.911
538.69	33.222
539.03	33.151
539.37	34.253
539.71	33.265
540.05	33.265
540.39	33.380
540.73	33.612
541.07	34.185
541.42	33.938
541.76	34.274
542.10	33.999
542.44	32.592
542.78	32.209
543.12	32.555
543.46	33.171
543.80	33.796
544.14	31.175
544.48	33.178
544.82	32.878
545.16	32.992
545.50	33.578
545.84	34.278
546.18	33.759
546.52	33.165
546.86	32.135
547.20	33.333
547.54	32.438
547.88	32.880
548.22	31.755
548.56	31.926
548.90	33.086
549.24	32.025
549.58	31.171
549.92	31.094
550.26	32.234
550.60	33.532
550.94	32.412
551.28	30.062
551.62	31.769
551.96	31.579
552.30	31.944
552.64	32.370
552.98	31.646
553.32	33.167
553.66	32.148
554.00	31.314
554.34	31.758
554.68	31.490
555.02	31.473
555.36	32.236
555.69	30.330
556.03	30.978
556.37	31.246
556.71	30.975
557.05	31.022
557.39	30.781
557.73	29.760
558.07	31.071
558.41	31.470
558.75	30.943
559.08	30.575
559.42	31.111
559.76	30.264
560.10	31.193
560.44	30.678
560.78	30.979
561.12	30.818
561.45	31.904
561.79	30.602
562.13	31.938
562.47	30.863
562.81	30.620
563.15	30.818
563.48	30.905
563.82	31.023
564.16	30.501
564.50	30.405
564.84	31.325
565.17	30.986
565.51	31.489
565.85	29.424
566.19	30.040
566.52	31.434
566.86	31.427
567.20	29.950
567.54	32.117
567.88	30.931
568.21	30.995
568.55	32.446
568.89	31.622
569.23	31.391
569.56	32.049
569.90	32.927
570.24	32.750
570.57	32.618
570.91	32.694
571.25	32.424
571.59	31.922
571.92	31.348
572.26	31.944
572.60	31.535
572.93	32.131
573.27	31.317
573.61	31.921
573.95	31.731
574.28	31.462
574.62	31.426
574.96	31.414
575.29	32.029
575.63	31.252
575.97	31.499
576.30	31.796
576.64	31.311
576.98	32.535
577.31	31.973
577.65	31.927
577.98	31.932
578.32	32.033
578.66	31.249
578.99	31.750
579.33	30.952
579.67	31.214
580.00	31.468
580.34	31.468
580.67	31.454
581.01	31.892
581.35	31.546
581.68	31.352
582.02	31.786
582.35	31.811
582.69	31.827
583.02	31.532
583.36	32.103
583.70	31.983
584.03	31.776
584.37	31.903
584.70	32.143
585.04	30.415
585.37	30.786
585.71	31.424
586.04	31.266
586.38	30.595
586.72	31.334
587.05	31.167
587.39	30.976
587.72	31.739
588.06	31.276
588.39	30.419
588.73	30.647
589.06	31.539
589.40	30.971
589.73	30.997
590.07	30.853
590.40	31.192
590.73	31.096
591.07	30.407
591.40	30.499
591.74	29.729
592.07	30.566
592.41	31.007
592.74	30.824
593.08	29.480
593.41	30.675
593.75	30.749
594.08	29.729
594.41	30.422
594.75	29.847
595.08	30.344
595.42	30.585
595.75	30.792
596.09	31.079
596.42	30.798
596.75	29.929
597.09	30.159
597.42	30.081
597.75	30.646
598.09	29.561
598.42	29.874
598.76	29.515
599.09	30.248
599.42	29.291
599.76	29.458
600.09	30.090
600.42	29.909
600.76	29.606
601.09	29.122
601.42	29.573
601.76	29.734
602.09	29.662
602.42	30.286
602.76	29.584
603.09	29.651
603.42	29.975
603.76	28.992
604.09	29.607
604.42	29.865
604.76	29.640
605.09	29.113
605.42	29.661
605.75	28.984
606.09	29.172
606.42	28.982
606.75	29.307
607.09	29.846
607.42	29.375
607.75	28.552
608.08	28.841
608.42	28.780
608.75	29.108
609.08	28.999
609.41	28.731
609.75	28.780
610.08	29.306
610.41	27.874
610.74	28.523
611.07	29.096
611.41	28.749
611.74	28.998
612.07	28.533
612.40	28.556
612.73	28.701
613.07	28.403
613.40	28.501
613.73	29.155
614.06	27.379
614.39	28.144
614.72	27.787
615.06	28.380
615.39	27.838
615.72	26.749
616.05	28.715
616.38	27.692
616.71	28.563
617.05	28.598
617.38	26.587
617.71	28.302
618.04	28.063
618.37	28.499
618.70	28.911
619.03	27.986
619.36	27.713
619.69	27.066
620.03	28.050
620.36	27.682
620.69	27.552
621.02	27.599
621.35	26.971
621.68	27.466
622.01	27.167
622.34	27.294
622.67	28.233
623.00	27.029
623.33	26.829
623.66	25.954
623.99	27.080
624.32	27.605
624.65	26.617
624.99	27.690
625.32	26.459
625.65	27.573
625.98	27.156
626.31	25.353
626.64	26.430
626.97	26.963
627.30	26.357
627.63	26.170
627.96	27.763
628.29	24.884
628.62	26.450
628.95	26.453
629.28	26.411
629.61	25.823
629.94	25.709
630.26	26.383
630.59	28.200
630.92	25.641
631.25	26.256
631.58	25.110
631.91	25.877
632.24	25.115
632.57	26.705
632.90	25.148
633.23	26.000
