SpectraSuite Data File
++++++++++++++++++++++++++++++++++++
Date: Fri May 15 20:36:58 PDT 2015
User: schluterlab
Dark Spectrum Present: Yes
Reference Spectrum Present: Yes
Number of Sampled Component Spectra: 1
Spectrometers: USB2E3373
Integration Time (usec): 3000 (USB2E3373)
Spectra Averaged: 3 (USB2E3373)
Boxcar Smoothing: 0 (USB2E3373)
Correct for Electrical Dark: No (USB2E3373)
Strobe/Lamp Enabled: No (USB2E3373)
Correct for Detector Non-linearity: No (USB2E3373)
Correct for Stray Light: No (USB2E3373)
Number of Pixels in Processed Spectrum: 2048
>>>>>Begin Processed Spectral Data<<<<<
178.53	0.000
178.91	0.000
179.29	137.500
179.67	-250.000
180.04	157.143
180.42	50.000
180.80	0.000
181.18	66.667
181.56	750.000
181.94	600.000
182.31	400.000
182.69	-180.000
183.07	-333.333
183.45	-380.000
183.83	233.333
184.20	0.000
184.58	100.000
184.96	100.000
185.34	33.333
185.72	-600.000
186.09	38.462
186.47	-600.000
186.85	83.333
187.23	144.444
187.61	-600.000
187.98	-433.333
188.36	11.111
188.74	0.000
189.12	5.882
189.49	72.222
189.87	0.000
190.25	0.000
190.63	250.000
191.00	-66.667
191.38	42.105
191.76	500.000
192.14	-125.000
192.51	-450.000
192.89	-11.111
193.27	-171.429
193.65	283.333
194.02	154.545
194.40	20.000
194.78	-212.500
195.15	-75.000
195.53	25.000
195.91	300.000
196.29	-325.000
196.66	69.231
197.04	85.714
197.42	22.222
197.79	-466.667
198.17	-61.538
198.55	1200.000
198.92	-400.000
199.30	-300.000
199.68	-40.000
200.05	-133.333
200.43	0.000
200.81	-166.667
201.18	-66.667
201.56	1000.000
201.94	-250.000
202.31	66.667
202.69	0.000
203.07	200.000
203.44	700.000
203.82	0.000
204.19	42.857
204.57	-300.000
204.95	112.500
205.32	100.000
205.70	28.571
206.08	50.000
206.45	222.222
206.83	57.143
207.20	-128.571
207.58	400.000
207.96	-100.000
208.33	-100.000
208.71	-200.000
209.08	-50.000
209.46	-300.000
209.84	0.000
210.21	0.000
210.59	14.286
210.96	-150.000
211.34	50.000
211.71	46.667
212.09	-171.429
212.46	-1000.000
212.84	0.000
213.22	40.000
213.59	250.000
213.97	-38.462
214.34	18.182
214.72	-33.333
215.09	225.000
215.47	-38.462
215.84	9.091
216.22	0.000
216.59	37.500
216.97	-200.000
217.34	-50.000
217.72	-120.000
218.09	37.500
218.47	37.500
218.84	-400.000
219.22	-33.333
219.59	-100.000
219.97	300.000
220.34	225.000
220.72	-28.571
221.09	-50.000
221.47	200.000
221.84	-600.000
222.22	-650.000
222.59	-18.182
222.97	0.000
223.34	66.667
223.72	-85.714
224.09	9.524
224.46	71.429
224.84	333.333
225.21	50.000
225.59	-20.000
225.96	-350.000
226.34	275.000
226.71	-71.429
227.08	16.667
227.46	25.000
227.83	-350.000
228.21	-55.556
228.58	100.000
228.95	12.500
229.33	90.000
229.70	6.250
230.08	-37.500
230.45	-71.429
230.82	28.571
231.20	-46.667
231.57	64.286
231.95	0.000
232.32	-100.000
232.69	64.286
233.07	-100.000
233.44	20.000
233.81	-60.000
234.19	33.333
234.56	29.412
234.93	200.000
235.31	75.000
235.68	-80.000
236.05	-38.462
236.43	-25.000
236.80	17.647
237.17	34.375
237.55	5.000
237.92	-3.704
238.29	41.667
238.67	53.333
239.04	2.941
239.41	-2.439
239.79	20.000
240.16	48.780
240.53	-10.526
240.91	19.565
241.28	15.873
241.65	39.286
242.02	36.986
242.40	31.667
242.77	30.508
243.14	24.242
243.51	41.250
243.89	33.333
244.26	13.793
244.63	40.476
245.00	31.959
245.38	38.144
245.75	31.461
246.12	28.448
246.49	40.496
246.87	35.577
247.24	28.571
247.61	30.702
247.98	30.894
248.36	28.750
248.73	32.237
249.10	33.117
249.47	39.241
249.84	34.641
250.22	37.059
250.59	43.791
250.96	30.516
251.33	31.395
251.70	41.765
252.08	29.949
252.45	35.644
252.82	36.683
253.19	33.641
253.56	32.243
253.94	36.036
254.31	31.739
254.68	35.526
255.05	35.433
255.42	33.188
255.79	32.046
256.16	35.798
256.54	34.328
256.91	30.038
257.28	32.342
257.65	33.708
258.02	28.723
258.39	32.323
258.76	34.066
259.14	36.545
259.51	34.304
259.88	32.990
260.25	33.660
260.62	36.458
260.99	32.881
261.36	31.849
261.73	37.025
262.10	37.994
262.47	31.902
262.85	33.856
263.22	35.077
263.59	37.072
263.96	37.578
264.33	34.545
264.70	36.607
265.07	32.143
265.44	35.411
265.81	36.158
266.18	33.880
266.55	35.733
266.92	34.197
267.29	34.987
267.66	32.225
268.03	35.340
268.40	32.115
268.77	35.027
269.14	35.731
269.51	36.761
269.88	32.170
270.25	31.122
270.62	31.463
270.99	30.179
271.36	31.296
271.73	34.038
272.10	33.820
272.47	35.934
272.84	31.436
273.21	35.499
273.58	31.084
273.95	34.554
274.32	31.871
274.69	34.163
275.06	32.813
275.43	34.014
275.80	33.775
276.17	30.805
276.54	30.407
276.91	34.211
277.28	31.223
277.65	30.372
278.02	29.574
278.39	34.792
278.76	31.866
279.13	32.573
279.50	32.983
279.87	36.285
280.23	33.333
280.60	31.384
280.97	34.141
281.34	29.808
281.71	31.828
282.08	33.129
282.45	31.115
282.82	28.958
283.19	32.882
283.56	32.755
283.92	31.309
284.29	29.231
284.66	28.295
285.03	31.434
285.40	29.868
285.77	30.404
286.14	27.617
286.51	34.133
286.87	30.347
287.24	30.203
287.61	28.571
287.98	31.930
288.35	29.809
288.72	30.998
289.08	30.208
289.45	28.822
289.82	29.371
290.19	27.986
290.56	30.360
290.93	28.283
291.29	26.194
291.66	28.346
292.03	27.273
292.40	27.903
292.77	27.911
293.13	24.513
293.50	25.190
293.87	26.870
294.24	27.512
294.60	24.441
294.97	26.339
295.34	24.387
295.71	26.230
296.08	23.767
296.44	24.609
296.81	25.972
297.18	25.652
297.55	24.255
297.91	24.384
298.28	26.385
298.65	22.388
299.02	24.259
299.38	22.982
299.75	24.828
300.12	24.215
300.48	24.242
300.85	24.842
301.22	23.377
301.59	23.158
301.95	23.038
302.32	24.125
302.69	23.881
303.05	23.639
303.42	23.537
303.79	22.897
304.15	24.253
304.52	22.711
304.89	22.222
305.25	22.276
305.62	21.354
305.99	22.573
306.35	23.699
306.72	22.835
307.09	23.831
307.45	23.766
307.82	22.106
308.19	22.880
308.55	22.574
308.92	23.638
309.29	21.899
309.65	23.789
310.02	24.422
310.38	23.820
310.75	23.060
311.12	23.681
311.48	22.587
311.85	23.665
312.22	22.996
312.58	23.248
312.95	24.013
313.31	24.224
313.68	24.921
314.05	24.184
314.41	25.361
314.78	25.567
315.14	25.694
315.51	26.190
315.87	26.947
316.24	26.087
316.61	26.575
316.97	25.595
317.34	26.172
317.70	26.960
318.07	27.019
318.43	28.824
318.80	29.451
319.16	29.004
319.53	29.060
319.89	27.953
320.26	30.061
320.62	31.494
320.99	29.958
321.35	30.113
321.72	33.229
322.08	31.521
322.45	32.995
322.81	31.729
323.18	31.600
323.54	33.012
323.91	32.522
324.27	34.180
324.64	33.521
325.00	35.036
325.37	36.088
325.73	36.174
326.10	36.331
326.46	37.937
326.83	39.108
327.19	38.099
327.56	38.662
327.92	39.701
328.29	37.589
328.65	40.943
329.01	39.798
329.38	39.631
329.74	41.643
330.11	41.427
330.47	39.889
330.84	41.250
331.20	44.011
331.56	42.593
331.93	40.457
332.29	44.271
332.66	44.253
333.02	43.123
333.38	43.446
333.75	43.498
334.11	42.704
334.48	44.243
334.84	43.864
335.20	44.190
335.57	44.243
335.93	43.541
336.29	43.278
336.66	43.052
337.02	43.401
337.38	44.907
337.75	44.818
338.11	44.274
338.47	45.255
338.84	44.362
339.20	44.059
339.56	45.321
339.93	44.315
340.29	44.679
340.65	45.878
341.02	44.149
341.38	44.867
341.74	44.876
342.11	44.541
342.47	44.573
342.83	43.945
343.20	44.686
343.56	45.304
343.92	46.944
344.28	46.285
344.65	44.819
345.01	44.512
345.37	44.659
345.73	45.105
346.10	45.039
346.46	45.164
346.82	44.763
347.19	44.223
347.55	44.695
347.91	45.227
348.27	45.271
348.63	45.571
349.00	46.021
349.36	46.384
349.72	48.176
350.08	45.000
350.45	46.209
350.81	46.013
351.17	44.625
351.53	46.367
351.89	44.922
352.26	46.160
352.62	46.613
352.98	45.221
353.34	45.008
353.70	46.926
354.07	44.839
354.43	46.277
354.79	45.417
355.15	47.619
355.51	45.649
355.87	46.845
356.24	47.064
356.60	45.432
356.96	46.587
357.32	47.125
357.68	44.957
358.04	46.365
358.40	46.383
358.77	47.448
359.13	46.437
359.49	46.071
359.85	45.788
360.21	46.970
360.57	46.519
360.93	47.655
361.29	45.997
361.66	48.197
362.02	47.652
362.38	47.601
362.74	47.237
363.10	48.533
363.46	47.665
363.82	47.934
364.18	46.494
364.54	47.721
364.90	47.885
365.26	48.399
365.62	48.321
365.98	49.194
366.35	48.944
366.71	48.633
367.07	48.113
367.43	48.670
367.79	49.187
368.15	48.457
368.51	49.235
368.87	48.887
369.23	48.014
369.59	49.490
369.95	49.487
370.31	50.434
370.67	49.552
371.03	48.768
371.39	48.724
371.75	49.744
372.11	49.144
372.47	50.222
372.83	50.177
373.19	49.643
373.55	50.181
373.91	50.108
374.27	51.595
374.63	52.046
374.99	49.929
375.35	49.721
375.71	51.538
376.07	51.334
376.42	51.973
376.78	51.946
377.14	51.726
377.50	52.258
377.86	51.138
378.22	51.883
378.58	51.795
378.94	52.111
379.30	51.653
379.66	52.351
380.02	51.993
380.38	51.735
380.74	52.124
381.09	52.638
381.45	52.966
381.81	53.300
382.17	52.475
382.53	52.592
382.89	54.112
383.25	54.512
383.61	54.146
383.97	54.476
384.32	52.595
384.68	55.046
385.04	54.167
385.40	54.636
385.76	55.472
386.12	55.692
386.48	55.875
386.83	54.914
387.19	55.006
387.55	55.897
387.91	55.501
388.27	55.983
388.62	56.765
388.98	55.678
389.34	56.152
389.70	57.116
390.06	55.758
390.42	55.570
390.77	57.031
391.13	56.179
391.49	56.921
391.85	57.830
392.20	57.188
392.56	58.551
392.92	57.546
393.28	57.488
393.64	56.456
393.99	59.373
394.35	57.559
394.71	57.918
395.07	58.391
395.42	57.438
395.78	59.088
396.14	58.575
396.50	59.417
396.85	59.433
397.21	58.584
397.57	59.185
397.92	58.298
398.28	59.425
398.64	58.675
399.00	59.594
399.35	59.481
399.71	59.334
400.07	60.036
400.42	60.098
400.78	60.502
401.14	60.496
401.49	59.559
401.85	60.024
402.21	60.482
402.57	61.875
402.92	60.602
403.28	63.221
403.63	63.052
403.99	62.819
404.35	61.711
404.70	62.024
405.06	60.811
405.42	61.342
405.77	62.289
406.13	63.620
406.49	61.634
406.84	64.242
407.20	64.419
407.55	65.293
407.91	64.639
408.27	63.607
408.62	62.585
408.98	62.847
409.34	65.056
409.69	63.307
410.05	63.670
410.40	65.741
410.76	65.923
411.11	65.250
411.47	65.746
411.83	64.532
412.18	65.830
412.54	64.295
412.89	64.778
413.25	66.486
413.60	65.901
413.96	64.540
414.31	65.793
414.67	65.491
415.03	65.912
415.38	67.037
415.74	66.254
416.09	66.819
416.45	66.239
416.80	66.689
417.16	68.508
417.51	67.888
417.87	67.405
418.22	69.948
418.58	69.565
418.93	68.903
419.29	66.645
419.64	68.697
420.00	71.033
420.35	67.522
420.71	68.651
421.06	68.815
421.42	70.132
421.77	69.538
422.12	68.161
422.48	69.139
422.83	68.619
423.19	69.582
423.54	68.430
423.90	68.669
424.25	71.125
424.61	70.563
424.96	70.325
425.31	71.924
425.67	72.535
426.02	71.260
426.38	73.575
426.73	71.368
427.09	73.354
427.44	72.588
427.79	72.717
428.15	72.633
428.50	72.199
428.85	71.806
429.21	71.420
429.56	73.693
429.92	72.727
430.27	70.977
430.62	72.086
430.98	71.868
431.33	72.660
431.68	72.998
432.04	73.281
432.39	74.843
432.74	72.038
433.10	74.770
433.45	73.895
433.80	73.651
434.16	72.022
434.51	73.978
434.86	74.681
435.22	74.089
435.57	74.111
435.92	75.509
436.28	75.075
436.63	74.444
436.98	74.044
437.34	74.108
437.69	77.460
438.04	75.499
438.39	75.504
438.75	77.838
439.10	76.118
439.45	76.385
439.81	74.618
440.16	77.435
440.51	77.015
440.86	77.946
441.22	75.735
441.57	76.656
441.92	76.390
442.27	76.940
442.63	76.927
442.98	77.082
443.33	76.071
443.68	76.393
444.03	76.105
444.39	75.209
444.74	78.094
445.09	77.171
445.44	77.892
445.79	78.958
446.15	77.037
446.50	77.038
446.85	77.896
447.20	77.894
447.55	77.679
447.91	77.270
448.26	79.169
448.61	77.778
448.96	78.084
449.31	79.942
449.66	78.165
450.02	78.494
450.37	80.557
450.72	79.324
451.07	79.494
451.42	77.341
451.77	79.265
452.12	78.648
452.47	79.073
452.83	79.152
453.18	79.380
453.53	81.226
453.88	79.296
454.23	80.148
454.58	80.164
454.93	80.155
455.28	78.222
455.63	80.161
455.98	80.096
456.34	80.460
456.69	80.813
457.04	81.033
457.39	82.017
457.74	79.927
458.09	78.752
458.44	80.222
458.79	80.616
459.14	80.320
459.49	80.060
459.84	78.737
460.19	80.947
460.54	80.746
460.89	81.023
461.24	80.497
461.59	80.582
461.94	79.937
462.29	81.785
462.64	83.389
462.99	82.261
463.34	83.310
463.69	81.853
464.04	81.114
464.39	80.049
464.74	81.288
465.09	80.474
465.44	81.016
465.79	78.855
466.14	80.730
466.49	79.758
466.84	81.083
467.19	81.039
467.54	80.907
467.89	81.807
468.24	81.509
468.59	83.111
468.94	82.095
469.29	83.869
469.64	83.117
469.99	84.163
470.34	83.481
470.68	84.638
471.03	83.935
471.38	84.950
471.73	84.174
472.08	82.564
472.43	84.899
472.78	84.716
473.13	85.306
473.48	83.713
473.83	82.503
474.17	85.168
474.52	82.961
474.87	82.727
475.22	84.015
475.57	82.270
475.92	83.708
476.27	83.818
476.61	84.028
476.96	82.989
477.31	83.937
477.66	82.865
478.01	85.626
478.36	83.224
478.70	85.046
479.05	84.011
479.40	84.844
479.75	82.534
480.10	83.359
480.45	82.750
480.79	84.844
481.14	84.836
481.49	83.990
481.84	84.846
482.19	82.133
482.53	84.365
482.88	83.389
483.23	83.493
483.58	82.736
483.92	84.269
484.27	83.683
484.62	82.967
484.97	81.551
485.31	80.600
485.66	76.169
486.01	73.993
486.36	73.827
486.70	74.919
487.05	76.413
487.40	77.844
487.75	79.183
488.09	79.265
488.44	80.365
488.79	80.874
489.13	83.894
489.48	84.096
489.83	83.318
490.17	84.674
490.52	84.296
490.87	84.405
491.22	85.864
491.56	85.247
491.91	83.126
492.26	86.048
492.60	84.933
492.95	85.489
493.30	85.002
493.64	87.819
493.99	85.652
494.34	85.000
494.68	84.952
495.03	85.255
495.37	87.046
495.72	86.522
496.07	85.707
496.41	85.896
496.76	85.168
497.11	84.537
497.45	86.110
497.80	86.983
498.14	86.488
498.49	86.897
498.84	85.479
499.18	86.948
499.53	87.252
499.87	84.339
500.22	86.251
500.56	87.141
500.91	86.647
501.26	85.912
501.60	85.981
501.95	86.463
502.29	86.053
502.64	86.680
502.98	86.532
503.33	85.879
503.67	84.482
504.02	86.901
504.36	86.343
504.71	85.505
505.06	85.606
505.40	86.497
505.75	87.938
506.09	87.937
506.44	87.834
506.78	87.755
507.13	88.159
507.47	87.676
507.82	88.515
508.16	89.223
508.51	89.192
508.85	88.017
509.19	87.174
509.54	88.740
509.88	88.835
510.23	89.242
510.57	88.402
510.92	88.166
511.26	90.289
511.61	90.264
511.95	90.630
512.30	89.967
512.64	88.536
512.98	90.343
513.33	89.312
513.67	90.506
514.02	91.934
514.36	91.371
514.70	92.366
515.05	92.127
515.39	91.854
515.74	93.353
516.08	92.528
516.42	93.404
516.77	91.808
517.11	93.056
517.46	94.255
517.80	92.014
518.14	93.448
518.49	91.707
518.83	93.803
519.17	91.692
519.52	92.303
519.86	92.737
520.20	95.261
520.55	94.497
520.89	94.479
521.23	94.997
521.58	94.069
521.92	95.705
522.26	95.641
522.61	97.792
522.95	96.954
523.29	95.362
523.64	95.489
523.98	95.917
524.32	94.781
524.66	97.183
525.01	95.844
525.35	94.815
525.69	96.700
526.04	95.304
526.38	96.368
526.72	94.833
527.06	95.979
527.41	95.976
527.75	96.180
528.09	95.880
528.43	98.109
528.78	95.776
529.12	94.452
529.46	95.841
529.80	94.300
530.15	95.380
530.49	97.037
530.83	97.196
531.17	95.232
531.51	97.059
531.86	96.193
532.20	95.616
532.54	95.507
532.88	96.646
533.22	95.430
533.57	93.185
533.91	94.452
534.25	95.964
534.59	92.688
534.93	92.070
535.27	93.464
535.62	93.390
535.96	95.042
536.30	93.338
536.64	95.934
536.98	94.843
537.32	96.444
537.66	95.722
538.01	95.524
538.35	95.631
538.69	90.613
539.03	92.071
539.37	93.809
539.71	94.547
540.05	92.125
540.39	93.283
540.73	95.607
541.07	94.199
541.42	92.944
541.76	93.944
542.10	93.531
542.44	95.136
542.78	91.191
543.12	94.299
543.46	93.533
543.80	93.616
544.14	90.788
544.48	91.672
544.82	92.139
545.16	94.194
545.50	90.387
545.84	94.193
546.18	94.255
546.52	93.223
546.86	91.733
547.20	91.917
547.54	90.247
547.88	91.168
548.22	89.152
548.56	90.040
548.90	91.981
549.24	90.978
549.58	90.621
549.92	91.923
550.26	92.601
550.60	94.647
550.94	95.594
551.28	93.818
551.62	96.308
551.96	94.286
552.30	94.079
552.64	90.903
552.98	90.506
553.32	90.371
553.66	91.872
554.00	93.796
554.34	92.171
554.68	91.445
555.02	93.824
555.36	91.847
555.69	92.894
556.03	90.507
556.37	90.605
556.71	92.202
557.05	91.872
557.39	90.929
557.73	92.879
558.07	93.816
558.41	93.262
558.75	93.219
559.08	94.247
559.42	95.238
559.76	96.157
560.10	93.119
560.44	92.107
560.78	89.720
561.12	90.832
561.45	91.216
561.79	91.597
562.13	91.838
562.47	91.799
562.81	90.706
563.15	90.621
563.48	90.948
563.82	89.293
564.16	90.111
564.50	88.784
564.84	89.090
565.17	87.056
565.51	90.642
565.85	90.055
566.19	88.594
566.52	89.410
566.86	87.339
567.20	87.547
567.54	88.139
567.88	85.823
568.21	85.577
568.55	83.315
568.89	82.854
569.23	80.790
569.56	79.247
569.90	77.507
570.24	74.209
570.57	75.964
570.91	75.427
571.25	72.476
571.59	72.220
571.92	70.844
572.26	71.286
572.60	70.667
572.93	71.258
573.27	71.411
573.61	71.092
573.95	70.208
574.28	69.465
574.62	68.675
574.96	67.689
575.29	68.324
575.63	67.219
575.97	68.013
576.30	69.216
576.64	67.947
576.98	68.417
577.31	68.297
577.65	68.234
577.98	67.012
578.32	66.048
578.66	66.194
578.99	66.940
579.33	67.325
579.67	66.616
580.00	67.797
580.34	67.761
580.67	66.741
581.01	67.363
581.35	65.439
581.68	65.184
582.02	64.874
582.35	64.810
582.69	65.076
583.02	65.627
583.36	66.927
583.70	67.004
584.03	69.030
584.37	69.255
584.70	67.363
585.04	66.839
585.37	66.732
585.71	66.724
586.04	66.868
586.38	66.898
586.72	67.260
587.05	67.649
587.39	68.549
587.72	68.261
588.06	67.229
588.39	67.502
588.73	68.803
589.06	71.005
589.40	69.789
589.73	70.464
590.07	71.375
590.40	71.633
590.73	73.147
591.07	72.265
591.40	72.885
591.74	73.710
592.07	74.861
592.41	73.763
592.74	70.769
593.08	68.041
593.41	68.007
593.75	68.499
594.08	68.898
594.41	68.268
594.75	69.656
595.08	70.261
595.42	69.378
595.75	69.095
596.09	72.166
596.42	71.310
596.75	73.357
597.09	71.481
597.42	72.629
597.75	72.332
598.09	70.484
598.42	70.262
598.76	70.399
599.09	68.470
599.42	67.488
599.76	67.494
600.09	66.667
600.42	68.613
600.76	67.756
601.09	68.664
601.42	67.842
601.76	68.559
602.09	68.936
602.42	70.556
602.76	69.694
603.09	70.806
603.42	70.360
603.76	69.556
604.09	68.368
604.42	69.459
604.76	71.295
605.09	69.927
605.42	69.752
605.75	69.746
606.09	68.577
606.42	69.266
606.75	68.874
607.09	68.791
607.42	69.207
607.75	68.206
608.08	69.048
608.42	69.164
608.75	71.084
609.08	72.745
609.41	72.183
609.75	71.925
610.08	72.092
610.41	69.130
610.74	70.258
611.07	72.506
611.41	71.614
611.74	72.175
612.07	71.467
612.40	72.429
612.73	72.825
613.07	72.947
613.40	72.702
613.73	73.755
614.06	72.732
614.39	73.040
614.72	71.821
615.06	71.117
615.39	70.906
615.72	70.506
616.05	71.788
616.38	70.142
616.71	73.639
617.05	73.626
617.38	73.727
617.71	74.843
618.04	75.683
618.37	75.914
618.70	74.851
619.03	76.875
619.36	78.003
619.69	80.136
620.03	78.086
620.36	77.396
620.69	78.230
621.02	78.746
621.35	82.075
621.68	81.973
622.01	81.333
622.34	80.447
622.67	79.180
623.00	78.867
623.33	78.735
623.66	77.487
623.99	77.231
624.32	79.240
624.65	76.917
624.99	77.953
625.32	77.104
625.65	78.476
625.98	78.646
626.31	79.717
626.64	82.582
626.97	82.548
627.30	81.261
627.63	82.149
627.96	82.120
628.29	84.089
628.62	84.366
628.95	84.168
629.28	86.996
629.61	85.842
629.94	84.360
630.26	85.079
630.59	86.160
630.92	86.667
631.25	82.667
631.58	87.335
631.91	88.048
632.24	87.271
632.57	87.955
632.90	90.273
633.23	89.412
633.56	93.577
633.89	92.232
