SpectraSuite Data File
++++++++++++++++++++++++++++++++++++
Date: Fri May 15 20:53:56 PDT 2015
User: schluterlab
Dark Spectrum Present: Yes
Reference Spectrum Present: Yes
Number of Sampled Component Spectra: 1
Spectrometers: USB2E3373
Integration Time (usec): 3000 (USB2E3373)
Spectra Averaged: 3 (USB2E3373)
Boxcar Smoothing: 0 (USB2E3373)
Correct for Electrical Dark: No (USB2E3373)
Strobe/Lamp Enabled: No (USB2E3373)
Correct for Detector Non-linearity: No (USB2E3373)
Correct for Stray Light: No (USB2E3373)
Number of Pixels in Processed Spectrum: 2048
>>>>>Begin Processed Spectral Data<<<<<
178.53	0.000
178.91	0.000
179.29	-37.500
179.67	-250.000
180.04	-28.571
180.42	150.000
180.80	300.000
181.18	-133.333
181.56	750.000
181.94	-300.000
182.31	500.000
182.69	40.000
183.07	33.333
183.45	-220.000
183.83	183.333
184.20	-36.364
184.58	133.333
184.96	25.000
185.34	66.667
185.72	-300.000
186.09	-0.000
186.47	-600.000
186.85	83.333
187.23	166.667
187.61	300.000
187.98	-466.667
188.36	-44.444
188.74	-100.000
189.12	29.412
189.49	-33.333
189.87	0.000
190.25	-7.143
190.63	150.000
191.00	33.333
191.38	-10.526
191.76	500.000
192.14	50.000
192.51	200.000
192.89	44.444
193.27	-42.857
193.65	150.000
194.02	172.727
194.40	-50.000
194.78	-150.000
195.15	-16.667
195.53	-50.000
195.91	50.000
196.29	-50.000
196.66	100.000
197.04	228.571
197.42	-11.111
197.79	-233.333
198.17	-153.846
198.55	1600.000
198.92	-366.667
199.30	200.000
199.68	-40.000
200.05	-266.667
200.43	0.000
200.81	133.333
201.18	-233.333
201.56	100.000
201.94	-200.000
202.31	266.667
202.69	-300.000
203.07	275.000
203.44	300.000
203.82	0.000
204.19	78.571
204.57	-233.333
204.95	12.500
205.32	0.000
205.70	-42.857
206.08	75.000
206.45	166.667
206.83	28.571
207.20	-85.714
207.58	100.000
207.96	-233.333
208.33	-70.000
208.71	-225.000
209.08	-250.000
209.46	200.000
209.84	40.000
210.21	-200.000
210.59	42.857
210.96	33.333
211.34	-100.000
211.71	20.000
212.09	-28.571
212.46	-1200.000
212.84	0.000
213.22	90.000
213.59	100.000
213.97	15.385
214.34	-27.273
214.72	16.667
215.09	200.000
215.47	23.077
215.84	27.273
216.22	33.333
216.59	0.000
216.97	-350.000
217.34	25.000
217.72	-220.000
218.09	125.000
218.47	100.000
218.84	-400.000
219.22	-66.667
219.59	-40.000
219.97	366.667
220.34	225.000
220.72	85.714
221.09	-125.000
221.47	0.000
221.84	-550.000
222.22	-1100.000
222.59	9.091
222.97	16.667
223.34	-500.000
223.72	-64.286
224.09	19.048
224.46	39.286
224.84	400.000
225.21	-20.000
225.59	26.667
225.96	250.000
226.34	225.000
226.71	71.429
227.08	16.667
227.46	37.500
227.83	-700.000
228.21	55.556
228.58	-27.273
228.95	25.000
229.33	160.000
229.70	25.000
230.08	37.500
230.45	28.571
230.82	42.857
231.20	-13.333
231.57	50.000
231.95	57.143
232.32	-40.000
232.69	57.143
233.07	-133.333
233.44	-40.000
233.81	-20.000
234.19	44.444
234.56	11.765
234.93	50.000
235.31	100.000
235.68	-100.000
236.05	0.000
236.43	-25.000
236.80	0.000
237.17	18.750
237.55	-5.000
237.92	-11.111
238.29	5.556
238.67	13.333
239.04	20.588
239.41	-12.195
239.79	26.667
240.16	31.707
240.53	15.789
240.91	21.739
241.28	26.984
241.65	32.143
242.02	34.247
242.40	21.667
242.77	32.203
243.14	1.515
243.51	27.500
243.89	21.839
244.26	25.287
244.63	28.571
245.00	34.021
245.38	25.773
245.75	15.730
246.12	13.793
246.49	33.058
246.87	27.885
247.24	26.891
247.61	17.544
247.98	20.325
248.36	27.500
248.73	33.553
249.10	26.623
249.47	33.544
249.84	32.026
250.22	29.412
250.59	26.797
250.96	29.108
251.33	27.326
251.70	24.706
252.08	24.873
252.45	30.693
252.82	27.638
253.19	30.876
253.56	23.364
253.94	32.432
254.31	29.565
254.68	36.842
255.05	27.559
255.42	31.441
255.79	30.888
256.16	29.183
256.54	32.836
256.91	29.278
257.28	25.651
257.65	23.596
258.02	26.241
258.39	29.293
258.76	30.037
259.14	29.568
259.51	26.537
259.88	25.086
260.25	28.431
260.62	33.333
260.99	29.153
261.36	24.658
261.73	27.215
262.10	34.347
262.47	30.061
262.85	29.467
263.22	29.231
263.59	28.660
263.96	34.161
264.33	31.212
264.70	27.381
265.07	29.464
265.44	27.195
265.81	32.203
266.18	32.240
266.55	30.077
266.92	29.275
267.29	29.765
267.66	28.389
268.03	28.534
268.40	27.937
268.77	31.016
269.14	28.058
269.51	29.049
269.88	28.180
270.25	25.765
270.62	26.098
270.99	26.343
271.36	25.917
271.73	28.169
272.10	28.954
272.47	28.605
272.84	31.931
273.21	29.466
273.58	29.157
273.95	25.629
274.32	26.328
274.69	28.281
275.06	32.813
275.43	28.798
275.80	28.698
276.17	29.425
276.54	28.051
276.91	29.825
277.28	26.201
277.65	29.545
278.02	31.489
278.39	26.477
278.76	29.769
279.13	24.896
279.50	24.580
279.87	28.078
280.23	27.527
280.60	26.706
280.97	28.687
281.34	26.731
281.71	27.310
282.08	27.198
282.45	26.027
282.82	25.290
283.19	26.499
283.56	28.709
283.92	28.273
284.29	28.462
284.66	25.194
285.03	27.898
285.40	27.788
285.77	27.065
286.14	26.534
286.51	26.384
286.87	25.229
287.24	27.072
287.61	27.513
287.98	27.018
288.35	29.463
288.72	24.869
289.08	25.694
289.45	27.241
289.82	27.797
290.19	24.403
290.56	26.930
290.93	23.906
291.29	22.804
291.66	23.465
292.03	24.083
292.40	24.194
292.77	23.604
293.13	22.890
293.50	22.762
293.87	22.748
294.24	23.184
294.60	22.206
294.97	23.065
295.34	21.319
295.71	23.249
296.08	22.571
296.44	20.768
296.81	22.083
297.18	21.159
297.55	23.035
297.91	20.959
298.28	21.768
298.65	19.810
299.02	21.429
299.38	19.699
299.75	20.414
300.12	20.157
300.48	20.026
300.85	20.279
301.22	19.481
301.59	19.868
301.95	20.633
302.32	21.271
302.69	19.652
303.05	20.916
303.42	19.925
303.79	20.444
304.15	20.430
304.52	18.312
304.89	20.117
305.25	19.492
305.62	17.853
305.99	19.649
306.35	18.728
306.72	17.660
307.09	20.068
307.45	19.173
307.82	19.560
308.19	20.557
308.55	19.520
308.92	19.717
309.29	19.218
309.65	18.407
310.02	19.252
310.38	19.100
310.75	18.689
311.12	19.268
311.48	19.300
311.85	18.220
312.22	19.409
312.58	18.259
312.95	19.317
313.31	19.255
313.68	18.325
314.05	19.184
314.41	19.072
314.78	19.485
315.14	20.349
315.51	20.497
315.87	19.672
316.24	20.526
316.61	18.996
316.97	21.032
317.34	19.824
317.70	20.172
318.07	20.385
318.43	20.392
318.80	21.117
319.16	21.289
319.53	22.507
319.89	21.358
320.26	22.470
320.62	23.872
320.99	22.756
321.35	23.330
321.72	25.234
322.08	23.666
322.45	24.061
322.81	24.951
323.18	25.025
323.54	25.483
323.91	26.290
324.27	27.148
324.64	27.154
325.00	28.285
325.37	30.119
325.73	27.471
326.10	28.338
326.46	29.776
326.83	30.796
327.19	29.991
327.56	30.669
327.92	32.746
328.29	31.071
328.65	32.358
329.01	33.088
329.38	32.903
329.74	32.672
330.11	31.789
330.47	33.117
330.84	32.981
331.20	35.456
331.56	33.704
331.93	35.799
332.29	35.289
332.66	34.118
333.02	35.409
333.38	35.380
333.75	35.165
334.11	34.378
334.48	36.265
334.84	34.890
335.20	36.414
335.57	35.086
335.93	37.127
336.29	36.464
336.66	35.604
337.02	35.688
337.38	36.204
337.75	37.727
338.11	36.249
338.47	36.770
338.84	37.985
339.20	37.020
339.56	37.064
339.93	37.332
340.29	38.073
340.65	38.351
341.02	36.968
341.38	36.903
341.74	36.484
342.11	37.348
342.47	39.146
342.83	37.889
343.20	37.544
343.56	39.130
343.92	38.973
344.28	39.026
344.65	38.342
345.01	37.770
345.37	37.679
345.73	38.494
346.10	39.431
346.46	38.183
346.82	38.052
347.19	38.736
347.55	38.596
347.91	39.644
348.27	38.642
348.63	40.375
349.00	38.474
349.36	39.318
349.72	39.801
350.08	38.852
350.45	39.585
350.81	40.365
351.17	38.925
351.53	40.490
351.89	39.389
352.26	39.920
352.62	41.210
352.98	40.643
353.34	38.969
353.70	40.291
354.07	40.726
354.43	40.112
354.79	41.371
355.15	41.111
355.51	40.902
355.87	41.262
356.24	40.783
356.60	42.037
356.96	40.714
357.32	41.613
357.68	40.500
358.04	42.003
358.40	41.720
358.77	41.946
359.13	41.153
359.49	40.216
359.85	42.824
360.21	43.700
360.57	42.081
360.93	44.100
361.29	41.692
361.66	43.417
362.02	43.636
362.38	43.717
362.74	43.679
363.10	45.222
363.46	44.700
363.82	44.553
364.18	43.321
364.54	44.412
364.90	45.233
365.26	44.396
365.62	45.401
365.98	45.308
366.35	45.885
366.71	46.933
367.07	45.573
367.43	44.788
367.79	46.007
368.15	46.734
368.51	46.322
368.87	45.800
369.23	45.848
369.59	45.991
369.95	47.287
370.31	46.098
370.67	46.866
371.03	46.975
371.39	47.557
371.75	47.473
372.11	45.863
372.47	48.151
372.83	47.906
373.19	48.573
373.55	47.437
373.91	49.172
374.27	49.468
374.63	49.605
374.99	49.007
375.35	48.538
375.71	50.210
376.07	50.140
376.42	50.068
376.78	49.396
377.14	50.034
377.50	50.465
377.86	51.071
378.22	51.181
378.58	50.385
378.94	50.977
379.30	50.905
379.66	50.658
380.02	50.766
380.38	51.065
380.74	51.765
381.09	51.472
381.45	51.315
381.81	51.203
382.17	51.650
382.53	51.655
382.89	53.672
383.25	52.334
383.61	54.512
383.97	53.587
384.32	52.846
384.68	54.613
385.04	53.554
385.40	53.578
385.76	54.654
386.12	53.622
386.48	55.683
386.83	54.661
387.19	54.212
387.55	55.144
387.91	54.645
388.27	53.907
388.62	56.514
388.98	54.635
389.34	54.591
389.70	55.873
390.06	54.940
390.42	54.922
390.77	55.003
391.13	55.170
391.49	56.468
391.85	56.465
392.20	55.556
392.56	55.372
392.92	55.549
393.28	56.309
393.64	56.036
393.99	57.680
394.35	56.293
394.71	56.960
395.07	54.997
395.42	56.527
395.78	56.482
396.14	57.566
396.50	58.592
396.85	56.922
397.21	55.451
397.57	56.050
397.92	57.879
398.28	57.184
398.64	55.482
399.00	57.223
399.35	56.151
399.71	56.347
400.07	56.892
400.42	55.692
400.78	57.318
401.14	57.169
401.49	57.058
401.85	57.465
402.21	54.940
402.57	58.062
402.92	57.779
403.28	57.644
403.63	58.386
403.99	58.036
404.35	57.901
404.70	56.310
405.06	56.639
405.42	58.048
405.77	56.188
406.13	56.985
406.49	57.253
406.84	58.191
407.20	58.399
407.55	57.180
407.91	57.487
408.27	57.553
408.62	56.923
408.98	57.055
409.34	57.311
409.69	56.460
410.05	56.712
410.40	57.407
410.76	57.780
411.11	57.938
411.47	57.988
411.83	57.250
412.18	57.465
412.54	57.366
412.89	55.911
413.25	57.702
413.60	56.957
413.96	55.767
414.31	57.988
414.67	57.344
415.03	57.057
415.38	55.809
415.74	58.436
416.09	57.675
416.45	56.989
416.80	56.841
417.16	59.738
417.51	57.628
417.87	57.497
418.22	58.614
418.58	58.528
418.93	59.122
419.29	56.978
419.64	58.198
420.00	60.139
420.35	57.910
420.71	59.052
421.06	56.599
421.42	58.894
421.77	58.092
422.12	57.094
422.48	58.148
422.83	57.889
423.19	58.126
423.54	57.790
423.90	57.303
424.25	58.668
424.61	59.058
424.96	58.711
425.31	60.196
425.67	59.624
426.02	58.716
426.38	59.424
426.73	59.927
427.09	60.570
427.44	59.471
427.79	58.397
428.15	58.556
428.50	59.540
428.85	57.678
429.21	58.630
429.56	60.431
429.92	58.706
430.27	58.296
430.62	57.554
430.98	59.023
431.33	59.201
431.68	58.503
432.04	59.642
432.39	58.756
432.74	57.907
433.10	61.322
433.45	59.080
433.80	59.779
434.16	59.612
434.51	58.280
434.86	59.872
435.22	60.123
435.57	60.262
435.92	59.940
436.28	59.213
436.63	59.099
436.98	58.575
437.34	59.952
437.69	60.525
438.04	59.316
438.39	58.155
438.75	60.352
439.10	58.913
439.45	59.282
439.81	60.367
440.16	60.392
440.51	61.254
440.86	61.208
441.22	59.955
441.57	59.989
441.92	60.178
442.27	59.590
442.63	60.867
442.98	59.506
443.33	59.043
443.68	59.469
444.03	59.314
444.39	59.420
444.74	60.647
445.09	60.134
445.44	60.570
445.79	61.011
446.15	58.645
446.50	59.845
446.85	59.617
447.20	59.385
447.55	59.319
447.91	59.616
448.26	59.476
448.61	59.643
448.96	59.495
449.31	60.058
449.66	58.537
450.02	59.726
450.37	60.166
450.72	60.023
451.07	61.392
451.42	58.614
451.77	59.916
452.12	58.971
452.47	59.305
452.83	58.775
453.18	58.950
453.53	59.924
453.88	59.806
454.23	58.943
454.58	60.831
454.93	60.438
455.28	56.635
455.63	59.578
455.98	58.870
456.34	59.323
456.69	59.593
457.04	58.664
457.39	58.809
457.74	58.767
458.09	59.211
458.44	59.157
458.79	58.711
459.14	59.497
459.49	57.970
459.84	57.248
460.19	57.949
460.54	58.924
460.89	57.898
461.24	57.267
461.59	58.195
461.94	57.547
462.29	57.780
462.64	59.269
462.99	59.242
463.34	57.163
463.69	57.979
464.04	56.174
464.39	56.822
464.74	55.951
465.09	57.455
465.44	57.415
465.79	56.179
466.14	57.298
466.49	55.664
466.84	56.692
467.19	58.636
467.54	55.683
467.89	57.802
468.24	56.387
468.59	56.952
468.94	57.016
469.29	56.787
469.64	57.621
469.99	57.393
470.34	54.949
470.68	58.688
471.03	56.971
471.38	57.133
471.73	56.513
472.08	56.581
472.43	56.779
472.78	55.997
473.13	55.782
473.48	57.199
473.83	55.978
474.17	56.801
474.52	55.137
474.87	54.182
475.22	56.498
475.57	54.884
475.92	55.952
476.27	54.889
476.61	57.292
476.96	54.545
477.31	55.111
477.66	54.382
478.01	54.576
478.36	55.120
478.70	56.498
479.05	55.055
479.40	55.061
479.75	53.389
480.10	52.893
480.45	54.350
480.79	55.086
481.14	54.867
481.49	52.709
481.84	53.813
482.19	53.555
482.53	54.149
482.88	52.840
483.23	53.023
483.58	53.396
483.92	52.323
484.27	52.552
484.62	52.084
484.97	51.658
485.31	51.373
485.66	50.806
486.01	49.892
486.36	49.741
486.70	50.432
487.05	50.190
487.40	50.698
487.75	50.648
488.09	50.247
488.44	50.344
488.79	51.513
489.13	51.242
489.48	51.176
489.83	51.480
490.17	50.742
490.52	52.055
490.87	50.578
491.22	52.053
491.56	51.233
491.91	50.621
492.26	51.434
492.60	51.344
492.95	53.025
493.30	51.099
493.64	51.375
493.99	51.691
494.34	52.039
494.68	51.333
495.03	49.732
495.37	50.981
495.72	50.984
496.07	50.049
496.41	51.132
496.76	50.069
497.11	50.163
497.45	50.740
497.80	51.413
498.14	50.373
498.49	50.787
498.84	50.848
499.18	50.100
499.53	50.000
499.87	49.611
500.22	50.346
500.56	49.420
500.91	50.251
501.26	48.690
501.60	47.664
501.95	50.073
502.29	49.540
502.64	49.517
502.98	49.729
503.33	48.799
503.67	49.639
504.02	49.120
504.36	49.134
504.71	48.131
505.06	48.515
505.40	48.782
505.75	48.814
506.09	48.809
506.44	48.357
506.78	48.469
507.13	48.242
507.47	47.833
507.82	48.237
508.16	47.385
508.51	48.636
508.85	48.666
509.19	49.015
509.54	48.740
509.88	47.789
510.23	47.606
510.57	48.156
510.92	46.748
511.26	48.609
511.61	49.120
511.95	47.452
512.30	47.672
512.64	48.080
512.98	47.389
513.33	47.846
513.67	46.845
514.02	49.428
514.36	49.371
514.70	47.552
515.05	49.941
515.39	48.111
515.74	48.802
516.08	48.057
516.42	50.059
516.77	47.806
517.11	47.893
517.46	47.457
517.80	46.961
518.14	48.561
518.49	47.897
518.83	47.266
519.17	47.665
519.52	45.944
519.86	47.419
520.20	46.780
520.55	47.842
520.89	47.553
521.23	48.385
521.58	47.319
521.92	47.436
522.26	47.040
522.61	46.753
522.95	49.536
523.29	47.840
523.64	46.823
523.98	48.153
524.32	46.263
524.66	47.119
525.01	47.987
525.35	46.792
525.69	46.734
526.04	46.892
526.38	48.054
526.72	45.193
527.06	47.017
527.41	46.306
527.75	46.917
528.09	46.512
528.43	48.076
528.78	46.469
529.12	47.226
529.46	45.549
529.80	45.535
530.15	47.525
530.49	45.522
530.83	46.648
531.17	46.004
531.51	47.264
531.86	44.731
532.20	45.859
532.54	45.201
532.88	46.064
533.22	44.355
533.57	44.233
533.91	45.300
534.25	46.159
534.59	44.772
534.93	44.368
535.27	44.543
535.62	43.616
535.96	44.553
536.30	44.723
536.64	45.072
536.98	43.624
537.32	46.088
537.66	44.530
538.01	45.734
538.35	43.273
538.69	43.009
539.03	43.951
539.37	44.280
539.71	43.490
540.05	44.399
540.39	43.975
540.73	44.561
541.07	43.715
541.42	43.884
541.76	43.840
542.10	43.359
542.44	42.946
542.78	43.152
543.12	43.956
543.46	43.950
543.80	43.095
544.14	41.789
544.48	41.905
544.82	42.447
545.16	43.648
545.50	42.457
545.84	42.422
546.18	43.546
546.52	42.754
546.86	42.344
547.20	42.561
547.54	41.272
547.88	42.255
548.22	41.091
548.56	41.821
548.90	41.375
549.24	41.322
549.58	42.243
549.92	41.172
550.26	41.026
550.60	41.636
550.94	42.270
551.28	42.272
551.62	42.538
551.96	42.556
552.30	41.959
552.64	40.550
552.98	40.577
553.32	41.298
553.66	40.058
554.00	41.752
554.34	42.688
554.68	39.749
555.02	41.071
555.36	41.511
555.69	40.440
556.03	40.257
556.37	40.214
556.71	41.300
557.05	41.536
557.39	41.264
557.73	40.930
558.07	41.780
558.41	41.654
558.75	39.829
559.08	40.347
559.42	41.984
559.76	40.592
560.10	39.985
560.44	39.613
560.78	39.371
561.12	39.845
561.45	40.689
561.79	40.196
562.13	40.880
562.47	39.496
562.81	39.265
563.15	39.422
563.48	39.463
563.82	40.220
564.16	39.485
564.50	38.716
564.84	38.688
565.17	38.364
565.51	40.096
565.85	40.809
566.19	40.186
566.52	39.678
566.86	39.267
567.20	37.983
567.54	39.477
567.88	38.840
568.21	38.235
568.55	38.098
568.89	38.193
569.23	37.362
569.56	36.208
569.90	36.906
570.24	35.504
570.57	36.327
570.91	35.518
571.25	35.416
571.59	34.849
571.92	34.400
572.26	33.998
572.60	34.295
572.93	34.233
573.27	34.295
573.61	34.964
573.95	34.189
574.28	33.792
574.62	33.359
574.96	33.333
575.29	33.115
575.63	32.444
575.97	33.126
576.30	33.708
576.64	32.901
576.98	33.179
577.31	33.669
577.65	33.624
577.98	33.284
578.32	32.805
578.66	32.517
578.99	32.078
579.33	32.875
579.67	32.147
580.00	32.557
580.34	33.259
580.67	32.468
581.01	32.781
581.35	32.537
581.68	32.218
582.02	31.896
582.35	31.996
582.69	32.353
583.02	32.472
583.36	32.789
583.70	32.580
584.03	33.528
584.37	33.315
584.70	32.720
585.04	31.658
585.37	32.285
585.71	31.795
586.04	32.602
586.38	31.875
586.72	33.027
587.05	32.900
587.39	32.457
587.72	32.750
588.06	32.383
588.39	32.042
588.73	32.875
589.06	33.138
589.40	33.426
589.73	33.552
590.07	33.421
590.40	33.669
590.73	33.814
591.07	33.630
591.40	33.126
591.74	34.118
592.07	34.462
592.41	33.348
592.74	32.736
593.08	31.715
593.41	32.092
593.75	32.156
594.08	31.411
594.41	31.878
594.75	32.137
595.08	33.031
595.42	32.646
595.75	32.858
596.09	33.034
596.42	32.989
596.75	32.371
597.09	32.802
597.42	32.565
597.75	33.074
598.09	32.141
598.42	32.987
598.76	32.561
599.09	32.372
599.42	31.906
599.76	31.941
600.09	31.938
600.42	31.766
600.76	31.092
601.09	31.412
601.42	30.826
601.76	31.322
602.09	31.559
602.42	32.730
602.76	32.640
603.09	32.060
603.42	32.985
603.76	30.968
604.09	31.106
604.42	31.768
604.76	32.977
605.09	31.536
605.42	32.190
605.75	31.305
606.09	32.059
606.42	31.651
606.75	31.299
607.09	31.780
607.42	30.837
607.75	31.394
608.08	30.997
608.42	31.293
608.75	32.289
609.08	31.440
609.41	32.132
609.75	31.704
610.08	32.302
610.41	31.304
610.74	31.253
611.07	31.525
611.41	31.396
611.74	32.090
612.07	31.531
612.40	31.783
612.73	32.090
613.07	31.046
613.40	32.768
613.73	32.009
614.06	31.664
614.39	31.585
614.72	30.420
615.06	30.894
615.39	30.295
615.72	31.378
616.05	31.117
616.38	30.940
616.71	31.560
617.05	31.810
617.38	31.615
617.71	32.075
618.04	32.444
618.37	33.039
618.70	32.805
619.03	33.750
619.36	32.200
619.69	34.193
620.03	33.528
620.36	32.833
620.69	33.333
621.02	32.722
621.35	32.697
621.68	34.184
622.01	32.333
622.34	32.163
622.67	32.098
623.00	32.312
623.33	31.707
623.66	32.386
623.99	32.980
624.32	33.156
624.65	32.256
624.99	32.054
625.32	33.889
625.65	32.914
625.98	34.247
626.31	32.585
626.64	33.276
626.97	33.246
627.30	33.012
627.63	31.976
627.96	32.884
628.29	32.285
628.62	33.727
628.95	34.168
629.28	33.770
629.61	34.197
629.94	34.018
630.26	33.597
630.59	35.588
630.92	34.769
631.25	32.308
631.58	34.141
631.91	33.553
632.24	33.601
632.57	33.636
632.90	34.638
633.23	33.294
633.56	35.768
633.89	36.991
