SpectraSuite Data File
++++++++++++++++++++++++++++++++++++
Date: Fri May 15 20:57:56 PDT 2015
User: schluterlab
Dark Spectrum Present: Yes
Reference Spectrum Present: Yes
Number of Sampled Component Spectra: 1
Spectrometers: USB2E3373
Integration Time (usec): 3000 (USB2E3373)
Spectra Averaged: 3 (USB2E3373)
Boxcar Smoothing: 0 (USB2E3373)
Correct for Electrical Dark: No (USB2E3373)
Strobe/Lamp Enabled: No (USB2E3373)
Correct for Detector Non-linearity: No (USB2E3373)
Correct for Stray Light: No (USB2E3373)
Number of Pixels in Processed Spectrum: 2048
>>>>>Begin Processed Spectral Data<<<<<
178.53	0.000
178.91	0.000
179.29	-50.000
179.67	-600.000
180.04	-28.571
180.42	200.000
180.80	-200.000
181.18	-133.333
181.56	650.000
181.94	-100.000
182.31	600.000
182.69	-200.000
183.07	-433.333
183.45	-20.000
183.83	50.000
184.20	-9.091
184.58	77.778
184.96	-75.000
185.34	33.333
185.72	-400.000
186.09	107.692
186.47	-1100.000
186.85	233.333
187.23	177.778
187.61	800.000
187.98	-333.333
188.36	11.111
188.74	-600.000
189.12	11.765
189.49	38.889
189.87	0.000
190.25	64.286
190.63	-400.000
191.00	-66.667
191.38	10.526
191.76	350.000
192.14	-75.000
192.51	-300.000
192.89	33.333
193.27	-114.286
193.65	150.000
194.02	163.636
194.40	-20.000
194.78	-175.000
195.15	-33.333
195.53	-25.000
195.91	350.000
196.29	-175.000
196.66	115.385
197.04	142.857
197.42	-55.556
197.79	-166.667
198.17	-46.154
198.55	1300.000
198.92	-433.333
199.30	-900.000
199.68	40.000
200.05	-266.667
200.43	0.000
200.81	-66.667
201.18	-233.333
201.56	500.000
201.94	0.000
202.31	-33.333
202.69	-220.000
203.07	125.000
203.44	200.000
203.82	0.000
204.19	-21.429
204.57	-466.667
204.95	75.000
205.32	-60.000
205.70	-28.571
206.08	-275.000
206.45	111.111
206.83	57.143
207.20	-157.143
207.58	1100.000
207.96	-233.333
208.33	-70.000
208.71	0.000
209.08	-216.667
209.46	-1000.000
209.84	-40.000
210.21	-1700.000
210.59	-142.857
210.96	16.667
211.34	-25.000
211.71	53.333
212.09	-228.571
212.46	-900.000
212.84	0.000
213.22	-60.000
213.59	150.000
213.97	53.846
214.34	81.818
214.72	-50.000
215.09	200.000
215.47	7.692
215.84	-27.273
216.22	-500.000
216.59	75.000
216.97	50.000
217.34	50.000
217.72	-100.000
218.09	-62.500
218.47	125.000
218.84	-100.000
219.22	44.444
219.59	100.000
219.97	266.667
220.34	125.000
220.72	28.571
221.09	-350.000
221.47	600.000
221.84	-250.000
222.22	-750.000
222.59	-54.545
222.97	58.333
223.34	-100.000
223.72	28.571
224.09	-4.762
224.46	10.714
224.84	333.333
225.21	-40.000
225.59	13.333
225.96	-400.000
226.34	450.000
226.71	-114.286
227.08	-66.667
227.46	-25.000
227.83	-550.000
228.21	-44.444
228.58	-18.182
228.95	-62.500
229.33	120.000
229.70	31.250
230.08	-100.000
230.45	71.429
230.82	71.429
231.20	13.333
231.57	35.714
231.95	-28.571
232.32	-60.000
232.69	28.571
233.07	-500.000
233.44	-140.000
233.81	-130.000
234.19	-22.222
234.56	41.176
234.93	550.000
235.31	-25.000
235.68	-280.000
236.05	61.538
236.43	40.000
236.80	-29.412
237.17	37.500
237.55	30.000
237.92	18.519
238.29	13.889
238.67	36.667
239.04	85.294
239.41	17.073
239.79	16.667
240.16	36.585
240.53	23.684
240.91	39.130
241.28	38.095
241.65	62.500
242.02	47.945
242.40	38.333
242.77	42.373
243.14	50.000
243.51	31.250
243.89	48.276
244.26	40.230
244.63	42.857
245.00	41.237
245.38	46.392
245.75	43.820
246.12	38.793
246.49	49.587
246.87	50.962
247.24	43.697
247.61	34.211
247.98	50.407
248.36	40.000
248.73	46.711
249.10	41.558
249.47	38.608
249.84	47.712
250.22	46.471
250.59	51.634
250.96	43.192
251.33	48.837
251.70	50.000
252.08	48.223
252.45	49.505
252.82	50.251
253.19	47.926
253.56	45.794
253.94	47.748
254.31	42.609
254.68	49.561
255.05	44.094
255.42	45.852
255.79	50.193
256.16	48.249
256.54	48.134
256.91	48.289
257.28	48.699
257.65	45.318
258.02	44.681
258.39	45.791
258.76	53.114
259.14	50.498
259.51	47.249
259.88	52.234
260.25	48.366
260.62	53.125
260.99	49.831
261.36	49.658
261.73	47.152
262.10	47.416
262.47	48.773
262.85	51.097
263.22	52.000
263.59	48.910
263.96	51.863
264.33	52.424
264.70	47.619
265.07	48.512
265.44	52.125
265.81	51.130
266.18	48.907
266.55	48.586
266.92	47.150
267.29	53.525
267.66	47.570
268.03	48.691
268.40	49.347
268.77	52.674
269.14	46.763
269.51	46.787
269.88	48.878
270.25	48.469
270.62	48.537
270.99	51.151
271.36	46.210
271.73	49.531
272.10	46.715
272.47	49.173
272.84	49.752
273.21	44.780
273.58	46.988
273.95	48.741
274.32	45.497
274.69	45.928
275.06	51.116
275.43	48.526
275.80	46.137
276.17	45.977
276.54	44.325
276.91	49.123
277.28	44.978
277.65	43.595
278.02	44.043
278.39	44.639
278.76	43.396
279.13	42.531
279.50	44.538
279.87	46.652
280.23	43.441
280.60	46.394
280.97	49.293
281.34	45.385
281.71	46.612
282.08	41.922
282.45	43.444
282.82	47.490
283.19	47.389
283.56	45.665
283.92	43.074
284.29	43.462
284.66	43.798
285.03	44.401
285.40	44.423
285.77	43.585
286.14	42.419
286.51	43.911
286.87	41.682
287.24	46.409
287.61	45.326
287.98	43.860
288.35	40.901
288.72	45.009
289.08	41.319
289.45	41.301
289.82	41.259
290.19	40.785
290.56	38.593
290.93	38.721
291.29	36.980
291.66	39.528
292.03	37.799
292.40	39.839
292.77	39.075
293.13	35.877
293.50	37.481
293.87	37.405
294.24	35.085
294.60	37.556
294.97	35.565
295.34	34.969
295.71	33.234
296.08	35.575
296.44	33.855
296.81	34.028
297.18	34.928
297.55	35.772
297.91	34.795
298.28	35.092
298.65	31.750
299.02	34.367
299.38	30.917
299.75	32.276
300.12	31.545
300.48	32.148
300.85	32.446
301.22	30.779
301.59	31.579
301.95	30.886
302.32	33.074
302.69	31.841
303.05	31.312
303.42	31.258
303.79	31.776
304.15	31.302
304.52	30.916
304.89	30.526
305.25	30.266
305.62	27.538
305.99	29.123
306.35	30.636
306.72	28.121
307.09	30.445
307.45	29.966
307.82	28.819
308.19	31.940
308.55	28.680
308.92	31.264
309.29	29.385
309.65	30.571
310.02	28.823
310.38	29.528
310.75	30.164
311.12	29.279
311.48	28.314
311.85	28.482
312.22	29.536
312.58	27.601
312.95	27.962
313.31	28.882
313.68	29.005
314.05	29.694
314.41	27.835
314.78	29.485
315.14	28.983
315.51	28.261
315.87	30.430
316.24	28.716
316.61	28.051
316.97	28.671
317.34	28.125
317.70	28.394
318.07	28.365
318.43	29.216
318.80	27.557
319.16	29.004
319.53	28.110
319.89	27.559
320.26	26.316
320.62	28.887
320.99	27.766
321.35	27.749
321.72	28.349
322.08	28.902
322.45	28.325
322.81	27.112
323.18	27.282
323.54	28.089
323.91	27.751
324.27	27.539
324.64	28.371
325.00	27.464
325.37	29.109
325.73	26.655
326.10	28.156
326.46	27.444
326.83	27.297
327.19	28.248
327.56	27.454
327.92	28.345
328.29	26.875
328.65	27.547
329.01	26.838
329.38	28.203
329.74	25.685
330.11	27.247
330.47	27.644
330.84	27.019
331.20	29.278
331.56	26.111
331.93	26.667
332.29	27.956
332.66	27.059
333.02	26.952
333.38	25.848
333.75	26.923
334.11	26.321
334.48	27.017
334.84	28.205
335.20	27.813
335.57	26.383
335.93	26.920
336.29	27.716
336.66	27.157
337.02	26.022
337.38	27.037
337.75	27.273
338.11	26.060
338.47	27.281
338.84	27.542
339.20	26.417
339.56	26.606
339.93	27.395
340.29	27.248
340.65	26.971
341.02	27.039
341.38	27.257
341.74	25.265
342.11	26.083
342.47	26.246
342.83	26.557
343.20	26.394
343.56	26.348
343.92	25.775
344.28	26.558
344.65	24.957
345.01	24.719
345.37	25.988
345.73	26.360
346.10	26.316
346.46	26.745
346.82	25.041
347.19	26.268
347.55	25.063
347.91	26.456
348.27	25.465
348.63	24.702
349.00	25.349
349.36	25.769
349.72	26.036
350.08	24.262
350.45	25.140
350.81	25.415
351.17	24.837
351.53	25.959
351.89	24.277
352.26	24.800
352.62	26.613
352.98	25.542
353.34	24.235
353.70	25.728
354.07	25.000
354.43	23.779
354.79	25.434
355.15	25.079
355.51	24.604
355.87	25.971
356.24	24.715
356.60	24.818
356.96	25.635
357.32	24.840
357.68	23.769
358.04	23.425
358.40	24.839
358.77	24.721
359.13	24.420
359.49	24.191
359.85	25.273
360.21	23.445
360.57	23.795
360.93	24.887
361.29	23.640
361.66	23.511
362.02	23.939
362.38	24.752
362.74	24.073
363.10	25.433
363.46	24.537
363.82	24.944
364.18	23.690
364.54	23.088
364.90	23.584
365.26	23.726
365.62	23.577
365.98	25.293
366.35	24.108
366.71	24.242
367.07	24.528
367.43	23.436
367.79	24.099
368.15	22.757
368.51	23.816
368.87	23.259
369.23	22.816
369.59	24.052
369.95	23.900
370.31	24.277
370.67	23.582
371.03	22.554
371.39	23.778
371.75	23.736
372.11	24.251
372.47	24.334
372.83	24.273
373.19	23.538
373.55	22.888
373.91	22.894
374.27	23.175
374.63	23.116
374.99	23.333
375.35	23.677
375.71	23.007
376.07	22.893
376.42	23.061
376.78	24.765
377.14	23.561
377.50	22.776
377.86	22.691
378.22	23.101
378.58	22.179
378.94	22.747
379.30	22.645
379.66	23.511
380.02	22.869
380.38	23.068
380.74	22.501
381.09	23.436
381.45	23.058
381.81	22.702
382.17	21.891
382.53	22.986
382.89	23.289
383.25	22.278
383.61	23.354
383.97	22.286
384.32	23.202
384.68	22.663
385.04	21.385
385.40	22.589
385.76	22.956
386.12	23.351
386.48	22.861
386.83	22.765
387.19	22.405
387.55	23.400
387.91	23.166
388.27	22.894
388.62	22.656
388.98	22.468
389.34	23.298
389.70	22.250
390.06	22.467
390.42	22.085
390.77	21.387
391.13	22.636
391.49	22.316
391.85	21.572
392.20	22.850
392.56	22.886
392.92	22.548
393.28	22.288
393.64	22.703
393.99	24.075
394.35	22.328
394.71	22.414
395.07	23.444
395.42	21.494
395.78	22.476
396.14	22.509
396.50	21.940
396.85	22.601
397.21	22.180
397.57	22.132
397.92	21.690
398.28	21.552
398.64	21.145
399.00	22.799
399.35	20.993
399.71	21.597
400.07	22.128
400.42	22.521
400.78	22.352
401.14	22.444
401.49	22.037
401.85	21.450
402.21	22.108
402.57	22.750
402.92	21.581
403.28	21.241
403.63	22.446
403.99	22.258
404.35	21.986
404.70	22.440
405.06	21.504
405.42	22.001
405.77	21.441
406.13	20.955
406.49	22.084
406.84	21.638
407.20	21.373
407.55	21.314
407.91	22.193
408.27	21.861
408.62	22.092
408.98	21.380
409.34	21.561
409.69	22.028
410.05	21.675
410.40	21.667
410.76	22.195
411.11	22.125
411.47	22.156
411.83	21.218
412.18	22.523
412.54	21.785
412.89	20.874
413.25	22.142
413.60	21.118
413.96	21.595
414.31	22.134
414.67	21.424
415.03	21.238
415.38	22.389
415.74	22.345
416.09	22.730
416.45	22.147
416.80	21.745
417.16	21.616
417.51	22.318
417.87	22.099
418.22	21.956
418.58	21.405
418.93	22.821
419.29	21.255
419.64	21.776
420.00	22.481
420.35	21.910
420.71	21.689
421.06	22.222
421.42	21.334
421.77	22.890
422.12	21.226
422.48	22.361
422.83	21.810
423.19	21.614
423.54	21.576
423.90	21.025
424.25	22.675
424.61	22.032
424.96	22.125
425.31	22.935
425.67	22.418
426.02	21.849
426.38	22.730
426.73	22.276
427.09	21.899
427.44	22.588
427.79	22.157
428.15	23.301
428.50	21.623
428.85	21.929
429.21	22.241
429.56	21.671
429.92	22.907
430.27	21.754
430.62	20.387
430.98	21.550
431.33	22.029
431.68	21.821
432.04	22.918
432.39	21.848
432.74	21.768
433.10	22.931
433.45	22.700
433.80	21.764
434.16	20.942
434.51	21.667
434.86	22.532
435.22	22.602
435.57	22.146
435.92	22.934
436.28	22.063
436.63	22.133
436.98	21.205
437.34	21.295
437.69	22.182
438.04	22.849
438.39	21.747
438.75	22.162
439.10	21.222
439.45	22.520
439.81	21.957
440.16	22.150
440.51	23.045
440.86	22.175
441.22	22.115
441.57	21.523
441.92	22.613
442.27	21.840
442.63	23.126
442.98	22.746
443.33	21.758
443.68	22.387
444.03	22.653
444.39	21.938
444.74	23.913
445.09	22.717
445.44	22.849
445.79	23.156
446.15	21.366
446.50	22.463
446.85	23.114
447.20	22.054
447.55	23.382
447.91	22.899
448.26	22.254
448.61	22.395
448.96	23.523
449.31	21.908
449.66	23.055
450.02	23.274
450.37	22.881
450.72	22.050
451.07	22.342
451.42	22.909
451.77	22.785
452.12	21.770
452.47	22.022
452.83	23.616
453.18	22.770
453.53	23.072
453.88	22.829
454.23	22.065
454.58	23.237
454.93	22.874
455.28	21.587
455.63	22.443
455.98	23.151
456.34	23.244
456.69	23.062
457.04	24.071
457.39	23.026
457.74	22.430
458.09	21.601
458.44	22.762
458.79	22.689
459.14	23.169
459.49	23.045
459.84	22.335
460.19	22.633
460.54	23.350
460.89	23.580
461.24	23.478
461.59	23.812
461.94	23.396
462.29	23.824
462.64	24.252
462.99	23.155
463.34	23.296
463.69	22.651
464.04	23.426
464.39	23.772
464.74	23.436
465.09	23.082
465.44	23.024
465.79	22.732
466.14	23.375
466.49	22.139
466.84	22.963
467.19	23.780
467.54	23.244
467.89	22.931
468.24	22.932
468.59	23.111
468.94	22.540
469.29	23.541
469.64	23.582
469.99	24.247
470.34	23.276
470.68	24.832
471.03	24.558
471.38	24.251
471.73	24.300
472.08	24.084
472.43	22.685
472.78	22.481
473.13	23.197
473.48	23.713
473.83	23.412
474.17	23.705
474.52	22.846
474.87	24.485
475.22	23.673
475.57	23.998
475.92	24.246
476.27	23.981
476.61	24.190
476.96	23.201
477.31	23.148
477.66	22.697
478.01	23.695
478.36	22.876
478.70	23.437
479.05	24.286
479.40	23.529
479.75	23.306
480.10	22.939
480.45	23.600
480.79	23.464
481.14	24.129
481.49	22.266
481.84	23.986
482.19	23.059
482.53	23.549
482.88	23.103
483.23	23.656
483.58	23.726
483.92	23.572
484.27	23.154
484.62	23.487
484.97	22.844
485.31	22.905
485.66	22.434
486.01	22.059
486.36	21.849
486.70	22.595
487.05	22.470
487.40	23.087
487.75	23.606
488.09	22.991
488.44	23.281
488.79	23.160
489.13	24.119
489.48	23.172
489.83	22.870
490.17	23.326
490.52	23.695
490.87	23.091
491.22	24.164
491.56	23.482
491.91	23.231
492.26	23.967
492.60	23.321
492.95	24.643
493.30	24.279
493.64	24.263
493.99	24.300
494.34	23.835
494.68	23.952
495.03	23.455
495.37	24.141
495.72	24.382
496.07	24.341
496.41	24.057
496.76	23.538
497.11	23.242
497.45	24.200
497.80	24.622
498.14	23.696
498.49	24.784
498.84	23.802
499.18	24.448
499.53	23.810
499.87	23.346
500.22	23.838
500.56	24.458
500.91	23.946
501.26	23.826
501.60	23.906
501.95	23.241
502.29	23.535
502.64	24.035
502.98	23.828
503.33	23.535
503.67	23.614
504.02	23.705
504.36	23.998
504.71	23.788
505.06	22.949
505.40	23.604
505.75	24.278
506.09	24.024
506.44	24.384
506.78	24.745
507.13	25.336
507.47	23.969
507.82	23.878
508.16	24.142
508.51	24.974
508.85	24.594
509.19	24.747
509.54	24.504
509.88	23.625
510.23	24.637
510.57	24.479
510.92	23.294
511.26	24.986
511.61	24.697
511.95	24.932
512.30	24.169
512.64	24.541
512.98	25.098
513.33	24.678
513.67	23.707
514.02	25.515
514.36	25.771
514.70	25.291
515.05	25.088
515.39	24.911
515.74	24.910
516.08	25.105
516.42	25.854
516.77	25.102
517.11	25.045
517.46	24.895
517.80	24.970
518.14	24.740
518.49	24.459
518.83	25.152
519.17	24.742
519.52	24.571
519.86	24.730
520.20	25.395
520.55	25.016
520.89	26.349
521.23	25.332
521.58	25.552
521.92	25.833
522.26	25.895
522.61	25.260
522.95	25.960
523.29	25.413
523.64	25.921
523.98	26.183
524.32	25.580
524.66	25.032
525.01	26.039
525.35	26.831
525.69	25.589
526.04	25.265
526.38	25.875
526.72	26.095
527.06	24.838
527.41	26.517
527.75	24.732
528.09	25.050
528.43	25.456
528.78	26.403
529.12	26.065
529.46	24.951
529.80	26.219
530.15	26.205
530.49	25.859
530.83	25.855
531.17	25.655
531.51	26.265
531.86	25.833
532.20	25.261
532.54	25.936
532.88	25.530
533.22	25.672
533.57	25.033
533.91	24.347
534.25	26.563
534.59	25.465
534.93	25.299
535.27	24.302
535.62	24.757
535.96	26.027
536.30	26.253
536.64	25.913
536.98	25.854
537.32	26.316
537.66	26.648
538.01	26.713
538.35	25.173
538.69	25.566
539.03	26.179
539.37	25.707
539.71	25.153
540.05	25.933
540.39	26.385
540.73	26.709
541.07	26.450
541.42	26.478
541.76	25.809
542.10	25.396
542.44	25.782
542.78	25.671
543.12	25.275
543.46	25.661
543.80	25.607
544.14	24.166
544.48	25.450
544.82	26.111
545.16	25.751
545.50	26.168
545.84	25.850
546.18	25.532
546.52	26.027
546.86	24.730
547.20	25.823
547.54	24.452
547.88	25.883
548.22	25.707
548.56	25.726
548.90	25.135
549.24	25.964
549.58	25.458
549.92	25.232
550.26	25.495
550.60	26.097
550.94	25.616
551.28	25.966
551.62	26.462
551.96	26.090
552.30	25.146
552.64	24.965
552.98	25.105
553.32	25.963
553.66	25.689
554.00	25.401
554.34	25.628
554.68	25.590
555.02	26.711
555.36	25.430
555.69	25.934
556.03	24.982
556.37	25.125
556.71	26.137
557.05	26.622
557.39	24.684
557.73	25.187
558.07	25.566
558.41	25.881
558.75	25.799
559.08	26.005
559.42	26.270
559.76	26.101
560.10	27.141
560.44	25.019
560.78	25.594
561.12	26.234
561.45	25.720
561.79	24.440
562.13	25.337
562.47	24.748
562.81	25.865
563.15	25.882
563.48	26.096
563.82	25.738
564.16	24.930
564.50	24.797
564.84	25.435
565.17	25.419
565.51	26.025
565.85	25.446
566.19	25.265
566.52	25.670
566.86	25.450
567.20	25.031
567.54	24.696
567.88	25.132
568.21	24.887
568.55	24.620
568.89	24.743
569.23	24.603
569.56	24.387
569.90	24.361
570.24	23.632
570.57	24.255
570.91	23.980
571.25	24.005
571.59	23.295
571.92	22.844
572.26	22.585
572.60	23.039
572.93	23.753
573.27	22.790
573.61	23.359
573.95	22.966
574.28	23.093
574.62	22.273
574.96	22.413
575.29	22.312
575.63	22.156
575.97	22.391
576.30	22.941
576.64	22.172
576.98	22.728
577.31	22.733
577.65	22.867
577.98	22.570
578.32	22.148
578.66	22.136
578.99	22.110
579.33	22.158
579.67	22.761
580.00	22.608
580.34	22.537
580.67	22.206
581.01	22.526
581.35	22.071
581.68	22.063
582.02	21.802
582.35	21.968
582.69	22.361
583.02	22.388
583.36	22.380
583.70	22.975
584.03	23.103
584.37	23.518
584.70	22.857
585.04	22.383
585.37	22.310
585.71	22.710
586.04	22.769
586.38	22.699
586.72	22.927
587.05	22.964
587.39	22.505
587.72	23.537
588.06	22.640
588.39	23.213
588.73	22.955
589.06	23.418
589.40	23.851
589.73	23.476
590.07	23.792
590.40	23.607
590.73	24.053
591.07	23.749
591.40	23.909
591.74	24.253
592.07	24.768
592.41	23.631
592.74	23.775
593.08	22.738
593.41	22.801
593.75	23.062
594.08	22.520
594.41	23.508
594.75	22.901
595.08	23.383
595.42	23.224
595.75	23.770
596.09	23.104
596.42	23.605
596.75	23.668
597.09	23.736
597.42	23.893
597.75	24.324
598.09	23.223
598.42	23.240
598.76	22.780
599.09	22.957
599.42	22.812
599.76	23.062
600.09	23.416
600.42	23.010
600.76	23.180
601.09	23.626
601.42	23.384
601.76	23.025
602.09	22.896
602.42	23.673
602.76	23.769
603.09	23.547
603.42	24.080
603.76	23.468
604.09	23.329
604.42	23.562
604.76	24.566
605.09	23.766
605.42	23.521
605.75	23.249
606.09	22.803
606.42	22.686
606.75	23.030
607.09	23.780
607.42	23.261
607.75	23.268
608.08	22.956
608.42	23.116
608.75	23.518
609.08	24.116
609.41	24.518
609.75	23.740
610.08	23.764
610.41	23.575
610.74	23.598
611.07	23.721
611.41	23.871
611.74	24.840
612.07	23.233
612.40	24.398
612.73	24.124
613.07	24.241
613.40	23.851
613.73	24.119
614.06	24.318
614.39	24.027
614.72	24.146
615.06	23.575
615.39	23.253
615.72	22.928
616.05	23.575
616.38	23.761
616.71	23.609
617.05	24.212
617.38	24.513
617.71	24.717
618.04	25.143
618.37	24.590
618.70	24.620
619.03	25.556
619.36	24.457
619.69	26.005
620.03	25.712
620.36	25.107
620.69	24.911
621.02	25.229
621.35	26.307
621.68	26.361
622.01	26.083
622.34	25.379
622.67	24.842
623.00	25.574
623.33	25.000
623.66	24.832
623.99	24.433
624.32	25.627
624.65	24.586
624.99	25.207
625.32	25.019
625.65	25.609
625.98	26.833
626.31	24.938
626.64	26.343
626.97	27.051
627.30	25.744
627.63	26.256
627.96	26.954
628.29	26.457
628.62	27.237
628.95	27.255
629.28	26.613
629.61	25.523
629.94	26.979
630.26	24.802
630.59	27.471
630.92	25.846
631.25	25.436
631.58	27.533
631.91	26.096
632.24	26.720
632.57	27.500
632.90	25.860
633.23	27.176
