SpectraSuite Data File
++++++++++++++++++++++++++++++++++++
Date: Fri May 15 20:38:06 PDT 2015
User: schluterlab
Dark Spectrum Present: Yes
Reference Spectrum Present: Yes
Number of Sampled Component Spectra: 1
Spectrometers: USB2E3373
Integration Time (usec): 3000 (USB2E3373)
Spectra Averaged: 3 (USB2E3373)
Boxcar Smoothing: 0 (USB2E3373)
Correct for Electrical Dark: No (USB2E3373)
Strobe/Lamp Enabled: No (USB2E3373)
Correct for Detector Non-linearity: No (USB2E3373)
Correct for Stray Light: No (USB2E3373)
Number of Pixels in Processed Spectrum: 2048
>>>>>Begin Processed Spectral Data<<<<<
178.53	0.000
178.91	0.000
179.29	62.500
179.67	-400.000
180.04	-114.286
180.42	-100.000
180.80	-900.000
181.18	166.667
181.56	150.000
181.94	-150.000
182.31	700.000
182.69	-20.000
183.07	-200.000
183.45	100.000
183.83	100.000
184.20	36.364
184.58	88.889
184.96	-100.000
185.34	300.000
185.72	-450.000
186.09	69.231
186.47	-800.000
186.85	-83.333
187.23	111.111
187.61	-500.000
187.98	0.000
188.36	-66.667
188.74	-33.333
189.12	11.765
189.49	16.667
189.87	0.000
190.25	50.000
190.63	-200.000
191.00	-33.333
191.38	-15.789
191.76	450.000
192.14	-25.000
192.51	150.000
192.89	0.000
193.27	-14.286
193.65	83.333
194.02	145.455
194.40	10.000
194.78	-75.000
195.15	-66.667
195.53	12.500
195.91	125.000
196.29	-100.000
196.66	69.231
197.04	14.286
197.42	11.111
197.79	-400.000
198.17	-92.308
198.55	1100.000
198.92	-300.000
199.30	-800.000
199.68	-40.000
200.05	-66.667
200.43	0.000
200.81	-300.000
201.18	0.000
201.56	600.000
201.94	-50.000
202.31	333.333
202.69	-440.000
203.07	25.000
203.44	0.000
203.82	0.000
204.19	14.286
204.57	-600.000
204.95	162.500
205.32	-90.000
205.70	-28.571
206.08	-25.000
206.45	144.444
206.83	100.000
207.20	-57.143
207.58	-0.000
207.96	-433.333
208.33	-210.000
208.71	-200.000
209.08	-33.333
209.46	-600.000
209.84	0.000
210.21	-1100.000
210.59	42.857
210.96	-66.667
211.34	-175.000
211.71	33.333
212.09	-200.000
212.46	-1300.000
212.84	0.000
213.22	60.000
213.59	450.000
213.97	-30.769
214.34	-27.273
214.72	-83.333
215.09	375.000
215.47	-23.077
215.84	-81.818
216.22	-400.000
216.59	12.500
216.97	200.000
217.34	-300.000
217.72	-60.000
218.09	37.500
218.47	150.000
218.84	-500.000
219.22	77.778
219.59	-260.000
219.97	266.667
220.34	200.000
220.72	28.571
221.09	-175.000
221.47	250.000
221.84	-400.000
222.22	-450.000
222.59	-54.545
222.97	16.667
223.34	133.333
223.72	35.714
224.09	4.762
224.46	10.714
224.84	366.667
225.21	20.000
225.59	100.000
225.96	-250.000
226.34	400.000
226.71	-57.143
227.08	-183.333
227.46	25.000
227.83	-300.000
228.21	-44.444
228.58	-18.182
228.95	87.500
229.33	90.000
229.70	25.000
230.08	-137.500
230.45	-71.429
230.82	114.286
231.20	80.000
231.57	-42.857
231.95	42.857
232.32	-130.000
232.69	-14.286
233.07	-66.667
233.44	-140.000
233.81	-10.000
234.19	0.000
234.56	17.647
234.93	350.000
235.31	75.000
235.68	-240.000
236.05	-76.923
236.43	25.000
236.80	41.176
237.17	43.750
237.55	-15.000
237.92	-22.222
238.29	22.222
238.67	16.667
239.04	-2.941
239.41	-26.829
239.79	26.667
240.16	14.634
240.53	-18.421
240.91	8.696
241.28	0.000
241.65	26.786
242.02	19.178
242.40	-3.333
242.77	16.949
243.14	1.515
243.51	11.250
243.89	10.345
244.26	14.943
244.63	20.238
245.00	9.278
245.38	15.464
245.75	1.124
246.12	8.621
246.49	24.793
246.87	24.038
247.24	1.681
247.61	10.526
247.98	3.252
248.36	6.250
248.73	11.184
249.10	6.494
249.47	5.696
249.84	12.418
250.22	17.647
250.59	5.882
250.96	12.676
251.33	11.047
251.70	9.412
252.08	11.675
252.45	14.356
252.82	7.035
253.19	15.668
253.56	11.682
253.94	15.766
254.31	8.261
254.68	13.596
255.05	10.630
255.42	17.467
255.79	13.900
256.16	15.564
256.54	16.791
256.91	10.266
257.28	14.498
257.65	14.981
258.02	9.929
258.39	15.825
258.76	15.018
259.14	14.618
259.51	7.767
259.88	12.371
260.25	14.052
260.62	15.278
260.99	7.797
261.36	8.219
261.73	11.076
262.10	11.246
262.47	8.896
262.85	11.599
263.22	13.846
263.59	13.084
263.96	16.149
264.33	11.818
264.70	16.071
265.07	10.714
265.44	11.615
265.81	15.254
266.18	13.661
266.55	14.910
266.92	15.026
267.29	11.227
267.66	15.857
268.03	12.042
268.40	10.705
268.77	15.775
269.14	12.230
269.51	13.625
269.88	12.219
270.25	11.224
270.62	10.488
270.99	10.486
271.36	11.736
271.73	13.850
272.10	13.625
272.47	13.948
272.84	15.099
273.21	15.081
273.58	14.217
273.95	13.959
274.32	11.085
274.69	13.575
275.06	14.509
275.43	12.245
275.80	15.453
276.17	12.874
276.54	13.704
276.91	13.377
277.28	12.227
277.65	12.603
278.02	14.468
278.39	12.473
278.76	13.417
279.13	11.826
279.50	12.185
279.87	13.175
280.23	12.903
280.60	13.255
280.97	14.747
281.34	10.577
281.71	13.963
282.08	11.861
282.45	12.524
282.82	10.811
283.19	12.959
283.56	12.909
283.92	9.488
284.29	11.346
284.66	12.403
285.03	13.556
285.40	10.397
285.77	12.478
286.14	11.733
286.51	14.576
286.87	10.238
287.24	11.971
287.61	12.698
287.98	11.930
288.35	12.998
288.72	13.835
289.08	12.153
289.45	11.248
289.82	13.112
290.19	8.874
290.56	8.919
290.93	11.785
291.29	10.324
291.66	12.441
292.03	9.888
292.40	9.355
292.77	11.324
293.13	8.929
293.50	10.470
293.87	11.908
294.24	11.592
294.60	10.581
294.97	11.458
295.34	9.202
295.71	10.730
296.08	10.015
296.44	10.384
296.81	10.417
297.18	9.275
297.55	12.060
297.91	10.959
298.28	12.929
298.65	9.905
299.02	8.625
299.38	7.661
299.75	8.828
300.12	9.162
300.48	9.354
300.85	9.632
301.22	8.182
301.59	9.737
301.95	10.000
302.32	9.987
302.69	9.826
303.05	9.777
303.42	9.340
303.79	11.215
304.15	10.036
304.52	9.275
304.89	8.304
305.25	8.232
305.62	8.168
305.99	7.135
306.35	7.283
306.72	9.224
307.09	9.008
307.45	9.529
307.82	9.722
308.19	8.711
308.55	9.051
308.92	9.586
309.29	9.162
309.65	7.858
310.02	9.241
310.38	8.452
310.75	9.508
311.12	10.011
311.48	8.590
311.85	9.319
312.22	8.017
312.58	9.023
312.95	9.605
313.31	7.764
313.68	8.272
314.05	9.082
314.41	9.072
314.78	10.619
315.14	9.455
315.51	10.766
315.87	9.324
316.24	10.415
316.61	10.827
316.97	10.516
317.34	8.984
317.70	10.134
318.07	10.288
318.43	10.294
318.80	10.038
319.16	12.012
319.53	11.016
319.89	10.728
320.26	10.931
320.62	11.836
320.99	11.273
321.35	11.819
321.72	12.773
322.08	11.883
322.45	12.487
322.81	13.556
323.18	13.248
323.54	12.934
323.91	12.463
324.27	12.500
324.64	13.764
325.00	14.234
325.37	15.702
325.73	14.053
326.10	15.350
326.46	14.888
326.83	15.311
327.19	14.560
327.56	17.029
327.92	16.197
328.29	15.357
328.65	15.660
329.01	15.901
329.38	16.682
329.74	16.336
330.11	16.960
330.47	16.605
330.84	17.115
331.20	19.392
331.56	16.852
331.93	17.534
332.29	16.774
332.66	17.919
333.02	17.193
333.38	17.232
333.75	18.681
334.11	16.473
334.48	19.492
334.84	17.582
335.20	17.841
335.57	17.407
335.93	19.512
336.29	18.600
336.66	17.893
337.02	18.030
337.38	18.241
337.75	19.273
338.11	17.854
338.47	19.434
338.84	18.669
339.20	17.916
339.56	20.092
339.93	18.711
340.29	18.349
340.65	18.369
341.02	19.592
341.38	17.168
341.74	18.198
342.11	18.198
342.47	18.950
342.83	18.599
343.20	18.467
343.56	18.261
343.92	19.043
344.28	19.556
344.65	18.739
345.01	18.583
345.37	17.830
345.73	19.414
346.10	19.672
346.46	17.998
346.82	18.167
347.19	18.204
347.55	19.215
347.91	20.469
348.27	18.189
348.63	19.676
349.00	18.376
349.36	18.204
349.72	19.486
350.08	19.180
350.45	19.314
350.81	19.186
351.17	17.915
351.53	19.837
351.89	18.415
352.26	18.880
352.62	18.952
352.98	18.394
353.34	17.794
353.70	20.146
354.07	18.468
354.43	19.776
354.79	18.827
355.15	20.079
355.51	19.462
355.87	19.660
356.24	19.005
356.60	19.240
356.96	20.397
357.32	20.048
357.68	19.234
358.04	19.871
358.40	19.695
358.77	20.255
359.13	19.055
359.49	18.105
359.85	19.735
360.21	18.022
360.57	18.822
360.93	19.138
361.29	19.033
361.66	20.533
362.02	20.000
362.38	19.573
362.74	19.758
363.10	20.015
363.46	20.237
363.82	20.811
364.18	20.517
364.54	18.676
364.90	20.000
365.26	19.651
365.62	20.438
365.98	20.748
366.35	21.704
366.71	20.547
367.07	20.900
367.43	19.339
367.79	20.141
368.15	19.813
368.51	20.393
368.87	21.393
369.23	20.866
369.59	21.501
369.95	21.261
370.31	21.676
370.67	20.821
371.03	20.612
371.39	21.152
371.75	21.099
372.11	21.327
372.47	20.562
372.83	21.647
373.19	21.897
373.55	21.516
373.91	21.382
374.27	21.049
374.63	22.182
374.99	21.631
375.35	21.379
375.71	22.657
376.07	21.489
376.42	22.313
376.78	22.483
377.14	21.801
377.50	21.912
377.86	23.159
378.22	22.527
378.58	22.821
378.94	22.369
379.30	23.019
379.66	23.574
380.02	23.605
380.38	22.094
380.74	22.262
381.09	23.681
381.45	22.997
381.81	23.072
382.17	23.477
382.53	23.423
382.89	23.478
383.25	23.771
383.61	24.085
383.97	23.683
384.32	24.703
384.68	24.087
385.04	24.142
385.40	23.833
385.76	24.780
386.12	25.097
386.48	24.904
386.83	24.667
387.19	25.092
387.55	25.659
387.91	24.572
388.27	24.847
388.62	26.243
388.98	24.739
389.34	25.671
389.70	26.227
390.06	25.488
390.42	26.295
390.77	26.095
391.13	24.401
391.49	26.585
391.85	26.706
392.20	25.863
392.56	26.065
392.92	26.600
393.28	26.592
393.64	26.607
393.99	27.210
394.35	27.071
394.71	27.650
395.07	27.278
395.42	26.594
395.78	27.622
396.14	28.058
396.50	27.584
396.85	27.302
397.21	27.820
397.57	27.398
397.92	28.101
398.28	28.276
398.64	28.313
399.00	28.217
399.35	28.330
399.71	28.317
400.07	29.081
400.42	28.458
400.78	29.088
401.14	29.462
401.49	29.958
401.85	29.129
402.21	29.096
402.57	29.750
402.92	29.172
403.28	30.326
403.63	29.950
403.99	30.548
404.35	31.106
404.70	30.238
405.06	29.965
405.42	31.572
405.77	31.145
406.13	30.908
406.49	31.083
406.84	32.090
407.20	32.450
407.55	31.359
407.91	31.818
408.27	31.676
408.62	32.554
408.98	32.286
409.34	32.714
409.69	34.109
410.05	32.451
410.40	33.765
410.76	34.439
411.11	33.375
411.47	33.399
411.83	32.580
412.18	33.848
412.54	34.332
412.89	33.682
413.25	34.116
413.60	34.720
413.96	33.742
414.31	35.000
414.67	34.509
415.03	35.353
415.38	34.138
415.74	36.547
416.09	35.859
416.45	35.787
416.80	35.691
417.16	37.224
417.51	36.442
417.87	35.919
418.22	37.176
418.58	38.194
418.93	38.182
419.29	36.876
419.64	36.487
420.00	37.846
420.35	37.731
420.71	36.877
421.06	38.367
421.42	38.582
421.77	37.514
422.12	36.947
422.48	37.629
422.83	37.587
423.19	38.318
423.54	39.212
423.90	37.927
424.25	39.323
424.61	39.351
424.96	38.966
425.31	39.804
425.67	39.847
426.02	40.224
426.38	41.327
426.73	40.315
427.09	40.949
427.44	40.706
427.79	40.601
428.15	40.231
428.50	40.157
428.85	39.988
429.21	42.558
429.56	41.725
429.92	41.757
430.27	39.799
430.62	40.408
430.98	40.658
431.33	41.640
431.68	40.973
432.04	42.482
432.39	41.985
432.74	42.453
433.10	43.218
433.45	43.250
433.80	41.497
434.16	42.161
434.51	42.849
434.86	42.857
435.22	42.120
435.57	44.354
435.92	42.934
436.28	42.397
436.63	43.925
436.98	43.163
437.34	43.557
437.69	45.200
438.04	44.387
438.39	43.433
438.75	44.627
439.10	44.029
439.45	44.796
439.81	43.914
440.16	45.546
440.51	45.433
440.86	46.103
441.22	44.853
441.57	45.033
441.92	45.016
442.27	45.676
442.63	45.128
442.98	45.434
443.33	44.630
443.68	44.881
444.03	45.306
444.39	45.057
444.74	46.377
445.09	45.880
445.44	46.268
445.79	47.396
446.15	46.256
446.50	46.201
446.85	47.450
447.20	46.350
447.55	46.875
447.91	46.249
448.26	46.727
448.61	47.323
448.96	47.160
449.31	46.763
449.66	45.993
450.02	46.663
450.37	47.896
450.72	46.506
451.07	47.025
451.42	47.129
451.77	47.981
452.12	47.189
452.47	46.684
452.83	47.114
453.18	47.565
453.53	47.408
453.88	48.816
454.23	48.801
454.58	47.985
454.93	48.067
455.28	46.095
455.63	47.737
455.98	48.406
456.34	48.659
456.69	48.158
457.04	48.582
457.39	47.995
457.74	48.307
458.09	46.498
458.44	47.279
458.79	46.667
459.14	48.455
459.49	47.821
459.84	48.787
460.19	47.937
460.54	48.594
460.89	48.807
461.24	49.503
461.59	48.575
461.94	47.358
462.29	49.578
462.64	50.233
462.99	49.898
463.34	48.122
463.69	49.099
464.04	48.910
464.39	48.939
464.74	48.896
465.09	49.345
465.44	50.087
465.79	48.129
466.14	48.632
466.49	48.419
466.84	49.554
467.19	50.313
467.54	48.978
467.89	50.474
468.24	49.088
468.59	50.222
468.94	48.381
469.29	50.689
469.64	51.265
469.99	52.488
470.34	50.512
470.68	53.393
471.03	50.389
471.38	51.213
471.73	50.910
472.08	50.678
472.43	51.208
472.78	52.570
473.13	51.633
473.48	51.140
473.83	50.498
474.17	51.813
474.52	51.181
474.87	50.788
475.22	50.092
475.57	51.609
475.92	51.838
476.27	52.561
476.61	50.752
476.96	50.976
477.31	50.514
477.66	49.775
478.01	51.993
478.36	50.926
478.70	52.420
479.05	50.824
479.40	51.192
479.75	51.043
480.10	51.254
480.45	50.850
480.79	51.057
481.14	51.281
481.49	50.837
481.84	51.882
482.19	51.029
482.53	51.175
482.88	50.931
483.23	51.344
483.58	51.509
483.92	50.436
484.27	50.410
484.62	50.022
484.97	50.166
485.31	49.097
485.66	47.582
486.01	47.358
486.36	46.670
486.70	46.883
487.05	47.956
487.40	49.069
487.75	48.676
488.09	48.331
488.44	49.759
488.79	50.019
489.13	51.482
489.48	50.876
489.83	51.570
490.17	51.551
490.52	51.501
490.87	51.874
491.22	52.579
491.56	51.565
491.91	51.243
492.26	53.573
492.60	52.351
492.95	52.238
493.30	52.614
493.64	53.438
493.99	52.367
494.34	52.621
494.68	51.429
495.03	52.652
495.37	52.748
495.72	52.600
496.07	52.732
496.41	51.981
496.76	51.958
497.11	52.399
497.45	52.124
497.80	53.734
498.14	52.409
498.49	53.682
498.84	51.896
499.18	52.861
499.53	52.927
499.87	52.529
500.22	52.226
500.56	53.354
500.91	52.259
501.26	52.496
501.60	53.222
501.95	53.615
502.29	52.833
502.64	53.909
502.98	53.823
503.33	51.489
503.67	53.976
504.02	54.057
504.36	54.676
504.71	53.283
505.06	52.743
505.40	53.807
505.75	54.124
506.09	53.066
506.44	54.415
506.78	54.898
507.13	54.964
507.47	52.742
507.82	54.327
508.16	53.302
508.51	54.722
508.85	55.521
509.19	54.604
509.54	55.174
509.88	53.991
510.23	55.836
510.57	55.318
510.92	53.945
511.26	55.865
511.61	56.436
511.95	56.274
512.30	53.825
512.64	56.205
512.98	55.474
513.33	56.519
513.67	56.111
514.02	57.265
514.36	57.771
514.70	57.401
515.05	57.697
515.39	57.143
515.74	59.042
516.08	57.143
516.42	58.245
516.77	57.402
517.11	58.872
517.46	57.570
517.80	58.343
518.14	56.950
518.49	57.812
518.83	58.748
519.17	58.156
519.52	57.490
519.86	58.223
520.20	58.627
520.55	59.600
520.89	58.971
521.23	59.848
521.58	59.748
521.92	60.321
522.26	59.987
522.61	60.844
522.95	61.854
523.29	60.356
523.64	61.309
523.98	61.568
524.32	59.923
524.66	59.731
525.01	60.779
525.35	60.143
525.69	61.684
526.04	60.516
526.38	61.479
526.72	60.105
527.06	61.803
527.41	61.148
527.75	60.925
528.09	61.130
528.43	61.850
528.78	61.056
529.12	61.226
529.46	62.248
529.80	60.925
530.15	62.244
530.49	61.818
530.83	61.765
531.17	62.257
531.51	62.038
531.86	61.999
532.20	63.048
532.54	63.649
532.88	61.602
533.22	62.030
533.57	60.944
533.91	60.705
534.25	60.742
534.59	61.386
534.93	59.912
535.27	59.898
535.62	61.180
535.96	61.383
536.30	61.544
536.64	64.300
536.98	62.857
537.32	62.945
537.66	62.482
538.01	62.308
538.35	60.888
538.69	61.917
539.03	60.219
539.37	60.498
539.71	62.168
540.05	61.711
540.39	63.850
540.73	62.831
541.07	62.638
541.42	62.097
541.76	62.354
542.10	62.629
542.44	61.293
542.78	58.637
543.12	61.264
543.46	62.378
543.80	62.665
544.14	59.613
544.48	62.558
544.82	62.816
545.16	62.705
545.50	61.348
545.84	62.677
546.18	62.908
546.52	62.149
546.86	63.623
547.20	63.662
547.54	60.707
547.88	61.889
548.22	60.092
548.56	60.422
548.90	61.388
549.24	61.501
549.58	61.566
549.92	61.758
550.26	61.832
550.60	63.271
550.94	64.152
551.28	62.674
551.62	65.077
551.96	62.782
552.30	61.330
552.64	61.425
552.98	60.900
553.32	61.127
553.66	60.958
554.00	63.504
554.34	62.112
554.68	61.357
555.02	61.979
555.36	62.752
555.69	60.513
556.03	61.670
556.37	61.566
556.71	62.816
557.05	63.236
557.39	62.156
557.73	62.294
558.07	62.066
558.41	62.864
558.75	63.757
559.08	63.593
559.42	63.492
559.76	63.811
560.10	62.385
560.44	62.547
560.78	61.329
561.12	62.200
561.45	62.755
561.79	62.045
562.13	62.598
562.47	61.367
562.81	61.167
563.15	60.085
563.48	59.689
563.82	60.329
564.16	62.256
564.50	60.608
564.84	60.174
565.17	59.088
565.51	62.090
565.85	59.465
566.19	60.345
566.52	60.255
566.86	61.054
567.20	59.153
567.54	58.820
567.88	59.637
568.21	59.729
568.55	57.554
568.89	57.136
569.23	56.283
569.56	56.042
569.90	54.730
570.24	53.108
570.57	53.709
570.91	53.503
571.25	52.483
571.59	50.794
571.92	51.141
572.26	50.906
572.60	50.419
572.93	50.298
573.27	51.066
573.61	50.418
573.95	50.191
574.28	49.603
574.62	49.682
574.96	49.738
575.29	49.571
575.63	48.329
575.97	48.794
576.30	49.452
576.64	48.689
576.98	50.450
577.31	49.226
577.65	49.128
577.98	48.478
578.32	47.404
578.66	47.561
578.99	48.105
579.33	48.489
579.67	48.095
580.00	48.759
580.34	47.836
580.67	48.640
581.01	48.439
581.35	47.524
581.68	47.353
582.02	47.220
582.35	47.465
582.69	47.663
583.02	47.981
583.36	48.782
583.70	49.091
584.03	49.597
584.37	50.395
584.70	48.984
585.04	48.368
585.37	48.108
585.71	48.235
586.04	47.832
586.38	48.706
586.72	48.666
587.05	48.989
587.39	49.539
587.72	49.672
588.06	48.962
588.39	49.046
588.73	49.573
589.06	50.522
589.40	49.637
589.73	50.894
590.07	51.095
590.40	51.471
590.73	52.595
591.07	52.587
591.40	52.760
591.74	52.896
592.07	53.293
592.41	52.208
592.74	50.577
593.08	48.795
593.41	48.797
593.75	49.133
594.08	49.056
594.41	50.146
594.75	49.580
595.08	49.792
595.42	49.687
595.75	50.657
596.09	50.586
596.42	50.682
596.75	52.798
597.09	51.936
597.42	51.445
597.75	52.268
598.09	50.702
598.42	51.444
598.76	50.837
599.09	49.239
599.42	48.731
599.76	49.624
600.09	49.397
600.42	48.863
600.76	48.514
601.09	48.702
601.42	48.570
601.76	49.424
602.09	49.629
602.42	51.348
602.76	49.958
603.09	50.374
603.42	51.547
603.76	49.355
604.09	50.466
604.42	49.873
604.76	50.512
605.09	50.183
605.42	50.700
605.75	49.694
606.09	49.257
606.42	50.042
606.75	48.961
607.09	50.198
607.42	49.490
607.75	49.822
608.08	49.371
608.42	49.155
608.75	50.892
609.08	50.822
609.41	51.980
609.75	51.915
610.08	51.273
610.41	49.614
610.74	51.048
611.07	52.403
611.41	51.583
611.74	53.305
612.07	50.910
612.40	51.751
612.73	51.977
613.07	50.394
613.40	51.368
613.73	53.106
614.06	51.029
614.39	53.356
614.72	51.485
615.06	52.235
615.39	50.382
615.72	49.623
616.05	51.732
616.38	50.484
616.71	53.150
617.05	52.440
617.38	52.986
617.71	52.704
618.04	53.270
618.37	52.333
618.70	54.191
619.03	55.069
619.36	54.486
619.69	56.861
620.03	55.442
620.36	53.505
620.69	53.533
621.02	55.046
621.35	55.436
621.68	56.973
622.01	56.917
622.34	55.547
622.67	55.363
623.00	55.972
623.33	54.192
623.66	53.927
623.99	53.404
624.32	54.297
624.65	54.511
624.99	55.455
625.32	54.359
625.65	55.774
625.98	56.003
626.31	55.528
626.64	57.886
626.97	58.377
627.30	57.793
627.63	56.326
627.96	56.694
628.29	57.447
628.62	59.390
628.95	59.820
629.28	59.375
629.61	59.222
629.94	57.771
630.26	57.806
630.59	61.915
630.92	58.872
631.25	56.513
631.58	58.150
631.91	59.211
632.24	59.977
632.57	60.341
632.90	62.159
633.23	60.824
633.56	63.602
633.89	62.392
634.22	62.346
634.55	63.024
634.88	62.324
