SpectraSuite Data File
++++++++++++++++++++++++++++++++++++
Date: Fri May 15 20:27:49 PDT 2015
User: schluterlab
Dark Spectrum Present: Yes
Reference Spectrum Present: Yes
Number of Sampled Component Spectra: 1
Spectrometers: USB2E3373
Integration Time (usec): 3000 (USB2E3373)
Spectra Averaged: 3 (USB2E3373)
Boxcar Smoothing: 0 (USB2E3373)
Correct for Electrical Dark: No (USB2E3373)
Strobe/Lamp Enabled: No (USB2E3373)
Correct for Detector Non-linearity: No (USB2E3373)
Correct for Stray Light: No (USB2E3373)
Number of Pixels in Processed Spectrum: 2048
>>>>>Begin Processed Spectral Data<<<<<
178.53	0.000
178.91	0.000
179.29	87.500
179.67	-650.000
180.04	-0.000
180.42	-25.000
180.80	-300.000
181.18	-0.000
181.56	650.000
181.94	100.000
182.31	300.000
182.69	20.000
183.07	-300.000
183.45	-40.000
183.83	50.000
184.20	-63.636
184.58	133.333
184.96	-50.000
185.34	-33.333
185.72	-300.000
186.09	123.077
186.47	-200.000
186.85	-0.000
187.23	122.222
187.61	-200.000
187.98	-100.000
188.36	77.778
188.74	-166.667
189.12	64.706
189.49	61.111
189.87	0.000
190.25	57.143
190.63	350.000
191.00	-133.333
191.38	15.789
191.76	-100.000
192.14	125.000
192.51	200.000
192.89	100.000
193.27	-142.857
193.65	66.667
194.02	27.273
194.40	40.000
194.78	-62.500
195.15	-50.000
195.53	-50.000
195.91	250.000
196.29	125.000
196.66	100.000
197.04	128.571
197.42	-100.000
197.79	-400.000
198.17	-53.846
198.55	800.000
198.92	-133.333
199.30	400.000
199.68	-140.000
200.05	-300.000
200.43	0.000
200.81	-433.333
201.18	-266.667
201.56	1700.000
201.94	-200.000
202.31	-66.667
202.69	60.000
203.07	200.000
203.44	-100.000
203.82	0.000
204.19	7.143
204.57	-433.333
204.95	100.000
205.32	100.000
205.70	157.143
206.08	50.000
206.45	155.556
206.83	150.000
207.20	-42.857
207.58	-200.000
207.96	-366.667
208.33	-130.000
208.71	-150.000
209.08	-233.333
209.46	-200.000
209.84	-40.000
210.21	-700.000
210.59	-28.571
210.96	166.667
211.34	50.000
211.71	6.667
212.09	-100.000
212.46	-1000.000
212.84	0.000
213.22	90.000
213.59	200.000
213.97	23.077
214.34	-45.455
214.72	-33.333
215.09	325.000
215.47	30.769
215.84	18.182
216.22	33.333
216.59	-25.000
216.97	50.000
217.34	50.000
217.72	-200.000
218.09	-62.500
218.47	162.500
218.84	-400.000
219.22	-33.333
219.59	100.000
219.97	-0.000
220.34	125.000
220.72	142.857
221.09	0.000
221.47	-150.000
221.84	-400.000
222.22	-600.000
222.59	54.545
222.97	-33.333
223.34	-300.000
223.72	-7.143
224.09	0.000
224.46	10.714
224.84	366.667
225.21	-80.000
225.59	46.667
225.96	0.000
226.34	200.000
226.71	-42.857
227.08	-116.667
227.46	0.000
227.83	-500.000
228.21	22.222
228.58	100.000
228.95	-87.500
229.33	10.000
229.70	18.750
230.08	-75.000
230.45	14.286
230.82	-14.286
231.20	-26.667
231.57	57.143
231.95	57.143
232.32	-110.000
232.69	78.571
233.07	-166.667
233.44	60.000
233.81	10.000
234.19	11.111
234.56	58.824
234.93	-50.000
235.31	200.000
235.68	0.000
236.05	61.538
236.43	-10.000
236.80	41.176
237.17	46.875
237.55	55.000
237.92	44.444
238.29	25.000
238.67	40.000
239.04	44.118
239.41	34.146
239.79	50.000
240.16	73.171
240.53	21.053
240.91	23.913
241.28	42.857
241.65	42.857
242.02	52.055
242.40	58.333
242.77	57.627
243.14	31.818
243.51	50.000
243.89	59.770
244.26	39.080
244.63	52.381
245.00	44.330
245.38	43.299
245.75	46.067
246.12	42.241
246.49	46.281
246.87	62.500
247.24	49.580
247.61	50.877
247.98	51.220
248.36	47.500
248.73	47.368
249.10	48.701
249.47	49.367
249.84	47.059
250.22	43.529
250.59	52.941
250.96	50.235
251.33	50.000
251.70	55.294
252.08	45.685
252.45	49.010
252.82	53.769
253.19	52.535
253.56	47.196
253.94	45.946
254.31	55.217
254.68	51.316
255.05	45.669
255.42	52.838
255.79	53.282
256.16	51.751
256.54	52.612
256.91	50.190
257.28	48.699
257.65	50.187
258.02	51.064
258.39	51.178
258.76	57.875
259.14	54.153
259.51	47.573
259.88	51.890
260.25	48.366
260.62	55.208
260.99	53.559
261.36	50.685
261.73	50.949
262.10	50.456
262.47	51.227
262.85	51.411
263.22	52.615
263.59	53.583
263.96	54.969
264.33	51.515
264.70	49.405
265.07	51.786
265.44	53.541
265.81	53.390
266.18	52.459
266.55	50.129
266.92	51.295
267.29	48.825
267.66	48.849
268.03	52.094
268.40	49.086
268.77	54.813
269.14	51.559
269.51	50.129
269.88	49.626
270.25	46.939
270.62	51.463
270.99	50.384
271.36	50.856
271.73	50.000
272.10	53.285
272.47	51.300
272.84	52.475
273.21	50.348
273.58	48.916
273.95	49.199
274.32	51.039
274.69	46.380
275.06	48.437
275.43	50.340
275.80	49.448
276.17	47.356
276.54	47.966
276.91	50.658
277.28	48.035
277.65	51.033
278.02	48.936
278.39	49.672
278.76	47.170
279.13	45.021
279.50	51.681
279.87	51.188
280.23	45.806
280.60	48.538
280.97	48.687
281.34	49.038
281.71	48.665
282.08	48.262
282.45	47.358
282.82	46.718
283.19	48.356
283.56	46.628
283.92	48.577
284.29	48.077
284.66	45.543
285.03	46.758
285.40	44.612
285.77	44.815
286.14	46.029
286.51	50.000
286.87	47.349
287.24	48.066
287.61	46.032
287.98	45.088
288.35	44.887
288.72	46.585
289.08	46.701
289.45	43.058
289.82	43.182
290.19	43.515
290.56	40.823
290.93	41.919
291.29	40.216
291.66	42.677
292.03	42.105
292.40	41.129
292.77	40.510
293.13	40.747
293.50	38.392
293.87	39.695
294.24	40.031
294.60	40.537
294.97	40.476
295.34	40.491
295.71	40.238
296.08	39.462
296.44	36.415
296.81	37.917
297.18	38.261
297.55	38.482
297.91	38.356
298.28	37.731
298.65	35.957
299.02	36.658
299.38	35.978
299.75	37.241
300.12	36.649
300.48	36.891
300.85	35.995
301.22	36.623
301.59	36.184
301.95	36.582
302.32	38.521
302.69	36.070
303.05	35.644
303.42	35.492
303.79	35.514
304.15	36.918
304.52	34.721
304.89	36.374
305.25	35.109
305.62	33.722
305.99	34.737
306.35	36.185
306.72	34.983
307.09	36.260
307.45	36.051
307.82	36.806
308.19	37.398
308.55	35.442
308.92	36.819
309.29	35.978
309.65	35.091
310.02	36.414
310.38	37.102
310.75	36.612
311.12	37.029
311.48	36.373
311.85	37.277
312.22	37.975
312.58	38.323
312.95	36.820
313.31	37.992
313.68	38.953
314.05	38.265
314.41	39.485
314.78	38.969
315.14	38.849
315.51	39.337
315.87	38.934
316.24	39.130
316.61	40.945
316.97	41.270
317.34	41.113
317.70	39.675
318.07	40.577
318.43	42.843
318.80	41.761
319.16	44.238
319.53	43.495
319.89	42.028
320.26	42.206
320.62	44.333
320.99	42.380
321.35	45.735
321.72	45.275
322.08	43.102
322.45	45.381
322.81	44.695
323.18	44.357
323.54	44.788
323.91	45.278
324.27	46.484
324.64	47.097
325.00	46.168
325.37	46.740
325.73	45.422
326.10	47.866
326.46	47.803
326.83	48.119
327.19	48.649
327.56	48.740
327.92	50.176
328.29	46.696
328.65	49.528
329.01	48.897
329.38	49.954
329.74	49.386
330.11	49.490
330.47	49.258
330.84	49.519
331.20	52.852
331.56	49.259
331.93	50.959
332.29	49.679
332.66	49.774
333.02	49.814
333.38	50.687
333.75	49.725
334.11	47.538
334.48	51.224
334.84	51.099
335.20	50.412
335.57	49.955
335.93	50.858
336.29	51.381
336.66	51.589
337.02	50.186
337.38	49.722
337.75	50.818
338.11	51.127
338.47	50.639
338.84	50.277
339.20	50.274
339.56	49.358
339.93	49.955
340.29	50.459
340.65	49.910
341.02	50.532
341.38	49.558
341.74	49.558
342.11	49.220
342.47	49.288
342.83	50.000
343.20	50.610
343.56	51.739
343.92	50.310
344.28	52.263
344.65	50.000
345.01	49.611
345.37	49.285
345.73	50.460
346.10	51.682
346.46	48.192
346.82	49.100
347.19	48.296
347.55	49.708
347.91	49.919
348.27	48.828
348.63	50.085
349.00	49.303
349.36	49.792
349.72	50.663
350.08	48.852
350.45	48.683
350.81	49.917
351.17	48.697
351.53	50.939
351.89	46.821
352.26	48.160
352.62	47.823
352.98	48.755
353.34	49.034
353.70	50.647
354.07	48.790
354.43	48.759
354.79	48.472
355.15	50.000
355.51	49.209
355.87	48.463
356.24	49.674
356.60	47.615
356.96	48.810
357.32	48.243
357.68	48.163
358.04	48.546
358.40	48.392
358.77	49.522
359.13	49.400
359.49	47.535
359.85	49.844
360.21	49.123
360.57	48.279
360.93	48.941
361.29	48.112
361.66	49.060
362.02	49.470
362.38	49.962
362.74	50.643
363.10	48.984
363.46	49.592
363.82	48.084
364.18	48.782
364.54	49.044
364.90	50.538
365.26	48.472
365.62	50.949
365.98	50.513
366.35	50.692
366.71	50.185
367.07	50.145
367.43	49.964
367.79	49.965
368.15	50.179
368.51	51.056
368.87	49.605
369.23	51.625
369.59	50.000
369.95	51.613
370.31	51.951
370.67	51.194
371.03	50.784
371.39	50.255
371.75	51.941
372.11	51.997
372.47	51.997
372.83	52.094
373.19	52.354
373.55	51.913
373.91	51.692
374.27	52.658
374.63	52.692
374.99	52.340
375.35	52.925
375.71	53.007
376.07	52.949
376.42	53.333
376.78	53.758
377.14	53.081
377.50	53.453
377.86	53.882
378.22	53.797
378.58	54.231
378.94	55.325
379.30	55.147
379.66	54.734
380.02	54.445
380.38	54.474
380.74	55.536
381.09	55.276
381.45	54.373
381.81	56.200
382.17	55.964
382.53	56.402
382.89	58.694
383.25	57.996
383.61	57.134
383.97	56.825
384.32	56.348
384.68	57.585
385.04	57.475
385.40	57.934
385.76	58.931
386.12	59.250
386.48	58.812
386.83	58.782
387.19	58.425
387.55	59.097
387.91	59.230
388.27	58.852
388.62	60.793
388.98	59.362
389.34	58.526
389.70	60.597
390.06	60.289
390.42	60.557
390.77	61.413
391.13	59.899
391.49	61.320
391.85	62.443
392.20	61.268
392.56	60.712
392.92	61.773
393.28	61.557
393.64	60.420
393.99	62.571
394.35	62.998
394.71	62.324
395.07	60.779
395.42	61.324
395.78	62.345
396.14	62.295
396.50	63.348
396.85	62.717
397.21	62.657
397.57	62.884
397.92	62.493
398.28	64.483
398.64	62.048
399.00	64.278
399.35	62.302
399.71	62.378
400.07	64.329
400.42	62.607
400.78	64.544
401.14	63.339
401.49	62.656
401.85	63.803
402.21	62.169
402.57	63.250
402.92	62.986
403.28	64.348
403.63	64.691
403.99	63.010
404.35	63.710
404.70	63.095
405.06	62.750
405.42	63.518
405.77	62.870
406.13	63.679
406.49	62.226
406.84	63.264
407.20	63.998
407.55	64.971
407.91	63.703
408.27	63.671
408.62	62.892
408.98	63.463
409.34	63.445
409.69	63.630
410.05	62.623
410.40	63.086
410.76	64.294
411.11	63.937
411.47	64.694
411.83	62.335
412.18	64.286
412.54	61.985
412.89	62.562
413.25	63.899
413.60	63.975
413.96	62.515
414.31	62.622
414.67	62.219
415.03	63.116
415.38	62.924
415.74	63.583
416.09	64.010
416.45	63.808
416.80	63.384
417.16	64.434
417.51	63.358
417.87	63.820
418.22	63.472
418.58	65.151
418.93	63.887
419.29	63.700
419.64	63.448
420.00	65.932
420.35	62.448
420.71	63.730
421.06	63.106
421.42	64.063
421.77	63.353
422.12	63.621
422.48	62.859
422.83	62.761
423.19	63.205
423.54	63.904
423.90	62.367
424.25	63.605
424.61	63.709
424.96	63.821
425.31	64.471
425.67	65.082
426.02	65.253
426.38	65.122
426.73	64.407
427.09	65.000
427.44	64.706
427.79	64.938
428.15	64.078
428.50	63.477
428.85	64.435
429.21	63.214
429.56	64.528
429.92	64.355
430.27	63.609
430.62	64.767
430.98	65.658
431.33	64.984
431.68	64.417
432.04	63.499
432.39	63.833
432.74	63.139
433.10	65.287
433.45	64.098
433.80	63.958
434.16	65.152
434.51	64.892
434.86	66.086
435.22	66.125
435.57	65.627
435.92	64.850
436.28	65.593
436.63	64.518
436.98	64.890
437.34	64.610
437.69	65.534
438.04	64.046
438.39	64.020
438.75	66.363
439.10	64.912
439.45	66.707
439.81	65.749
440.16	67.280
440.51	65.851
440.86	67.492
441.22	66.063
441.57	66.998
441.92	66.632
442.27	68.902
442.63	67.184
442.98	67.490
443.33	65.888
443.68	65.199
444.03	66.617
444.39	65.962
444.74	68.116
445.09	69.154
445.44	67.464
445.79	68.076
446.15	66.355
446.50	66.889
446.85	66.950
447.20	66.997
447.55	67.188
447.91	67.456
448.26	68.469
448.61	66.379
448.96	67.986
449.31	68.150
449.66	68.409
450.02	67.313
450.37	68.168
450.72	67.812
451.07	67.532
451.42	66.417
451.77	66.546
452.12	66.447
452.47	67.675
452.83	67.079
453.18	66.540
453.53	67.762
453.88	67.638
454.23	66.380
454.58	68.577
454.93	67.719
455.28	68.000
455.63	68.444
455.98	69.333
456.34	68.008
456.69	68.996
457.04	68.431
457.39	68.165
457.74	68.561
458.09	67.805
458.44	67.876
458.79	66.667
459.14	68.135
459.49	69.493
459.84	67.569
460.19	68.629
460.54	68.154
460.89	68.636
461.24	66.894
461.59	67.340
461.94	67.421
462.29	67.612
462.64	67.907
462.99	67.976
463.34	67.385
463.69	68.404
464.04	67.736
464.39	67.253
464.74	66.687
465.09	68.434
465.44	66.590
465.79	66.156
466.14	66.363
466.49	66.417
466.84	67.341
467.19	67.647
467.54	67.114
467.89	68.099
468.24	67.032
468.59	68.317
468.94	66.540
469.29	67.148
469.64	66.712
469.99	68.185
470.34	67.782
470.68	67.562
471.03	67.374
471.38	67.404
471.73	66.527
472.08	66.757
472.43	66.846
472.78	65.456
473.13	66.190
473.48	66.775
473.83	65.878
474.17	66.192
474.52	65.475
474.87	65.333
475.22	67.053
475.57	65.669
475.92	65.771
476.27	66.589
476.61	66.782
476.96	64.361
477.31	66.468
477.66	65.281
478.01	66.086
478.36	65.142
478.70	67.754
479.05	65.934
479.40	65.024
479.75	64.651
480.10	65.079
480.45	66.250
480.79	65.710
481.14	65.881
481.49	64.187
481.84	66.651
482.19	65.622
482.53	66.619
482.88	64.391
483.23	65.307
483.58	64.811
483.92	65.295
484.27	64.448
484.62	64.993
484.97	64.303
485.31	64.812
485.66	64.267
486.01	64.781
486.36	65.916
486.70	66.198
487.05	65.959
487.40	64.762
487.75	64.282
488.09	64.431
488.44	64.305
488.79	63.691
489.13	64.143
489.48	63.189
489.83	63.587
490.17	62.876
490.52	64.480
490.87	63.489
491.22	64.327
491.56	62.713
491.91	62.667
492.26	63.977
492.60	64.683
492.95	63.847
493.30	62.384
493.64	63.802
493.99	63.720
494.34	63.204
494.68	64.429
495.03	61.752
495.37	63.248
495.72	63.200
496.07	64.293
496.41	62.406
496.76	63.565
497.11	61.481
497.45	62.816
497.80	63.522
498.14	61.103
498.49	62.671
498.84	62.275
499.18	63.203
499.53	61.855
499.87	62.208
500.22	62.117
500.56	62.279
500.91	60.743
501.26	61.443
501.60	61.928
501.95	63.416
502.29	62.518
502.64	62.114
502.98	61.963
503.33	60.807
503.67	61.398
504.02	61.241
504.36	61.504
504.71	61.061
505.06	60.292
505.40	61.675
505.75	62.268
506.09	60.618
506.44	62.782
506.78	61.378
507.13	60.703
507.47	59.896
507.82	60.951
508.16	60.592
508.51	59.916
508.85	61.643
509.19	60.458
509.54	61.662
509.88	59.223
510.23	60.194
510.57	60.396
510.92	58.582
511.26	60.775
511.61	58.856
511.95	59.507
512.30	59.812
512.64	59.711
512.98	59.966
513.33	58.870
513.67	59.295
514.02	60.126
514.36	59.829
514.70	60.664
515.05	60.400
515.39	59.622
515.74	60.419
516.08	59.594
516.42	60.188
516.77	59.508
517.11	60.059
517.46	59.665
517.80	59.356
518.14	59.032
518.49	57.752
518.83	57.898
519.17	58.217
519.52	59.147
519.86	57.803
520.20	58.141
520.55	58.099
520.89	58.156
521.23	57.441
521.58	58.738
521.92	58.397
522.26	57.645
522.61	59.091
522.95	59.735
523.29	56.607
523.64	56.226
523.98	59.494
524.32	56.637
524.66	57.426
525.01	58.442
525.35	56.384
525.69	56.027
526.04	56.746
526.38	57.328
526.72	55.657
527.06	56.226
527.41	57.718
527.75	55.362
528.09	54.884
528.43	58.744
528.78	57.030
529.12	56.452
529.46	56.010
529.80	55.035
530.15	56.700
530.49	54.815
530.83	56.019
531.17	54.399
531.51	57.045
531.86	55.880
532.20	55.463
532.54	55.480
532.88	56.263
533.22	54.906
533.57	55.767
533.91	55.287
534.25	55.013
534.59	54.779
534.93	54.122
535.27	53.680
535.62	55.412
535.96	55.316
536.30	54.749
536.64	57.202
536.98	54.216
537.32	54.979
537.66	54.839
538.01	53.217
538.35	53.398
538.69	54.128
539.03	53.657
539.37	53.769
539.71	52.215
540.05	53.700
540.39	55.125
540.73	53.487
541.07	54.558
541.42	54.167
541.76	53.407
542.10	53.682
542.44	54.135
542.78	52.512
543.12	52.335
543.46	53.616
543.80	52.949
544.14	51.335
544.48	51.965
544.82	53.042
545.16	52.869
545.50	51.602
545.84	53.329
546.18	53.050
546.52	52.127
546.86	51.977
547.20	52.289
547.54	51.025
547.88	52.989
548.22	50.756
548.56	51.187
548.90	52.089
549.24	51.240
549.58	51.551
549.92	50.107
550.26	51.282
550.60	51.375
550.94	50.411
551.28	52.550
551.62	50.923
551.96	51.579
552.30	50.804
552.64	49.859
552.98	50.141
553.32	50.499
553.66	51.161
554.00	51.752
554.34	51.625
554.68	50.074
555.02	50.893
555.36	51.159
555.69	48.571
556.03	49.179
556.37	48.897
556.71	49.386
557.05	49.515
557.39	48.253
557.73	50.450
558.07	50.830
558.41	49.387
558.75	48.246
559.08	49.251
559.42	48.492
559.76	49.720
560.10	49.847
560.44	48.697
560.78	48.741
561.12	48.872
561.45	50.387
561.79	49.160
562.13	48.687
562.47	48.273
562.81	48.847
563.15	48.237
563.48	49.151
563.82	49.073
564.16	48.677
564.50	47.905
564.84	48.394
565.17	46.680
565.51	49.454
565.85	48.628
566.19	47.414
566.52	49.598
566.86	49.486
567.20	49.315
567.54	49.513
567.88	48.213
568.21	50.226
568.55	48.315
568.89	49.179
569.23	50.072
569.56	48.862
569.90	49.249
570.24	48.716
570.57	48.800
570.91	49.460
571.25	48.043
571.59	48.458
571.92	47.941
572.26	48.158
572.60	47.194
572.93	47.066
573.27	46.959
573.61	47.076
573.95	47.242
574.28	46.637
574.62	47.165
574.96	46.896
575.29	46.820
575.63	45.634
575.97	46.137
576.30	46.612
576.64	46.411
576.98	46.589
577.31	47.358
577.65	46.743
577.98	47.295
578.32	46.966
578.66	45.648
578.99	46.303
579.33	45.541
579.67	45.748
580.00	46.152
580.34	46.269
580.67	46.142
581.01	46.662
581.35	46.059
581.68	46.467
582.02	45.990
582.35	46.871
582.69	46.202
583.02	46.229
583.36	45.564
583.70	46.288
584.03	46.038
584.37	46.273
584.70	45.467
585.04	45.078
585.37	45.430
585.71	45.766
586.04	45.184
586.38	45.319
586.72	45.136
587.05	45.118
587.39	45.876
587.72	46.063
588.06	45.613
588.39	45.258
588.73	45.635
589.06	45.597
589.40	44.832
589.73	44.834
590.07	44.335
590.40	45.201
590.73	45.305
591.07	44.699
591.40	44.435
591.74	44.661
592.07	44.666
592.41	45.009
592.74	43.568
593.08	43.695
593.41	43.822
593.75	44.194
594.08	43.014
594.41	43.413
594.75	43.740
595.08	43.927
595.42	43.835
595.75	44.048
596.09	44.292
596.42	44.150
596.75	44.494
597.09	43.098
597.42	44.173
597.75	43.839
598.09	43.232
598.42	43.005
598.76	43.115
599.09	42.748
599.42	42.630
599.76	42.551
600.09	42.949
600.42	42.343
600.76	42.348
601.09	42.519
601.42	42.499
601.76	43.430
602.09	42.904
602.42	43.345
602.76	42.487
603.09	43.314
603.42	44.356
603.76	42.500
604.09	42.001
604.42	43.063
604.76	42.946
605.09	42.322
605.42	42.032
605.75	42.426
606.09	41.316
606.42	41.952
606.75	42.078
607.09	42.681
607.42	41.471
607.75	41.075
608.08	41.465
608.42	40.704
608.75	42.120
609.08	42.302
609.41	41.980
609.75	41.532
610.08	42.336
610.41	41.401
610.74	41.882
611.07	41.705
611.41	41.775
611.74	42.697
612.07	40.899
612.40	42.341
612.73	40.960
613.07	40.607
613.40	41.466
613.73	40.627
614.06	40.568
614.39	41.173
614.72	40.168
615.06	40.391
615.39	40.011
615.72	40.043
616.05	40.447
616.38	39.601
616.71	40.367
617.05	38.913
617.38	39.598
617.71	40.881
618.04	41.079
618.37	41.299
618.70	41.386
619.03	40.278
619.36	39.725
619.69	41.243
620.03	41.271
620.36	39.413
620.69	39.829
621.02	40.673
621.35	40.996
621.68	38.776
622.01	40.500
622.34	38.947
622.67	38.091
623.00	39.433
623.33	39.329
623.66	39.267
623.99	38.956
624.32	39.316
624.65	38.120
624.99	38.826
625.32	37.983
625.65	39.592
625.98	40.935
626.31	39.152
626.64	39.601
626.97	38.656
627.30	39.317
627.63	38.995
627.96	39.263
628.29	39.870
628.62	38.840
628.95	38.176
629.28	39.113
629.61	37.687
629.94	37.537
630.26	37.352
630.59	40.062
630.92	39.179
631.25	37.333
631.58	38.546
631.91	37.719
632.24	39.450
632.57	38.523
632.90	36.180
633.23	36.000
633.56	37.657
