SpectraSuite Data File
++++++++++++++++++++++++++++++++++++
Date: Fri May 15 21:09:18 PDT 2015
User: schluterlab
Dark Spectrum Present: Yes
Reference Spectrum Present: Yes
Number of Sampled Component Spectra: 1
Spectrometers: USB2E3373
Integration Time (usec): 3000 (USB2E3373)
Spectra Averaged: 3 (USB2E3373)
Boxcar Smoothing: 0 (USB2E3373)
Correct for Electrical Dark: No (USB2E3373)
Strobe/Lamp Enabled: No (USB2E3373)
Correct for Detector Non-linearity: No (USB2E3373)
Correct for Stray Light: No (USB2E3373)
Number of Pixels in Processed Spectrum: 2048
>>>>>Begin Processed Spectral Data<<<<<
178.53	0.000
178.91	0.000
179.29	50.000
179.67	-600.000
180.04	42.857
180.42	125.000
180.80	500.000
181.18	66.667
181.56	350.000
181.94	150.000
182.31	2400.000
182.69	0.000
183.07	-466.667
183.45	-220.000
183.83	16.667
184.20	45.455
184.58	55.556
184.96	100.000
185.34	266.667
185.72	-700.000
186.09	61.538
186.47	-100.000
186.85	66.667
187.23	255.556
187.61	-100.000
187.98	-466.667
188.36	-44.444
188.74	-166.667
189.12	-23.529
189.49	-5.556
189.87	0.000
190.25	28.571
190.63	-100.000
191.00	-333.333
191.38	21.053
191.76	300.000
192.14	200.000
192.51	0.000
192.89	0.000
193.27	-71.429
193.65	183.333
194.02	136.364
194.40	20.000
194.78	-125.000
195.15	-75.000
195.53	-62.500
195.91	200.000
196.29	-250.000
196.66	153.846
197.04	28.571
197.42	-22.222
197.79	-233.333
198.17	-69.231
198.55	1600.000
198.92	-466.667
199.30	-300.000
199.68	-240.000
200.05	-366.667
200.43	0.000
200.81	-100.000
201.18	-300.000
201.56	1300.000
201.94	-300.000
202.31	266.667
202.69	-340.000
203.07	125.000
203.44	-200.000
203.82	0.000
204.19	28.571
204.57	-433.333
204.95	37.500
205.32	-20.000
205.70	28.571
206.08	-25.000
206.45	133.333
206.83	35.714
207.20	-42.857
207.58	200.000
207.96	-566.667
208.33	-50.000
208.71	-100.000
209.08	-100.000
209.46	-900.000
209.84	-140.000
210.21	-900.000
210.59	-42.857
210.96	-133.333
211.34	-150.000
211.71	53.333
212.09	-128.571
212.46	-1500.000
212.84	0.000
213.22	-50.000
213.59	650.000
213.97	30.769
214.34	-81.818
214.72	-33.333
215.09	125.000
215.47	-38.462
215.84	-145.455
216.22	-466.667
216.59	-100.000
216.97	-850.000
217.34	-200.000
217.72	-260.000
218.09	75.000
218.47	250.000
218.84	-900.000
219.22	-11.111
219.59	-280.000
219.97	733.333
220.34	225.000
220.72	-28.571
221.09	-275.000
221.47	-100.000
221.84	-500.000
222.22	-700.000
222.59	18.182
222.97	8.333
223.34	-233.333
223.72	-64.286
224.09	-23.810
224.46	21.429
224.84	533.333
225.21	-10.000
225.59	26.667
225.96	-200.000
226.34	100.000
226.71	14.286
227.08	0.000
227.46	-12.500
227.83	-650.000
228.21	55.556
228.58	36.364
228.95	-112.500
229.33	20.000
229.70	50.000
230.08	-100.000
230.45	-285.714
230.82	42.857
231.20	-86.667
231.57	35.714
231.95	-242.857
232.32	-180.000
232.69	-28.571
233.07	-66.667
233.44	-20.000
233.81	-60.000
234.19	-66.667
234.56	-52.941
234.93	300.000
235.31	-75.000
235.68	-300.000
236.05	-84.615
236.43	-75.000
236.80	-58.824
237.17	9.375
237.55	-55.000
237.92	7.407
238.29	16.667
238.67	6.667
239.04	-5.882
239.41	-41.463
239.79	-26.667
240.16	-4.878
240.53	-18.421
240.91	-21.739
241.28	7.937
241.65	0.000
242.02	6.849
242.40	-5.000
242.77	-3.390
243.14	-4.545
243.51	10.000
243.89	11.494
244.26	-3.448
244.63	7.143
245.00	13.402
245.38	16.495
245.75	3.371
246.12	0.000
246.49	10.744
246.87	7.692
247.24	0.000
247.61	2.632
247.98	2.439
248.36	0.625
248.73	12.500
249.10	9.740
249.47	6.329
249.84	5.229
250.22	9.412
250.59	12.418
250.96	13.146
251.33	2.326
251.70	17.647
252.08	6.599
252.45	6.436
252.82	3.015
253.19	11.521
253.56	4.673
253.94	10.360
254.31	13.043
254.68	16.228
255.05	9.055
255.42	10.044
255.79	8.880
256.16	12.840
256.54	13.433
256.91	6.464
257.28	9.294
257.65	7.865
258.02	7.801
258.39	16.498
258.76	11.355
259.14	11.628
259.51	12.298
259.88	6.529
260.25	12.092
260.62	11.458
260.99	8.475
261.36	10.274
261.73	7.595
262.10	12.462
262.47	10.736
262.85	7.837
263.22	11.077
263.59	9.346
263.96	9.938
264.33	12.424
264.70	9.524
265.07	7.738
265.44	11.331
265.81	11.017
266.18	15.027
266.55	10.797
266.92	12.953
267.29	11.749
267.66	8.696
268.03	8.639
268.40	9.661
268.77	14.171
269.14	11.511
269.51	13.625
269.88	6.983
270.25	8.418
270.62	8.293
270.99	8.440
271.36	10.024
271.73	10.563
272.10	9.002
272.47	10.165
272.84	5.941
273.21	12.065
273.58	10.843
273.95	11.670
274.32	10.624
274.69	8.145
275.06	9.598
275.43	9.070
275.80	8.389
276.17	8.736
276.54	8.565
276.91	12.281
277.28	10.262
277.65	9.504
278.02	7.872
278.39	9.847
278.76	9.644
279.13	6.432
279.50	11.345
279.87	11.015
280.23	9.247
280.60	11.891
280.97	10.707
281.34	9.231
281.71	12.115
282.08	10.225
282.45	8.219
282.82	8.108
283.19	8.704
283.56	8.671
283.92	8.918
284.29	9.038
284.66	6.783
285.03	10.609
285.40	9.452
285.77	8.260
286.14	7.401
286.51	8.856
286.87	8.592
287.24	9.024
287.61	7.231
287.98	10.351
288.35	10.399
288.72	8.581
289.08	7.292
289.45	8.963
289.82	11.014
290.19	6.143
290.56	6.518
290.93	8.249
291.29	7.704
291.66	10.709
292.03	8.453
292.40	9.194
292.77	5.901
293.13	6.331
293.50	5.766
293.87	7.786
294.24	8.346
294.60	8.793
294.97	7.738
295.34	7.362
295.71	8.495
296.08	8.371
296.44	4.267
296.81	8.194
297.18	6.377
297.55	9.214
297.91	6.027
298.28	8.707
298.65	6.242
299.02	7.547
299.38	6.293
299.75	6.345
300.12	7.461
300.48	6.456
300.85	8.112
301.22	6.883
301.59	6.842
301.95	7.975
302.32	9.728
302.69	7.090
303.05	6.436
303.42	6.849
303.79	7.944
304.15	7.407
304.52	6.778
304.89	4.912
305.25	6.780
305.62	5.951
305.99	6.082
306.35	4.740
306.72	5.737
307.09	7.754
307.45	6.429
307.82	6.366
308.19	5.923
308.55	6.543
308.92	6.754
309.29	6.369
309.65	6.243
310.02	6.161
310.38	6.696
310.75	6.776
311.12	5.597
311.48	5.620
311.85	5.026
312.22	6.857
312.58	5.308
312.95	5.977
313.31	5.072
313.68	6.178
314.05	6.224
314.41	5.876
314.78	6.186
315.14	6.680
315.51	7.246
315.87	5.738
316.24	7.786
316.61	6.988
316.97	8.234
317.34	6.738
317.70	6.788
318.07	5.769
318.43	7.157
318.80	5.303
319.16	6.836
319.53	7.787
319.89	6.496
320.26	6.174
320.62	7.623
320.99	5.741
321.35	6.269
321.72	6.542
322.08	6.747
322.45	7.310
322.81	6.778
323.18	6.869
323.54	6.853
323.91	6.524
324.27	6.836
324.64	8.146
325.00	7.482
325.37	8.448
325.73	6.437
326.10	6.994
326.46	9.058
326.83	7.699
327.19	7.585
327.56	7.298
327.92	7.570
328.29	7.321
328.65	7.264
329.01	7.169
329.38	8.018
329.74	6.610
330.11	8.248
330.47	7.143
330.84	6.346
331.20	9.601
331.56	7.685
331.93	9.315
332.29	9.166
332.66	7.692
333.02	8.178
333.38	6.416
333.75	8.333
334.11	6.983
334.48	8.069
334.84	7.875
335.20	6.953
335.57	5.984
335.93	8.311
336.29	8.379
336.66	7.811
337.02	7.063
337.38	7.222
337.75	8.091
338.11	8.206
338.47	7.026
338.84	7.209
339.20	8.501
339.56	7.798
339.93	7.789
340.29	7.706
340.65	7.527
341.02	7.358
341.38	7.168
341.74	6.360
342.11	7.539
342.47	6.851
342.83	7.439
343.20	6.446
343.56	8.000
343.92	8.149
344.28	7.686
344.65	6.563
345.01	6.482
345.37	7.569
345.73	7.782
346.10	7.852
346.46	7.738
346.82	7.610
347.19	6.484
347.55	7.602
347.91	7.201
348.27	7.357
348.63	7.325
349.00	6.809
349.36	7.481
349.72	7.214
350.08	6.393
350.45	8.619
350.81	6.478
351.17	6.433
351.53	8.000
351.89	7.514
352.26	7.280
352.62	8.145
352.98	7.068
353.34	6.522
353.70	7.605
354.07	7.742
354.43	7.926
354.79	6.111
355.15	7.460
355.51	7.516
355.87	7.120
356.24	6.688
356.60	6.467
356.96	7.619
357.32	6.550
357.68	7.115
358.04	6.058
358.40	6.511
358.77	6.619
359.13	6.085
359.49	6.549
359.85	6.942
360.21	7.177
360.57	7.039
360.93	7.489
361.29	5.740
361.66	8.072
362.02	7.348
362.38	6.550
362.74	6.813
363.10	7.073
363.46	6.079
363.82	7.814
364.18	7.232
364.54	6.838
364.90	7.025
365.26	6.550
365.62	8.248
365.98	7.405
366.35	6.846
366.71	6.726
367.07	6.749
367.43	6.470
367.79	6.996
368.15	7.035
368.51	7.065
368.87	6.820
369.23	6.282
369.59	6.341
369.95	6.891
370.31	6.936
370.67	7.015
371.03	6.497
371.39	6.127
371.75	5.934
372.11	6.348
372.47	7.027
372.83	7.026
373.19	7.275
373.55	6.931
373.91	6.983
374.27	7.087
374.63	5.599
374.99	5.887
375.35	7.312
375.71	6.783
376.07	6.671
376.42	6.803
376.78	7.114
377.14	6.906
377.50	6.972
377.86	6.426
378.22	6.382
378.58	6.218
378.94	6.238
379.30	6.425
379.66	6.583
380.02	6.376
380.38	5.356
380.74	6.703
381.09	7.423
381.45	6.422
381.81	6.539
382.17	6.155
382.53	6.558
382.89	6.340
383.25	6.970
383.61	7.256
383.97	6.349
384.32	6.817
384.68	7.059
385.04	6.311
385.40	5.787
385.76	6.164
386.12	7.245
386.48	7.088
386.83	7.356
387.19	6.716
387.55	6.775
387.91	6.357
388.27	6.410
388.62	6.860
388.98	6.384
389.34	7.370
389.70	6.153
390.06	6.356
390.42	6.153
390.77	6.213
391.13	6.053
391.49	6.274
391.85	6.498
392.20	6.403
392.56	5.849
392.92	6.459
393.28	5.955
393.64	6.607
393.99	6.834
394.35	5.882
394.71	6.577
395.07	5.468
395.42	6.375
395.78	6.059
396.14	7.440
396.50	6.848
396.85	5.988
397.21	6.266
397.57	6.771
397.92	6.830
398.28	6.494
398.64	6.627
399.00	6.828
399.35	5.643
399.71	7.410
400.07	6.469
400.42	6.059
400.78	6.307
401.14	7.260
401.49	7.207
401.85	6.581
402.21	6.687
402.57	6.438
402.92	5.960
403.28	6.892
403.63	6.557
403.99	6.441
404.35	7.121
404.70	5.536
405.06	5.875
405.42	5.718
405.77	5.927
406.13	6.286
406.49	5.861
406.84	5.990
407.20	7.345
407.55	5.473
407.91	5.816
408.27	6.501
408.62	7.015
408.98	6.470
409.34	6.753
409.69	6.654
410.05	5.850
410.40	6.358
410.76	6.393
411.11	6.875
411.47	6.772
411.83	6.277
412.18	5.985
412.54	6.305
412.89	5.727
413.25	7.521
413.60	5.901
413.96	6.503
414.31	7.256
414.67	6.286
415.03	6.325
415.38	6.593
415.74	6.710
416.09	6.466
416.45	6.415
416.80	6.477
417.16	5.939
417.51	6.396
417.87	7.236
418.22	6.412
418.58	6.823
418.93	6.959
419.29	5.762
419.64	5.962
420.00	7.053
420.35	6.388
420.71	6.926
421.06	6.691
421.42	7.212
421.77	6.647
422.12	7.151
422.48	6.497
422.83	6.497
423.19	7.336
423.54	6.114
423.90	6.655
424.25	6.889
424.61	7.344
424.96	7.085
425.31	7.221
425.67	6.808
426.02	6.949
426.38	7.264
426.73	6.840
427.09	7.025
427.44	7.706
427.79	7.189
428.15	7.524
428.50	6.239
428.85	6.204
429.21	7.414
429.56	7.062
429.92	6.985
430.27	7.068
430.62	7.057
430.98	6.476
431.33	7.045
431.68	6.907
432.04	6.987
432.39	6.275
432.74	6.254
433.10	7.126
433.45	6.571
433.80	7.023
434.16	5.928
434.51	7.634
434.86	6.736
435.22	7.740
435.57	7.798
435.92	7.186
436.28	6.857
436.63	6.788
436.98	7.010
437.34	6.352
437.69	7.633
438.04	7.236
438.39	6.964
438.75	6.800
439.10	7.583
439.45	7.304
439.81	6.728
440.16	7.245
440.51	7.701
440.86	7.553
441.22	7.692
441.57	6.788
441.92	7.450
442.27	7.428
442.63	7.548
442.98	7.639
443.33	7.067
443.68	7.268
444.03	7.899
444.39	7.083
444.74	7.748
445.09	7.517
445.44	7.236
445.79	7.530
446.15	6.883
446.50	7.099
446.85	7.758
447.20	7.299
447.55	7.366
447.91	7.501
448.26	7.285
448.61	7.599
448.96	8.032
449.31	6.243
449.66	7.491
450.02	7.530
450.37	7.350
450.72	7.159
451.07	6.962
451.42	7.491
451.77	7.233
452.12	7.117
452.47	6.954
452.83	6.949
453.18	7.527
453.53	7.649
453.88	6.922
454.23	7.498
454.58	7.809
454.93	7.410
455.28	6.857
455.63	7.874
455.98	8.058
456.34	7.663
456.69	8.386
457.04	7.876
457.39	8.019
457.74	7.860
458.09	7.593
458.44	6.905
458.79	7.731
459.14	8.238
459.49	8.000
459.84	8.065
460.19	7.524
460.54	8.130
460.89	7.898
461.24	7.578
461.59	7.898
461.94	7.233
462.29	8.565
462.64	8.173
462.99	8.734
463.34	7.858
463.69	7.593
464.04	8.111
464.39	7.884
464.74	7.178
465.09	8.110
465.44	8.829
465.79	6.519
466.14	7.982
466.49	7.361
466.84	7.912
467.19	8.260
467.54	8.748
467.89	7.075
468.24	8.455
468.59	9.079
468.94	7.175
469.29	8.393
469.64	7.861
469.99	7.708
470.34	7.099
470.68	9.321
471.03	8.422
471.38	7.989
471.73	7.283
472.08	7.666
472.43	7.181
472.78	7.334
473.13	7.823
473.48	8.078
473.83	8.780
474.17	7.578
474.52	7.849
474.87	8.182
475.22	7.688
475.57	8.187
475.92	8.228
476.27	8.033
476.61	8.391
476.96	8.087
477.31	8.221
477.66	7.865
478.01	8.366
478.36	7.571
478.70	8.428
479.05	8.462
479.40	7.843
479.75	7.195
480.10	7.937
480.45	7.700
480.79	8.510
481.14	7.941
481.49	7.389
481.84	8.349
482.19	7.437
482.53	8.297
482.88	7.971
483.23	8.541
483.58	8.632
483.92	7.841
484.27	8.204
484.62	8.068
484.97	8.002
485.31	7.731
485.66	7.845
486.01	7.916
486.36	7.511
486.70	8.270
487.05	8.063
487.40	8.195
487.75	7.690
488.09	7.818
488.44	7.118
488.79	8.181
489.13	8.253
489.48	7.995
489.83	8.655
490.17	7.955
490.52	8.129
490.87	7.635
491.22	8.118
491.56	8.349
491.91	8.413
492.26	8.508
492.60	8.157
492.95	9.149
493.30	8.500
493.64	8.301
493.99	8.599
494.34	7.379
494.68	7.810
495.03	8.321
495.37	8.587
495.72	8.481
496.07	8.537
496.41	8.066
496.76	8.383
497.11	7.406
497.45	8.878
497.80	8.829
498.14	8.445
498.49	8.583
498.84	7.884
499.18	8.133
499.53	8.532
499.87	7.928
500.22	8.259
500.56	8.321
500.91	8.133
501.26	8.354
501.60	8.264
501.95	8.297
502.29	8.571
502.64	8.880
502.98	7.943
503.33	7.925
503.67	8.675
504.02	8.456
504.36	8.956
504.71	8.081
505.06	8.656
505.40	7.817
505.75	8.196
506.09	8.109
506.44	9.240
506.78	8.418
507.13	8.738
507.47	8.094
507.82	7.959
508.16	8.505
508.51	8.604
508.85	9.053
509.19	7.504
509.54	8.472
509.88	8.306
510.23	7.477
510.57	8.979
510.92	7.623
511.26	8.620
511.61	8.306
511.95	8.329
512.30	8.758
512.64	9.182
512.98	7.917
513.33	8.842
513.67	8.584
514.02	9.096
514.36	8.686
514.70	9.033
515.05	9.283
515.39	8.855
515.74	8.802
516.08	8.667
516.42	9.011
516.77	8.543
517.11	7.834
517.46	9.037
517.80	9.654
518.14	7.900
518.49	8.654
518.83	9.052
519.17	7.884
519.52	7.756
519.86	8.764
520.20	9.660
520.55	7.505
520.89	8.783
521.23	8.613
521.58	9.905
521.92	9.295
522.26	8.588
522.61	8.506
522.95	10.066
523.29	9.212
523.64	9.784
523.98	9.073
524.32	8.441
524.66	9.411
525.01	10.065
525.35	9.981
525.69	8.956
526.04	8.267
526.38	10.182
526.72	8.371
527.06	9.403
527.41	9.301
527.75	8.579
528.09	9.502
528.43	10.263
528.78	9.043
529.12	9.806
529.46	8.447
529.80	9.120
530.15	9.637
530.49	8.485
530.83	8.824
531.17	9.402
531.51	9.576
531.86	8.702
532.20	8.699
532.54	8.373
532.88	9.309
533.22	9.610
533.57	9.305
533.91	9.204
534.25	9.505
534.59	9.686
534.93	8.748
535.27	8.185
535.62	8.231
535.96	9.915
536.30	9.367
536.64	9.786
536.98	8.502
537.32	8.962
537.66	10.729
538.01	9.161
538.35	8.877
538.69	8.855
539.03	8.134
539.37	8.143
539.71	8.930
540.05	9.233
540.39	9.141
540.73	8.438
541.07	9.876
541.42	10.013
541.76	10.255
542.10	9.498
542.44	9.312
542.78	8.190
543.12	8.723
543.46	9.318
543.80	9.022
544.14	8.611
544.48	9.993
544.82	9.433
545.16	9.631
545.50	9.813
545.84	9.207
546.18	9.787
546.52	9.733
546.86	9.346
547.20	9.800
547.54	8.834
547.88	9.239
548.22	9.270
548.56	10.026
548.90	10.108
549.24	8.540
549.58	9.379
549.92	8.863
550.26	8.864
550.60	9.294
550.94	10.157
551.28	9.351
551.62	10.308
551.96	9.323
552.30	9.284
552.64	9.027
552.98	9.423
553.32	9.415
553.66	8.563
554.00	10.000
554.34	8.567
554.68	10.103
555.02	9.598
555.36	9.574
555.69	8.498
556.03	9.279
556.37	9.466
556.71	8.736
557.05	9.172
557.39	8.327
557.73	9.820
558.07	9.502
558.41	9.495
558.75	9.509
559.08	8.511
559.42	8.571
559.76	8.647
560.10	8.792
560.44	8.637
560.78	10.140
561.12	9.379
561.45	9.065
561.79	9.734
562.13	8.730
562.47	8.993
562.81	8.646
563.15	9.591
563.48	9.830
563.82	9.334
564.16	8.148
564.50	8.378
564.84	10.040
565.17	9.390
565.51	9.495
565.85	9.602
566.19	10.212
566.52	8.780
566.86	9.576
567.20	9.278
567.54	9.002
567.88	9.139
568.21	9.106
568.55	9.457
568.89	9.754
569.23	8.618
569.56	8.669
569.90	9.541
570.24	8.709
570.57	9.127
570.91	9.481
571.25	8.583
571.59	9.031
571.92	8.593
572.26	8.122
572.60	8.930
572.93	9.288
573.27	8.589
573.61	8.592
573.95	8.520
574.28	8.581
574.62	8.721
574.96	8.651
575.29	8.556
575.63	8.215
575.97	8.376
576.30	8.209
576.64	8.344
576.98	8.468
577.31	8.651
577.65	8.578
577.98	8.770
578.32	8.488
578.66	8.425
578.99	8.587
579.33	8.119
579.67	8.605
580.00	8.810
580.34	8.557
580.67	8.333
581.01	8.598
581.35	8.764
581.68	8.364
582.02	8.332
582.35	8.301
582.69	8.298
583.02	8.225
583.36	8.375
583.70	8.801
584.03	8.674
584.37	8.809
584.70	8.736
585.04	8.316
585.37	8.845
585.71	8.097
586.04	8.422
586.38	8.162
586.72	8.034
587.05	8.579
587.39	8.862
587.72	8.803
588.06	8.525
588.39	8.431
588.73	8.944
589.06	8.545
589.40	8.884
589.73	8.981
590.07	9.101
590.40	9.714
590.73	8.937
591.07	8.439
591.40	8.727
591.74	9.095
592.07	9.879
592.41	9.099
592.74	8.602
593.08	8.383
593.41	8.863
593.75	8.669
594.08	8.548
594.41	9.061
594.75	8.626
595.08	8.854
595.42	8.539
595.75	8.900
596.09	8.952
596.42	8.847
596.75	9.014
597.09	9.749
597.42	9.259
597.75	8.933
598.09	8.692
598.42	8.529
598.76	8.837
599.09	8.974
599.42	8.943
599.76	9.142
600.09	8.484
600.42	8.870
600.76	8.544
601.09	8.397
601.42	8.226
601.76	8.495
602.09	8.828
602.42	9.183
602.76	8.701
603.09	8.555
603.42	9.281
603.76	8.548
604.09	8.262
604.42	9.010
604.76	8.767
605.09	9.415
605.42	9.074
605.75	8.757
606.09	9.002
606.42	9.091
606.75	8.918
607.09	9.187
607.42	8.285
607.75	8.881
608.08	8.715
608.42	9.091
608.75	9.253
609.08	8.869
609.41	8.832
609.75	9.325
610.08	8.987
610.41	8.792
610.74	8.532
611.07	8.992
611.41	8.978
611.74	9.915
612.07	8.672
612.40	9.081
612.73	8.983
613.07	8.774
613.40	9.409
613.73	8.338
614.06	9.071
614.39	8.686
614.72	9.020
615.06	8.659
615.39	9.825
615.72	8.988
616.05	8.324
616.38	8.946
616.71	9.419
617.05	8.462
617.38	9.114
617.71	8.994
618.04	9.333
618.37	9.899
618.70	9.043
619.03	10.000
619.36	7.815
619.69	10.387
620.03	10.226
620.36	9.585
620.69	8.708
621.02	8.945
621.35	9.544
621.68	9.354
622.01	10.167
622.34	10.535
622.67	10.095
623.00	9.724
623.33	8.994
623.66	8.452
623.99	7.867
624.32	8.669
624.65	8.647
624.99	10.158
625.32	7.733
625.65	9.662
625.98	9.347
626.31	9.559
626.64	9.965
626.97	10.122
627.30	9.282
627.63	10.312
627.96	8.985
628.29	8.603
628.62	10.324
628.95	9.419
629.28	9.879
629.61	8.574
629.94	9.384
630.26	9.881
630.59	10.926
630.92	9.538
631.25	9.333
631.58	9.471
631.91	8.443
632.24	9.060
632.57	9.659
632.90	9.134
633.23	9.647
633.56	8.942
633.89	8.878
634.22	10.494
634.55	9.530
634.88	9.706
635.20	8.846
635.53	10.000
635.86	8.713
636.19	9.832
636.52	9.184
636.85	9.181
637.18	8.302
637.51	8.050
637.83	9.330
638.16	9.959
638.49	8.038
638.82	11.316
639.15	10.041
639.48	9.904
639.81	10.181
640.13	8.514
640.46	9.038
640.79	6.922
641.12	8.715
641.45	10.060
641.77	10.074
642.10	11.690
642.43	9.325
642.76	10.561
643.09	12.278
643.41	10.032
643.74	11.203
644.07	9.852
644.40	9.966
644.73	8.581
645.05	10.570
645.38	11.111
645.71	9.220
646.04	9.874
646.36	11.348
646.69	11.331
647.02	9.263
647.35	11.381
647.67	10.055
648.00	10.634
648.33	9.727
648.66	10.508
648.98	9.548
649.31	9.091
649.64	8.477
649.96	8.752
650.29	9.029
650.62	10.256
650.94	8.148
651.27	8.752
651.60	9.730
651.92	9.965
652.25	8.526
652.58	9.167
652.90	9.434
653.23	8.403
653.56	10.321
653.88	8.763
654.21	7.180
654.54	9.338
654.86	9.847
655.19	9.942
655.52	10.449
655.84	8.345
656.17	9.444
656.49	12.381
