SpectraSuite Data File
++++++++++++++++++++++++++++++++++++
Date: Fri May 15 21:09:37 PDT 2015
User: schluterlab
Dark Spectrum Present: Yes
Reference Spectrum Present: Yes
Number of Sampled Component Spectra: 1
Spectrometers: USB2E3373
Integration Time (usec): 3000 (USB2E3373)
Spectra Averaged: 3 (USB2E3373)
Boxcar Smoothing: 0 (USB2E3373)
Correct for Electrical Dark: No (USB2E3373)
Strobe/Lamp Enabled: No (USB2E3373)
Correct for Detector Non-linearity: No (USB2E3373)
Correct for Stray Light: No (USB2E3373)
Number of Pixels in Processed Spectrum: 2048
>>>>>Begin Processed Spectral Data<<<<<
178.53	0.000
178.91	0.000
179.29	25.000
179.67	-250.000
180.04	42.857
180.42	175.000
180.80	-100.000
181.18	66.667
181.56	500.000
181.94	-50.000
182.31	200.000
182.69	-60.000
183.07	66.667
183.45	-160.000
183.83	83.333
184.20	-54.545
184.58	111.111
184.96	-0.000
185.34	300.000
185.72	-400.000
186.09	100.000
186.47	-500.000
186.85	66.667
187.23	244.444
187.61	-900.000
187.98	-166.667
188.36	-44.444
188.74	-66.667
189.12	5.882
189.49	11.111
189.87	0.000
190.25	14.286
190.63	100.000
191.00	-466.667
191.38	31.579
191.76	350.000
192.14	25.000
192.51	-250.000
192.89	-88.889
193.27	-28.571
193.65	250.000
194.02	181.818
194.40	-70.000
194.78	-112.500
195.15	-25.000
195.53	-200.000
195.91	175.000
196.29	-275.000
196.66	7.692
197.04	157.143
197.42	44.444
197.79	-500.000
198.17	-115.385
198.55	300.000
198.92	-66.667
199.30	-700.000
199.68	-260.000
200.05	-500.000
200.43	0.000
200.81	-300.000
201.18	-33.333
201.56	1800.000
201.94	-250.000
202.31	-200.000
202.69	-120.000
203.07	325.000
203.44	-200.000
203.82	0.000
204.19	-14.286
204.57	-166.667
204.95	25.000
205.32	20.000
205.70	-42.857
206.08	125.000
206.45	144.444
206.83	42.857
207.20	85.714
207.58	200.000
207.96	-300.000
208.33	-110.000
208.71	-100.000
209.08	-166.667
209.46	-700.000
209.84	-20.000
210.21	-300.000
210.59	-42.857
210.96	-83.333
211.34	-100.000
211.71	40.000
212.09	-171.429
212.46	-2100.000
212.84	0.000
213.22	10.000
213.59	300.000
213.97	-23.077
214.34	0.000
214.72	0.000
215.09	325.000
215.47	23.077
215.84	0.000
216.22	-433.333
216.59	-75.000
216.97	150.000
217.34	-100.000
217.72	-260.000
218.09	-25.000
218.47	137.500
218.84	-1200.000
219.22	-55.556
219.59	0.000
219.97	433.333
220.34	525.000
220.72	-14.286
221.09	-125.000
221.47	-200.000
221.84	-450.000
222.22	-850.000
222.59	-36.364
222.97	-16.667
223.34	-100.000
223.72	-42.857
224.09	4.762
224.46	-17.857
224.84	433.333
225.21	-30.000
225.59	40.000
225.96	-350.000
226.34	375.000
226.71	-171.429
227.08	-33.333
227.46	12.500
227.83	-200.000
228.21	-22.222
228.58	-36.364
228.95	-62.500
229.33	120.000
229.70	6.250
230.08	-87.500
230.45	-185.714
230.82	-42.857
231.20	26.667
231.57	57.143
231.95	-142.857
232.32	-50.000
232.69	35.714
233.07	166.667
233.44	-80.000
233.81	-70.000
234.19	11.111
234.56	-58.824
234.93	100.000
235.31	125.000
235.68	-240.000
236.05	-138.462
236.43	-50.000
236.80	-17.647
237.17	-9.375
237.55	15.000
237.92	3.704
238.29	5.556
238.67	-3.333
239.04	5.882
239.41	-24.390
239.79	-10.000
240.16	31.707
240.53	2.632
240.91	-4.348
241.28	0.000
241.65	19.643
242.02	16.438
242.40	18.333
242.77	1.695
243.14	9.091
243.51	1.250
243.89	17.241
244.26	11.494
244.63	5.952
245.00	10.309
245.38	19.588
245.75	2.247
246.12	6.897
246.49	15.702
246.87	15.385
247.24	4.202
247.61	0.877
247.98	7.317
248.36	9.375
248.73	19.737
249.10	12.987
249.47	11.392
249.84	14.379
250.22	12.941
250.59	13.072
250.96	17.371
251.33	11.047
251.70	18.235
252.08	22.335
252.45	13.366
252.82	11.055
253.19	13.825
253.56	12.150
253.94	18.018
254.31	19.565
254.68	19.298
255.05	15.748
255.42	15.721
255.79	16.988
256.16	19.844
256.54	20.896
256.91	16.730
257.28	15.613
257.65	15.356
258.02	14.184
258.39	19.865
258.76	20.879
259.14	17.608
259.51	15.858
259.88	15.464
260.25	19.935
260.62	19.097
260.99	17.966
261.36	13.699
261.73	15.823
262.10	17.021
262.47	16.564
262.85	18.182
263.22	14.769
263.59	18.069
263.96	19.565
264.33	17.273
264.70	17.560
265.07	18.155
265.44	19.830
265.81	16.102
266.18	19.672
266.55	20.823
266.92	18.394
267.29	18.016
267.66	19.437
268.03	16.492
268.40	14.883
268.77	19.519
269.14	19.904
269.51	20.051
269.88	16.209
270.25	17.347
270.62	16.829
270.99	14.066
271.36	16.626
271.73	17.840
272.10	15.572
272.47	17.967
272.84	18.812
273.21	17.401
273.58	20.000
273.95	16.247
274.32	15.935
274.69	16.742
275.06	16.741
275.43	17.007
275.80	18.102
276.17	14.943
276.54	16.702
276.91	16.228
277.28	15.939
277.65	19.215
278.02	14.681
278.39	15.755
278.76	16.352
279.13	13.071
279.50	16.597
279.87	17.279
280.23	17.634
280.60	19.688
280.97	17.576
281.34	15.192
281.71	18.070
282.08	16.973
282.45	16.438
282.82	15.251
283.19	16.441
283.56	17.341
283.92	13.852
284.29	16.731
284.66	14.729
285.03	15.914
285.40	14.556
285.77	14.938
286.14	15.523
286.51	19.926
286.87	14.808
287.24	15.838
287.61	14.109
287.98	17.368
288.35	16.464
288.72	16.813
289.08	14.931
289.45	15.817
289.82	18.007
290.19	13.481
290.56	14.923
290.93	15.320
291.29	14.792
291.66	16.378
292.03	14.673
292.40	15.806
292.77	13.876
293.13	13.799
293.50	13.657
293.87	16.641
294.24	13.447
294.60	14.456
294.97	15.327
295.34	14.264
295.71	13.264
296.08	12.706
296.44	12.802
296.81	13.194
297.18	12.319
297.55	15.176
297.91	13.973
298.28	13.720
298.65	13.704
299.02	13.208
299.38	10.944
299.75	10.483
300.12	10.995
300.48	12.121
300.85	13.561
301.22	12.338
301.59	13.026
301.95	13.038
302.32	14.008
302.69	11.692
303.05	11.386
303.42	13.076
303.79	13.785
304.15	13.740
304.52	10.820
304.89	11.930
305.25	10.775
305.62	10.035
305.99	10.058
306.35	11.214
306.72	11.699
307.09	12.315
307.45	13.433
307.82	12.500
308.19	12.195
308.55	11.668
308.92	12.854
309.29	12.291
309.65	12.271
310.02	12.871
310.38	12.843
310.75	12.678
311.12	13.240
311.48	12.407
311.85	11.937
312.22	12.131
312.58	13.482
312.95	11.633
313.31	12.319
313.68	11.728
314.05	12.041
314.41	13.196
314.78	14.124
315.14	14.388
315.51	14.286
315.87	15.676
316.24	15.774
316.61	16.339
316.97	16.270
317.34	15.137
317.70	15.392
318.07	15.481
318.43	17.353
318.80	16.383
319.16	16.699
319.53	18.613
319.89	17.618
320.26	19.028
320.62	20.060
320.99	19.833
321.35	20.452
321.72	21.184
322.08	21.249
322.45	21.015
322.81	23.772
323.18	22.767
323.54	23.069
323.91	23.953
324.27	25.293
324.64	26.124
325.00	26.825
325.37	28.007
325.73	26.927
326.10	29.155
326.46	30.673
326.83	29.921
327.19	31.299
327.56	30.582
327.92	33.011
328.29	31.429
328.65	33.868
329.01	33.548
329.38	34.470
329.74	32.956
330.11	35.681
330.47	35.807
330.84	35.769
331.20	37.833
331.56	35.185
331.93	37.900
332.29	38.038
332.66	37.828
333.02	37.732
333.38	37.580
333.75	38.919
334.11	38.317
334.48	39.529
334.84	39.103
335.20	39.524
335.57	38.803
335.93	41.102
336.29	40.331
336.66	39.873
337.02	40.892
337.38	38.241
337.75	38.727
338.11	41.930
338.47	40.967
338.84	41.497
339.20	40.676
339.56	40.459
339.93	41.271
340.29	42.477
340.65	42.294
341.02	40.869
341.38	40.354
341.74	41.078
342.11	40.035
342.47	41.815
342.83	41.522
343.20	40.854
343.56	41.826
343.92	42.338
344.28	41.076
344.65	40.846
345.01	40.277
345.37	41.211
345.73	41.506
346.10	43.054
346.46	40.791
346.82	41.817
347.19	40.150
347.55	41.771
347.91	41.990
348.27	42.037
348.63	42.589
349.00	40.197
349.36	42.145
349.72	41.376
350.08	41.475
350.45	40.623
350.81	41.777
351.17	41.205
351.53	41.551
351.89	40.462
352.26	40.000
352.62	41.371
352.98	40.964
353.34	40.902
353.70	41.828
354.07	40.484
354.43	40.753
354.79	41.949
355.15	42.143
355.51	41.218
355.87	42.233
356.24	40.946
356.60	41.148
356.96	41.905
357.32	40.655
357.68	41.204
358.04	41.195
358.40	40.836
358.77	41.866
359.13	40.592
359.49	40.524
359.85	41.888
360.21	41.069
360.57	40.321
360.93	40.696
361.29	41.541
361.66	41.301
362.02	41.818
362.38	42.270
362.74	41.938
363.10	41.761
363.46	41.883
363.82	41.698
364.18	39.779
364.54	41.029
364.90	41.720
365.26	41.776
365.62	42.847
365.98	41.935
366.35	41.733
366.71	40.872
367.07	41.509
367.43	40.906
367.79	41.696
368.15	42.714
368.51	40.859
368.87	41.565
369.23	40.217
369.59	41.254
369.95	42.229
370.31	41.618
370.67	42.761
371.03	41.150
371.39	41.284
371.75	41.026
372.11	40.799
372.47	42.234
372.83	42.087
373.19	40.585
373.55	40.578
373.91	40.821
374.27	41.318
374.63	41.780
374.99	41.560
375.35	42.061
375.71	41.748
376.07	41.784
376.42	41.769
376.78	41.611
377.14	40.555
377.50	40.372
377.86	40.027
378.22	41.289
378.58	41.603
378.94	41.210
379.30	40.861
379.66	41.881
380.02	42.060
380.38	40.840
380.74	40.395
381.09	41.718
381.45	41.284
381.81	39.975
382.17	40.990
382.53	41.037
382.89	40.615
383.25	41.630
383.61	42.561
383.97	40.762
384.32	40.088
384.68	40.743
385.04	39.828
385.40	40.075
385.76	41.824
386.12	41.462
386.48	41.315
386.83	40.647
387.19	40.904
387.55	42.221
387.91	41.076
388.27	39.499
388.62	40.906
388.98	40.454
389.34	40.662
389.70	41.268
390.06	40.025
390.42	40.479
390.77	40.419
391.13	41.173
391.49	40.362
391.85	40.546
392.20	40.301
392.56	40.559
392.92	39.225
393.28	40.684
393.64	40.060
393.99	41.317
394.35	40.797
394.71	41.635
395.07	39.598
395.42	39.526
395.78	40.261
396.14	40.605
396.50	41.471
396.85	39.730
397.21	40.163
397.57	40.439
397.92	39.365
398.28	39.425
398.64	37.470
399.00	40.237
399.35	38.713
399.71	38.886
400.07	40.810
400.42	38.556
400.78	40.478
401.14	39.443
401.49	39.428
401.85	39.001
402.21	39.096
402.57	40.250
402.92	39.147
403.28	39.724
403.63	39.723
403.99	40.561
404.35	38.976
404.70	37.500
405.06	39.365
405.42	38.906
405.77	38.582
406.13	38.533
406.49	38.129
406.84	38.814
407.20	40.397
407.55	38.571
407.91	39.104
408.27	37.859
408.62	38.523
408.98	39.125
409.34	39.343
409.69	37.468
410.05	37.315
410.40	37.407
410.76	38.661
411.11	38.625
411.47	38.462
411.83	37.602
412.18	37.387
412.54	37.953
412.89	37.746
413.25	38.087
413.60	37.516
413.96	36.871
414.31	37.134
414.67	37.973
415.03	37.550
415.38	37.859
415.74	37.720
416.09	37.753
416.45	37.677
416.80	37.673
417.16	38.674
417.51	36.775
417.87	37.679
418.22	37.565
418.58	37.191
418.93	37.179
419.29	36.620
419.64	38.820
420.00	37.154
420.35	36.537
420.71	36.330
421.06	36.157
421.42	37.320
421.77	36.821
422.12	36.947
422.48	36.004
422.83	37.181
423.19	36.287
423.54	36.567
423.90	36.514
424.25	36.625
424.61	36.965
424.96	36.295
425.31	36.626
425.67	36.913
426.02	36.455
426.38	36.443
426.73	36.864
427.09	36.456
427.44	37.000
427.79	35.651
428.15	36.226
428.50	36.402
428.85	35.074
429.21	35.257
429.56	36.765
429.92	35.901
430.27	35.188
430.62	34.867
430.98	35.881
431.33	35.752
431.68	35.583
432.04	35.215
432.39	35.311
432.74	35.478
433.10	36.609
433.45	36.201
433.80	35.636
434.16	35.291
434.51	35.591
434.86	34.553
435.22	35.390
435.57	36.120
435.92	35.329
436.28	35.003
436.63	35.197
436.98	34.299
437.34	34.967
437.69	35.301
438.04	35.385
438.39	33.965
438.75	35.944
439.10	34.748
439.45	35.606
439.81	34.434
440.16	35.570
440.51	34.866
440.86	35.770
441.22	36.029
441.57	34.603
441.92	35.257
442.27	34.756
442.63	34.797
442.98	35.439
443.33	34.057
443.68	34.111
444.03	35.171
444.39	34.284
444.74	36.232
445.09	35.412
445.44	34.758
445.79	34.812
446.15	34.031
446.50	33.943
446.85	35.175
447.20	34.150
447.55	35.714
447.91	33.954
448.26	34.548
448.61	34.773
448.96	34.710
449.31	33.526
449.66	33.914
450.02	33.771
450.37	34.736
450.72	34.135
451.07	34.937
451.42	34.457
451.77	34.840
452.12	33.254
452.47	33.870
452.83	33.569
453.18	34.219
453.53	34.387
453.88	34.669
454.23	34.604
454.58	35.705
454.93	35.052
455.28	33.016
455.63	34.098
455.98	34.396
456.34	33.589
456.69	33.799
457.04	34.783
457.39	33.475
457.74	33.011
458.09	32.549
458.44	32.943
458.79	32.941
459.14	33.524
459.49	34.030
459.84	33.503
460.19	33.556
460.54	34.230
460.89	33.807
461.24	33.168
461.59	33.967
461.94	32.830
462.29	33.052
462.64	34.153
462.99	33.785
463.34	32.615
463.69	33.205
464.04	33.898
464.39	32.929
464.74	32.822
465.09	33.313
465.44	33.353
465.79	32.653
466.14	33.865
466.49	33.122
466.84	32.362
467.19	32.854
467.54	33.653
467.89	32.154
468.24	32.786
468.59	33.714
468.94	31.619
469.29	33.246
469.64	33.698
469.99	33.287
470.34	32.423
470.68	34.228
471.03	34.112
471.38	33.238
471.73	32.633
472.08	31.615
472.43	32.483
472.78	32.351
473.13	33.265
473.48	32.508
473.83	32.316
474.17	33.031
474.52	32.163
474.87	32.848
475.22	31.727
475.57	32.637
475.92	32.693
476.27	32.712
476.61	32.697
476.96	32.125
477.31	31.693
477.66	32.079
478.01	32.903
478.36	31.754
478.70	32.735
479.05	32.143
479.40	32.220
479.75	30.970
480.10	31.848
480.45	32.100
480.79	32.931
481.14	32.633
481.49	31.576
481.84	31.612
482.19	32.601
482.53	32.566
482.88	31.599
483.23	31.478
483.58	31.368
483.92	31.171
484.27	30.766
484.62	30.928
484.97	30.970
485.31	29.769
485.66	28.506
486.01	28.462
486.36	28.543
486.70	28.721
487.05	29.908
487.40	29.085
487.75	29.690
488.09	29.265
488.44	29.677
488.79	30.743
489.13	30.609
489.48	30.868
489.83	30.628
490.17	31.146
490.52	30.439
490.87	30.541
491.22	31.041
491.56	31.262
491.91	30.545
492.26	30.627
492.60	31.094
492.95	31.972
493.30	30.728
493.64	30.992
493.99	31.546
494.34	30.680
494.68	30.476
495.03	29.878
495.37	30.569
495.72	31.196
496.07	30.439
496.41	30.849
496.76	29.894
497.11	30.927
497.45	30.788
497.80	30.676
498.14	30.651
498.49	31.336
498.84	30.190
499.18	30.723
499.53	30.258
499.87	29.815
500.22	29.377
500.56	30.509
500.91	29.518
501.26	28.571
501.60	29.759
501.95	30.762
502.29	29.734
502.64	30.357
502.98	29.551
503.33	28.915
503.67	29.590
504.02	30.010
504.36	30.035
504.71	30.707
505.06	29.844
505.40	29.848
505.75	30.670
506.09	30.613
506.44	31.263
506.78	31.122
507.13	30.248
507.47	28.512
507.82	29.380
508.16	29.160
508.51	30.273
508.85	30.508
509.19	29.218
509.54	29.651
509.88	29.450
510.23	29.371
510.57	30.144
510.92	29.531
511.26	30.005
511.61	29.703
511.95	29.534
512.30	29.989
512.64	29.939
512.98	29.085
513.33	30.218
513.67	29.449
514.02	30.149
514.36	30.114
514.70	30.886
515.05	31.081
515.39	30.283
515.74	30.719
516.08	30.126
516.42	30.624
516.77	30.544
517.11	30.623
517.46	31.718
517.80	29.738
518.14	30.374
518.49	29.387
518.83	30.012
519.17	29.230
519.52	28.893
519.86	30.372
520.20	29.526
520.55	29.769
520.89	29.925
521.23	29.069
521.58	30.158
521.92	29.295
522.26	30.124
522.61	30.455
522.95	31.325
523.29	30.623
523.64	30.877
523.98	30.655
524.32	28.930
524.66	29.449
525.01	29.740
525.35	30.525
525.69	29.899
526.04	29.960
526.38	30.674
526.72	29.366
527.06	30.545
527.41	29.881
527.75	30.295
528.09	29.967
528.43	30.047
528.78	28.845
529.12	28.774
529.46	28.915
529.80	28.626
530.15	29.901
530.49	29.764
530.83	28.728
531.17	28.946
531.51	30.164
531.86	29.232
532.20	29.088
532.54	30.020
532.88	30.664
533.22	29.301
533.57	28.571
533.91	29.112
534.25	29.362
534.59	28.736
534.93	27.690
535.27	27.157
535.62	27.414
535.96	28.637
536.30	27.968
536.64	29.428
536.98	29.338
537.32	29.587
537.66	28.612
538.01	29.231
538.35	28.363
538.69	28.162
539.03	28.025
539.37	28.197
539.71	28.085
540.05	27.766
540.39	28.809
540.73	28.591
541.07	28.729
541.42	28.159
541.76	28.424
542.10	28.493
542.44	27.658
542.78	26.910
543.12	28.228
543.46	28.303
543.80	28.036
544.14	27.170
544.48	27.049
544.82	27.683
545.16	28.893
545.50	27.103
545.84	27.620
546.18	28.085
546.52	27.902
546.86	27.678
547.20	27.969
547.54	26.360
547.88	27.038
548.22	26.364
548.56	26.913
548.90	27.695
549.24	27.824
549.58	27.010
549.92	26.090
550.26	26.960
550.60	28.030
550.94	28.081
551.28	27.898
551.62	29.923
551.96	28.271
552.30	27.412
552.64	27.151
552.98	26.793
553.32	27.461
553.66	27.068
554.00	26.569
554.34	28.287
554.68	27.434
555.02	28.274
555.36	27.076
555.69	26.154
556.03	26.695
556.37	26.192
556.71	26.498
557.05	27.591
557.39	26.468
557.73	26.762
558.07	26.471
558.41	26.953
558.75	27.592
559.08	27.581
559.42	27.222
559.76	27.702
560.10	27.370
560.44	26.731
560.78	26.993
561.12	27.292
561.45	26.704
561.79	25.770
562.13	26.331
562.47	26.978
562.81	26.801
563.15	26.023
563.48	26.874
563.82	27.179
564.16	26.114
564.50	25.811
564.84	26.707
565.17	25.553
565.51	27.322
565.85	26.269
566.19	25.928
566.52	26.005
566.86	25.964
567.20	25.903
567.54	25.912
567.88	25.600
568.21	24.830
568.55	24.783
568.89	25.616
569.23	24.555
569.56	23.905
569.90	24.198
570.24	23.260
570.57	23.309
570.91	23.214
571.25	22.756
571.59	22.236
571.92	21.867
572.26	21.709
572.60	22.574
572.93	22.435
573.27	22.320
573.61	22.196
573.95	21.737
574.28	21.822
574.62	21.409
574.96	21.690
575.29	21.353
575.63	21.094
575.97	20.954
576.30	21.451
576.64	21.033
576.98	21.364
577.31	21.455
577.65	21.170
577.98	21.492
578.32	20.918
578.66	20.632
578.99	20.590
579.33	20.834
579.67	20.666
580.00	21.418
580.34	20.970
580.67	20.549
581.01	21.350
581.35	20.801
581.68	20.823
582.02	20.261
582.35	20.501
582.69	20.374
583.02	20.722
583.36	21.055
583.70	21.080
584.03	21.129
584.37	21.570
584.70	21.291
585.04	20.518
585.37	21.106
585.71	20.143
586.04	20.978
586.38	20.592
586.72	21.263
587.05	21.231
587.39	21.079
587.72	21.597
588.06	21.257
588.39	21.475
588.73	21.551
589.06	21.722
589.40	21.569
589.73	21.760
590.07	22.281
590.40	21.943
590.73	22.117
591.07	21.289
591.40	22.173
591.74	22.534
592.07	22.866
592.41	22.217
592.74	22.382
593.08	20.852
593.41	21.219
593.75	21.099
594.08	20.700
594.41	21.397
594.75	21.298
595.08	21.718
595.42	21.752
595.75	21.404
596.09	21.423
596.42	21.455
596.75	21.448
597.09	22.096
597.42	21.725
597.75	21.347
598.09	21.548
598.42	21.435
598.76	21.021
599.09	21.314
599.42	21.220
599.76	21.144
600.09	21.267
600.42	21.380
600.76	20.357
601.09	20.038
601.42	20.682
601.76	21.477
602.09	21.205
602.42	21.188
602.76	21.307
603.09	21.055
603.42	20.987
603.76	20.444
604.09	20.980
604.42	21.193
604.76	21.495
605.09	21.755
605.42	21.129
605.75	21.322
606.09	20.849
606.42	20.517
606.75	21.039
607.09	21.714
607.42	20.691
607.75	20.737
608.08	20.845
608.42	21.288
608.75	22.072
609.08	21.475
609.41	21.980
609.75	21.069
610.08	21.518
610.41	20.918
610.74	21.648
611.07	22.067
611.41	21.951
611.74	22.388
612.07	21.146
612.40	22.374
612.73	21.808
613.07	21.822
613.40	21.663
613.73	22.160
614.06	21.870
614.39	21.827
614.72	21.905
615.06	21.676
615.39	21.998
615.72	21.529
616.05	21.341
616.38	21.937
616.71	22.569
617.05	22.483
617.38	22.439
617.71	23.145
618.04	22.540
618.37	22.762
618.70	21.650
619.03	22.917
619.36	21.201
619.69	23.124
620.03	23.302
620.36	22.747
620.69	22.627
621.02	23.089
621.35	23.817
621.68	23.980
622.01	23.500
622.34	23.863
622.67	24.842
623.00	23.737
623.33	23.095
623.66	22.812
623.99	22.769
624.32	24.639
624.65	21.805
624.99	22.950
625.32	22.745
625.65	24.195
625.98	23.046
626.31	22.693
626.64	23.744
626.97	23.997
627.30	24.256
627.63	24.783
627.96	23.450
628.29	24.607
628.62	24.484
628.95	24.649
629.28	25.504
629.61	25.125
629.94	25.318
630.26	24.605
630.59	26.951
630.92	25.333
631.25	25.128
631.58	26.322
631.91	24.123
632.24	25.229
632.57	24.432
632.90	24.199
633.23	25.294
