SpectraSuite Data File
++++++++++++++++++++++++++++++++++++
Date: Fri May 15 20:37:45 PDT 2015
User: schluterlab
Dark Spectrum Present: Yes
Reference Spectrum Present: Yes
Number of Sampled Component Spectra: 1
Spectrometers: USB2E3373
Integration Time (usec): 3000 (USB2E3373)
Spectra Averaged: 3 (USB2E3373)
Boxcar Smoothing: 0 (USB2E3373)
Correct for Electrical Dark: No (USB2E3373)
Strobe/Lamp Enabled: No (USB2E3373)
Correct for Detector Non-linearity: No (USB2E3373)
Correct for Stray Light: No (USB2E3373)
Number of Pixels in Processed Spectrum: 2048
>>>>>Begin Processed Spectral Data<<<<<
178.53	0.000
178.91	0.000
179.29	162.500
179.67	-400.000
180.04	114.286
180.42	25.000
180.80	-600.000
181.18	433.333
181.56	900.000
181.94	-250.000
182.31	400.000
182.69	100.000
183.07	-300.000
183.45	-180.000
183.83	116.667
184.20	-9.091
184.58	155.556
184.96	-50.000
185.34	533.333
185.72	-300.000
186.09	169.231
186.47	-800.000
186.85	66.667
187.23	133.333
187.61	-1100.000
187.98	0.000
188.36	0.000
188.74	66.667
189.12	5.882
189.49	-5.556
189.87	0.000
190.25	28.571
190.63	-250.000
191.00	-500.000
191.38	31.579
191.76	350.000
192.14	50.000
192.51	150.000
192.89	-11.111
193.27	-157.143
193.65	250.000
194.02	172.727
194.40	80.000
194.78	-112.500
195.15	-58.333
195.53	-125.000
195.91	300.000
196.29	-50.000
196.66	130.769
197.04	128.571
197.42	11.111
197.79	-633.333
198.17	-76.923
198.55	1000.000
198.92	-266.667
199.30	-500.000
199.68	-200.000
200.05	-366.667
200.43	0.000
200.81	-200.000
201.18	-433.333
201.56	1400.000
201.94	-550.000
202.31	166.667
202.69	-380.000
203.07	50.000
203.44	100.000
203.82	0.000
204.19	-7.143
204.57	-766.667
204.95	225.000
205.32	40.000
205.70	-171.429
206.08	-150.000
206.45	166.667
206.83	35.714
207.20	-100.000
207.58	1100.000
207.96	-233.333
208.33	-140.000
208.71	-225.000
209.08	-83.333
209.46	-1200.000
209.84	-240.000
210.21	-1700.000
210.59	-85.714
210.96	-166.667
211.34	-100.000
211.71	6.667
212.09	-142.857
212.46	-2400.000
212.84	0.000
213.22	10.000
213.59	500.000
213.97	30.769
214.34	36.364
214.72	16.667
215.09	550.000
215.47	-23.077
215.84	-81.818
216.22	-266.667
216.59	62.500
216.97	-250.000
217.34	-50.000
217.72	-260.000
218.09	-50.000
218.47	237.500
218.84	-700.000
219.22	-33.333
219.59	40.000
219.97	466.667
220.34	375.000
220.72	28.571
221.09	-300.000
221.47	-200.000
221.84	-750.000
222.22	-900.000
222.59	0.000
222.97	58.333
223.34	-166.667
223.72	21.429
224.09	28.571
224.46	-10.714
224.84	300.000
225.21	40.000
225.59	6.667
225.96	-550.000
226.34	350.000
226.71	-100.000
227.08	-150.000
227.46	-62.500
227.83	-450.000
228.21	122.222
228.58	81.818
228.95	-112.500
229.33	40.000
229.70	31.250
230.08	-37.500
230.45	-71.429
230.82	-14.286
231.20	-73.333
231.57	21.429
231.95	-100.000
232.32	-120.000
232.69	14.286
233.07	-66.667
233.44	-240.000
233.81	-80.000
234.19	-33.333
234.56	-17.647
234.93	900.000
235.31	25.000
235.68	-440.000
236.05	-84.615
236.43	-40.000
236.80	-23.529
237.17	-28.125
237.55	-15.000
237.92	-44.444
238.29	19.444
238.67	23.333
239.04	-41.176
239.41	-46.341
239.79	3.333
240.16	-4.878
240.53	-2.632
240.91	-15.217
241.28	-6.349
241.65	1.786
242.02	-9.589
242.40	-1.667
242.77	-15.254
243.14	-12.121
243.51	6.250
243.89	4.598
244.26	-1.149
244.63	-9.524
245.00	9.278
245.38	3.093
245.75	-11.236
246.12	-6.897
246.49	0.826
246.87	-0.962
247.24	0.840
247.61	-7.895
247.98	-6.504
248.36	-3.125
248.73	1.974
249.10	1.948
249.47	-4.430
249.84	-7.190
250.22	4.118
250.59	-1.961
250.96	11.268
251.33	-2.326
251.70	1.176
252.08	-1.015
252.45	-2.475
252.82	3.015
253.19	0.922
253.56	-4.673
253.94	1.351
254.31	2.609
254.68	0.439
255.05	3.150
255.42	0.873
255.79	2.703
256.16	2.335
256.54	3.731
256.91	2.662
257.28	0.372
257.65	-0.749
258.02	-4.965
258.39	2.357
258.76	4.029
259.14	2.990
259.51	3.236
259.88	0.687
260.25	1.634
260.62	3.472
260.99	-2.712
261.36	-0.685
261.73	1.899
262.10	1.824
262.47	0.613
262.85	-0.627
263.22	3.077
263.59	2.181
263.96	4.037
264.33	5.758
264.70	2.083
265.07	2.976
265.44	-0.567
265.81	0.847
266.18	0.820
266.55	3.085
266.92	3.109
267.29	2.089
267.66	2.046
268.03	0.262
268.40	-1.305
268.77	3.743
269.14	2.158
269.51	3.085
269.88	3.242
270.25	0.510
270.62	0.976
270.99	1.279
271.36	2.689
271.73	1.174
272.10	1.460
272.47	-0.236
272.84	0.990
273.21	3.248
273.58	4.578
273.95	2.288
274.32	-0.231
274.69	0.679
275.06	2.902
275.43	0.680
275.80	0.883
276.17	0.230
276.54	2.998
276.91	1.754
277.28	1.528
277.65	3.099
278.02	1.915
278.39	-0.438
278.76	0.210
279.13	0.000
279.50	1.681
279.87	2.376
280.23	-0.215
280.60	3.314
280.97	1.414
281.34	1.923
281.71	2.464
282.08	0.818
282.45	-0.587
282.82	0.579
283.19	1.934
283.56	0.771
283.92	0.949
284.29	-0.385
284.66	2.519
285.03	1.179
285.40	0.945
285.77	0.703
286.14	2.888
286.51	0.923
286.87	2.194
287.24	2.394
287.61	1.058
287.98	2.632
288.35	1.386
288.72	2.277
289.08	1.736
289.45	1.054
289.82	3.846
290.19	1.195
290.56	0.858
290.93	0.673
291.29	0.308
291.66	2.992
292.03	2.073
292.40	0.806
292.77	1.754
293.13	0.812
293.50	0.607
293.87	1.985
294.24	2.164
294.60	2.981
294.97	1.935
295.34	1.380
295.71	2.235
296.08	1.943
296.44	0.000
296.81	2.083
297.18	1.159
297.55	3.523
297.91	1.507
298.28	1.979
298.65	2.035
299.02	0.674
299.38	-0.958
299.75	0.690
300.12	1.702
300.48	2.240
300.85	2.788
301.22	1.299
301.59	1.053
301.95	2.152
302.32	2.724
302.69	1.493
303.05	1.361
303.42	2.117
303.79	1.752
304.15	2.748
304.52	-0.832
304.89	1.170
305.25	1.332
305.62	-0.817
305.99	1.287
306.35	1.387
306.72	0.112
307.09	1.596
307.45	1.722
307.82	0.463
308.19	0.929
308.55	1.091
308.92	1.743
309.29	-0.112
309.65	1.076
310.02	1.210
310.38	1.976
310.75	0.765
311.12	2.476
311.48	1.379
311.85	0.942
312.22	0.527
312.58	1.699
312.95	0.427
313.31	-0.725
313.68	1.047
314.05	1.020
314.41	2.371
314.78	1.134
315.14	1.439
315.51	1.656
315.87	0.922
316.24	1.416
316.61	2.362
316.97	1.687
317.34	1.758
317.70	2.390
318.07	1.635
318.43	1.863
318.80	1.420
319.16	1.953
319.53	2.849
319.89	1.870
320.26	1.923
320.62	3.310
320.99	1.461
321.35	2.672
321.72	1.973
322.08	2.920
322.45	2.335
322.81	2.947
323.18	1.570
323.54	1.834
323.91	2.142
324.27	2.051
324.64	3.090
325.00	2.920
325.37	3.581
325.73	1.995
326.10	1.272
326.46	2.332
326.83	2.975
327.19	2.616
327.56	2.693
327.92	3.697
328.29	2.589
328.65	2.642
329.01	2.849
329.38	2.673
329.74	1.794
330.11	2.595
330.47	2.134
330.84	1.538
331.20	3.517
331.56	3.426
331.93	3.196
332.29	3.483
332.66	2.081
333.02	2.788
333.38	2.016
333.75	4.121
334.11	2.507
334.48	3.354
334.84	2.839
335.20	3.019
335.57	2.176
335.93	2.620
336.29	2.855
336.66	2.543
337.02	1.673
337.38	3.148
337.75	2.000
338.11	3.427
338.47	2.737
338.84	2.033
339.20	2.651
339.56	3.578
339.93	3.581
340.29	2.844
340.65	3.495
341.02	2.837
341.38	2.389
341.74	2.473
342.11	2.340
342.47	3.114
342.83	2.595
343.20	2.613
343.56	2.348
343.92	3.012
344.28	3.928
344.65	2.332
345.01	3.371
345.37	3.280
345.73	3.682
346.10	2.934
346.46	3.028
346.82	3.191
347.19	1.912
347.55	2.423
347.91	2.670
348.27	2.829
348.63	2.555
349.00	2.379
349.36	2.826
349.72	2.653
350.08	2.705
350.45	3.911
350.81	1.412
351.17	1.954
351.53	3.102
351.89	2.147
352.26	3.120
352.62	2.984
352.98	2.811
353.34	2.254
353.70	2.427
354.07	2.500
354.43	3.122
354.79	2.725
355.15	3.413
355.51	3.560
355.87	2.104
356.24	1.550
356.60	2.425
356.96	3.730
357.32	1.837
357.68	2.189
358.04	2.504
358.40	1.849
358.77	3.987
359.13	2.642
359.49	2.619
359.85	2.262
360.21	2.153
360.57	2.142
360.93	3.026
361.29	1.284
361.66	2.821
362.02	2.727
362.38	2.361
362.74	1.741
363.10	2.859
363.46	2.520
363.82	2.329
364.18	3.247
364.54	2.132
364.90	1.720
365.26	1.892
365.62	3.431
365.98	1.906
366.35	2.549
366.71	1.922
367.07	2.758
367.43	1.941
367.79	2.191
368.15	2.369
368.51	2.112
368.87	1.220
369.23	2.022
369.59	2.259
369.95	2.786
370.31	1.951
370.67	1.269
371.03	3.211
371.39	1.896
371.75	2.198
372.11	3.138
372.47	2.219
372.83	2.200
373.19	2.924
373.55	1.733
373.91	2.880
374.27	2.126
374.63	2.513
374.99	2.624
375.35	1.741
375.71	2.587
376.07	1.966
376.42	2.585
376.78	2.483
377.14	2.505
377.50	1.926
377.86	2.811
378.22	2.744
378.58	1.603
378.94	2.079
379.30	2.682
379.66	2.696
380.02	1.471
380.38	1.887
380.74	2.095
381.09	3.006
381.45	1.529
381.81	2.036
382.17	2.094
382.53	2.374
382.89	2.197
383.25	2.302
383.61	2.622
383.97	1.968
384.32	1.814
384.68	1.548
385.04	1.654
385.40	1.618
385.76	2.264
386.12	2.846
386.48	3.001
386.83	2.093
387.19	2.137
387.55	2.949
387.91	1.650
388.27	2.503
388.62	1.699
388.98	1.780
389.34	2.623
389.70	2.859
390.06	1.447
390.42	2.008
390.77	1.831
391.13	2.081
391.49	1.811
391.85	1.365
392.20	2.072
392.56	2.034
392.92	2.525
393.28	2.064
393.64	1.862
393.99	3.574
394.35	0.822
394.71	2.299
395.07	1.823
395.42	1.639
395.78	2.020
396.14	2.711
396.50	1.839
396.85	1.932
397.21	2.381
397.57	1.505
397.92	1.857
398.28	2.989
398.64	1.687
399.00	2.540
399.35	2.314
399.71	2.757
400.07	2.479
400.42	2.142
400.78	2.143
401.14	2.480
401.49	2.561
401.85	1.706
402.21	3.193
402.57	2.313
402.92	1.380
403.28	2.256
403.63	1.702
403.99	1.212
404.35	1.999
404.70	2.500
405.06	1.821
405.42	2.175
405.77	1.976
406.13	1.513
406.49	1.717
406.84	2.445
407.20	2.167
407.55	1.352
407.91	2.206
408.27	1.848
408.62	2.892
408.98	1.787
409.34	2.974
409.69	1.486
410.05	1.847
410.40	2.284
410.76	2.292
411.11	2.000
411.47	3.156
411.83	1.004
412.18	1.030
412.54	2.122
412.89	1.847
413.25	2.106
413.60	2.112
413.96	2.270
414.31	1.890
414.67	1.668
415.03	1.931
415.38	1.632
415.74	2.085
416.09	3.005
416.45	2.161
416.80	2.578
417.16	1.727
417.51	2.265
417.87	1.434
418.22	1.878
418.58	1.003
418.93	2.571
419.29	1.216
419.64	1.815
420.00	2.960
420.35	1.910
420.71	2.248
421.06	2.149
421.42	2.584
421.77	1.908
422.12	2.327
422.48	2.166
422.83	2.146
423.19	2.935
423.54	1.705
423.90	1.885
424.25	2.009
424.61	2.448
424.96	2.265
425.31	2.137
425.67	1.408
426.02	2.827
426.38	2.254
426.73	2.603
427.09	2.658
427.44	2.412
427.79	2.239
428.15	2.913
428.50	1.817
428.85	2.580
429.21	2.603
429.56	2.534
429.92	3.133
430.27	2.155
430.62	1.934
430.98	2.282
431.33	2.681
431.68	2.093
432.04	1.901
432.39	2.396
432.74	2.225
433.10	2.529
433.45	2.389
433.80	1.915
434.16	1.385
434.51	2.366
434.86	1.858
435.22	2.243
435.57	2.183
435.92	2.934
436.28	1.968
436.63	2.567
436.98	2.144
437.34	2.117
437.69	1.550
438.04	1.994
438.39	2.260
438.75	2.489
439.10	2.151
439.45	2.495
439.81	1.957
440.16	1.841
440.51	3.045
440.86	2.598
441.22	2.545
441.57	2.539
441.92	2.781
442.27	2.384
442.63	3.105
442.98	2.527
443.33	2.282
443.68	2.334
444.03	2.335
444.39	2.656
444.74	3.177
445.09	2.116
445.44	2.051
445.79	2.991
446.15	2.863
446.50	2.385
446.85	2.072
447.20	2.398
447.55	3.292
447.91	2.651
448.26	3.699
448.61	2.994
448.96	2.582
449.31	2.254
449.66	2.265
450.02	1.997
450.37	2.371
450.72	2.176
451.07	2.532
451.42	2.622
451.77	1.929
452.12	1.555
452.47	2.254
452.83	3.121
453.18	1.581
453.53	2.971
453.88	2.368
454.23	2.766
454.58	2.267
454.93	2.577
455.28	2.222
455.63	2.232
455.98	2.706
456.34	2.490
456.69	3.113
457.04	3.088
457.39	2.430
457.74	2.539
458.09	2.531
458.44	2.341
458.79	2.185
459.14	2.403
459.49	2.746
459.84	3.328
460.19	2.670
460.54	2.323
460.89	2.330
461.24	2.671
461.59	3.385
461.94	1.950
462.29	3.317
462.64	2.791
462.99	2.776
463.34	2.295
463.69	3.411
464.04	2.724
464.39	1.880
464.74	2.699
465.09	2.246
465.44	2.539
465.79	2.721
466.14	2.509
466.49	2.070
466.84	2.677
467.19	2.753
467.54	3.193
467.89	1.832
468.24	2.433
468.59	3.238
468.94	2.349
469.29	2.623
469.64	3.623
469.99	3.294
470.34	1.570
470.68	2.983
471.03	3.680
471.38	2.282
471.73	2.661
472.08	2.578
472.43	1.409
472.78	2.742
473.13	1.905
473.48	3.453
473.83	2.491
474.17	2.785
474.52	2.425
474.87	2.909
475.22	1.891
475.57	2.710
475.92	3.127
476.27	3.201
476.61	2.373
476.96	3.012
477.31	2.920
477.66	2.697
478.01	2.190
478.36	2.778
478.70	2.664
479.05	3.791
479.40	2.385
479.75	3.076
480.10	2.611
480.45	2.500
480.79	3.474
481.14	3.074
481.49	2.217
481.84	2.317
482.19	2.853
482.53	3.070
482.88	2.721
483.23	2.639
483.58	2.783
483.92	2.662
484.27	2.735
484.62	2.376
484.97	2.944
485.31	2.746
485.66	2.579
486.01	2.848
486.36	2.571
486.70	2.901
487.05	2.881
487.40	2.508
487.75	2.620
488.09	2.627
488.44	2.510
488.79	2.540
489.13	3.005
489.48	2.736
489.83	2.780
490.17	2.517
490.52	2.725
490.87	2.776
491.22	2.627
491.56	2.562
491.91	2.486
492.26	2.625
492.60	2.927
492.95	2.804
493.30	1.905
493.64	1.965
493.99	3.382
494.34	2.184
494.68	2.429
495.03	2.433
495.37	2.601
495.72	2.625
496.07	2.488
496.41	2.736
496.76	2.672
497.11	2.049
497.45	3.484
497.80	2.926
498.14	2.583
498.49	2.133
498.84	2.944
499.18	3.012
499.53	3.026
499.87	2.432
500.22	2.473
500.56	2.824
500.91	2.008
501.26	3.015
501.60	2.213
501.95	3.202
502.29	3.245
502.64	2.896
502.98	2.171
503.33	2.354
503.67	3.084
504.02	2.590
504.36	3.414
504.71	2.677
505.06	3.171
505.40	2.843
505.75	2.938
506.09	2.940
506.44	3.491
506.78	2.602
507.13	2.947
507.47	2.611
507.82	2.244
508.16	2.800
508.51	2.623
508.85	2.041
509.19	1.756
509.54	2.842
509.88	2.427
510.23	2.690
510.57	2.352
510.92	2.132
511.26	2.291
511.61	1.815
511.95	3.288
512.30	2.661
512.64	2.782
512.98	2.358
513.33	3.134
513.67	2.672
514.02	3.089
514.36	3.086
514.70	3.497
515.05	2.644
515.39	3.247
515.74	3.413
516.08	2.690
516.42	3.180
516.77	2.692
517.11	2.671
517.46	3.112
517.80	3.039
518.14	2.694
518.49	2.825
518.83	3.159
519.17	2.790
519.52	2.072
519.86	2.521
520.20	3.281
520.55	2.439
520.89	3.262
521.23	2.850
521.58	3.596
521.92	2.628
522.26	2.798
522.61	2.468
522.95	3.245
523.29	3.558
523.64	2.732
523.98	2.981
524.32	1.482
524.66	2.625
525.01	2.532
525.35	3.240
525.69	1.886
526.04	2.579
526.38	3.502
526.72	2.616
527.06	3.178
527.41	3.694
527.75	1.944
528.09	2.591
528.43	3.241
528.78	2.838
529.12	3.355
529.46	2.599
529.80	3.103
530.15	3.828
530.49	2.559
530.83	2.736
531.17	2.619
531.51	2.804
531.86	2.515
532.20	2.227
532.54	2.791
532.88	2.806
533.22	2.823
533.57	3.080
533.91	2.546
534.25	2.344
534.59	2.502
534.93	3.210
535.27	2.538
535.62	2.463
535.96	3.327
536.30	3.100
536.64	2.619
536.98	2.718
537.32	2.987
537.66	3.717
538.01	2.797
538.35	2.566
538.69	3.262
539.03	2.666
539.37	3.028
539.71	2.931
540.05	3.462
540.39	3.532
540.73	3.138
541.07	3.660
541.42	3.293
541.76	3.854
542.10	2.822
542.44	2.988
542.78	2.134
543.12	2.816
543.46	3.408
543.80	2.984
544.14	2.737
544.48	3.131
544.82	2.324
545.16	3.689
545.50	3.338
545.84	3.612
546.18	3.121
546.52	3.244
546.86	2.876
547.20	3.076
547.54	2.544
547.88	2.717
548.22	2.630
548.56	2.111
548.90	3.639
549.24	2.617
549.58	3.315
549.92	2.573
550.26	2.491
550.60	3.048
550.94	3.435
551.28	2.164
551.62	2.846
551.96	3.083
552.30	3.216
552.64	2.398
552.98	3.024
553.32	2.710
553.66	2.032
554.00	1.679
554.34	3.102
554.68	3.024
555.02	3.051
555.36	1.870
555.69	1.685
556.03	2.070
556.37	2.847
556.71	3.177
557.05	1.790
557.39	1.710
557.73	2.099
558.07	3.017
558.41	1.838
558.75	1.871
559.08	3.231
559.42	2.857
559.76	2.162
560.10	2.370
560.44	2.904
560.78	3.357
561.12	2.750
561.45	2.319
561.79	2.661
562.13	2.839
562.47	1.511
562.81	3.242
563.15	3.526
563.48	3.041
563.82	3.089
564.16	3.203
564.50	1.824
564.84	3.681
565.17	2.817
565.51	2.937
565.85	3.429
566.19	2.653
566.52	2.882
566.86	3.021
567.20	2.553
567.54	2.494
567.88	2.636
568.21	3.054
568.55	2.174
568.89	2.977
569.23	3.274
569.56	2.802
569.90	3.086
570.24	2.828
570.57	2.945
570.91	3.451
571.25	2.565
571.59	3.083
571.92	3.111
572.26	2.385
572.60	2.760
572.93	3.263
573.27	3.009
573.61	3.073
573.95	3.113
574.28	2.542
574.62	2.873
574.96	2.992
575.29	2.928
575.63	2.876
575.97	3.144
576.30	2.671
576.64	2.755
576.98	3.295
577.31	2.949
577.65	2.867
577.98	3.022
578.32	2.836
578.66	2.794
578.99	2.667
579.33	2.723
579.67	3.053
580.00	3.038
580.34	2.811
580.67	3.116
581.01	2.906
581.35	2.799
581.68	2.795
582.02	2.991
582.35	2.786
582.69	3.058
583.02	2.542
583.36	3.123
583.70	3.063
584.03	2.863
584.37	3.501
584.70	3.242
585.04	3.083
585.37	2.924
585.71	2.740
586.04	2.925
586.38	2.827
586.72	3.300
587.05	3.148
587.39	3.187
587.72	3.226
588.06	3.072
588.39	3.275
588.73	2.900
589.06	3.392
589.40	3.249
589.73	3.614
590.07	2.719
590.40	3.289
590.73	3.460
591.07	2.205
591.40	3.517
591.74	3.439
592.07	3.200
592.41	3.048
592.74	2.628
593.08	3.004
593.41	3.361
593.75	2.944
594.08	2.918
594.41	2.693
594.75	3.550
595.08	3.519
595.42	3.055
595.75	3.267
596.09	3.440
596.42	3.142
596.75	3.552
597.09	3.508
597.42	2.710
597.75	3.023
598.09	3.124
598.42	3.159
598.76	2.531
599.09	3.045
599.42	3.259
599.76	3.047
600.09	3.205
600.42	3.071
600.76	2.712
601.09	2.557
601.42	2.859
601.76	2.898
602.09	3.053
602.42	3.117
602.76	2.971
603.09	3.405
603.42	3.303
603.76	2.863
604.09	3.078
604.42	2.961
604.76	3.605
605.09	4.022
605.42	3.160
605.75	2.890
606.09	2.972
606.42	3.003
606.75	2.727
607.09	3.604
607.42	2.747
607.75	3.108
608.08	3.279
608.42	3.609
608.75	3.566
609.08	2.840
609.41	3.706
609.75	3.478
610.08	3.744
610.41	3.382
610.74	2.974
611.07	2.894
611.41	3.477
611.74	3.678
612.07	2.730
612.40	3.228
612.73	2.316
613.07	2.587
613.40	3.829
613.73	2.686
614.06	3.395
614.39	3.215
614.72	2.745
615.06	3.128
615.39	3.166
615.72	2.745
616.05	3.128
616.38	3.020
616.71	3.119
617.05	2.841
617.38	3.646
617.71	2.956
618.04	2.730
618.37	3.909
618.70	3.366
619.03	3.125
619.36	2.171
619.69	3.336
620.03	4.091
620.36	3.290
620.69	3.426
621.02	2.982
621.35	3.651
621.68	2.976
622.01	3.500
622.34	3.272
622.67	3.470
623.00	3.139
623.33	2.744
623.66	2.693
623.99	3.328
624.32	3.194
624.65	2.632
624.99	3.311
625.32	2.729
625.65	3.614
625.98	2.981
626.31	3.076
626.64	4.159
626.97	3.752
627.30	3.853
627.63	4.419
627.96	2.965
628.29	3.978
628.62	3.736
628.95	2.906
629.28	2.823
629.61	2.193
629.94	3.812
630.26	3.557
630.59	2.810
630.92	5.128
631.25	2.667
631.58	3.634
631.91	1.645
632.24	1.261
632.57	2.955
632.90	2.491
633.23	3.412
633.56	1.008
633.89	1.110
634.22	3.086
634.55	2.033
634.88	1.149
635.20	4.231
635.53	1.600
635.86	2.601
636.19	3.105
636.52	2.934
636.85	1.613
637.18	2.138
637.51	2.767
637.83	2.234
638.16	3.820
638.49	2.044
638.82	4.079
639.15	2.985
639.48	2.613
639.81	3.766
640.13	1.876
640.46	2.624
640.79	1.473
641.12	2.363
641.45	2.402
641.77	2.815
642.10	3.160
642.43	3.055
642.76	2.805
643.09	3.393
643.41	3.074
643.74	1.977
644.07	3.941
644.40	3.209
644.73	3.853
645.05	2.852
645.38	2.998
645.71	1.418
646.04	3.411
646.36	3.369
646.69	4.676
647.02	3.403
647.35	3.731
647.67	2.559
648.00	3.358
648.33	4.608
648.66	3.390
648.98	0.838
649.31	1.157
649.64	2.198
649.96	1.945
650.29	2.896
650.62	3.761
650.94	2.593
651.27	0.372
651.60	3.604
651.92	3.846
652.25	0.710
652.58	4.333
652.90	3.945
653.23	3.697
653.56	1.692
653.88	2.921
654.21	0.350
654.54	3.905
654.86	4.414
655.19	2.339
655.52	2.864
655.84	3.079
656.17	3.159
656.49	4.246
656.82	4.702
657.15	3.962
657.47	2.930
657.80	2.215
