SpectraSuite Data File
++++++++++++++++++++++++++++++++++++
Date: Fri May 15 20:52:51 PDT 2015
User: schluterlab
Dark Spectrum Present: Yes
Reference Spectrum Present: Yes
Number of Sampled Component Spectra: 1
Spectrometers: USB2E3373
Integration Time (usec): 3000 (USB2E3373)
Spectra Averaged: 3 (USB2E3373)
Boxcar Smoothing: 0 (USB2E3373)
Correct for Electrical Dark: No (USB2E3373)
Strobe/Lamp Enabled: No (USB2E3373)
Correct for Detector Non-linearity: No (USB2E3373)
Correct for Stray Light: No (USB2E3373)
Number of Pixels in Processed Spectrum: 2048
>>>>>Begin Processed Spectral Data<<<<<
178.53	0.000
178.91	0.000
179.29	25.000
179.67	-450.000
180.04	57.143
180.42	0.000
180.80	400.000
181.18	-133.333
181.56	500.000
181.94	200.000
182.31	-200.000
182.69	-160.000
183.07	33.333
183.45	-60.000
183.83	133.333
184.20	-45.455
184.58	188.889
184.96	-0.000
185.34	300.000
185.72	-500.000
186.09	84.615
186.47	-700.000
186.85	166.667
187.23	122.222
187.61	100.000
187.98	-466.667
188.36	22.222
188.74	-100.000
189.12	17.647
189.49	55.556
189.87	0.000
190.25	14.286
190.63	-300.000
191.00	-733.333
191.38	-36.842
191.76	350.000
192.14	225.000
192.51	300.000
192.89	-33.333
193.27	-42.857
193.65	400.000
194.02	100.000
194.40	60.000
194.78	-100.000
195.15	-125.000
195.53	-25.000
195.91	250.000
196.29	-150.000
196.66	30.769
197.04	42.857
197.42	-44.444
197.79	-400.000
198.17	-84.615
198.55	1000.000
198.92	-633.333
199.30	300.000
199.68	0.000
200.05	-566.667
200.43	0.000
200.81	-533.333
201.18	-300.000
201.56	1100.000
201.94	-50.000
202.31	-66.667
202.69	-60.000
203.07	275.000
203.44	-100.000
203.82	0.000
204.19	92.857
204.57	-366.667
204.95	175.000
205.32	30.000
205.70	-71.429
206.08	-75.000
206.45	133.333
206.83	57.143
207.20	-157.143
207.58	-500.000
207.96	-466.667
208.33	-160.000
208.71	-125.000
209.08	-116.667
209.46	-200.000
209.84	20.000
210.21	-800.000
210.59	-57.143
210.96	-133.333
211.34	-250.000
211.71	-6.667
212.09	-114.286
212.46	-1500.000
212.84	0.000
213.22	80.000
213.59	250.000
213.97	30.769
214.34	36.364
214.72	-66.667
215.09	350.000
215.47	0.000
215.84	-100.000
216.22	-333.333
216.59	-112.500
216.97	-350.000
217.34	75.000
217.72	-240.000
218.09	50.000
218.47	237.500
218.84	-1300.000
219.22	-22.222
219.59	20.000
219.97	600.000
220.34	300.000
220.72	14.286
221.09	-325.000
221.47	-300.000
221.84	-700.000
222.22	-800.000
222.59	36.364
222.97	8.333
223.34	-200.000
223.72	-50.000
224.09	19.048
224.46	-25.000
224.84	500.000
225.21	30.000
225.59	40.000
225.96	0.000
226.34	225.000
226.71	-85.714
227.08	66.667
227.46	-112.500
227.83	150.000
228.21	22.222
228.58	-18.182
228.95	100.000
229.33	90.000
229.70	-18.750
230.08	-75.000
230.45	-14.286
230.82	142.857
231.20	-40.000
231.57	-7.143
231.95	-85.714
232.32	-90.000
232.69	28.571
233.07	-66.667
233.44	-40.000
233.81	-80.000
234.19	-66.667
234.56	-11.765
234.93	-0.000
235.31	125.000
235.68	-240.000
236.05	-7.692
236.43	-25.000
236.80	17.647
237.17	9.375
237.55	15.000
237.92	14.815
238.29	19.444
238.67	16.667
239.04	8.824
239.41	-12.195
239.79	-3.333
240.16	31.707
240.53	2.632
240.91	8.696
241.28	23.810
241.65	33.929
242.02	28.767
242.40	23.333
242.77	23.729
243.14	19.697
243.51	20.000
243.89	27.586
244.26	14.943
244.63	13.095
245.00	25.773
245.38	23.711
245.75	4.494
246.12	15.517
246.49	24.793
246.87	32.692
247.24	27.731
247.61	21.053
247.98	22.764
248.36	20.625
248.73	30.921
249.10	25.325
249.47	22.785
249.84	23.529
250.22	25.882
250.59	22.222
250.96	25.822
251.33	25.581
251.70	28.824
252.08	23.858
252.45	20.792
252.82	24.121
253.19	28.571
253.56	26.168
253.94	26.126
254.31	26.957
254.68	24.123
255.05	21.260
255.42	24.454
255.79	21.622
256.16	25.292
256.54	29.104
256.91	23.574
257.28	25.279
257.65	24.345
258.02	21.986
258.39	26.936
258.76	29.304
259.14	24.252
259.51	23.625
259.88	24.055
260.25	24.510
260.62	28.819
260.99	20.678
261.36	22.945
261.73	24.051
262.10	25.836
262.47	26.380
262.85	25.705
263.22	25.538
263.59	24.922
263.96	26.708
264.33	23.939
264.70	24.702
265.07	25.000
265.44	26.346
265.81	25.989
266.18	26.776
266.55	25.964
266.92	25.130
267.29	26.110
267.66	26.087
268.03	25.131
268.40	26.371
268.77	26.471
269.14	25.420
269.51	24.679
269.88	22.943
270.25	26.531
270.62	22.439
270.99	24.297
271.36	22.738
271.73	26.761
272.10	23.114
272.47	25.296
272.84	23.267
273.21	28.074
273.58	24.578
273.95	27.231
274.32	24.018
274.69	23.982
275.06	28.348
275.43	22.449
275.80	22.296
276.17	21.379
276.54	25.054
276.91	23.904
277.28	22.707
277.65	26.653
278.02	21.915
278.39	24.289
278.76	24.528
279.13	18.672
279.50	26.891
279.87	24.406
280.23	21.720
280.60	24.366
280.97	24.848
281.34	24.231
281.71	25.051
282.08	25.767
282.45	22.896
282.82	23.745
283.19	25.145
283.56	24.470
283.92	23.150
284.29	24.231
284.66	24.419
285.03	23.772
285.40	24.953
285.77	21.265
286.14	23.466
286.51	22.325
286.87	22.121
287.24	25.783
287.61	21.693
287.98	22.982
288.35	20.451
288.72	22.942
289.08	20.660
289.45	23.550
289.82	20.629
290.19	23.038
290.56	21.612
290.93	20.875
291.29	21.418
291.66	21.575
292.03	20.255
292.40	22.258
292.77	20.734
293.13	20.130
293.50	21.548
293.87	19.847
294.24	21.793
294.60	19.374
294.97	18.155
295.34	20.552
295.71	20.268
296.08	20.179
296.44	18.065
296.81	19.167
297.18	17.826
297.55	21.816
297.91	16.438
298.28	19.789
298.65	18.182
299.02	19.003
299.38	17.373
299.75	19.724
300.12	17.016
300.48	18.050
300.85	19.011
301.22	18.312
301.59	17.895
301.95	18.861
302.32	19.196
302.69	18.781
303.05	16.955
303.42	18.306
303.79	18.692
304.15	18.399
304.52	17.241
304.89	18.480
305.25	17.676
305.62	17.153
305.99	16.491
306.35	17.225
306.72	17.548
307.09	17.902
307.45	18.255
307.82	17.940
308.19	18.931
308.55	17.666
308.92	17.429
309.29	17.654
309.65	16.792
310.02	17.822
310.38	17.673
310.75	18.689
311.12	17.438
311.48	18.240
311.85	17.277
312.22	18.354
312.58	18.896
312.95	18.677
313.31	18.634
313.68	18.115
314.05	19.898
314.41	18.969
314.78	19.072
315.14	19.527
315.51	20.497
315.87	19.570
316.24	20.324
316.61	20.571
316.97	20.139
317.34	19.434
317.70	19.790
318.07	20.000
318.43	21.569
318.80	21.496
319.16	21.289
319.53	21.462
319.89	21.555
320.26	21.660
320.62	23.470
320.99	22.443
321.35	23.022
321.72	24.714
322.08	25.076
322.45	23.655
322.81	23.576
323.18	23.749
323.54	24.903
323.91	23.564
324.27	25.293
324.64	25.749
325.00	25.547
325.37	27.732
325.73	24.207
326.10	26.612
326.46	26.278
326.83	27.647
327.19	27.027
327.56	27.194
327.92	27.201
328.29	26.875
328.65	27.453
329.01	28.125
329.38	28.295
329.74	28.329
330.11	29.008
330.47	27.551
330.84	28.654
331.20	30.418
331.56	29.630
331.93	29.224
332.29	30.247
332.66	30.407
333.02	29.182
333.38	29.148
333.75	30.037
334.11	29.275
334.48	29.556
334.84	30.403
335.20	30.009
335.57	28.468
335.93	31.165
336.29	29.558
336.66	30.518
337.02	28.903
337.38	29.722
337.75	31.545
338.11	30.027
338.47	31.296
338.84	30.869
339.20	32.267
339.56	30.550
339.93	30.349
340.29	30.183
340.65	31.900
341.02	31.560
341.38	30.354
341.74	30.830
342.11	31.976
342.47	30.516
342.83	31.401
343.20	31.272
343.56	31.652
343.92	31.532
344.28	31.170
344.65	31.174
345.01	30.164
345.37	31.119
345.73	32.134
346.10	31.406
346.46	32.044
346.82	30.196
347.19	30.258
347.55	30.827
347.91	32.120
348.27	31.447
348.63	31.687
349.00	30.435
349.36	31.505
349.72	33.167
350.08	32.131
350.45	30.726
350.81	31.977
351.17	31.515
351.53	32.408
351.89	30.966
352.26	31.520
352.62	31.935
352.98	30.602
353.34	31.723
353.70	31.553
354.07	31.210
354.43	31.465
354.79	31.296
355.15	32.937
355.51	31.408
355.87	31.715
356.24	31.158
356.60	31.609
356.96	31.905
357.32	31.310
357.68	32.056
358.04	32.149
358.40	32.878
358.77	32.297
359.13	31.145
359.49	30.663
359.85	31.591
360.21	32.536
360.57	31.293
360.93	32.375
361.29	30.967
361.66	32.445
362.02	32.727
362.38	32.749
362.74	32.778
363.10	32.506
363.46	32.468
363.82	33.133
364.18	32.915
364.54	33.603
364.90	32.473
365.26	33.261
365.62	34.380
365.98	34.091
366.35	33.649
366.71	34.885
367.07	33.962
367.43	33.645
367.79	33.074
368.15	33.668
368.51	33.066
368.87	33.094
369.23	33.574
369.59	33.017
369.95	34.897
370.31	34.610
370.67	34.030
371.03	33.234
371.39	33.917
371.75	34.505
372.11	34.023
372.47	34.320
372.83	35.131
373.19	34.165
373.55	34.368
373.91	35.925
374.27	35.152
374.63	35.248
374.99	34.823
375.35	34.262
375.71	35.874
376.07	36.096
376.42	36.190
376.78	35.570
377.14	35.274
377.50	36.786
377.86	35.743
378.22	36.503
378.58	36.667
378.94	36.169
379.30	36.619
379.66	37.555
380.02	35.806
380.38	35.788
380.74	36.086
381.09	37.178
381.45	37.309
381.81	37.878
382.17	36.992
382.53	37.289
382.89	37.414
383.25	39.017
383.61	38.537
383.97	38.159
384.32	37.586
384.68	37.523
385.04	37.929
385.40	37.834
385.76	39.182
386.12	37.840
386.48	39.080
386.83	38.110
387.19	38.889
387.55	39.586
387.91	39.364
388.27	39.133
388.62	39.207
388.98	39.656
389.34	39.538
389.70	40.211
390.06	39.333
390.42	38.731
390.77	40.615
391.13	38.840
391.49	40.815
391.85	40.351
392.20	38.858
392.56	40.242
392.92	39.577
393.28	40.861
393.64	40.060
393.99	40.627
394.35	40.417
394.71	41.635
395.07	40.163
395.42	41.469
395.78	40.847
396.14	40.353
396.50	40.964
396.85	40.695
397.21	39.912
397.57	41.066
397.92	39.305
398.28	41.609
398.64	39.458
399.00	40.914
399.35	40.011
399.71	40.264
400.07	41.052
400.42	40.514
400.78	40.600
401.14	40.895
401.49	41.989
401.85	40.341
402.21	41.386
402.57	41.250
402.92	39.774
403.28	39.912
403.63	40.794
403.99	40.497
404.35	41.224
404.70	40.417
405.06	39.659
405.42	40.336
405.77	40.151
406.13	40.978
406.49	40.142
406.84	41.443
407.20	40.157
407.55	40.695
407.91	39.706
408.27	40.089
408.62	40.185
408.98	39.864
409.34	40.149
409.69	39.535
410.05	38.978
410.40	40.062
410.76	39.988
411.11	40.062
411.47	40.828
411.83	40.301
412.18	40.090
412.54	40.886
412.89	37.931
413.25	40.072
413.60	39.814
413.96	39.141
414.31	39.329
414.67	39.256
415.03	39.614
415.38	39.360
415.74	39.544
416.09	40.039
416.45	39.838
416.80	39.458
417.16	40.470
417.51	40.240
417.87	40.091
418.22	40.155
418.58	40.401
418.93	41.567
419.29	38.668
419.64	40.506
420.00	40.932
420.35	39.940
420.71	40.583
421.06	40.270
421.42	40.445
421.77	39.595
422.12	39.614
422.48	40.390
422.83	40.429
423.19	41.084
423.54	39.741
423.90	40.459
424.25	41.160
424.61	41.860
424.96	41.231
425.31	42.865
425.67	42.371
426.02	41.519
426.38	41.578
426.73	43.099
427.09	41.962
427.44	42.235
427.79	41.014
428.15	42.536
428.50	41.732
428.85	41.093
429.21	42.501
429.56	43.827
429.92	42.219
430.27	42.206
430.62	42.133
430.98	42.304
431.33	42.534
431.68	41.235
432.04	42.873
432.39	41.586
432.74	41.251
433.10	42.356
433.45	42.951
433.80	42.426
434.16	41.884
434.51	42.742
434.86	43.031
435.22	43.466
435.57	43.044
435.92	42.335
436.28	41.920
436.63	42.384
436.98	42.468
437.34	42.771
437.69	43.053
438.04	42.792
438.39	42.456
438.75	43.352
439.10	42.841
439.45	43.457
439.81	43.303
440.16	43.765
440.51	43.642
440.86	44.290
441.22	42.760
441.57	43.377
441.92	44.439
442.27	44.235
442.63	43.469
442.98	43.596
443.33	42.515
443.68	42.175
444.03	44.163
444.39	42.941
444.74	44.705
445.09	44.488
445.44	44.330
445.79	44.920
446.15	43.117
446.50	43.649
446.85	44.687
447.20	43.222
447.55	44.420
447.91	44.275
448.26	44.565
448.61	44.560
448.96	45.267
449.31	44.277
449.66	44.715
450.02	44.552
450.37	44.517
450.72	44.158
451.07	45.000
451.42	44.132
451.77	43.400
452.12	43.361
452.47	44.108
452.83	44.346
453.18	44.339
453.53	44.880
453.88	45.416
454.23	44.007
454.58	44.899
454.93	45.103
455.28	43.365
455.63	44.947
455.98	44.919
456.34	45.402
456.69	45.743
457.04	46.125
457.39	44.471
457.74	44.196
458.09	43.673
458.44	44.470
458.79	43.473
459.14	44.908
459.49	45.493
459.84	44.219
460.19	43.811
460.54	45.416
460.89	43.920
461.24	43.292
461.59	43.409
461.94	44.025
462.29	45.416
462.64	44.252
462.99	43.737
463.34	43.463
463.69	43.822
464.04	43.947
464.39	44.512
464.74	44.847
465.09	44.167
465.44	43.739
465.79	42.971
466.14	42.702
466.49	43.186
466.84	44.497
467.19	44.243
467.54	43.359
467.89	43.714
468.24	44.100
468.59	42.857
468.94	44.127
469.29	44.590
469.64	43.541
469.99	44.149
470.34	43.823
470.68	44.370
471.03	44.374
471.38	43.723
471.73	43.277
472.08	42.537
472.43	43.356
472.78	43.112
473.13	44.490
473.48	43.518
473.83	41.781
474.17	43.653
474.52	43.586
474.87	43.636
475.22	42.465
475.57	42.292
475.92	43.555
476.27	44.412
476.61	44.155
476.96	41.941
477.31	42.888
477.66	42.135
478.01	42.729
478.36	43.083
478.70	43.013
479.05	42.967
479.40	41.282
479.75	40.824
480.10	42.499
480.45	42.900
480.79	43.051
481.14	41.957
481.49	42.365
481.84	42.809
482.19	42.844
482.53	42.302
482.88	42.339
483.23	41.123
483.58	42.594
483.92	41.239
484.27	41.203
484.62	41.730
484.97	41.501
485.31	40.896
485.66	39.119
486.01	40.581
486.36	40.077
486.70	40.414
487.05	40.451
487.40	40.228
487.75	40.394
488.09	40.667
488.44	40.475
488.79	40.306
489.13	41.947
489.48	41.642
489.83	40.224
490.17	40.539
490.52	41.663
490.87	40.676
491.22	40.258
491.56	40.370
491.91	39.962
492.26	41.225
492.60	39.539
492.95	41.417
493.30	40.205
493.64	41.405
493.99	41.014
494.34	41.117
494.68	40.762
495.03	40.000
495.37	40.628
495.72	40.434
496.07	41.024
496.41	40.425
496.76	39.982
497.11	39.450
497.45	40.716
497.80	40.868
498.14	38.997
498.49	40.274
498.84	40.020
499.18	40.361
499.53	39.980
499.87	39.737
500.22	40.059
500.56	39.889
500.91	39.307
501.26	39.298
501.60	39.006
501.95	39.398
502.29	39.952
502.64	40.010
502.98	39.763
503.33	38.569
503.67	38.988
504.02	39.150
504.36	38.793
504.71	38.232
505.06	38.903
505.40	38.680
505.75	39.124
506.09	38.520
506.44	40.144
506.78	38.776
507.13	38.935
507.47	38.225
507.82	38.889
508.16	39.144
508.51	38.195
508.85	39.246
509.19	38.371
509.54	39.571
509.88	38.565
510.23	38.300
510.57	38.268
510.92	37.100
511.26	38.025
511.61	39.054
511.95	38.356
512.30	38.470
512.64	38.397
512.98	38.125
513.33	38.612
513.67	37.806
514.02	38.902
514.36	38.971
514.70	39.744
515.05	38.660
515.39	38.607
515.74	38.743
516.08	39.629
516.42	38.869
516.77	38.209
517.11	38.635
517.46	38.181
517.80	37.783
518.14	38.885
518.49	37.380
518.83	37.667
519.17	37.599
519.52	36.353
519.86	37.035
520.20	36.877
520.55	36.148
520.89	37.453
521.23	36.669
521.58	37.161
521.92	37.500
522.26	36.044
522.61	37.597
522.95	37.086
523.29	38.119
523.64	37.611
523.98	38.043
524.32	36.727
524.66	37.132
525.01	37.857
525.35	37.006
525.69	36.229
526.04	35.251
526.38	37.549
526.72	35.644
527.06	36.446
527.41	36.544
527.75	35.255
528.09	35.415
528.43	36.259
528.78	34.323
529.12	36.194
529.46	36.712
529.80	35.275
530.15	36.370
530.49	35.825
530.83	36.047
531.17	35.460
531.51	34.473
531.86	35.350
532.20	35.560
532.54	35.534
532.88	35.455
533.22	35.282
533.57	35.059
533.91	34.922
534.25	34.831
534.59	34.509
534.93	33.480
535.27	33.312
535.62	35.126
535.96	34.703
536.30	34.763
536.64	35.562
536.98	34.216
537.32	35.846
537.66	34.783
538.01	35.315
538.35	33.634
538.69	34.154
539.03	33.014
539.37	34.320
539.71	34.697
540.05	33.130
540.39	34.211
540.73	34.031
541.07	34.530
541.42	35.417
541.76	33.723
542.10	33.655
542.44	33.079
542.78	32.691
543.12	32.967
543.46	34.214
543.80	33.380
544.14	32.644
544.48	32.778
544.82	33.630
545.16	33.060
545.50	33.645
545.84	33.357
546.18	33.121
546.52	32.300
546.86	32.782
547.20	33.119
547.54	32.014
547.88	32.812
548.22	31.164
548.56	31.201
548.90	32.682
549.24	32.025
549.58	32.793
549.92	32.380
550.26	32.015
550.60	32.119
550.94	32.412
551.28	31.530
551.62	31.692
551.96	31.955
552.30	32.529
552.64	31.171
552.98	31.364
553.32	31.455
553.66	31.205
554.00	31.971
554.34	31.462
554.68	31.121
555.02	31.622
555.36	31.488
555.69	30.330
556.03	31.478
556.37	30.747
556.71	31.986
557.05	31.693
557.39	30.260
557.73	31.184
558.07	31.523
558.41	30.551
558.75	31.489
559.08	30.496
559.42	31.508
559.76	31.385
560.10	29.817
560.44	31.199
560.78	30.070
561.12	30.606
561.45	31.413
561.79	31.513
562.13	30.234
562.47	30.288
562.81	30.908
563.15	30.536
563.48	30.339
563.82	31.091
564.16	30.014
564.50	29.122
564.84	30.857
565.17	29.779
565.51	31.352
565.85	29.630
566.19	30.106
566.52	30.563
566.86	29.756
567.20	29.763
567.54	29.988
567.88	31.107
568.21	30.204
568.55	29.728
568.89	29.055
569.23	29.803
569.56	29.028
569.90	30.045
570.24	28.843
570.57	28.800
570.91	29.000
571.25	28.116
571.59	28.122
571.92	27.437
572.26	28.231
572.60	27.969
572.93	28.302
573.27	27.743
573.61	27.267
573.95	27.772
574.28	27.172
574.62	27.257
574.96	27.873
575.29	27.234
575.63	26.769
575.97	27.433
576.30	27.130
576.64	26.887
576.98	27.130
577.31	27.255
577.65	27.592
577.98	27.303
578.32	26.569
578.66	26.306
578.99	27.071
579.33	26.630
579.67	26.091
580.00	26.886
580.34	26.443
580.67	26.434
581.01	26.849
581.35	26.098
581.68	26.097
582.02	26.078
582.35	26.518
582.69	26.665
583.02	26.298
583.36	26.402
583.70	26.610
584.03	27.217
584.37	27.640
584.70	26.429
585.04	25.803
585.37	25.774
585.71	26.685
586.04	25.769
586.38	25.794
586.72	26.714
587.05	26.863
587.39	26.559
587.72	27.091
588.06	26.737
588.39	26.118
588.73	26.282
589.06	27.365
589.40	26.754
589.73	26.908
590.07	26.926
590.40	26.587
590.73	27.348
591.07	26.845
591.40	26.581
591.74	26.244
592.07	26.252
592.41	26.767
592.74	25.767
593.08	25.917
593.41	26.392
593.75	25.744
594.08	25.403
594.41	25.546
594.75	25.763
595.08	26.145
595.42	25.727
595.75	26.436
596.09	25.880
596.42	25.424
596.75	26.021
597.09	25.467
597.42	26.197
597.75	25.561
598.09	25.034
598.42	25.722
598.76	25.225
599.09	24.760
599.42	25.313
599.76	24.831
600.09	23.982
600.42	25.246
600.76	25.186
601.09	24.924
601.42	24.951
601.76	24.931
602.09	24.711
602.42	25.906
602.76	25.806
603.09	26.287
603.42	25.711
603.76	25.161
604.09	24.828
604.42	25.085
604.76	25.412
605.09	25.274
605.42	25.824
605.75	25.350
606.09	24.671
606.42	24.479
606.75	25.411
607.09	24.835
607.42	24.324
607.75	24.600
608.08	24.124
608.42	23.344
608.75	25.108
609.08	24.813
609.41	24.822
609.75	24.748
610.08	25.062
610.41	23.913
610.74	23.988
611.07	25.375
611.41	24.805
611.74	24.893
612.07	24.786
612.40	25.383
612.73	24.915
613.07	24.353
613.40	24.781
613.73	23.951
614.06	23.762
614.39	24.478
614.72	24.426
615.06	24.246
615.39	24.782
615.72	23.466
616.05	24.469
616.38	22.906
616.71	23.976
617.05	24.583
617.38	24.324
617.71	24.088
618.04	24.508
618.37	24.275
618.70	24.356
619.03	25.000
619.36	23.951
619.69	24.033
620.03	25.931
620.36	24.320
620.69	24.268
621.02	24.465
621.35	24.730
621.68	25.170
622.01	23.917
622.34	24.661
622.67	25.079
623.00	23.813
623.33	23.857
623.66	23.635
623.99	22.844
624.32	25.399
624.65	22.632
624.99	23.251
625.32	23.351
625.65	23.881
625.98	23.691
626.31	23.441
626.64	24.957
626.97	25.393
627.30	23.030
627.63	24.610
627.96	24.708
628.29	23.774
628.62	24.779
628.95	25.351
629.28	25.302
629.61	23.330
629.94	25.220
630.26	23.617
630.59	23.829
630.92	25.744
631.25	23.795
631.58	24.670
631.91	23.904
632.24	23.165
632.57	22.955
632.90	25.267
633.23	24.353
