SpectraSuite Data File
++++++++++++++++++++++++++++++++++++
Date: Fri May 15 20:51:35 PDT 2015
User: schluterlab
Dark Spectrum Present: Yes
Reference Spectrum Present: Yes
Number of Sampled Component Spectra: 1
Spectrometers: USB2E3373
Integration Time (usec): 3000 (USB2E3373)
Spectra Averaged: 3 (USB2E3373)
Boxcar Smoothing: 0 (USB2E3373)
Correct for Electrical Dark: No (USB2E3373)
Strobe/Lamp Enabled: No (USB2E3373)
Correct for Detector Non-linearity: No (USB2E3373)
Correct for Stray Light: No (USB2E3373)
Number of Pixels in Processed Spectrum: 2048
>>>>>Begin Processed Spectral Data<<<<<
178.53	0.000
178.91	0.000
179.29	25.000
179.67	-650.000
180.04	42.857
180.42	-150.000
180.80	100.000
181.18	433.333
181.56	300.000
181.94	-250.000
182.31	800.000
182.69	-160.000
183.07	-133.333
183.45	-20.000
183.83	233.333
184.20	-9.091
184.58	55.556
184.96	-125.000
185.34	100.000
185.72	-200.000
186.09	107.692
186.47	-1000.000
186.85	300.000
187.23	200.000
187.61	200.000
187.98	-266.667
188.36	44.444
188.74	33.333
189.12	76.471
189.49	16.667
189.87	0.000
190.25	35.714
190.63	-500.000
191.00	-333.333
191.38	0.000
191.76	-250.000
192.14	125.000
192.51	-50.000
192.89	-122.222
193.27	-42.857
193.65	216.667
194.02	227.273
194.40	10.000
194.78	-50.000
195.15	-16.667
195.53	-175.000
195.91	275.000
196.29	-375.000
196.66	92.308
197.04	185.714
197.42	-144.444
197.79	0.000
198.17	-115.385
198.55	1200.000
198.92	-333.333
199.30	-1200.000
199.68	-160.000
200.05	-200.000
200.43	0.000
200.81	-133.333
201.18	-333.333
201.56	2100.000
201.94	-350.000
202.31	100.000
202.69	-340.000
203.07	575.000
203.44	-100.000
203.82	0.000
204.19	-7.143
204.57	-300.000
204.95	187.500
205.32	-30.000
205.70	-185.714
206.08	-200.000
206.45	33.333
206.83	28.571
207.20	0.000
207.58	1300.000
207.96	-433.333
208.33	-110.000
208.71	-250.000
209.08	-183.333
209.46	-500.000
209.84	-160.000
210.21	-800.000
210.59	14.286
210.96	-16.667
211.34	0.000
211.71	13.333
212.09	-85.714
212.46	-2400.000
212.84	0.000
213.22	20.000
213.59	550.000
213.97	-7.692
214.34	-36.364
214.72	-116.667
215.09	350.000
215.47	-53.846
215.84	-27.273
216.22	200.000
216.59	-187.500
216.97	-200.000
217.34	-325.000
217.72	-420.000
218.09	-62.500
218.47	25.000
218.84	-500.000
219.22	-211.111
219.59	-80.000
219.97	433.333
220.34	600.000
220.72	-200.000
221.09	0.000
221.47	-250.000
221.84	-850.000
222.22	-700.000
222.59	63.636
222.97	0.000
223.34	-566.667
223.72	-35.714
224.09	-19.048
224.46	-7.143
224.84	600.000
225.21	30.000
225.59	-60.000
225.96	-450.000
226.34	325.000
226.71	-171.429
227.08	-16.667
227.46	-75.000
227.83	-650.000
228.21	22.222
228.58	27.273
228.95	-125.000
229.33	40.000
229.70	12.500
230.08	-62.500
230.45	-185.714
230.82	28.571
231.20	-33.333
231.57	21.429
231.95	-14.286
232.32	-40.000
232.69	50.000
233.07	-66.667
233.44	-180.000
233.81	-130.000
234.19	-88.889
234.56	-29.412
234.93	850.000
235.31	75.000
235.68	-160.000
236.05	-115.385
236.43	-55.000
236.80	-47.059
237.17	3.125
237.55	-15.000
237.92	-29.630
238.29	8.333
238.67	10.000
239.04	-2.941
239.41	-39.024
239.79	-60.000
240.16	-4.878
240.53	-15.789
240.91	-15.217
241.28	-9.524
241.65	-3.571
242.02	10.959
242.40	-1.667
242.77	-11.864
243.14	-19.697
243.51	-3.750
243.89	9.195
244.26	-8.046
244.63	-17.857
245.00	4.124
245.38	-4.124
245.75	-19.101
246.12	-0.862
246.49	-5.785
246.87	-9.615
247.24	-13.445
247.61	-10.526
247.98	-7.317
248.36	1.250
248.73	-2.632
249.10	-3.247
249.47	-3.165
249.84	-11.765
250.22	0.588
250.59	1.307
250.96	2.347
251.33	-9.884
251.70	-1.765
252.08	0.000
252.45	-5.446
252.82	-0.503
253.19	-5.991
253.56	-3.271
253.94	1.351
254.31	5.652
254.68	-0.877
255.05	0.394
255.42	-4.367
255.79	0.772
256.16	0.000
256.54	4.851
256.91	0.380
257.28	0.000
257.65	-2.247
258.02	-1.773
258.39	4.377
258.76	2.198
259.14	0.664
259.51	0.000
259.88	-1.718
260.25	-1.634
260.62	1.389
260.99	-4.746
261.36	-1.027
261.73	-0.316
262.10	1.520
262.47	-4.294
262.85	-2.821
263.22	-0.923
263.59	0.000
263.96	0.311
264.33	-1.212
264.70	-2.083
265.07	-2.083
265.44	0.850
265.81	-1.130
266.18	-1.366
266.55	-0.771
266.92	1.813
267.29	0.261
267.66	0.000
268.03	0.524
268.40	-0.783
268.77	1.070
269.14	0.959
269.51	1.542
269.88	0.499
270.25	-1.786
270.62	-1.463
270.99	-3.581
271.36	0.978
271.73	-0.704
272.10	-1.703
272.47	0.709
272.84	-1.733
273.21	1.160
273.58	-0.723
273.95	0.229
274.32	1.155
274.69	-1.584
275.06	-0.670
275.43	-3.175
275.80	-0.662
276.17	0.230
276.54	1.713
276.91	-2.193
277.28	-0.655
277.65	1.033
278.02	1.277
278.39	-2.407
278.76	0.210
279.13	-3.734
279.50	1.261
279.87	0.216
280.23	-3.011
280.60	2.339
280.97	0.404
281.34	-1.154
281.71	-0.205
282.08	-0.204
282.45	-1.174
282.82	-1.351
283.19	-0.580
283.56	0.000
283.92	-1.518
284.29	-1.538
284.66	-0.581
285.03	0.393
285.40	-1.134
285.77	-0.703
286.14	-1.444
286.51	1.476
286.87	-1.828
287.24	-1.657
287.61	-1.587
287.98	1.754
288.35	-0.693
288.72	0.876
289.08	-0.694
289.45	0.176
289.82	-1.748
290.19	-0.683
290.56	-1.029
290.93	-0.168
291.29	-0.462
291.66	0.787
292.03	1.435
292.40	0.645
292.77	0.159
293.13	-1.786
293.50	-1.062
293.87	1.374
294.24	1.236
294.60	1.639
294.97	-0.744
295.34	-1.994
295.71	0.447
296.08	-1.046
296.44	-1.991
296.81	0.694
297.18	1.014
297.55	1.355
297.91	0.274
298.28	2.111
298.65	0.543
299.02	-0.674
299.38	-1.778
299.75	-0.828
300.12	-1.178
300.48	-1.318
300.85	0.507
301.22	-0.260
301.59	-0.526
301.95	1.139
302.32	1.297
302.69	0.622
303.05	0.000
303.42	2.740
303.79	1.285
304.15	1.434
304.52	-1.308
304.89	-1.053
305.25	-0.242
305.62	0.117
305.99	-0.819
306.35	-0.462
306.72	-1.350
307.09	0.456
307.45	0.804
307.82	-0.116
308.19	0.465
308.55	-0.109
308.92	1.634
309.29	-1.453
309.65	-0.108
310.02	-0.330
310.38	0.768
310.75	1.093
311.12	0.969
311.48	0.530
311.85	1.047
312.22	1.266
312.58	0.955
312.95	1.281
313.31	0.414
313.68	1.466
314.05	0.306
314.41	1.959
314.78	1.031
315.14	1.131
315.51	2.174
315.87	1.639
316.24	3.539
316.61	3.445
316.97	3.175
317.34	4.395
317.70	4.398
318.07	4.231
318.43	3.824
318.80	5.303
319.16	5.957
319.53	5.888
319.89	4.724
320.26	5.870
320.62	6.219
320.99	5.428
321.35	7.194
321.72	7.996
322.08	8.157
322.45	8.223
322.81	8.153
323.18	7.360
323.54	8.784
323.91	9.250
324.27	10.156
324.64	11.049
325.00	10.949
325.37	12.305
325.73	10.335
326.10	11.807
326.46	13.094
326.83	12.686
327.19	13.165
327.56	13.901
327.92	14.613
328.29	12.857
328.65	15.566
329.01	13.603
329.38	14.470
329.74	14.731
330.11	14.829
330.47	14.378
330.84	14.615
331.20	16.920
331.56	14.907
331.93	16.438
332.29	17.415
332.66	14.842
333.02	15.892
333.38	15.674
333.75	16.941
334.11	16.383
334.48	15.231
334.84	16.758
335.20	16.102
335.57	15.141
335.93	17.706
336.29	16.667
336.66	15.077
337.02	14.870
337.38	15.185
337.75	16.636
338.11	17.403
338.47	16.241
338.84	16.359
339.20	15.996
339.56	17.064
339.93	16.831
340.29	16.606
340.65	18.638
341.02	16.312
341.38	17.345
341.74	15.018
342.11	16.378
342.47	16.103
342.83	16.176
343.20	15.767
343.56	15.217
343.92	16.563
344.28	17.848
344.65	15.803
345.01	15.903
345.37	16.737
345.73	16.736
346.10	15.617
346.46	16.737
346.82	15.548
347.19	15.212
347.55	15.288
347.91	16.505
348.27	16.087
348.63	15.843
349.00	16.407
349.36	15.628
349.72	16.584
350.08	16.475
350.45	16.121
350.81	14.037
351.17	15.798
351.53	17.469
351.89	15.772
352.26	15.920
352.62	15.968
352.98	14.859
353.34	15.137
353.70	15.372
354.07	15.887
354.43	16.093
354.79	15.937
355.15	16.429
355.51	15.744
355.87	15.049
356.24	14.845
356.60	16.734
356.96	16.111
357.32	15.974
357.68	15.715
358.04	15.105
358.40	15.193
358.77	15.152
359.13	16.413
359.49	16.487
359.85	15.991
360.21	15.470
360.57	16.297
360.93	16.339
361.29	15.710
361.66	15.909
362.02	16.515
362.38	16.375
362.74	15.291
363.10	16.102
363.46	15.938
363.82	16.829
364.18	15.720
364.54	16.250
364.90	15.412
365.26	15.793
365.62	16.715
365.98	16.789
366.35	16.242
366.71	16.186
367.07	16.183
367.43	15.600
367.79	16.396
368.15	17.301
368.51	15.222
368.87	16.296
369.23	15.162
369.59	16.327
369.95	16.276
370.31	16.185
370.67	17.015
371.03	15.907
371.39	16.557
371.75	15.971
372.11	17.332
372.47	16.864
372.83	17.246
373.19	16.904
373.55	16.318
373.91	17.207
374.27	17.151
374.63	16.726
374.99	16.099
375.35	16.992
375.71	17.902
376.07	16.924
376.42	17.415
376.78	18.054
377.14	17.062
377.50	16.600
377.86	16.934
378.22	17.103
378.58	17.372
378.94	17.139
379.30	17.280
379.66	17.429
380.02	17.658
380.38	17.042
380.74	18.432
381.09	18.282
381.45	18.471
381.81	18.199
382.17	17.830
382.53	18.239
382.89	17.514
383.25	17.610
383.61	18.598
383.97	18.159
384.32	17.136
384.68	19.009
385.04	17.157
385.40	18.295
385.76	19.308
386.12	19.534
386.48	19.349
386.83	18.199
387.19	19.048
387.55	19.699
387.91	18.765
388.27	18.864
388.62	19.194
388.98	18.416
389.34	19.051
389.70	19.577
390.06	18.376
390.42	19.236
390.77	19.555
391.13	18.916
391.49	19.405
391.85	18.778
392.20	19.021
392.56	20.025
392.92	20.141
393.28	19.870
393.64	20.240
393.99	20.752
394.35	19.545
394.71	21.264
395.07	19.799
395.42	19.611
395.78	19.674
396.14	20.177
396.50	20.419
396.85	19.768
397.21	20.614
397.57	20.439
397.92	20.312
398.28	21.609
398.64	19.759
399.00	20.711
399.35	20.711
399.71	20.505
400.07	20.859
400.42	20.257
400.78	20.453
401.14	20.569
401.49	21.263
401.85	21.024
402.21	21.145
402.57	21.375
402.92	20.452
403.28	21.742
403.63	20.807
403.99	20.408
404.35	21.362
404.70	21.190
405.06	21.093
405.42	21.753
405.77	20.802
406.13	21.013
406.49	20.485
406.84	21.516
407.20	21.794
407.55	20.927
407.91	21.725
408.27	21.415
408.62	22.031
408.98	20.949
409.34	21.747
409.69	21.447
410.05	20.998
410.40	21.049
410.76	21.894
411.11	21.562
411.47	21.959
411.83	21.783
412.18	22.329
412.54	21.536
412.89	21.613
413.25	22.443
413.60	21.304
413.96	21.595
414.31	21.829
414.67	22.194
415.03	22.503
415.38	21.997
415.74	22.801
416.09	22.796
416.45	23.228
416.80	23.067
417.16	22.652
417.51	23.384
417.87	23.077
418.22	22.733
418.58	23.144
418.93	23.197
419.29	22.343
419.64	21.646
420.00	23.300
420.35	21.731
420.71	23.694
421.06	23.082
421.42	23.077
421.77	23.526
422.12	22.815
422.48	24.201
422.83	23.434
423.19	23.928
423.54	23.398
423.90	23.910
424.25	23.938
424.61	23.868
424.96	23.984
425.31	24.206
425.67	24.531
426.02	23.910
426.38	25.297
426.73	25.121
427.09	26.013
427.44	25.353
427.79	25.398
428.15	24.879
428.50	24.894
428.85	25.000
429.21	25.806
429.56	24.582
429.92	25.013
430.27	25.363
430.62	24.621
430.98	25.584
431.33	25.868
431.68	25.327
432.04	25.433
432.39	25.100
432.74	24.895
433.10	26.149
433.45	25.209
433.80	25.537
434.16	25.042
434.51	26.720
434.86	26.016
435.22	26.528
435.57	27.386
435.92	26.587
436.28	26.595
436.63	26.697
436.98	25.492
437.34	25.650
437.69	27.668
438.04	26.838
438.39	26.634
438.75	27.808
439.10	26.316
439.45	27.876
439.81	26.667
440.16	27.613
440.51	28.299
440.86	28.761
441.22	27.828
441.57	27.925
441.92	28.384
442.27	27.661
442.63	28.212
442.98	28.317
443.33	28.381
443.68	28.170
444.03	27.670
444.39	27.250
444.74	28.818
445.09	27.840
445.44	28.205
445.79	28.932
446.15	28.469
446.50	27.343
446.85	28.215
447.20	28.624
447.55	28.962
447.91	28.652
448.26	29.254
448.61	28.785
448.96	28.629
449.31	28.728
449.66	28.746
450.02	29.378
450.37	28.749
450.72	29.267
451.07	29.937
451.42	29.463
451.77	29.476
452.12	28.589
452.47	28.847
452.83	29.093
453.18	29.981
453.53	30.152
453.88	29.508
454.23	28.888
454.58	30.353
454.93	30.026
455.28	28.444
455.63	29.386
455.98	29.826
456.34	30.524
456.69	30.051
457.04	30.183
457.39	30.134
457.74	29.625
458.09	29.665
458.44	29.315
458.79	29.300
459.14	30.378
459.49	30.925
459.84	29.554
460.19	29.854
460.54	29.890
460.89	29.943
461.24	30.000
461.59	31.413
461.94	29.874
462.29	30.881
462.64	30.831
462.99	30.467
463.34	30.181
463.69	30.051
464.04	30.266
464.39	29.897
464.74	29.571
465.09	30.193
465.44	30.814
465.79	29.535
466.14	30.445
466.49	29.787
466.84	29.506
467.19	30.538
467.54	29.885
467.89	30.069
468.24	29.988
468.59	30.222
468.94	29.206
469.29	30.230
469.64	30.554
469.99	31.254
470.34	31.126
470.68	30.350
471.03	30.644
471.38	30.456
471.73	30.882
472.08	30.258
472.43	30.537
472.78	29.746
473.13	31.088
473.48	30.749
473.83	31.133
474.17	30.505
474.52	31.015
474.87	30.303
475.22	30.201
475.57	30.322
475.92	30.609
476.27	31.141
476.61	31.887
476.96	30.284
477.31	30.665
477.66	30.899
478.01	31.275
478.36	30.338
478.70	30.723
479.05	30.495
479.40	29.942
479.75	29.718
480.10	29.903
480.45	30.650
480.79	30.816
481.14	30.430
481.49	30.246
481.84	30.261
482.19	30.028
482.53	30.264
482.88	29.833
483.23	30.038
483.58	30.283
483.92	29.864
484.27	29.398
484.62	30.121
484.97	29.187
485.31	28.432
485.66	28.023
486.01	28.246
486.36	27.725
486.70	28.234
487.05	28.546
487.40	28.180
487.75	28.113
488.09	28.245
488.44	28.473
488.79	28.838
489.13	29.327
489.48	29.029
489.83	29.731
490.17	29.618
490.52	30.393
490.87	29.199
491.22	29.943
491.56	29.269
491.91	28.824
492.26	29.995
492.60	29.511
492.95	29.661
493.30	29.702
493.64	29.813
493.99	29.758
494.34	29.272
494.68	29.952
495.03	28.905
495.37	29.293
495.72	29.783
496.07	29.805
496.41	29.528
496.76	28.512
497.11	28.924
497.45	29.403
497.80	29.516
498.14	28.763
498.49	30.015
498.84	29.242
499.18	29.267
499.53	28.869
499.87	29.475
500.22	28.734
500.56	28.946
500.91	29.217
501.26	28.423
501.60	28.923
501.95	29.064
502.29	28.814
502.64	28.378
502.98	27.923
503.33	28.146
503.67	27.904
504.02	28.055
504.36	28.600
504.71	28.030
505.06	28.384
505.40	28.883
505.75	28.196
506.09	28.282
506.44	28.593
506.78	28.316
507.13	27.870
507.47	27.624
507.82	27.618
508.16	27.681
508.51	28.437
508.85	29.199
509.19	27.834
509.54	28.043
509.88	28.533
510.23	27.649
510.57	27.098
510.92	27.559
511.26	27.332
511.61	26.898
511.95	26.795
512.30	27.494
512.64	27.824
512.98	27.681
513.33	27.868
513.67	27.629
514.02	28.375
514.36	28.343
514.70	28.555
515.05	28.672
515.39	27.981
515.74	28.084
516.08	27.436
516.42	28.445
516.77	27.501
517.11	27.774
517.46	27.409
517.80	28.725
518.14	27.863
518.49	27.644
518.83	26.853
519.17	26.743
519.52	26.110
519.86	26.951
520.20	27.643
520.55	27.517
520.89	27.980
521.23	27.866
521.58	27.508
521.92	26.795
522.26	27.456
522.61	27.403
522.95	27.682
523.29	27.382
523.64	27.700
523.98	27.025
524.32	25.580
524.66	27.529
525.01	27.468
525.35	26.831
525.69	25.926
526.04	25.331
526.38	26.524
526.72	25.768
527.06	25.616
527.41	27.111
527.75	26.273
528.09	26.512
528.43	26.604
528.78	26.535
529.12	25.806
529.46	26.121
529.80	26.156
530.15	26.271
530.49	25.051
530.83	25.581
531.17	25.386
531.51	25.787
531.86	24.813
532.20	25.122
532.54	25.119
532.88	25.257
533.22	25.067
533.57	24.050
533.91	23.629
534.25	25.065
534.59	24.567
534.93	23.726
535.27	23.794
535.62	22.942
535.96	23.875
536.30	24.538
536.64	24.604
536.98	22.927
537.32	24.182
537.66	24.544
538.01	24.056
538.35	24.411
538.69	23.635
539.03	23.103
539.37	23.822
539.71	23.790
540.05	23.557
540.39	24.723
540.73	23.082
541.07	23.688
541.42	24.798
541.76	23.606
542.10	23.538
542.44	23.350
542.78	21.404
543.12	22.734
543.46	23.018
543.80	23.040
544.14	21.228
544.48	22.052
544.82	22.215
545.16	22.951
545.50	22.497
545.84	22.734
546.18	22.199
546.52	22.927
546.86	21.783
547.20	21.745
547.54	20.777
547.88	22.758
548.22	21.236
548.56	21.174
548.90	22.642
549.24	21.488
549.58	21.368
549.92	21.372
550.26	21.465
550.60	22.082
550.94	21.509
551.28	21.252
551.62	21.692
551.96	21.880
552.30	21.272
552.64	19.817
552.98	21.378
553.32	21.113
553.66	21.626
554.00	21.022
554.34	21.935
554.68	20.501
555.02	19.940
555.36	20.643
555.69	19.560
556.03	20.057
556.37	21.068
556.71	20.794
557.05	20.582
557.39	20.446
557.73	19.565
558.07	20.287
558.41	19.525
558.75	20.421
559.08	20.410
559.42	20.238
559.76	19.936
560.10	19.801
560.44	18.764
560.78	19.161
561.12	18.547
561.45	19.185
561.79	20.238
562.13	19.233
562.47	19.281
562.81	19.741
563.15	19.605
563.48	18.812
563.82	20.041
564.16	19.290
564.50	19.054
564.84	20.013
565.17	19.383
565.51	19.262
565.85	19.479
566.19	19.562
566.52	18.298
566.86	18.959
567.20	18.431
567.54	18.309
567.88	18.512
568.21	18.156
568.55	18.261
568.89	18.429
569.23	17.381
569.56	17.294
569.90	17.458
570.24	16.524
570.57	16.691
570.91	16.765
571.25	15.258
571.59	15.976
571.92	15.170
572.26	15.640
572.60	15.256
572.93	15.908
573.27	15.329
573.61	14.887
573.95	15.620
574.28	15.042
574.62	14.416
574.96	14.510
575.29	15.169
575.63	14.745
575.97	14.503
576.30	14.732
576.64	14.570
576.98	14.466
577.31	14.844
577.65	15.069
577.98	14.814
578.32	14.724
578.66	14.335
578.99	14.319
579.33	14.239
579.67	14.156
580.00	14.405
580.34	14.005
580.67	13.996
581.01	14.553
581.35	14.298
581.68	14.111
582.02	14.039
582.35	13.630
582.69	13.596
583.02	13.480
583.36	13.721
583.70	14.512
584.03	14.262
584.37	14.512
584.70	13.956
585.04	13.653
585.37	14.201
585.71	13.528
586.04	13.036
586.38	13.550
586.72	13.831
587.05	13.778
587.39	13.531
587.72	13.997
588.06	13.784
588.39	13.785
588.73	13.370
589.06	13.275
589.40	13.515
589.73	13.983
590.07	14.048
590.40	13.390
590.73	14.168
591.07	13.274
591.40	13.847
591.74	14.118
592.07	14.239
592.41	14.620
592.74	12.943
593.08	12.958
593.41	13.180
593.75	12.888
594.08	13.045
594.41	13.210
594.75	13.015
595.08	13.545
595.42	13.213
595.75	13.181
596.09	13.213
596.42	13.270
596.75	12.833
597.09	12.802
597.42	13.234
597.75	12.826
598.09	13.128
598.42	13.312
598.76	12.398
599.09	12.861
599.42	12.391
599.76	12.716
600.09	12.217
600.42	12.737
600.76	12.184
601.09	12.634
601.42	12.299
601.76	12.346
602.09	12.706
602.42	12.595
602.76	12.521
603.09	12.209
603.42	12.625
603.76	11.694
604.09	12.151
604.42	12.437
604.76	12.461
605.09	12.614
605.42	12.009
605.75	12.172
606.09	12.229
606.42	11.927
606.75	11.558
607.09	12.747
607.42	12.140
607.75	11.545
608.08	11.905
608.42	11.786
608.75	12.578
609.08	12.656
609.41	11.929
609.75	11.542
610.08	12.132
610.41	12.029
610.74	11.360
611.07	12.403
611.41	12.091
611.74	12.846
612.07	12.366
612.40	11.597
612.73	11.751
613.07	11.980
613.40	12.582
613.73	11.528
614.06	11.686
614.39	12.465
614.72	11.261
615.06	11.285
615.39	11.408
615.72	11.033
616.05	11.899
616.38	10.769
616.71	11.131
617.05	10.809
617.38	11.628
617.71	12.264
618.04	11.937
618.37	12.358
618.70	11.551
619.03	12.986
619.36	11.143
619.69	11.676
620.03	12.053
620.36	11.516
620.69	12.705
621.02	12.232
621.35	11.286
621.68	12.500
622.01	12.167
622.34	12.690
622.67	12.145
623.00	12.098
623.33	12.271
623.66	10.920
623.99	10.439
624.32	12.852
624.65	11.579
624.99	11.588
625.32	11.296
625.65	12.019
625.98	12.006
626.31	10.308
626.64	11.179
626.97	12.653
627.30	11.559
627.63	11.438
627.96	11.770
628.29	11.008
628.62	11.603
628.95	12.725
629.28	10.887
629.61	10.668
629.94	13.001
630.26	11.858
630.59	11.550
630.92	13.026
631.25	12.308
631.58	10.683
631.91	11.075
632.24	11.468
632.57	10.795
632.90	12.337
633.23	13.882
633.56	10.327
633.89	11.714
634.22	13.704
634.55	11.690
634.88	10.473
635.20	10.769
