SpectraSuite Data File
++++++++++++++++++++++++++++++++++++
Date: Fri May 15 20:36:42 PDT 2015
User: schluterlab
Dark Spectrum Present: Yes
Reference Spectrum Present: Yes
Number of Sampled Component Spectra: 1
Spectrometers: USB2E3373
Integration Time (usec): 3000 (USB2E3373)
Spectra Averaged: 3 (USB2E3373)
Boxcar Smoothing: 0 (USB2E3373)
Correct for Electrical Dark: No (USB2E3373)
Strobe/Lamp Enabled: No (USB2E3373)
Correct for Detector Non-linearity: No (USB2E3373)
Correct for Stray Light: No (USB2E3373)
Number of Pixels in Processed Spectrum: 2048
>>>>>Begin Processed Spectral Data<<<<<
178.53	0.000
178.91	0.000
179.29	137.500
179.67	-50.000
180.04	185.714
180.42	-100.000
180.80	-600.000
181.18	-0.000
181.56	700.000
181.94	-100.000
182.31	300.000
182.69	-100.000
183.07	-300.000
183.45	80.000
183.83	33.333
184.20	45.455
184.58	122.222
184.96	75.000
185.34	-133.333
185.72	-450.000
186.09	107.692
186.47	100.000
186.85	100.000
187.23	88.889
187.61	600.000
187.98	-233.333
188.36	11.111
188.74	-333.333
189.12	-29.412
189.49	16.667
189.87	0.000
190.25	100.000
190.63	150.000
191.00	-333.333
191.38	-31.579
191.76	-50.000
192.14	300.000
192.51	50.000
192.89	-100.000
193.27	-85.714
193.65	216.667
194.02	172.727
194.40	-10.000
194.78	-75.000
195.15	-8.333
195.53	-62.500
195.91	175.000
196.29	-125.000
196.66	123.077
197.04	171.429
197.42	-11.111
197.79	-300.000
198.17	-76.923
198.55	1300.000
198.92	-33.333
199.30	-300.000
199.68	-60.000
200.05	-200.000
200.43	0.000
200.81	-33.333
201.18	-66.667
201.56	1500.000
201.94	-450.000
202.31	-66.667
202.69	-100.000
203.07	250.000
203.44	500.000
203.82	0.000
204.19	35.714
204.57	-166.667
204.95	75.000
205.32	80.000
205.70	-128.571
206.08	-250.000
206.45	211.111
206.83	42.857
207.20	-100.000
207.58	600.000
207.96	-333.333
208.33	-70.000
208.71	-150.000
209.08	-166.667
209.46	-100.000
209.84	-200.000
210.21	-600.000
210.59	-57.143
210.96	-33.333
211.34	-100.000
211.71	6.667
212.09	-185.714
212.46	-1200.000
212.84	0.000
213.22	110.000
213.59	150.000
213.97	-30.769
214.34	45.455
214.72	33.333
215.09	550.000
215.47	-23.077
215.84	-45.455
216.22	-266.667
216.59	-12.500
216.97	-100.000
217.34	-50.000
217.72	-60.000
218.09	150.000
218.47	112.500
218.84	-100.000
219.22	-22.222
219.59	-220.000
219.97	333.333
220.34	525.000
220.72	-85.714
221.09	-100.000
221.47	-700.000
221.84	-950.000
222.22	-900.000
222.59	9.091
222.97	91.667
223.34	-300.000
223.72	-7.143
224.09	-4.762
224.46	32.143
224.84	166.667
225.21	-30.000
225.59	13.333
225.96	0.000
226.34	600.000
226.71	-28.571
227.08	83.333
227.46	12.500
227.83	-250.000
228.21	-22.222
228.58	0.000
228.95	-50.000
229.33	70.000
229.70	31.250
230.08	-112.500
230.45	-114.286
230.82	-42.857
231.20	0.000
231.57	57.143
231.95	14.286
232.32	-130.000
232.69	64.286
233.07	333.333
233.44	240.000
233.81	-10.000
234.19	0.000
234.56	-23.529
234.93	250.000
235.31	300.000
235.68	-40.000
236.05	15.385
236.43	25.000
236.80	82.353
237.17	43.750
237.55	80.000
237.92	48.148
238.29	80.556
238.67	30.000
239.04	94.118
239.41	34.146
239.79	60.000
240.16	60.976
240.53	52.632
240.91	69.565
241.28	52.381
241.65	69.643
242.02	75.342
242.40	56.667
242.77	67.797
243.14	77.273
243.51	51.250
243.89	78.161
244.26	72.414
244.63	69.048
245.00	71.134
245.38	86.598
245.75	73.034
246.12	63.793
246.49	67.769
246.87	80.769
247.24	74.790
247.61	81.579
247.98	86.992
248.36	68.125
248.73	79.605
249.10	65.584
249.47	71.519
249.84	81.046
250.22	74.118
250.59	88.235
250.96	66.667
251.33	81.977
251.70	80.000
252.08	76.142
252.45	77.228
252.82	77.387
253.19	78.341
253.56	75.234
253.94	75.225
254.31	78.696
254.68	84.649
255.05	78.346
255.42	79.476
255.79	79.537
256.16	74.319
256.54	77.612
256.91	78.707
257.28	72.862
257.65	79.026
258.02	76.596
258.39	78.114
258.76	76.557
259.14	74.419
259.51	77.346
259.88	75.258
260.25	73.856
260.62	83.681
260.99	82.373
261.36	80.822
261.73	77.532
262.10	80.243
262.47	78.528
262.85	74.922
263.22	80.615
263.59	75.701
263.96	83.230
264.33	77.576
264.70	76.786
265.07	74.702
265.44	80.170
265.81	80.508
266.18	77.049
266.55	76.093
266.92	75.389
267.29	77.546
267.66	74.425
268.03	80.366
268.40	80.679
268.77	83.690
269.14	74.820
269.51	78.663
269.88	78.055
270.25	76.786
270.62	78.049
270.99	78.772
271.36	77.751
271.73	75.117
272.10	80.292
272.47	76.832
272.84	75.000
273.21	73.086
273.58	80.000
273.95	76.430
274.32	79.677
274.69	75.339
275.06	76.562
275.43	75.964
275.80	78.808
276.17	78.161
276.54	76.231
276.91	77.851
277.28	76.856
277.65	72.314
278.02	72.553
278.39	75.492
278.76	79.036
279.13	74.896
279.50	77.731
279.87	75.378
280.23	73.548
280.60	71.930
280.97	74.343
281.34	72.308
281.71	74.743
282.08	70.348
282.45	69.863
282.82	72.780
283.19	75.435
283.56	71.484
283.92	72.486
284.29	71.923
284.66	71.318
285.03	72.692
285.40	71.267
285.77	69.596
286.14	69.856
286.51	72.509
286.87	69.835
287.24	72.376
287.61	69.489
287.98	68.772
288.35	69.671
288.72	70.403
289.08	64.583
289.45	68.893
289.82	65.734
290.19	67.406
290.56	64.837
290.93	62.121
291.29	59.476
291.66	63.307
292.03	63.477
292.40	63.387
292.77	59.649
293.13	59.416
293.50	59.029
293.87	58.015
294.24	58.114
294.60	57.973
294.97	55.208
295.34	57.822
295.71	55.291
296.08	57.549
296.44	55.903
296.81	54.167
297.18	55.507
297.55	56.775
297.91	54.795
298.28	54.222
298.65	55.495
299.02	53.369
299.38	50.616
299.75	53.931
300.12	51.309
300.48	51.120
300.85	51.204
301.22	50.909
301.59	50.921
301.95	52.785
302.32	50.713
302.69	50.871
303.05	51.609
303.42	50.062
303.79	52.687
304.15	50.896
304.52	48.870
304.89	48.538
305.25	48.305
305.62	47.375
305.99	48.070
306.35	48.671
306.72	47.694
307.09	48.119
307.45	48.220
307.82	47.685
308.19	50.755
308.55	44.057
308.92	49.346
309.29	47.151
309.65	46.502
310.02	46.095
310.38	45.445
310.75	47.541
311.12	47.470
311.48	47.402
311.85	45.759
312.22	46.097
312.58	46.391
312.95	45.891
313.31	46.170
313.68	44.817
314.05	46.224
314.41	46.289
314.78	46.082
315.14	48.099
315.51	46.584
315.87	45.697
316.24	46.714
316.61	45.571
316.97	44.048
317.34	44.824
317.70	44.933
318.07	43.365
318.43	46.078
318.80	44.602
319.16	44.824
319.53	44.444
319.89	44.980
320.26	44.332
320.62	45.737
320.99	42.380
321.35	44.810
321.72	44.860
322.08	45.217
322.45	45.482
322.81	45.088
323.18	43.278
323.54	44.305
323.91	43.135
324.27	44.336
324.64	45.131
325.00	45.347
325.37	45.455
325.73	42.611
326.10	43.143
326.46	43.049
326.83	44.619
327.19	43.854
327.56	42.485
327.92	43.750
328.29	42.857
328.65	42.830
329.01	43.290
329.38	43.410
329.74	43.059
330.11	43.466
330.47	42.301
330.84	43.462
331.20	45.342
331.56	43.056
331.93	42.374
332.29	42.896
332.66	42.262
333.02	42.844
333.38	42.346
333.75	42.766
334.11	40.197
334.48	43.155
334.84	43.681
335.20	42.909
335.57	40.979
335.93	40.289
336.29	41.436
336.66	40.327
337.02	41.450
337.38	41.944
337.75	41.182
338.11	42.381
338.47	41.150
338.84	42.329
339.20	40.676
339.56	40.917
339.93	41.361
340.29	41.468
340.65	40.771
341.02	40.780
341.38	40.885
341.74	40.106
342.11	38.648
342.47	40.747
342.83	40.398
343.20	41.028
343.56	41.130
343.92	41.275
344.28	40.222
344.65	40.933
345.01	40.449
345.37	39.697
345.73	40.837
346.10	41.156
346.46	40.202
346.82	39.280
347.19	39.568
347.55	39.432
347.91	39.159
348.27	39.208
348.63	41.227
349.00	39.130
349.36	40.150
349.72	40.630
350.08	38.279
350.45	39.665
350.81	39.618
351.17	38.355
351.53	38.204
351.89	38.398
352.26	38.320
352.62	39.274
352.98	38.715
353.34	39.211
353.70	38.754
354.07	39.839
354.43	37.070
354.79	39.224
355.15	39.603
355.51	38.766
355.87	38.188
356.24	37.520
356.60	38.642
356.96	39.206
357.32	37.700
357.68	36.904
358.04	38.288
358.40	36.977
358.77	37.640
359.13	37.310
359.49	36.826
359.85	37.520
360.21	37.719
360.57	37.414
360.93	37.519
361.29	36.178
361.66	37.774
362.02	37.348
362.38	37.167
362.74	38.002
363.10	38.299
363.46	36.842
363.82	38.167
364.18	36.384
364.54	37.206
364.90	36.559
365.26	36.972
365.62	37.372
365.98	37.463
366.35	36.854
366.71	36.142
367.07	37.881
367.43	36.017
367.79	36.254
368.15	35.319
368.51	36.417
368.87	36.109
369.23	35.884
369.59	36.880
369.95	36.730
370.31	36.994
370.67	36.567
371.03	35.176
371.39	36.178
371.75	37.070
372.11	34.023
372.47	36.464
372.83	35.415
373.19	36.020
373.55	35.090
373.91	35.277
374.27	35.365
374.63	35.822
374.99	34.681
375.35	34.819
375.71	36.643
376.07	36.447
376.42	35.510
376.78	35.302
377.14	35.884
377.50	34.728
377.86	35.743
378.22	36.184
378.58	36.026
378.94	34.846
379.30	33.749
379.66	34.922
380.02	33.844
380.38	34.632
380.74	34.590
381.09	35.951
381.45	34.434
381.81	34.485
382.17	34.835
382.53	34.416
382.89	34.526
383.25	34.723
383.61	35.732
383.97	34.349
384.32	35.585
384.68	34.985
385.04	34.130
385.40	34.412
385.76	34.780
386.12	34.994
386.48	34.674
386.83	34.496
387.19	33.761
387.55	34.253
387.91	34.597
388.27	33.150
388.62	34.172
388.98	34.009
389.34	34.229
389.70	34.929
390.06	33.040
390.42	33.744
390.77	34.075
391.13	33.417
391.49	34.605
391.85	34.308
392.20	33.961
392.56	34.075
392.92	33.764
393.28	34.257
393.64	33.754
393.99	34.483
394.35	32.891
394.71	34.355
395.07	33.124
395.42	33.576
395.78	33.225
396.14	34.300
396.50	35.003
396.85	34.127
397.21	32.519
397.57	33.103
397.92	33.074
398.28	34.598
398.64	32.530
399.00	33.804
399.35	32.562
399.71	33.429
400.07	33.253
400.42	32.742
400.78	33.374
401.14	32.910
401.49	33.711
401.85	32.602
402.21	32.289
402.57	33.688
402.92	32.246
403.28	33.647
403.63	33.480
403.99	33.418
404.35	33.542
404.70	32.083
405.06	32.609
405.42	32.256
405.77	32.191
406.13	32.305
406.49	32.445
406.84	33.863
407.20	32.691
407.55	33.806
407.91	32.620
408.27	32.377
408.62	32.862
408.98	32.039
409.34	33.086
409.69	32.106
410.05	31.835
410.40	32.778
410.76	32.992
411.11	32.687
411.47	31.953
411.83	32.329
412.18	32.111
412.54	31.211
412.89	31.650
413.25	32.551
413.60	32.236
413.96	32.086
414.31	32.683
414.67	32.264
415.03	31.957
415.38	32.572
415.74	32.443
416.09	32.724
416.45	32.478
416.80	32.783
417.16	32.666
417.51	33.644
417.87	32.464
418.22	32.189
418.58	33.244
418.93	32.163
419.29	30.794
419.64	31.367
420.00	34.131
420.35	32.000
420.71	32.017
421.06	31.799
421.42	32.212
421.77	32.659
422.12	31.896
422.48	32.377
422.83	31.903
423.19	31.998
423.54	32.099
423.90	31.979
424.25	32.204
424.61	31.885
424.96	31.533
425.31	32.525
425.67	32.570
426.02	32.862
426.38	32.624
426.73	32.385
427.09	33.101
427.44	32.353
427.79	32.115
428.15	31.553
428.50	32.707
428.85	31.634
429.21	32.032
429.56	32.507
429.92	32.203
430.27	31.880
430.62	31.364
430.98	32.856
431.33	32.545
431.68	31.763
432.04	32.644
432.39	31.546
432.74	31.209
433.10	31.667
433.45	30.944
433.80	32.211
434.16	31.856
434.51	32.957
434.86	31.765
435.22	32.754
435.57	33.001
435.92	32.036
436.28	32.260
436.63	31.717
436.98	31.112
437.34	31.639
437.69	31.246
438.04	32.194
438.39	31.399
438.75	31.451
439.10	31.692
439.45	33.293
439.81	32.294
440.16	32.720
440.51	33.075
440.86	32.508
441.22	32.579
441.57	31.788
441.92	33.054
442.27	32.151
442.63	32.441
442.98	32.567
443.33	31.497
443.68	31.936
444.03	32.191
444.39	32.071
444.74	32.609
445.09	32.517
445.44	32.080
445.79	32.491
446.15	31.553
446.50	31.669
446.85	31.828
447.20	32.013
447.55	33.147
447.91	32.487
448.26	33.238
448.61	31.721
448.96	31.899
449.31	32.428
449.66	32.695
450.02	31.717
450.37	31.772
450.72	31.672
451.07	32.595
451.42	31.960
451.77	31.706
452.12	30.502
452.47	31.294
452.83	32.038
453.18	32.132
453.53	31.606
453.88	31.998
454.23	31.469
454.58	32.620
454.93	32.474
455.28	30.730
455.63	32.176
455.98	32.532
456.34	31.290
456.69	32.402
457.04	31.191
457.39	31.896
457.74	32.406
458.09	31.254
458.44	32.241
458.79	31.597
459.14	33.009
459.49	32.716
459.84	31.980
460.19	31.796
460.54	32.579
460.89	31.932
461.24	31.863
461.59	32.482
461.94	31.698
462.29	31.966
462.64	32.492
462.99	31.415
463.34	30.876
463.69	31.982
464.04	32.567
464.39	31.959
464.74	32.270
465.09	32.439
465.44	32.314
465.79	31.179
466.14	31.984
466.49	31.627
466.84	31.886
467.19	32.165
467.54	31.545
467.89	31.396
468.24	32.238
468.59	32.508
468.94	32.063
469.29	32.066
469.64	31.169
469.99	32.025
470.34	31.195
470.68	32.737
471.03	31.989
471.38	32.382
471.73	30.182
472.08	30.461
472.43	30.470
472.78	29.952
473.13	31.497
473.48	30.163
473.83	30.386
474.17	32.772
474.52	31.653
474.87	30.970
475.22	31.422
475.57	31.451
475.92	31.487
476.27	30.966
476.61	31.655
476.96	29.894
477.31	31.531
477.66	31.292
478.01	31.050
478.36	31.100
478.70	31.539
479.05	30.989
479.40	31.849
479.75	31.283
480.10	30.466
480.45	31.700
480.79	32.226
481.14	31.967
481.49	30.936
481.84	31.419
482.19	30.543
482.53	31.990
482.88	31.313
483.23	31.814
483.58	31.368
483.92	30.542
484.27	30.857
484.62	30.614
484.97	31.302
485.31	30.997
485.66	29.769
486.01	31.762
486.36	32.632
486.70	32.955
487.05	33.572
487.40	32.187
487.75	32.423
488.09	31.706
488.44	32.221
488.79	31.266
489.13	31.731
489.48	30.782
489.83	30.224
490.17	30.202
490.52	30.346
490.87	29.570
491.22	31.232
491.56	30.028
491.91	29.732
492.26	30.627
492.60	31.430
492.95	31.333
493.30	29.604
493.64	31.139
493.99	29.903
494.34	29.951
494.68	30.476
495.03	29.635
495.37	30.667
495.72	30.591
496.07	30.829
496.41	30.566
496.76	30.170
497.11	30.088
497.45	31.408
497.80	30.727
498.14	29.806
498.49	29.304
498.84	30.539
499.18	30.572
499.53	30.159
499.87	30.399
500.22	30.564
500.56	31.518
500.91	30.020
501.26	29.758
501.60	30.939
501.95	31.004
502.29	30.654
502.64	30.792
502.98	31.179
503.33	29.251
503.67	30.217
504.02	30.841
504.36	30.381
504.71	29.697
505.06	29.341
505.40	29.848
505.75	31.186
506.09	29.448
506.44	30.441
506.78	29.898
507.13	30.300
507.47	29.138
507.82	29.327
508.16	29.635
508.51	29.696
508.85	30.037
509.19	30.176
509.54	29.973
509.88	29.072
510.23	30.070
510.57	29.503
510.92	28.785
511.26	28.805
511.61	29.428
511.95	29.753
512.30	28.603
512.64	29.661
512.98	29.141
513.33	28.987
513.67	29.903
514.02	30.149
514.36	29.886
514.70	30.245
515.05	29.847
515.39	29.457
515.74	31.078
516.08	30.006
516.42	29.976
516.77	29.666
517.11	28.665
517.46	29.862
517.80	29.797
518.14	28.353
518.49	29.207
518.83	29.405
519.17	28.866
519.52	28.952
519.86	28.691
520.20	29.405
520.55	28.205
520.89	29.423
521.23	28.436
521.58	29.968
521.92	29.423
522.26	28.953
522.61	29.416
522.95	29.338
523.29	28.971
523.64	28.780
523.98	28.516
524.32	28.802
524.66	30.026
525.01	28.831
525.35	30.071
525.69	29.226
526.04	28.836
526.38	29.896
526.72	27.600
527.06	28.988
527.41	28.694
527.75	28.083
528.09	28.239
528.43	29.980
528.78	28.515
529.12	28.903
529.46	28.590
529.80	29.892
530.15	29.967
530.49	29.226
530.83	29.685
531.17	28.610
531.51	29.070
531.86	28.280
532.20	28.184
532.54	28.591
532.88	29.158
533.22	29.839
533.57	29.161
533.91	29.504
534.25	29.883
534.59	29.699
534.93	28.823
535.27	29.315
535.62	29.618
535.96	29.615
536.30	29.749
536.64	29.152
536.98	29.268
537.32	30.085
537.66	29.663
538.01	29.161
538.35	29.958
538.69	29.760
539.03	29.118
539.37	29.408
539.71	29.584
540.05	29.260
540.39	29.917
540.73	29.010
541.07	29.627
541.42	29.301
541.76	29.594
542.10	29.456
542.44	29.465
542.78	27.598
543.12	28.091
543.46	28.720
543.80	29.632
544.14	28.438
544.48	29.780
544.82	29.665
545.16	30.328
545.50	29.306
545.84	28.895
546.18	29.007
546.52	29.416
546.86	29.331
547.20	29.828
547.54	28.834
547.88	30.095
548.22	28.468
548.56	29.156
548.90	30.593
549.24	28.444
549.58	29.408
549.92	29.521
550.26	29.011
550.60	30.855
550.94	29.126
551.28	29.521
551.62	29.846
551.96	28.571
552.30	29.532
552.64	28.984
552.98	30.169
553.32	28.673
553.66	28.302
554.00	28.905
554.34	29.321
554.68	28.614
555.02	29.613
555.36	29.170
555.69	28.791
556.03	28.266
556.37	28.470
556.71	28.664
557.05	29.008
557.39	28.922
557.73	28.711
558.07	29.713
558.41	29.020
558.75	29.696
559.08	28.920
559.42	29.286
559.76	28.102
560.10	27.905
560.44	28.295
560.78	29.021
561.12	28.420
561.45	30.077
561.79	29.762
562.13	29.028
562.47	28.777
562.81	28.530
563.15	29.055
563.48	30.622
563.82	29.307
564.16	28.691
564.50	28.784
564.84	29.384
565.17	29.577
565.51	31.216
565.85	29.973
566.19	29.708
566.52	30.496
566.86	30.527
567.20	29.577
567.54	30.839
567.88	31.576
568.21	30.939
568.55	31.196
568.89	31.006
569.23	31.777
569.56	31.480
569.90	31.790
570.24	32.192
570.57	31.709
570.91	33.043
571.25	32.720
571.59	31.797
571.92	31.674
572.26	31.582
572.60	32.403
572.93	31.880
573.27	31.881
573.61	32.190
573.95	32.387
574.28	31.992
574.62	32.469
574.96	31.738
575.29	32.458
575.63	31.485
575.97	31.716
576.30	31.825
576.64	31.682
576.98	32.278
577.31	32.145
577.65	32.890
577.98	33.052
578.32	32.492
578.66	32.431
578.99	31.774
579.33	31.801
579.67	31.819
580.00	32.582
580.34	32.587
580.67	31.800
581.01	32.373
581.35	32.214
581.68	32.474
582.02	32.575
582.35	33.185
582.69	33.015
583.02	33.048
583.36	32.482
583.70	32.762
584.03	33.083
584.37	32.976
584.70	32.225
585.04	32.565
585.37	31.916
585.71	32.535
586.04	31.745
586.38	31.929
586.72	32.826
587.05	32.062
587.39	32.206
587.72	32.887
588.06	32.604
588.39	32.242
588.73	32.448
589.06	32.877
589.40	32.803
589.73	32.092
590.07	31.571
590.40	32.663
590.73	32.825
591.07	31.976
591.40	31.745
591.74	31.267
592.07	32.328
592.41	32.200
592.74	31.422
593.08	30.947
593.41	31.631
593.75	31.567
594.08	31.686
594.41	31.477
594.75	31.908
595.08	31.896
595.42	31.800
595.75	32.370
596.09	31.665
596.42	31.253
596.75	31.394
597.09	30.934
597.42	30.668
597.75	31.516
598.09	31.191
598.42	31.318
598.76	31.660
599.09	31.250
599.42	31.262
599.76	30.700
600.09	31.523
600.42	31.691
600.76	31.315
601.09	31.527
601.42	31.414
601.76	31.163
602.09	31.559
602.42	31.887
602.76	32.216
603.09	31.478
603.42	32.107
603.76	31.169
604.09	31.835
604.42	31.303
604.76	31.909
605.09	31.993
605.42	31.287
605.75	31.042
606.09	31.507
606.42	30.984
606.75	31.169
607.09	31.077
607.42	30.394
607.75	30.595
608.08	30.279
608.42	30.471
608.75	31.663
609.08	31.041
609.41	31.827
609.75	31.200
610.08	31.702
610.41	30.773
610.74	30.327
611.07	31.059
611.41	30.877
611.74	30.810
612.07	30.996
612.40	31.291
612.73	30.508
613.07	30.596
613.40	30.908
613.73	30.722
614.06	30.996
614.39	31.416
614.72	29.804
615.06	30.559
615.39	29.967
615.72	29.871
616.05	30.168
616.38	30.028
616.71	29.541
617.05	30.821
617.38	30.987
617.71	30.818
618.04	31.238
618.37	31.084
618.70	29.703
619.03	31.250
619.36	29.161
619.69	30.478
620.03	31.118
620.36	29.757
620.69	29.550
621.02	29.740
621.35	29.461
621.68	30.357
622.01	29.333
622.34	30.567
622.67	30.205
623.00	29.632
623.33	28.582
623.66	28.721
623.99	29.274
624.32	29.658
624.65	29.098
624.99	29.797
625.32	28.961
625.65	29.222
625.98	29.331
626.31	28.429
626.64	28.683
626.97	29.668
627.30	29.335
627.63	28.856
627.96	29.290
628.29	28.307
628.62	29.007
628.95	29.259
629.28	27.419
629.61	28.614
629.94	28.543
630.26	26.087
630.59	29.761
630.92	29.538
631.25	27.692
631.58	28.965
631.91	26.316
632.24	27.179
632.57	27.614
632.90	26.097
633.23	27.059
