SpectraSuite Data File
++++++++++++++++++++++++++++++++++++
Date: Fri May 15 20:29:44 PDT 2015
User: schluterlab
Dark Spectrum Present: Yes
Reference Spectrum Present: Yes
Number of Sampled Component Spectra: 1
Spectrometers: USB2E3373
Integration Time (usec): 3000 (USB2E3373)
Spectra Averaged: 3 (USB2E3373)
Boxcar Smoothing: 0 (USB2E3373)
Correct for Electrical Dark: No (USB2E3373)
Strobe/Lamp Enabled: No (USB2E3373)
Correct for Detector Non-linearity: No (USB2E3373)
Correct for Stray Light: No (USB2E3373)
Number of Pixels in Processed Spectrum: 2048
>>>>>Begin Processed Spectral Data<<<<<
178.53	0.000
178.91	0.000
179.29	0.000
179.67	-650.000
180.04	14.286
180.42	50.000
180.80	-200.000
181.18	133.333
181.56	-200.000
181.94	-100.000
182.31	400.000
182.69	-160.000
183.07	-333.333
183.45	-80.000
183.83	83.333
184.20	-63.636
184.58	177.778
184.96	-0.000
185.34	200.000
185.72	-550.000
186.09	38.462
186.47	-1500.000
186.85	83.333
187.23	122.222
187.61	-0.000
187.98	-200.000
188.36	0.000
188.74	-200.000
189.12	5.882
189.49	33.333
189.87	0.000
190.25	35.714
190.63	50.000
191.00	33.333
191.38	-15.789
191.76	200.000
192.14	50.000
192.51	-150.000
192.89	66.667
193.27	14.286
193.65	33.333
194.02	163.636
194.40	60.000
194.78	-37.500
195.15	-16.667
195.53	-150.000
195.91	325.000
196.29	-150.000
196.66	76.923
197.04	-28.571
197.42	-111.111
197.79	-333.333
198.17	-53.846
198.55	1900.000
198.92	-300.000
199.30	-1300.000
199.68	-100.000
200.05	-100.000
200.43	0.000
200.81	100.000
201.18	366.667
201.56	1600.000
201.94	-300.000
202.31	33.333
202.69	-160.000
203.07	50.000
203.44	100.000
203.82	0.000
204.19	64.286
204.57	-500.000
204.95	125.000
205.32	30.000
205.70	-28.571
206.08	-100.000
206.45	200.000
206.83	92.857
207.20	71.429
207.58	-400.000
207.96	-366.667
208.33	-90.000
208.71	-250.000
209.08	-150.000
209.46	-1200.000
209.84	-120.000
210.21	-1500.000
210.59	14.286
210.96	133.333
211.34	-75.000
211.71	26.667
212.09	-42.857
212.46	-1300.000
212.84	0.000
213.22	100.000
213.59	500.000
213.97	-23.077
214.34	18.182
214.72	16.667
215.09	350.000
215.47	30.769
215.84	-54.545
216.22	-300.000
216.59	-12.500
216.97	100.000
217.34	325.000
217.72	-80.000
218.09	75.000
218.47	125.000
218.84	-100.000
219.22	-33.333
219.59	-80.000
219.97	266.667
220.34	125.000
220.72	-14.286
221.09	50.000
221.47	-400.000
221.84	-350.000
222.22	-550.000
222.59	-9.091
222.97	-16.667
223.34	-66.667
223.72	7.143
224.09	47.619
224.46	28.571
224.84	266.667
225.21	-20.000
225.59	53.333
225.96	150.000
226.34	200.000
226.71	-185.714
227.08	-150.000
227.46	-37.500
227.83	-300.000
228.21	-44.444
228.58	0.000
228.95	0.000
229.33	120.000
229.70	-6.250
230.08	-100.000
230.45	-128.571
230.82	-14.286
231.20	-6.667
231.57	42.857
231.95	-57.143
232.32	60.000
232.69	92.857
233.07	-333.333
233.44	0.000
233.81	0.000
234.19	33.333
234.56	-17.647
234.93	250.000
235.31	-125.000
235.68	-140.000
236.05	38.462
236.43	-35.000
236.80	11.765
237.17	40.625
237.55	45.000
237.92	51.852
238.29	16.667
238.67	40.000
239.04	23.529
239.41	-12.195
239.79	13.333
240.16	43.902
240.53	21.053
240.91	4.348
241.28	31.746
241.65	44.643
242.02	36.986
242.40	31.667
242.77	27.119
243.14	18.182
243.51	26.250
243.89	42.529
244.26	18.391
244.63	30.952
245.00	29.897
245.38	35.052
245.75	22.472
246.12	26.724
246.49	25.620
246.87	38.462
247.24	26.891
247.61	28.947
247.98	25.203
248.36	26.875
248.73	32.237
249.10	25.325
249.47	36.709
249.84	28.758
250.22	31.176
250.59	30.065
250.96	32.394
251.33	32.558
251.70	30.000
252.08	30.457
252.45	25.743
252.82	28.643
253.19	32.719
253.56	26.636
253.94	31.081
254.31	29.565
254.68	33.333
255.05	28.346
255.42	29.258
255.79	28.571
256.16	24.514
256.54	30.970
256.91	27.376
257.28	27.138
257.65	30.337
258.02	28.014
258.39	33.333
258.76	28.938
259.14	28.571
259.51	25.890
259.88	30.241
260.25	30.719
260.62	32.639
260.99	28.136
261.36	28.425
261.73	28.481
262.10	28.875
262.47	28.221
262.85	27.586
263.22	31.077
263.59	27.103
263.96	35.093
264.33	32.727
264.70	30.060
265.07	31.250
265.44	28.895
265.81	30.791
266.18	31.148
266.55	29.563
266.92	29.793
267.29	31.854
267.66	31.458
268.03	29.319
268.40	28.460
268.77	34.225
269.14	29.257
269.51	29.563
269.88	25.686
270.25	29.082
270.62	28.049
270.99	28.645
271.36	29.095
271.73	28.638
272.10	29.684
272.47	30.496
272.84	25.990
273.21	30.858
273.58	26.265
273.95	31.121
274.32	32.564
274.69	27.376
275.06	28.348
275.43	29.025
275.80	31.567
276.17	29.425
276.54	28.266
276.91	27.632
277.28	26.201
277.65	30.372
278.02	26.809
278.39	29.759
278.76	31.237
279.13	27.178
279.50	29.622
279.87	29.374
280.23	27.742
280.60	28.460
280.97	28.889
281.34	27.692
281.71	30.390
282.08	25.767
282.45	28.376
282.82	26.834
283.19	28.240
283.56	29.865
283.92	28.653
284.29	28.462
284.66	27.907
285.03	28.684
285.40	29.112
285.77	25.835
286.14	27.256
286.51	27.675
286.87	25.594
287.24	28.177
287.61	26.455
287.98	27.193
288.35	28.943
288.72	28.196
289.08	25.000
289.45	26.362
289.82	26.399
290.19	26.280
290.56	24.357
290.93	24.747
291.29	22.496
291.66	25.197
292.03	23.923
292.40	25.645
292.77	22.488
293.13	22.403
293.50	23.976
293.87	23.511
294.24	24.266
294.60	23.100
294.97	23.214
295.34	22.239
295.71	24.441
296.08	22.720
296.44	18.777
296.81	20.556
297.18	23.333
297.55	22.900
297.91	21.918
298.28	21.372
298.65	20.353
299.02	21.429
299.38	19.973
299.75	22.069
300.12	20.681
300.48	21.476
300.85	21.420
301.22	19.870
301.59	20.263
301.95	23.165
302.32	22.568
302.69	21.020
303.05	19.307
303.42	20.672
303.79	21.028
304.15	19.594
304.52	21.284
304.89	18.129
305.25	18.160
305.62	19.720
305.99	18.363
306.35	19.422
306.72	17.885
307.09	21.095
307.45	19.862
307.82	18.866
308.19	20.093
308.55	18.648
308.92	21.786
309.29	18.547
309.65	18.192
310.02	19.252
310.38	19.759
310.75	19.563
311.12	21.421
311.48	19.406
311.85	19.686
312.22	19.515
312.58	19.108
312.95	19.104
313.31	18.323
313.68	19.162
314.05	19.694
314.41	20.722
314.78	18.351
315.14	21.172
315.51	20.497
315.87	19.672
316.24	21.132
316.61	20.571
316.97	21.032
317.34	20.508
317.70	21.606
318.07	21.442
318.43	21.569
318.80	21.307
319.16	23.828
319.53	23.457
319.89	21.949
320.26	21.761
320.62	23.771
320.99	22.965
321.35	24.563
321.72	24.922
322.08	23.968
322.45	26.193
322.81	25.933
323.18	26.104
323.54	26.448
323.91	27.264
324.27	28.125
324.64	28.371
325.00	28.558
325.37	30.670
325.73	28.830
326.10	29.609
326.46	31.390
326.83	32.458
327.19	32.171
327.56	32.493
327.92	34.595
328.29	35.089
328.65	35.000
329.01	36.029
329.38	35.945
329.74	37.583
330.11	37.442
330.47	36.735
330.84	35.673
331.20	40.494
331.56	37.037
331.93	39.178
332.29	39.047
332.66	39.005
333.02	40.242
333.38	38.955
333.75	41.209
334.11	38.944
334.48	42.158
334.84	41.484
335.20	41.903
335.57	40.617
335.93	41.102
336.29	43.186
336.66	43.324
337.02	42.658
337.38	42.870
337.75	43.818
338.11	44.094
338.47	43.704
338.84	44.362
339.20	44.241
339.56	44.587
339.93	44.852
340.29	45.413
340.65	44.086
341.02	46.543
341.38	44.248
341.74	43.463
342.11	44.021
342.47	45.819
342.83	46.453
343.20	44.338
343.56	46.000
343.92	45.970
344.28	44.663
344.65	44.991
345.01	46.500
345.37	44.659
345.73	45.105
346.10	45.557
346.46	44.743
346.82	44.517
347.19	44.057
347.55	46.366
347.91	45.955
348.27	43.816
348.63	44.804
349.00	44.053
349.36	46.384
349.72	46.269
350.08	46.148
350.45	45.571
350.81	44.269
351.17	45.033
351.53	45.306
351.89	44.839
352.26	45.440
352.62	45.726
352.98	44.096
353.34	45.169
353.70	47.006
354.07	46.210
354.43	44.996
354.79	46.243
355.15	45.873
355.51	45.095
355.87	46.440
356.24	44.780
356.60	46.968
356.96	46.905
357.32	44.089
357.68	45.113
358.04	46.284
358.40	45.338
358.77	46.491
359.13	45.637
359.49	45.455
359.85	46.256
360.21	47.049
360.57	45.907
360.93	45.537
361.29	45.317
361.66	46.160
362.02	47.652
362.38	47.296
362.74	46.253
363.10	48.081
363.46	45.738
363.82	46.882
364.18	46.421
364.54	44.412
364.90	46.667
365.26	46.579
365.62	47.518
365.98	46.994
366.35	47.414
366.71	47.450
367.07	46.226
367.43	46.657
367.79	46.996
368.15	46.734
368.51	47.269
368.87	46.016
369.23	47.148
369.59	48.032
369.95	47.434
370.31	46.532
370.67	47.910
371.03	46.378
371.39	47.629
371.75	47.179
372.11	46.576
372.47	48.447
372.83	47.693
373.19	46.790
373.55	47.509
373.91	46.724
374.27	48.405
374.63	46.734
374.99	47.305
375.35	47.841
375.71	47.552
376.07	48.455
376.42	48.639
376.78	48.591
377.14	46.378
377.50	47.543
377.86	48.527
378.22	47.862
378.58	47.821
378.94	47.700
379.30	47.473
379.66	48.903
380.02	48.866
380.38	48.691
380.74	47.816
381.09	48.957
381.45	48.318
381.81	48.365
382.17	49.810
382.53	48.345
382.89	49.843
383.25	50.218
383.61	50.061
383.97	49.333
384.32	48.718
384.68	50.464
385.04	48.468
385.40	49.160
385.76	50.503
386.12	49.806
386.48	50.958
386.83	49.778
387.19	50.427
387.55	51.568
387.91	49.756
388.27	49.145
388.62	51.857
388.98	50.829
389.34	50.968
389.70	51.212
390.06	49.591
390.42	49.870
390.77	51.079
391.13	50.946
391.49	50.388
391.85	51.072
392.20	50.910
392.56	51.049
392.92	51.674
393.28	52.182
393.64	50.811
393.99	52.602
394.35	52.498
394.71	51.916
395.07	50.849
395.42	51.609
395.78	53.160
396.14	52.396
396.50	51.173
396.85	51.513
397.21	51.504
397.57	51.473
397.92	51.947
398.28	51.897
398.64	51.566
399.00	52.991
399.35	52.991
399.71	52.671
400.07	52.418
400.42	53.060
400.78	52.603
401.14	52.813
401.49	53.186
401.85	52.712
402.21	52.108
402.57	53.500
402.92	52.384
403.28	53.195
403.63	54.540
403.99	53.571
404.35	53.529
404.70	52.500
405.06	52.409
405.42	52.641
405.77	53.864
406.13	54.366
406.49	53.286
406.84	53.912
407.20	54.365
407.55	53.252
407.91	54.011
408.27	54.047
408.62	54.831
408.98	55.145
409.34	53.408
409.69	53.747
410.05	53.879
410.40	54.074
410.76	54.825
411.11	55.375
411.47	55.621
411.83	53.735
412.18	55.856
412.54	54.057
412.89	53.202
413.25	53.911
413.60	55.280
413.96	54.356
414.31	55.610
414.67	54.650
415.03	54.993
415.38	53.655
415.74	54.919
416.09	55.193
416.45	55.706
416.80	55.188
417.16	58.287
417.51	55.363
417.87	55.280
418.22	56.477
418.58	55.853
418.93	56.238
419.29	54.802
419.64	55.606
420.00	57.809
420.35	55.463
420.71	56.683
421.06	56.047
421.42	55.288
421.77	57.746
422.12	55.505
422.48	56.145
422.83	55.858
423.19	56.264
423.54	56.614
423.90	55.948
424.25	57.176
424.61	57.283
424.96	56.330
425.31	58.752
425.67	57.864
426.02	57.715
426.38	57.921
426.73	57.990
427.09	59.557
427.44	58.941
427.79	57.808
428.15	58.434
428.50	57.541
428.85	56.511
429.21	58.517
429.56	58.544
429.92	56.497
430.27	57.293
430.62	57.292
430.98	56.953
431.33	58.097
431.68	56.777
432.04	59.530
432.39	57.216
432.74	57.426
433.10	58.333
433.45	58.841
433.80	58.212
434.16	58.892
434.51	59.140
434.86	60.105
435.22	59.226
435.57	59.701
435.92	59.281
436.28	58.497
436.63	60.068
436.98	58.343
437.34	58.500
437.69	60.525
438.04	59.601
438.39	59.377
438.75	60.656
439.10	60.328
439.45	61.412
439.81	59.511
440.16	63.124
440.51	61.373
440.86	61.873
441.22	59.219
441.57	60.320
441.92	61.805
442.27	60.698
442.63	61.456
442.98	62.206
443.33	60.768
443.68	62.016
444.03	61.699
444.39	61.289
444.74	62.988
445.09	61.971
445.44	62.336
445.79	63.228
446.15	60.297
446.50	61.120
446.85	62.965
447.20	61.835
447.55	61.272
447.91	61.985
448.26	62.379
448.61	61.831
448.96	62.192
449.31	62.197
449.66	61.672
450.02	62.693
450.37	63.308
450.72	62.314
451.07	62.722
451.42	61.860
451.77	62.508
452.12	61.423
452.47	64.070
452.83	64.134
453.18	63.188
453.53	63.527
453.88	63.206
454.23	64.413
454.58	65.302
454.93	63.080
455.28	62.603
455.63	64.228
455.98	63.079
456.34	63.538
456.69	64.231
457.04	63.957
457.39	63.730
457.74	64.087
458.09	62.390
458.44	64.073
458.79	64.034
459.14	64.130
459.49	64.418
459.84	63.621
460.19	64.867
460.54	64.242
460.89	66.193
461.24	65.342
461.59	64.430
461.94	63.270
462.29	65.380
462.64	66.113
462.99	64.523
463.34	64.882
463.69	65.187
464.04	64.407
464.39	66.465
464.74	64.049
465.09	64.691
465.44	64.686
465.79	63.776
466.14	64.196
466.49	65.325
466.84	65.080
467.19	65.394
467.54	65.964
467.89	66.519
468.24	65.450
468.59	67.048
468.94	65.714
469.29	66.623
469.64	66.029
469.99	68.465
470.34	66.416
470.68	67.636
471.03	68.719
471.38	67.404
471.73	66.597
472.08	67.503
472.43	67.450
472.78	66.484
473.13	67.823
473.48	65.798
473.83	66.874
474.17	67.487
474.52	66.624
474.87	65.273
475.22	66.809
475.57	66.629
475.92	66.813
476.27	68.102
476.61	68.576
476.96	67.038
477.31	67.063
477.66	66.517
478.01	67.546
478.36	66.721
478.70	68.787
479.05	68.626
479.40	67.038
479.75	67.779
480.10	67.435
480.45	67.100
480.79	67.573
481.14	69.211
481.49	66.601
481.84	68.485
482.19	66.745
482.53	68.585
482.88	67.494
483.23	67.418
483.58	67.689
483.92	67.861
484.27	66.682
484.62	66.831
484.97	67.454
485.31	65.571
485.66	63.084
486.01	63.111
486.36	63.345
486.70	64.252
487.05	65.848
487.40	65.822
487.75	65.718
488.09	66.780
488.44	66.265
488.79	67.239
489.13	68.429
489.48	69.175
489.83	67.085
490.17	68.315
490.52	68.684
490.87	67.793
491.22	69.436
491.56	68.548
491.91	66.778
492.26	69.859
492.60	70.010
492.95	70.831
493.30	69.126
493.64	70.481
493.99	69.179
494.34	69.417
494.68	68.667
495.03	69.538
495.37	71.001
495.72	70.772
496.07	70.537
496.41	69.340
496.76	69.599
497.11	68.514
497.45	70.072
497.80	72.402
498.14	69.051
498.49	70.086
498.84	70.509
499.18	70.934
499.53	70.238
499.87	68.531
500.22	69.634
500.56	71.205
500.91	69.127
501.26	69.254
501.60	70.192
501.95	70.063
502.29	70.169
502.64	69.981
502.98	71.238
503.33	69.164
503.67	70.072
504.02	69.844
504.36	69.520
504.71	70.303
505.06	68.948
505.40	69.695
505.75	70.670
506.09	69.336
506.44	72.074
506.78	70.357
507.13	71.096
507.47	70.287
507.82	70.887
508.16	70.312
508.51	69.885
508.85	72.109
509.19	71.155
509.54	70.938
509.88	70.119
510.23	71.329
510.57	71.994
510.92	70.789
511.26	71.686
511.61	72.332
511.95	70.411
512.30	72.062
512.64	72.176
512.98	71.196
513.33	71.013
513.67	72.030
514.02	73.799
514.36	73.714
514.70	73.252
515.05	72.444
515.39	73.908
515.74	74.192
516.08	72.803
516.42	73.439
516.77	72.382
517.11	73.709
517.46	74.566
517.80	71.990
518.14	73.423
518.49	71.815
518.83	73.329
519.17	72.226
519.52	73.357
519.86	73.529
520.20	74.423
520.55	74.296
520.89	73.087
521.23	74.414
521.58	74.763
521.92	75.385
522.26	73.455
522.61	74.675
522.95	74.636
523.29	73.126
523.64	74.587
523.98	75.178
524.32	74.356
524.66	75.352
525.01	74.286
525.35	76.086
525.69	75.152
526.04	73.743
526.38	75.032
526.72	72.400
527.06	73.995
527.41	74.077
527.75	73.727
528.09	72.492
528.43	74.477
528.78	74.257
529.12	73.355
529.46	72.580
529.80	72.578
530.15	74.851
530.49	74.815
530.83	74.419
531.17	74.144
531.51	73.598
531.86	72.944
532.20	74.530
532.54	73.587
532.88	74.949
533.22	73.118
533.57	72.018
533.91	74.413
534.25	74.935
534.59	74.022
534.93	70.736
535.27	70.812
535.62	70.706
535.96	72.603
536.30	71.834
536.64	72.846
536.98	72.474
537.32	74.111
537.66	74.684
538.01	73.706
538.35	73.440
538.69	71.305
539.03	72.386
539.37	70.794
539.71	72.256
540.05	70.876
540.39	73.892
540.73	72.245
541.07	73.066
541.42	70.632
541.76	71.989
542.10	71.301
542.44	72.550
542.78	69.718
543.12	72.871
543.46	72.462
543.80	72.727
544.14	70.027
544.48	70.353
544.82	72.180
545.16	72.609
545.50	71.028
545.84	71.601
546.18	71.348
546.52	72.386
546.86	71.244
547.20	72.747
547.54	69.682
547.88	70.177
548.22	68.442
548.56	68.470
548.90	72.237
549.24	70.592
549.58	71.016
549.92	70.479
550.26	71.355
550.60	72.639
550.94	72.591
551.28	71.329
551.62	71.692
551.96	71.203
552.30	70.468
552.64	70.945
552.98	70.253
553.32	70.043
553.66	71.045
554.00	71.898
554.34	71.418
554.68	70.428
555.02	71.131
555.36	70.007
555.69	69.744
556.03	70.664
556.37	69.822
556.71	71.119
557.05	71.439
557.39	68.476
557.73	70.690
558.07	70.814
558.41	70.214
558.75	70.928
559.08	70.449
559.42	71.746
559.76	71.737
560.10	70.872
560.44	70.812
560.78	69.021
561.12	69.676
561.45	70.555
561.79	70.518
562.13	69.198
562.47	69.640
562.81	69.380
563.15	67.913
563.48	69.095
563.82	69.183
564.16	68.524
564.50	67.500
564.84	66.600
565.17	66.935
565.51	70.833
565.85	70.576
566.19	68.236
566.52	68.231
566.86	68.702
567.20	66.750
567.54	66.545
567.88	66.960
568.21	66.742
568.55	65.598
568.89	66.786
569.23	65.575
569.56	63.923
569.90	63.581
570.24	61.556
570.57	62.364
570.91	62.740
571.25	60.572
571.59	60.012
571.92	59.081
572.26	59.934
572.60	59.845
572.93	59.868
573.27	60.063
573.61	60.591
573.95	59.913
574.28	59.322
574.62	58.174
574.96	58.439
575.29	57.976
575.63	57.580
575.97	57.875
576.30	58.589
576.64	57.987
576.98	58.533
577.31	59.155
577.65	58.670
577.98	57.756
578.32	57.059
578.66	56.695
578.99	57.253
579.33	57.082
579.67	57.608
580.00	57.696
580.34	57.687
580.67	56.726
581.01	57.829
581.35	56.934
581.68	56.308
582.02	56.396
582.35	56.193
582.69	56.700
583.02	56.719
583.36	57.062
583.70	57.944
584.03	59.077
584.37	59.317
584.70	57.775
585.04	56.554
585.37	56.708
585.71	56.381
586.04	56.430
586.38	56.308
586.72	57.389
587.05	57.568
587.39	56.947
587.72	57.928
588.06	56.629
588.39	57.163
588.73	57.357
589.06	58.284
589.40	57.553
589.73	58.050
590.07	58.346
590.40	58.591
590.73	59.596
591.07	59.330
591.40	59.573
591.74	58.778
592.07	60.250
592.41	58.613
592.74	57.348
593.08	55.187
593.41	56.376
593.75	56.493
594.08	55.716
594.41	56.550
594.75	57.366
595.08	56.943
595.42	57.490
595.75	56.741
596.09	57.975
596.42	57.586
596.75	57.416
597.09	57.449
597.42	57.046
597.75	58.635
598.09	56.406
598.42	55.866
598.76	55.985
599.09	55.168
599.42	54.793
599.76	55.719
600.09	55.581
600.42	55.231
600.76	54.569
601.09	55.496
601.42	55.738
601.76	55.339
602.09	55.404
602.42	56.698
602.76	56.452
603.09	56.852
603.42	57.065
603.76	55.363
604.09	55.043
604.42	56.514
604.76	56.342
605.09	57.084
605.42	56.614
605.75	54.641
606.09	54.862
606.42	55.338
606.75	55.758
607.09	54.769
607.42	55.029
607.75	55.107
608.08	55.031
608.42	54.820
608.75	56.434
609.08	56.801
609.41	56.041
609.75	56.250
610.08	56.066
610.41	54.686
610.74	55.729
611.07	56.951
611.41	55.631
611.74	56.503
612.07	55.835
612.40	56.400
612.73	56.667
613.07	55.849
613.40	55.744
613.73	56.463
614.06	54.758
614.39	56.289
614.72	55.126
615.06	55.140
615.39	53.766
615.72	53.767
616.05	54.581
616.38	55.442
616.71	56.820
617.05	56.208
617.38	56.442
617.71	56.352
618.04	56.698
618.37	56.747
618.70	55.776
619.03	58.403
619.36	56.802
619.69	59.212
620.03	57.633
620.36	56.652
620.69	57.031
621.02	56.346
621.35	60.913
621.68	59.184
622.01	60.000
622.34	57.542
622.67	56.703
623.00	56.662
623.33	56.098
623.66	57.292
623.99	55.673
624.32	57.186
624.65	56.241
624.99	56.208
625.32	54.966
625.65	56.638
625.98	57.131
626.31	57.440
626.64	59.099
626.97	57.679
627.30	57.268
627.63	58.579
627.96	58.491
628.29	57.724
628.62	59.980
628.95	58.417
629.28	59.274
629.61	59.123
629.94	59.335
630.26	58.794
630.59	60.146
630.92	59.282
631.25	58.256
631.58	59.912
631.91	59.759
632.24	60.206
632.57	60.114
632.90	57.888
633.23	59.765
633.56	62.469
