SpectraSuite Data File
++++++++++++++++++++++++++++++++++++
Date: Fri May 15 21:03:19 PDT 2015
User: schluterlab
Dark Spectrum Present: Yes
Reference Spectrum Present: Yes
Number of Sampled Component Spectra: 1
Spectrometers: USB2E3373
Integration Time (usec): 3000 (USB2E3373)
Spectra Averaged: 3 (USB2E3373)
Boxcar Smoothing: 0 (USB2E3373)
Correct for Electrical Dark: No (USB2E3373)
Strobe/Lamp Enabled: No (USB2E3373)
Correct for Detector Non-linearity: No (USB2E3373)
Correct for Stray Light: No (USB2E3373)
Number of Pixels in Processed Spectrum: 2048
>>>>>Begin Processed Spectral Data<<<<<
178.53	0.000
178.91	0.000
179.29	-37.500
179.67	-250.000
180.04	85.714
180.42	25.000
180.80	-200.000
181.18	-66.667
181.56	800.000
181.94	0.000
182.31	400.000
182.69	-100.000
183.07	-300.000
183.45	-280.000
183.83	183.333
184.20	54.545
184.58	166.667
184.96	225.000
185.34	333.333
185.72	-300.000
186.09	92.308
186.47	-1000.000
186.85	200.000
187.23	155.556
187.61	-100.000
187.98	-366.667
188.36	-11.111
188.74	-66.667
189.12	17.647
189.49	33.333
189.87	0.000
190.25	-21.429
190.63	300.000
191.00	-500.000
191.38	26.316
191.76	50.000
192.14	150.000
192.51	-250.000
192.89	-66.667
193.27	-85.714
193.65	216.667
194.02	163.636
194.40	-20.000
194.78	-162.500
195.15	-33.333
195.53	-125.000
195.91	250.000
196.29	-250.000
196.66	169.231
197.04	171.429
197.42	22.222
197.79	-266.667
198.17	-38.462
198.55	1900.000
198.92	-366.667
199.30	-300.000
199.68	-100.000
200.05	-300.000
200.43	0.000
200.81	-200.000
201.18	-133.333
201.56	600.000
201.94	-650.000
202.31	-100.000
202.69	-100.000
203.07	175.000
203.44	-500.000
203.82	0.000
204.19	0.000
204.57	-533.333
204.95	75.000
205.32	20.000
205.70	-71.429
206.08	-375.000
206.45	55.556
206.83	-50.000
207.20	-200.000
207.58	1000.000
207.96	-266.667
208.33	-90.000
208.71	-225.000
209.08	-366.667
209.46	-1500.000
209.84	-60.000
210.21	200.000
210.59	-42.857
210.96	-133.333
211.34	75.000
211.71	-6.667
212.09	-85.714
212.46	-2900.000
212.84	0.000
213.22	0.000
213.59	550.000
213.97	7.692
214.34	-18.182
214.72	0.000
215.09	450.000
215.47	-69.231
215.84	-118.182
216.22	-733.333
216.59	-162.500
216.97	-200.000
217.34	75.000
217.72	-80.000
218.09	62.500
218.47	250.000
218.84	-1400.000
219.22	0.000
219.59	-160.000
219.97	333.333
220.34	400.000
220.72	-28.571
221.09	25.000
221.47	-300.000
221.84	-600.000
222.22	-900.000
222.59	0.000
222.97	0.000
223.34	-333.333
223.72	-50.000
224.09	-14.286
224.46	-17.857
224.84	366.667
225.21	-20.000
225.59	-6.667
225.96	-100.000
226.34	325.000
226.71	-85.714
227.08	-83.333
227.46	-12.500
227.83	-1000.000
228.21	111.111
228.58	0.000
228.95	0.000
229.33	190.000
229.70	-75.000
230.08	-50.000
230.45	-57.143
230.82	-14.286
231.20	-40.000
231.57	35.714
231.95	-14.286
232.32	-120.000
232.69	14.286
233.07	-133.333
233.44	-100.000
233.81	-80.000
234.19	-44.444
234.56	-11.765
234.93	1100.000
235.31	25.000
235.68	-220.000
236.05	-53.846
236.43	-65.000
236.80	5.882
237.17	-6.250
237.55	-30.000
237.92	7.407
238.29	8.333
238.67	23.333
239.04	0.000
239.41	-2.439
239.79	16.667
240.16	51.220
240.53	18.421
240.91	15.217
241.28	28.571
241.65	51.786
242.02	24.658
242.40	31.667
242.77	28.814
243.14	25.758
243.51	40.000
243.89	42.529
244.26	22.989
244.63	25.000
245.00	34.021
245.38	29.897
245.75	40.449
246.12	16.379
246.49	29.752
246.87	35.577
247.24	28.571
247.61	35.965
247.98	29.268
248.36	32.500
248.73	32.237
249.10	34.416
249.47	31.646
249.84	39.869
250.22	28.824
250.59	39.216
250.96	35.211
251.33	30.233
251.70	38.235
252.08	32.487
252.45	30.693
252.82	34.171
253.19	36.866
253.56	33.178
253.94	31.532
254.31	35.652
254.68	40.789
255.05	29.528
255.42	31.004
255.79	30.502
256.16	34.241
256.54	35.821
256.91	36.502
257.28	33.457
257.65	34.082
258.02	34.752
258.39	36.700
258.76	34.799
259.14	39.867
259.51	31.068
259.88	37.801
260.25	32.680
260.62	36.458
260.99	32.542
261.36	31.849
261.73	33.861
262.10	36.778
262.47	34.969
262.85	35.110
263.22	36.615
263.59	36.137
263.96	35.093
264.33	37.879
264.70	34.821
265.07	35.119
265.44	34.278
265.81	37.853
266.18	34.153
266.55	34.961
266.92	37.306
267.29	33.420
267.66	32.737
268.03	36.387
268.40	35.248
268.77	35.561
269.14	34.053
269.51	37.789
269.88	29.426
270.25	34.439
270.62	32.683
270.99	36.829
271.36	31.785
271.73	35.915
272.10	34.063
272.47	34.752
272.84	34.158
273.21	32.251
273.58	34.458
273.95	32.723
274.32	31.871
274.69	30.995
275.06	35.491
275.43	34.921
275.80	34.437
276.17	33.103
276.54	33.619
276.91	33.333
277.28	35.371
277.65	31.198
278.02	33.404
278.39	35.230
278.76	34.801
279.13	30.290
279.50	36.765
279.87	33.693
280.23	33.978
280.60	35.478
280.97	34.545
281.34	32.500
281.71	35.934
282.08	33.333
282.45	31.115
282.82	32.625
283.19	34.236
283.56	32.370
283.92	31.879
284.29	32.308
284.66	31.008
285.03	33.792
285.40	32.514
285.77	30.053
286.14	30.866
286.51	33.395
286.87	29.433
287.24	32.044
287.61	30.159
287.98	31.930
288.35	29.289
288.72	32.049
289.08	31.424
289.45	31.986
289.82	28.846
290.19	29.522
290.56	30.189
290.93	29.293
291.29	26.810
291.66	27.559
292.03	28.868
292.40	30.161
292.77	27.592
293.13	26.786
293.50	27.162
293.87	27.176
294.24	26.739
294.60	27.273
294.97	26.190
295.34	27.914
295.71	26.080
296.08	26.308
296.44	25.036
296.81	24.861
297.18	25.652
297.55	25.339
297.91	23.562
298.28	25.989
298.65	24.423
299.02	25.337
299.38	23.666
299.75	26.483
300.12	22.906
300.48	25.560
300.85	24.081
301.22	23.636
301.59	24.079
301.95	22.911
302.32	25.551
302.69	25.498
303.05	23.762
303.42	24.035
303.79	23.131
304.15	23.297
304.52	22.354
304.89	21.988
305.25	23.123
305.62	21.704
305.99	22.222
306.35	23.468
306.72	22.722
307.09	22.919
307.45	24.914
307.82	23.032
308.19	23.345
308.55	23.119
308.92	24.074
309.29	22.011
309.65	23.466
310.02	22.772
310.38	23.491
310.75	24.699
311.12	23.143
311.48	23.966
311.85	23.351
312.22	22.363
312.58	23.567
312.95	23.479
313.31	21.429
313.68	24.398
314.05	24.388
314.41	24.330
314.78	25.567
315.14	24.974
315.51	23.602
315.87	24.898
316.24	26.087
316.61	26.870
316.97	24.901
317.34	24.707
317.70	26.291
318.07	25.192
318.43	27.157
318.80	26.799
319.16	27.539
319.53	28.205
319.89	28.543
320.26	28.644
320.62	29.589
320.99	27.662
321.35	28.263
321.72	30.322
322.08	30.816
322.45	30.761
322.81	30.452
323.18	30.128
323.54	31.757
323.91	30.867
324.27	32.324
324.64	32.959
325.00	33.303
325.37	35.354
325.73	34.089
326.10	35.059
326.46	35.067
326.83	36.045
327.19	36.007
327.56	38.054
327.92	37.148
328.29	36.429
328.65	37.358
329.01	37.040
329.38	37.972
329.74	37.771
330.11	37.720
330.47	38.219
330.84	38.173
331.20	41.730
331.56	37.500
331.93	39.178
332.29	40.147
332.66	39.729
333.02	38.941
333.38	39.322
333.75	40.751
334.11	38.765
334.48	40.435
334.84	40.018
335.20	40.531
335.57	39.529
335.93	39.837
336.29	40.976
336.66	40.599
337.02	39.870
337.38	39.259
337.75	39.909
338.11	40.307
338.47	41.241
338.84	41.682
339.20	40.219
339.56	40.826
339.93	39.928
340.29	41.560
340.65	40.681
341.02	40.691
341.38	39.292
341.74	39.929
342.11	39.948
342.47	41.904
342.83	40.398
343.20	41.376
343.56	41.739
343.92	41.187
344.28	40.649
344.65	41.019
345.01	40.709
345.37	40.118
345.73	41.841
346.10	41.588
346.46	40.791
346.82	41.408
347.19	40.399
347.55	41.604
347.91	41.990
348.27	40.097
348.63	41.993
349.00	41.099
349.36	41.064
349.72	42.040
350.08	41.311
350.45	41.500
350.81	41.611
351.17	40.472
351.53	42.041
351.89	42.444
352.26	40.960
352.62	41.452
352.98	39.518
353.34	41.224
353.70	41.828
354.07	40.968
354.43	41.153
354.79	41.453
355.15	43.175
355.51	42.405
355.87	41.748
356.24	42.577
356.60	41.310
356.96	43.651
357.32	42.013
357.68	40.891
358.04	43.215
358.40	42.765
358.77	43.142
359.13	43.555
359.49	41.448
359.85	42.512
360.21	43.301
360.57	43.076
360.93	42.663
361.29	41.767
361.66	43.495
362.02	43.106
362.38	42.803
362.74	44.966
363.10	44.319
363.46	43.069
363.82	45.304
364.18	43.911
364.54	43.529
364.90	44.803
365.26	43.741
365.62	45.328
365.98	45.748
366.35	45.157
366.71	44.715
367.07	43.759
367.43	43.853
367.79	45.371
368.15	45.298
368.51	45.448
368.87	45.944
369.23	44.910
369.59	45.335
369.95	45.235
370.31	45.159
370.67	45.299
371.03	45.183
371.39	46.171
371.75	46.081
372.11	45.792
372.47	46.967
372.83	46.842
373.19	46.862
373.55	45.415
373.91	46.940
374.27	47.909
374.63	47.523
374.99	46.667
375.35	47.493
375.71	49.021
376.07	48.104
376.42	49.048
376.78	47.517
377.14	47.326
377.50	48.871
377.86	48.327
378.22	47.926
378.58	48.590
378.94	48.582
379.30	48.222
379.66	48.840
380.02	48.620
380.38	49.117
380.74	48.833
381.09	49.264
381.45	49.908
381.81	50.154
382.17	49.239
382.53	50.718
382.89	51.224
383.25	51.027
383.61	51.341
383.97	50.730
384.32	51.220
384.68	51.146
385.04	51.042
385.40	51.338
385.76	52.579
386.12	53.234
386.48	53.704
386.83	51.300
387.19	53.297
387.55	52.447
387.91	52.139
388.27	51.832
388.62	53.744
388.98	53.591
389.34	51.780
389.70	53.574
390.06	52.171
390.42	53.044
390.77	52.976
391.13	52.459
391.49	53.622
391.85	55.426
392.20	53.610
392.56	52.448
392.92	52.437
393.28	53.361
393.64	53.273
393.99	54.295
394.35	54.080
394.71	55.045
395.07	52.546
395.42	54.706
395.78	53.746
396.14	56.053
396.50	55.422
396.85	55.505
397.21	55.451
397.57	53.918
397.92	54.703
398.28	55.575
398.64	54.277
399.00	56.095
399.35	54.740
399.71	54.796
400.07	56.892
400.42	54.957
400.78	55.481
401.14	55.777
401.49	55.509
401.85	56.002
402.21	55.422
402.57	55.938
402.92	54.454
403.28	57.080
403.63	56.873
403.99	57.079
404.35	56.527
404.70	55.238
405.06	56.110
405.42	55.500
405.77	55.491
406.13	57.451
406.49	56.128
406.84	55.868
407.20	56.171
407.55	54.411
407.91	56.618
408.27	55.386
408.62	56.185
408.98	55.884
409.34	56.939
409.69	57.558
410.05	54.495
410.40	57.222
410.76	57.117
411.11	57.000
411.47	56.147
411.83	55.681
412.18	58.237
412.54	55.368
412.89	54.803
413.25	56.619
413.60	55.652
413.96	55.337
414.31	55.976
414.67	55.677
415.03	56.125
415.38	56.397
415.74	56.808
416.09	56.695
416.45	56.178
416.80	56.775
417.16	56.561
417.51	56.229
417.87	57.562
418.22	57.060
418.58	56.054
418.93	56.176
419.29	54.417
419.64	55.930
420.00	57.557
420.35	55.582
420.71	57.290
421.06	56.845
421.42	57.212
421.77	57.225
422.12	55.675
422.48	57.011
422.83	56.323
423.19	55.926
423.54	57.437
423.90	56.302
424.25	57.520
424.61	55.814
424.96	55.633
425.31	58.290
425.67	56.925
426.02	57.597
426.38	58.485
426.73	57.809
427.09	57.722
427.44	57.471
427.79	56.511
428.15	56.735
428.50	57.117
428.85	56.450
429.21	56.989
429.56	58.005
429.92	55.727
430.27	55.038
430.62	54.835
430.98	56.900
431.33	56.677
431.68	55.835
432.04	56.512
432.39	55.847
432.74	56.464
433.10	55.402
433.45	56.750
433.80	56.820
434.16	56.177
434.51	57.312
434.86	57.027
435.22	56.590
435.57	56.581
435.92	57.126
436.28	55.814
436.63	56.646
436.98	56.373
437.34	57.169
437.69	57.484
438.04	57.094
438.39	56.323
438.75	58.470
439.10	56.197
439.45	56.908
439.81	58.104
440.16	58.848
440.51	58.687
440.86	58.429
441.22	56.335
441.57	58.113
441.92	58.552
442.27	58.647
442.63	58.887
442.98	57.381
443.33	56.873
443.68	56.870
444.03	58.122
444.39	58.387
444.74	59.420
445.09	57.517
445.44	58.291
445.79	59.206
446.15	57.709
446.50	57.238
446.85	58.236
447.20	58.238
447.55	58.315
447.91	58.714
448.26	58.110
448.61	58.261
448.96	59.667
449.31	58.497
449.66	57.491
450.02	57.159
450.37	57.795
450.72	57.503
451.07	58.608
451.42	58.614
451.77	57.685
452.12	58.732
452.47	58.983
452.83	57.833
453.18	58.318
453.53	59.229
453.88	58.531
454.23	58.697
454.58	58.060
454.93	58.634
455.28	57.841
455.63	58.462
455.98	59.110
456.34	59.195
456.69	57.306
457.04	58.349
457.39	58.080
457.74	58.525
458.09	57.328
458.44	58.104
458.79	57.143
459.14	57.666
459.49	57.015
459.84	57.812
460.19	57.403
460.54	57.518
460.89	57.841
461.24	57.329
461.59	58.670
461.94	56.226
462.29	58.685
462.64	58.671
462.99	58.429
463.34	57.232
463.69	56.885
464.04	56.477
464.39	56.034
464.74	56.012
465.09	57.704
465.44	56.376
465.79	56.859
466.14	57.868
466.49	55.492
466.84	55.919
467.19	55.444
467.54	55.172
467.89	55.401
468.24	56.448
468.59	57.079
468.94	56.190
469.29	56.393
469.64	56.186
469.99	56.482
470.34	55.700
470.68	57.122
471.03	56.122
471.38	54.636
471.73	55.672
472.08	56.445
472.43	54.698
472.78	55.175
473.13	56.327
473.48	56.547
473.83	54.545
474.17	56.282
474.52	55.584
474.87	55.758
475.22	54.912
475.57	56.014
475.92	55.842
476.27	55.180
476.61	56.366
476.96	53.430
477.31	54.732
477.66	54.213
478.01	54.520
478.36	53.922
478.70	55.900
479.05	54.396
479.40	53.948
479.75	53.337
480.10	52.842
480.45	53.750
480.79	55.287
481.14	55.277
481.49	53.990
481.84	54.392
482.19	53.882
482.53	53.621
482.88	54.224
483.23	53.839
483.58	53.396
483.92	53.485
484.27	52.097
484.62	52.622
484.97	51.783
485.31	50.903
485.66	50.967
486.01	51.699
486.36	52.278
486.70	53.189
487.05	52.669
487.40	52.818
487.75	52.056
488.09	51.452
488.44	51.719
488.79	51.476
489.13	52.444
489.48	51.732
489.83	51.121
490.17	51.281
490.52	51.917
490.87	50.810
491.22	50.955
491.56	51.044
491.91	50.239
492.26	51.580
492.60	51.008
492.95	52.533
493.30	50.269
493.64	52.112
493.99	51.063
494.34	49.806
494.68	51.048
495.03	50.706
495.37	51.374
495.72	50.278
496.07	50.976
496.41	49.764
496.76	50.668
497.11	49.790
497.45	50.979
497.80	50.757
498.14	50.770
498.49	51.295
498.84	49.301
499.18	51.355
499.53	50.050
499.87	49.368
500.22	50.049
500.56	49.470
500.91	48.996
501.26	50.124
501.60	49.680
501.95	49.491
502.29	49.443
502.64	49.228
502.98	50.222
503.33	48.271
503.67	48.434
504.02	49.413
504.36	48.986
504.71	47.778
505.06	48.364
505.40	48.985
505.75	49.794
506.09	47.086
506.44	49.949
506.78	48.571
507.13	48.139
507.47	48.251
507.82	48.558
508.16	48.442
508.51	47.639
508.85	48.404
509.19	47.738
509.54	48.901
509.88	46.710
510.23	48.198
510.57	48.958
510.92	46.375
511.26	48.336
511.61	48.790
511.95	47.507
512.30	47.173
512.64	46.522
512.98	47.558
513.33	48.293
513.67	46.845
514.02	48.398
514.36	48.743
514.70	47.203
515.05	48.884
515.39	46.635
515.74	49.162
516.08	46.981
516.42	47.409
516.77	46.694
517.11	47.656
517.46	47.995
517.80	47.616
518.14	46.908
518.49	46.695
518.83	46.902
519.17	45.118
519.52	46.596
519.86	46.399
520.20	46.598
520.55	45.341
520.89	46.173
521.23	46.485
521.58	46.751
521.92	46.987
522.26	46.975
522.61	45.974
522.95	47.682
523.29	45.743
523.64	45.489
523.98	47.051
524.32	46.456
524.66	46.159
525.01	45.065
525.35	45.561
525.69	45.791
526.04	45.437
526.38	45.914
526.72	44.670
527.06	45.460
527.41	45.778
527.75	44.839
528.09	44.452
528.43	45.442
528.78	45.281
529.12	45.226
529.46	45.484
529.80	44.775
530.15	45.875
530.49	46.061
530.83	46.580
531.17	43.385
531.51	45.486
531.86	43.372
532.20	45.372
532.54	43.771
532.88	46.201
533.22	45.430
533.57	44.561
533.91	44.517
534.25	44.857
534.59	44.195
534.93	43.990
535.27	42.766
535.62	43.487
535.96	44.553
536.30	44.591
536.64	45.003
536.98	42.439
537.32	45.306
537.66	43.759
538.01	44.056
538.35	43.551
538.69	44.407
539.03	43.609
539.37	43.742
539.71	43.422
540.05	43.449
540.39	43.767
540.73	43.445
541.07	43.785
541.42	43.347
541.76	44.047
542.10	44.184
542.44	44.267
542.78	41.982
543.12	42.788
543.46	43.394
543.80	43.303
544.14	41.522
544.48	42.638
544.82	42.925
545.16	43.716
545.50	42.590
545.84	42.776
546.18	42.766
546.52	42.538
546.86	42.272
547.20	42.275
547.54	41.272
547.88	41.236
548.22	41.486
548.56	41.953
548.90	41.644
549.24	41.116
549.58	41.608
549.92	40.457
550.26	40.879
550.60	42.230
550.94	40.926
551.28	41.422
551.62	41.154
551.96	39.699
552.30	40.936
552.64	40.127
552.98	40.647
553.32	40.585
553.66	40.566
554.00	41.387
554.34	40.325
554.68	39.676
555.02	40.402
555.36	41.137
555.69	39.927
556.03	40.328
556.37	40.569
556.71	40.361
557.05	41.462
557.39	39.405
557.73	38.981
558.07	41.252
558.41	39.433
558.75	39.673
559.08	39.638
559.42	40.317
559.76	40.833
560.10	40.138
560.44	38.645
560.78	39.650
561.12	39.845
561.45	39.845
561.79	39.636
562.13	39.035
562.47	37.914
562.81	38.184
563.15	38.505
563.48	39.604
563.82	39.053
564.16	38.301
564.50	37.500
564.84	38.286
565.17	38.229
565.51	38.934
565.85	40.466
566.19	38.926
566.52	39.879
566.86	39.910
567.20	39.103
567.54	38.260
567.88	39.133
568.21	39.310
568.55	38.424
568.89	39.528
569.23	38.854
569.56	38.310
569.90	39.545
570.24	37.737
570.57	39.309
570.91	39.561
571.25	37.652
571.59	37.434
571.92	37.007
572.26	37.651
572.60	37.643
572.93	37.182
573.27	37.461
573.61	37.589
573.95	37.875
574.28	36.732
574.62	37.046
574.96	37.248
575.29	36.976
575.63	35.994
575.97	36.243
576.30	36.604
576.64	36.556
576.98	37.349
577.31	37.012
577.65	36.560
577.98	36.982
578.32	36.496
578.66	36.965
578.99	36.593
579.33	35.823
579.67	36.210
580.00	36.684
580.34	36.468
580.67	36.276
581.01	36.215
581.35	36.111
581.68	35.938
582.02	36.465
582.35	36.082
582.69	36.054
583.02	36.103
583.36	35.770
583.70	36.864
584.03	36.225
584.37	36.194
584.70	35.522
585.04	35.130
585.37	35.553
585.71	35.053
586.04	35.502
586.38	35.289
586.72	36.126
587.05	36.395
587.39	35.868
587.72	35.785
588.06	35.926
588.39	35.716
588.73	35.745
589.06	35.845
589.40	35.880
589.73	35.487
590.07	34.970
590.40	35.759
590.73	36.367
591.07	35.284
591.40	35.396
591.74	35.294
592.07	35.343
592.41	35.998
592.74	35.603
593.08	34.684
593.41	34.827
593.75	34.904
594.08	34.398
594.41	35.262
594.75	35.458
595.08	34.695
595.42	35.186
595.75	35.186
596.09	35.653
596.42	34.932
596.75	35.968
597.09	34.897
597.42	34.824
597.75	34.860
598.09	34.178
598.42	34.341
598.76	34.577
599.09	34.054
599.42	32.929
599.76	34.424
600.09	34.351
600.42	33.889
600.76	33.432
601.09	33.588
601.42	33.490
601.76	33.466
602.09	33.457
602.42	34.920
602.76	33.786
603.09	34.385
603.42	35.326
603.76	33.710
604.09	33.293
604.42	33.968
604.76	34.312
605.09	33.775
605.42	34.086
605.75	33.757
606.09	32.781
606.42	32.652
606.75	33.290
607.09	32.967
607.42	32.654
607.75	33.215
608.08	32.929
608.42	33.166
608.75	33.590
609.08	33.134
609.41	33.147
609.75	33.518
610.08	33.949
610.41	33.333
610.74	32.911
611.07	33.437
611.41	33.212
611.74	34.701
612.07	32.923
612.40	33.862
612.73	33.503
613.07	32.396
613.40	33.479
613.73	32.401
614.06	32.666
614.39	33.221
614.72	32.717
615.06	33.296
615.39	31.332
615.72	31.862
616.05	32.626
616.38	31.795
616.71	32.232
617.05	32.427
617.38	32.495
617.71	32.390
618.04	32.698
618.37	33.733
618.70	32.607
619.03	33.611
619.36	31.404
619.69	32.828
620.03	33.820
620.36	32.475
620.69	32.263
621.02	31.116
621.35	32.365
621.68	32.398
622.01	32.000
622.34	32.163
622.67	30.915
623.00	32.006
623.33	32.393
623.66	32.087
623.99	32.148
624.32	31.939
624.65	31.654
624.99	32.205
625.32	31.387
625.65	33.229
625.98	32.313
626.31	30.258
626.64	31.629
626.97	32.199
627.30	32.224
627.63	32.149
627.96	33.603
628.29	32.562
628.62	31.662
628.95	31.162
629.28	31.653
629.61	31.007
629.94	31.965
630.26	30.237
630.59	32.362
630.92	31.077
631.25	30.256
631.58	32.379
631.91	31.579
632.24	30.275
632.57	31.705
632.90	30.961
