SpectraSuite Data File
++++++++++++++++++++++++++++++++++++
Date: Fri May 15 20:38:24 PDT 2015
User: schluterlab
Dark Spectrum Present: Yes
Reference Spectrum Present: Yes
Number of Sampled Component Spectra: 1
Spectrometers: USB2E3373
Integration Time (usec): 3000 (USB2E3373)
Spectra Averaged: 3 (USB2E3373)
Boxcar Smoothing: 0 (USB2E3373)
Correct for Electrical Dark: No (USB2E3373)
Strobe/Lamp Enabled: No (USB2E3373)
Correct for Detector Non-linearity: No (USB2E3373)
Correct for Stray Light: No (USB2E3373)
Number of Pixels in Processed Spectrum: 2048
>>>>>Begin Processed Spectral Data<<<<<
178.53	0.000
178.91	0.000
179.29	25.000
179.67	-700.000
180.04	-114.286
180.42	-75.000
180.80	-500.000
181.18	166.667
181.56	700.000
181.94	-400.000
182.31	600.000
182.69	60.000
183.07	-100.000
183.45	-100.000
183.83	116.667
184.20	-81.818
184.58	133.333
184.96	-125.000
185.34	100.000
185.72	-350.000
186.09	130.769
186.47	100.000
186.85	200.000
187.23	100.000
187.61	-700.000
187.98	-166.667
188.36	0.000
188.74	-66.667
189.12	35.294
189.49	0.000
189.87	0.000
190.25	7.143
190.63	400.000
191.00	-100.000
191.38	-5.263
191.76	0.000
192.14	-150.000
192.51	250.000
192.89	11.111
193.27	-85.714
193.65	116.667
194.02	172.727
194.40	-30.000
194.78	-237.500
195.15	0.000
195.53	-137.500
195.91	150.000
196.29	-225.000
196.66	115.385
197.04	142.857
197.42	-55.556
197.79	-333.333
198.17	-38.462
198.55	1500.000
198.92	-133.333
199.30	200.000
199.68	-120.000
200.05	-466.667
200.43	0.000
200.81	-233.333
201.18	-100.000
201.56	1400.000
201.94	50.000
202.31	133.333
202.69	-60.000
203.07	200.000
203.44	-600.000
203.82	0.000
204.19	0.000
204.57	-333.333
204.95	187.500
205.32	50.000
205.70	-28.571
206.08	-50.000
206.45	188.889
206.83	21.429
207.20	-42.857
207.58	800.000
207.96	-200.000
208.33	-90.000
208.71	-175.000
209.08	-116.667
209.46	200.000
209.84	-160.000
210.21	-1200.000
210.59	14.286
210.96	-100.000
211.34	0.000
211.71	6.667
212.09	-14.286
212.46	-1300.000
212.84	0.000
213.22	80.000
213.59	-150.000
213.97	-23.077
214.34	45.455
214.72	0.000
215.09	400.000
215.47	-38.462
215.84	-100.000
216.22	-266.667
216.59	-37.500
216.97	-200.000
217.34	-225.000
217.72	-20.000
218.09	-37.500
218.47	100.000
218.84	-800.000
219.22	-11.111
219.59	60.000
219.97	366.667
220.34	100.000
220.72	114.286
221.09	-25.000
221.47	50.000
221.84	-50.000
222.22	-550.000
222.59	-63.636
222.97	116.667
223.34	-233.333
223.72	-21.429
224.09	4.762
224.46	17.857
224.84	333.333
225.21	30.000
225.59	93.333
225.96	350.000
226.34	175.000
226.71	-42.857
227.08	-16.667
227.46	50.000
227.83	-550.000
228.21	-77.778
228.58	27.273
228.95	-12.500
229.33	70.000
229.70	25.000
230.08	-150.000
230.45	-114.286
230.82	85.714
231.20	-26.667
231.57	57.143
231.95	71.429
232.32	-110.000
232.69	0.000
233.07	0.000
233.44	40.000
233.81	-20.000
234.19	22.222
234.56	29.412
234.93	300.000
235.31	150.000
235.68	-220.000
236.05	38.462
236.43	-20.000
236.80	-41.176
237.17	34.375
237.55	-20.000
237.92	14.815
238.29	13.889
238.67	16.667
239.04	-2.941
239.41	-12.195
239.79	43.333
240.16	48.780
240.53	18.421
240.91	4.348
241.28	20.635
241.65	25.000
242.02	31.507
242.40	21.667
242.77	23.729
243.14	33.333
243.51	18.750
243.89	39.080
244.26	16.092
244.63	35.714
245.00	22.680
245.38	39.175
245.75	20.225
246.12	25.000
246.49	33.884
246.87	28.846
247.24	33.613
247.61	24.561
247.98	27.642
248.36	28.750
248.73	25.000
249.10	19.481
249.47	29.114
249.84	32.026
250.22	27.647
250.59	37.908
250.96	26.761
251.33	25.581
251.70	36.471
252.08	33.503
252.45	34.158
252.82	30.151
253.19	31.797
253.56	26.636
253.94	32.432
254.31	26.522
254.68	35.965
255.05	27.953
255.42	29.694
255.79	32.432
256.16	30.350
256.54	36.567
256.91	31.939
257.28	31.227
257.65	29.213
258.02	28.014
258.39	29.630
258.76	36.264
259.14	32.226
259.51	35.922
259.88	31.959
260.25	29.739
260.62	33.333
260.99	32.542
261.36	31.507
261.73	31.962
262.10	31.003
262.47	32.209
262.85	28.840
263.22	33.846
263.59	34.268
263.96	31.988
264.33	37.273
264.70	27.976
265.07	34.226
265.44	28.612
265.81	29.944
266.18	36.066
266.55	31.105
266.92	35.492
267.29	31.070
267.66	29.923
268.03	31.937
268.40	30.548
268.77	35.294
269.14	30.695
269.51	32.648
269.88	32.170
270.25	29.592
270.62	30.732
270.99	29.923
271.36	30.318
271.73	30.516
272.10	34.307
272.47	30.496
272.84	31.436
273.21	31.555
273.58	31.807
273.95	32.952
274.32	29.561
274.69	28.733
275.06	34.375
275.43	31.973
275.80	33.775
276.17	31.954
276.54	29.122
276.91	34.211
277.28	28.384
277.65	29.959
278.02	31.915
278.39	33.042
278.76	29.769
279.13	28.008
279.50	31.092
279.87	30.238
280.23	29.677
280.60	30.214
280.97	31.919
281.34	29.615
281.71	32.649
282.08	29.448
282.45	30.137
282.82	31.274
283.19	27.660
283.56	29.480
283.92	30.361
284.29	29.615
284.66	30.426
285.03	28.684
285.40	29.679
285.77	26.889
286.14	28.339
286.51	32.103
286.87	28.519
287.24	29.098
287.61	29.101
287.98	29.474
288.35	27.730
288.72	28.371
289.08	27.083
289.45	29.174
289.82	28.147
290.19	28.328
290.56	26.587
290.93	27.104
291.29	24.191
291.66	26.772
292.03	26.635
292.40	27.903
292.77	27.273
293.13	22.565
293.50	24.583
293.87	24.885
294.24	26.430
294.60	26.528
294.97	23.214
295.34	22.393
295.71	24.143
296.08	25.561
296.44	22.333
296.81	23.611
297.18	22.464
297.55	23.984
297.91	22.740
298.28	24.274
298.65	21.845
299.02	22.372
299.38	20.930
299.75	21.379
300.12	22.775
300.48	20.553
300.85	21.420
301.22	22.208
301.59	22.632
301.95	22.658
302.32	24.125
302.69	22.761
303.05	21.658
303.42	21.918
303.79	22.547
304.15	23.178
304.52	21.641
304.89	20.819
305.25	21.671
305.62	20.070
305.99	20.468
306.35	21.503
306.72	19.910
307.09	22.121
307.45	20.781
307.82	20.833
308.19	22.067
308.55	20.065
308.92	22.113
309.29	21.341
309.65	20.990
310.02	21.342
310.38	22.283
310.75	22.732
311.12	22.390
311.48	20.679
311.85	21.152
312.22	20.992
312.58	21.125
312.95	22.412
313.31	22.153
313.68	22.199
314.05	21.735
314.41	22.268
314.78	21.237
315.14	24.769
315.51	23.810
315.87	22.439
316.24	24.671
316.61	24.409
316.97	23.810
317.34	24.023
317.70	26.099
318.07	24.808
318.43	25.686
318.80	25.189
319.16	27.734
319.53	28.490
319.89	27.165
320.26	27.328
320.62	28.786
320.99	28.288
321.35	28.469
321.72	30.737
322.08	29.909
322.45	30.558
322.81	32.122
323.18	29.931
323.54	31.757
323.91	33.009
324.27	32.031
324.64	32.397
325.00	34.854
325.37	35.354
325.73	34.180
326.10	33.787
326.46	35.964
326.83	36.220
327.19	35.135
327.56	35.274
327.92	36.092
328.29	35.804
328.65	37.925
329.01	37.500
329.38	38.894
329.74	36.733
330.11	35.774
330.47	37.662
330.84	38.269
331.20	37.833
331.56	36.389
331.93	38.904
332.29	37.397
332.66	37.738
333.02	37.825
333.38	36.297
333.75	38.004
334.11	35.900
334.48	39.166
334.84	38.095
335.20	38.426
335.57	37.625
335.93	37.940
336.29	40.331
336.66	37.965
337.02	39.126
337.38	37.500
337.75	38.364
338.11	38.864
338.47	38.504
338.84	38.909
339.20	40.311
339.56	38.991
339.93	38.675
340.29	40.092
340.65	40.143
341.02	38.652
341.38	38.319
341.74	39.134
342.11	37.002
342.47	39.146
342.83	39.273
343.20	38.415
343.56	39.739
343.92	38.175
344.28	40.222
344.65	38.946
345.01	37.857
345.37	38.772
345.73	38.075
346.10	39.603
346.46	37.426
346.82	39.525
347.19	35.661
347.55	39.432
347.91	38.916
348.27	37.672
348.63	39.267
349.00	38.146
349.36	39.651
349.72	37.811
350.08	38.033
350.45	38.148
350.81	38.455
351.17	37.541
351.53	37.388
351.89	37.159
352.26	37.600
352.62	38.629
352.98	38.313
353.34	36.957
353.70	37.864
354.07	38.629
354.43	37.710
354.79	37.820
355.15	38.175
355.51	38.845
355.87	39.159
356.24	38.010
356.60	38.884
356.96	38.730
357.32	38.419
357.68	37.295
358.04	37.722
358.40	37.058
358.77	39.474
359.13	39.552
359.49	36.980
359.85	37.598
360.21	38.915
360.57	37.337
360.93	38.351
361.29	36.480
361.66	38.009
362.02	38.106
362.38	40.213
362.74	38.531
363.10	39.503
363.46	38.695
363.82	38.693
364.18	38.672
364.54	38.456
364.90	38.566
365.26	39.447
365.62	40.365
365.98	38.930
366.35	41.005
366.71	39.468
367.07	39.042
367.43	38.749
367.79	38.516
368.15	39.196
368.51	38.966
368.87	39.124
369.23	37.329
369.59	39.650
369.95	40.323
370.31	39.379
370.67	39.776
371.03	39.432
371.39	39.023
371.75	39.707
372.11	40.086
372.47	40.311
372.83	40.667
373.19	39.444
373.55	40.072
373.91	40.029
374.27	41.176
374.63	40.919
374.99	39.362
375.35	39.485
375.71	40.839
376.07	40.871
376.42	41.633
376.78	41.007
377.14	40.826
377.50	40.837
377.86	42.102
378.22	40.651
378.58	41.603
378.94	40.517
379.30	41.547
379.66	42.382
380.02	41.570
380.38	41.570
380.74	40.754
381.09	42.270
381.45	41.284
381.81	42.073
382.17	41.878
382.53	41.974
382.89	42.373
383.25	41.630
383.61	42.256
383.97	41.968
384.32	41.714
384.68	42.724
385.04	41.789
385.40	41.817
385.76	43.648
386.12	42.303
386.48	42.784
386.83	41.788
387.19	42.796
387.55	43.225
387.91	41.993
388.27	42.308
388.62	44.556
388.98	43.094
389.34	42.224
389.70	43.878
390.06	41.787
390.42	43.718
390.77	43.362
391.13	42.308
391.49	42.691
391.85	43.145
392.20	42.812
392.56	43.039
392.92	44.040
393.28	43.927
393.64	43.063
393.99	44.451
394.35	42.884
394.71	43.870
395.07	43.620
395.42	43.230
395.78	44.039
396.14	43.821
396.50	42.739
396.85	44.430
397.21	43.609
397.57	43.260
397.92	43.619
398.28	43.391
398.64	42.108
399.00	43.510
399.35	42.720
399.71	43.423
400.07	43.652
400.42	42.778
400.78	44.091
401.14	43.497
401.49	43.836
401.85	43.815
402.21	44.036
402.57	43.812
402.92	42.409
403.28	43.546
403.63	43.632
403.99	43.941
404.35	42.099
404.70	42.917
405.06	43.008
405.42	44.500
405.77	42.592
406.13	43.132
406.49	43.162
406.84	44.193
407.20	43.889
407.55	44.366
407.91	42.714
408.27	43.658
408.62	44.062
408.98	44.609
409.34	43.866
409.69	43.346
410.05	43.288
410.40	42.407
410.76	43.064
411.11	43.187
411.47	44.773
411.83	41.871
412.18	43.243
412.54	43.258
412.89	42.734
413.25	43.803
413.60	42.795
413.96	43.067
414.31	43.415
414.67	41.565
415.03	42.277
415.38	43.016
415.74	42.541
416.09	44.154
416.45	44.227
416.80	42.366
417.16	43.785
417.51	43.038
417.87	43.090
418.22	43.782
418.58	44.548
418.93	43.887
419.29	42.446
419.64	43.811
420.00	44.647
420.35	42.687
420.71	43.925
421.06	42.787
421.42	42.788
421.77	43.121
422.12	42.906
422.48	43.476
422.83	42.749
423.19	43.341
423.54	42.622
423.90	43.168
424.25	43.226
424.61	44.186
424.96	43.380
425.31	44.772
425.67	43.251
426.02	43.698
426.38	43.644
426.73	44.613
427.09	44.937
427.44	44.235
427.79	43.430
428.15	44.357
428.50	44.518
428.85	43.428
429.21	43.577
429.56	44.636
429.92	43.246
430.27	42.957
430.62	44.015
430.98	43.577
431.33	42.902
431.68	42.386
432.04	42.873
432.39	43.126
432.74	44.438
433.10	43.793
433.45	43.011
433.80	43.239
434.16	43.490
434.51	43.495
434.86	43.902
435.22	43.242
435.57	43.793
435.92	43.174
436.28	43.113
436.63	43.297
436.98	42.410
437.34	43.557
437.69	44.425
438.04	42.678
438.39	43.067
438.75	43.777
439.10	44.539
439.45	44.066
439.81	43.180
440.16	45.012
440.51	44.955
440.86	44.713
441.22	43.439
441.57	44.205
441.92	44.963
442.27	45.288
442.63	43.576
442.98	43.998
443.33	43.461
443.68	43.183
444.03	44.362
444.39	43.778
444.74	44.983
445.09	44.042
445.44	43.419
445.79	45.075
446.15	43.392
446.50	42.818
446.85	43.943
447.20	43.743
447.55	44.587
447.91	43.880
448.26	44.109
448.61	43.696
448.96	44.980
449.31	44.566
449.66	43.961
450.02	44.381
450.37	44.280
450.72	43.986
451.07	44.937
451.42	43.633
451.77	45.208
452.12	42.404
452.47	42.434
452.83	43.993
453.18	43.074
453.53	43.489
453.88	44.566
454.23	43.946
454.58	44.710
454.93	43.170
455.28	42.984
455.63	43.831
455.98	44.257
456.34	44.253
456.69	43.583
457.04	43.919
457.39	43.439
457.74	43.289
458.09	42.790
458.44	43.593
458.79	43.585
459.14	42.906
459.49	43.403
459.84	43.260
460.19	44.296
460.54	42.787
460.89	43.068
461.24	42.857
461.59	44.240
461.94	42.579
462.29	44.632
462.64	43.721
462.99	42.586
463.34	42.976
463.69	42.214
464.04	42.070
464.39	43.420
464.74	42.699
465.09	42.670
465.44	42.874
465.79	42.007
466.14	42.816
466.49	41.806
466.84	42.237
467.19	42.428
467.54	42.912
467.89	43.209
468.24	42.457
468.59	42.794
468.94	42.476
469.29	43.082
469.64	43.062
469.99	43.588
470.34	42.730
470.68	43.922
471.03	43.241
471.38	42.796
471.73	43.137
472.08	40.977
472.43	42.886
472.78	41.467
473.13	43.469
473.48	42.736
473.83	41.345
474.17	43.070
474.52	42.310
474.87	43.212
475.22	43.380
475.57	41.502
475.92	43.500
476.27	41.502
476.61	42.998
476.96	41.327
477.31	42.401
477.66	42.528
478.01	42.841
478.36	42.484
478.70	42.741
479.05	42.363
479.40	43.190
479.75	41.345
480.10	41.577
480.45	41.350
480.79	42.296
481.14	42.828
481.49	41.527
481.84	42.471
482.19	41.113
482.53	41.247
482.88	41.193
483.23	41.747
483.58	40.896
483.92	40.755
484.27	40.109
484.62	40.430
484.97	40.672
485.31	40.101
485.66	38.447
486.01	39.285
486.36	39.643
486.70	39.225
487.05	40.116
487.40	39.891
487.75	39.775
488.09	39.030
488.44	40.096
488.79	39.559
489.13	40.705
489.48	40.017
489.83	40.359
490.17	40.629
490.52	40.600
490.87	39.843
491.22	40.926
491.56	40.417
491.91	39.723
492.26	41.711
492.60	40.067
492.95	41.466
493.30	40.352
493.64	41.650
493.99	40.048
494.34	40.194
494.68	39.762
495.03	40.049
495.37	40.628
495.72	40.737
496.07	40.000
496.41	39.764
496.76	40.534
497.11	39.218
497.45	39.332
497.80	40.313
498.14	39.344
498.49	39.766
498.84	39.820
499.18	39.307
499.53	39.385
499.87	39.543
500.22	39.911
500.56	40.645
500.91	39.759
501.26	38.754
501.60	39.006
501.95	39.981
502.29	39.177
502.64	39.961
502.98	39.369
503.33	39.481
503.67	39.084
504.02	39.101
504.36	39.485
504.71	39.192
505.06	39.960
505.40	39.239
505.75	39.794
506.09	38.875
506.44	40.298
506.78	39.898
507.13	38.418
507.47	38.433
507.82	38.248
508.16	38.616
508.51	38.930
508.85	39.403
509.19	38.744
509.54	38.820
509.88	38.727
510.23	39.322
510.57	37.948
510.92	38.220
511.26	38.080
511.61	39.439
511.95	39.726
512.30	39.357
512.64	38.954
512.98	39.360
513.33	38.612
513.67	39.227
514.02	39.874
514.36	40.286
514.70	39.627
515.05	40.188
515.39	39.138
515.74	40.719
516.08	39.390
516.42	39.517
516.77	39.731
517.11	39.169
517.46	40.096
517.80	39.571
518.14	39.069
518.49	38.942
518.83	39.672
519.17	38.266
519.52	38.780
519.86	38.535
520.20	38.821
520.55	38.649
520.89	38.833
521.23	38.695
521.58	39.558
521.92	39.872
522.26	38.452
522.61	40.195
522.95	40.066
523.29	38.691
523.64	39.009
523.98	39.987
524.32	38.144
524.66	38.988
525.01	38.766
525.35	39.987
525.69	37.980
526.04	38.294
526.38	39.689
526.72	38.195
527.06	38.846
527.41	38.720
527.75	38.338
528.09	39.468
528.43	39.770
528.78	37.756
529.12	37.548
529.46	38.142
529.80	37.809
530.15	37.756
530.49	37.239
530.83	39.124
531.17	38.348
531.51	38.167
531.86	38.681
532.20	38.622
532.54	38.325
532.88	38.877
533.22	37.366
533.57	38.204
533.91	37.467
534.25	39.388
534.59	38.101
534.93	36.753
535.27	37.183
535.62	38.302
535.96	38.617
536.30	37.137
536.64	37.285
536.98	37.422
537.32	38.193
537.66	38.499
538.01	37.552
538.35	37.240
538.69	38.083
539.03	37.936
539.37	38.223
539.71	37.014
540.05	36.592
540.39	38.019
540.73	38.145
541.07	36.809
541.42	37.903
541.76	37.096
542.10	37.302
542.44	37.874
542.78	36.407
543.12	36.264
543.46	37.204
543.80	36.780
544.14	35.915
544.48	36.309
544.82	36.637
545.16	36.885
545.50	37.650
545.84	36.686
546.18	37.801
546.52	37.130
546.86	36.520
547.20	37.339
547.54	35.972
547.88	35.734
548.22	35.306
548.56	34.960
548.90	36.456
549.24	36.295
549.58	36.460
549.92	36.455
550.26	36.190
550.60	36.580
550.94	36.968
551.28	36.012
551.62	37.308
551.96	37.218
552.30	36.696
552.64	35.896
552.98	35.443
553.32	35.378
553.66	36.284
554.00	36.569
554.34	36.041
554.68	35.472
555.02	36.235
555.36	35.004
555.69	35.531
556.03	35.546
556.37	35.943
556.71	35.668
557.05	35.570
557.39	35.242
557.73	35.682
558.07	36.048
558.41	36.217
558.75	35.698
559.08	35.855
559.42	35.794
559.76	35.949
560.10	35.474
560.44	35.815
560.78	35.804
561.12	35.261
561.45	36.191
561.79	36.765
562.13	34.847
562.47	35.180
562.81	35.519
563.15	34.908
563.48	35.078
563.82	35.415
564.16	34.889
564.50	35.743
564.84	35.007
565.17	34.004
565.51	35.929
565.85	35.665
566.19	35.345
566.52	34.584
566.86	35.219
567.20	34.060
567.54	35.158
567.88	35.267
568.21	35.294
568.55	33.967
568.89	34.292
569.23	33.558
569.56	34.063
569.90	34.064
570.24	32.713
570.57	32.618
570.91	33.740
571.25	32.752
571.59	31.859
571.92	32.148
572.26	31.733
572.60	31.783
572.93	31.660
573.27	31.787
573.61	31.921
573.95	31.813
574.28	31.886
574.62	31.528
574.96	31.488
575.29	30.818
575.63	30.371
575.97	30.848
576.30	31.319
576.64	30.861
576.98	31.712
577.31	31.679
577.65	31.537
577.98	31.298
578.32	30.886
578.66	30.303
578.99	30.650
579.33	30.577
579.67	30.734
580.00	30.734
580.34	31.219
580.67	30.119
581.01	30.860
581.35	30.491
581.68	30.506
582.02	30.501
582.35	30.288
582.69	30.814
583.02	30.592
583.36	30.873
583.70	31.075
584.03	31.582
584.37	31.310
584.70	31.099
585.04	30.052
585.37	30.418
585.71	29.894
586.04	30.333
586.38	30.355
586.72	30.818
587.05	31.456
587.39	31.451
587.72	30.973
588.06	31.165
588.39	30.874
588.73	30.922
589.06	31.442
589.40	30.937
589.73	30.705
590.07	31.118
590.40	31.269
590.73	31.796
591.07	31.340
591.40	31.211
591.74	31.855
592.07	31.679
592.41	31.405
592.74	31.063
593.08	30.527
593.41	31.137
593.75	31.044
594.08	30.038
594.41	30.277
594.75	30.496
595.08	30.306
595.42	31.027
595.75	30.830
596.09	30.805
596.42	31.005
596.75	30.950
597.09	30.979
597.42	31.120
597.75	30.463
598.09	30.874
598.42	29.964
598.76	30.545
599.09	30.729
599.42	29.557
599.76	30.135
600.09	29.902
600.42	30.023
600.76	30.646
601.09	29.389
601.42	30.004
601.76	30.647
602.09	30.074
602.42	31.045
602.76	30.475
603.09	30.523
603.42	31.187
603.76	29.718
604.09	30.660
604.42	30.922
604.76	30.263
605.09	31.261
605.42	30.384
605.75	30.210
606.09	30.064
606.42	29.566
606.75	30.043
607.09	29.802
607.42	29.464
607.75	30.373
608.08	29.739
608.42	29.785
608.75	31.036
609.08	30.493
609.41	31.218
609.75	29.990
610.08	30.554
610.41	30.000
610.74	30.034
611.07	29.612
611.41	30.721
611.74	30.384
612.07	30.246
612.40	31.346
612.73	30.565
613.07	30.371
613.40	30.361
613.73	29.882
614.06	30.885
614.39	30.400
614.72	29.972
615.06	30.559
615.39	29.531
615.72	29.494
616.05	30.615
616.38	28.604
616.71	29.786
617.05	29.895
617.38	31.678
617.71	30.755
618.04	31.175
618.37	31.021
618.70	31.023
619.03	32.500
619.36	31.331
619.69	31.842
620.03	32.505
620.36	32.332
620.69	30.621
621.02	30.275
621.35	32.697
621.68	31.037
622.01	32.750
622.34	30.886
622.67	30.994
623.00	31.700
623.33	30.716
623.66	31.114
623.99	30.560
624.32	30.951
624.65	31.353
624.99	31.226
625.32	30.553
625.65	31.265
625.98	31.185
626.31	30.756
626.64	31.629
626.97	31.326
627.30	30.911
627.63	31.456
627.96	32.165
628.29	30.805
628.62	32.547
628.95	31.864
629.28	31.855
629.61	31.505
629.94	32.649
630.26	31.719
630.59	32.362
630.92	31.077
631.25	29.538
631.58	31.718
631.91	32.566
632.24	30.849
632.57	32.727
632.90	32.384
633.23	32.824
