SpectraSuite Data File
++++++++++++++++++++++++++++++++++++
Date: Fri May 15 20:29:55 PDT 2015
User: schluterlab
Dark Spectrum Present: Yes
Reference Spectrum Present: Yes
Number of Sampled Component Spectra: 1
Spectrometers: USB2E3373
Integration Time (usec): 3000 (USB2E3373)
Spectra Averaged: 3 (USB2E3373)
Boxcar Smoothing: 0 (USB2E3373)
Correct for Electrical Dark: No (USB2E3373)
Strobe/Lamp Enabled: No (USB2E3373)
Correct for Detector Non-linearity: No (USB2E3373)
Correct for Stray Light: No (USB2E3373)
Number of Pixels in Processed Spectrum: 2048
>>>>>Begin Processed Spectral Data<<<<<
178.53	0.000
178.91	0.000
179.29	12.500
179.67	-700.000
180.04	-42.857
180.42	-50.000
180.80	600.000
181.18	166.667
181.56	400.000
181.94	100.000
182.31	-200.000
182.69	-100.000
183.07	-266.667
183.45	-220.000
183.83	-66.667
184.20	-27.273
184.58	77.778
184.96	-50.000
185.34	-33.333
185.72	-450.000
186.09	176.923
186.47	-1000.000
186.85	133.333
187.23	100.000
187.61	500.000
187.98	-200.000
188.36	44.444
188.74	-500.000
189.12	23.529
189.49	-33.333
189.87	0.000
190.25	71.429
190.63	-350.000
191.00	-433.333
191.38	-15.789
191.76	150.000
192.14	275.000
192.51	-450.000
192.89	-100.000
193.27	-157.143
193.65	200.000
194.02	254.545
194.40	20.000
194.78	-62.500
195.15	-83.333
195.53	-162.500
195.91	375.000
196.29	-100.000
196.66	61.538
197.04	100.000
197.42	-77.778
197.79	-500.000
198.17	-153.846
198.55	1000.000
198.92	-100.000
199.30	-900.000
199.68	-180.000
200.05	-366.667
200.43	0.000
200.81	-166.667
201.18	-100.000
201.56	1100.000
201.94	-300.000
202.31	-66.667
202.69	-240.000
203.07	225.000
203.44	-300.000
203.82	0.000
204.19	0.000
204.57	-566.667
204.95	87.500
205.32	70.000
205.70	-28.571
206.08	-150.000
206.45	177.778
206.83	78.571
207.20	-114.286
207.58	-200.000
207.96	-433.333
208.33	-150.000
208.71	25.000
209.08	-216.667
209.46	-1200.000
209.84	-40.000
210.21	-500.000
210.59	100.000
210.96	-83.333
211.34	-25.000
211.71	13.333
212.09	-200.000
212.46	-800.000
212.84	0.000
213.22	-30.000
213.59	650.000
213.97	-15.385
214.34	27.273
214.72	-100.000
215.09	125.000
215.47	7.692
215.84	-45.455
216.22	-300.000
216.59	-100.000
216.97	-250.000
217.34	25.000
217.72	-120.000
218.09	37.500
218.47	125.000
218.84	-900.000
219.22	-88.889
219.59	-100.000
219.97	433.333
220.34	450.000
220.72	71.429
221.09	-250.000
221.47	-300.000
221.84	-550.000
222.22	-1000.000
222.59	-27.273
222.97	-8.333
223.34	-166.667
223.72	-57.143
224.09	19.048
224.46	10.714
224.84	366.667
225.21	80.000
225.59	13.333
225.96	-450.000
226.34	425.000
226.71	-85.714
227.08	-33.333
227.46	0.000
227.83	-400.000
228.21	-11.111
228.58	118.182
228.95	-25.000
229.33	60.000
229.70	75.000
230.08	-87.500
230.45	-157.143
230.82	28.571
231.20	-120.000
231.57	7.143
231.95	-128.571
232.32	-190.000
232.69	-35.714
233.07	266.667
233.44	-80.000
233.81	10.000
234.19	0.000
234.56	-52.941
234.93	150.000
235.31	-300.000
235.68	-460.000
236.05	-76.923
236.43	-10.000
236.80	0.000
237.17	0.000
237.55	-25.000
237.92	3.704
238.29	41.667
238.67	6.667
239.04	11.765
239.41	-12.195
239.79	-30.000
240.16	7.317
240.53	-10.526
240.91	0.000
241.28	0.000
241.65	8.929
242.02	20.548
242.40	-1.667
242.77	1.695
243.14	1.515
243.51	12.500
243.89	17.241
244.26	3.448
244.63	17.857
245.00	6.186
245.38	6.186
245.75	7.865
246.12	3.448
246.49	10.744
246.87	5.769
247.24	-0.840
247.61	1.754
247.98	-4.065
248.36	8.125
248.73	8.553
249.10	1.948
249.47	18.354
249.84	0.654
250.22	3.529
250.59	1.961
250.96	10.798
251.33	5.233
251.70	8.824
252.08	8.629
252.45	6.436
252.82	6.030
253.19	6.912
253.56	0.935
253.94	10.360
254.31	8.261
254.68	11.842
255.05	5.906
255.42	12.664
255.79	8.494
256.16	9.339
256.54	12.687
256.91	10.646
257.28	5.948
257.65	8.989
258.02	5.674
258.39	8.754
258.76	12.821
259.14	8.970
259.51	8.738
259.88	7.560
260.25	7.843
260.62	9.375
260.99	7.797
261.36	6.507
261.73	9.810
262.10	11.854
262.47	5.828
262.85	4.389
263.22	7.077
263.59	11.838
263.96	10.559
264.33	10.606
264.70	6.548
265.07	7.440
265.44	12.181
265.81	8.757
266.18	6.557
266.55	9.512
266.92	10.622
267.29	12.010
267.66	9.463
268.03	8.901
268.40	7.833
268.77	11.765
269.14	9.832
269.51	11.568
269.88	5.237
270.25	7.908
270.62	7.073
270.99	5.115
271.36	8.313
271.73	9.155
272.10	9.002
272.47	9.693
272.84	6.436
273.21	10.441
273.58	8.193
273.95	9.840
274.32	8.776
274.69	9.050
275.06	9.152
275.43	8.844
275.80	9.492
276.17	8.276
276.54	7.281
276.91	10.088
277.28	8.952
277.65	7.231
278.02	11.915
278.39	7.002
278.76	7.547
279.13	7.261
279.50	10.714
279.87	8.639
280.23	8.602
280.60	9.942
280.97	10.101
281.34	7.885
281.71	10.678
282.08	9.202
282.45	9.589
282.82	7.915
283.19	10.058
283.56	9.634
283.92	6.641
284.29	8.846
284.66	7.171
285.03	7.269
285.40	10.208
285.77	7.206
286.14	7.942
286.51	9.594
286.87	7.495
287.24	7.735
287.61	7.231
287.98	11.404
288.35	7.279
288.72	9.807
289.08	7.986
289.45	8.436
289.82	10.140
290.19	7.850
290.56	8.233
290.93	7.576
291.29	7.858
291.66	8.504
292.03	6.220
292.40	8.065
292.77	6.220
293.13	5.357
293.50	6.070
293.87	7.481
294.24	5.410
294.60	8.346
294.97	8.333
295.34	5.828
295.71	8.495
296.08	6.577
296.44	5.548
296.81	7.222
297.18	7.536
297.55	7.317
297.91	8.082
298.28	9.499
298.65	6.920
299.02	6.873
299.38	4.925
299.75	7.172
300.12	6.152
300.48	6.588
300.85	7.351
301.22	7.792
301.59	6.711
301.95	7.975
302.32	8.171
302.69	6.468
303.05	5.198
303.42	6.725
303.79	8.061
304.15	8.244
304.52	4.756
304.89	6.433
305.25	7.264
305.62	6.068
305.99	5.965
306.35	6.821
306.72	6.299
307.09	6.842
307.45	5.741
307.82	6.713
308.19	6.852
308.55	6.761
308.92	7.298
309.29	5.140
309.65	6.136
310.02	7.151
310.38	6.037
310.75	5.355
311.12	6.028
311.48	6.575
311.85	6.387
312.22	6.224
312.58	6.263
312.95	4.803
313.31	6.315
313.68	6.283
314.05	7.245
314.41	6.598
314.78	6.495
315.14	6.989
315.51	8.282
315.87	6.967
316.24	8.089
316.61	9.055
316.97	7.341
317.34	7.715
317.70	8.222
318.07	8.750
318.43	8.529
318.80	8.712
319.16	9.473
319.53	9.782
319.89	9.547
320.26	9.818
320.62	10.431
320.99	9.290
321.35	9.764
321.72	10.903
322.08	11.782
322.45	12.995
322.81	12.083
323.18	12.659
323.54	13.610
323.91	13.632
324.27	13.672
324.64	14.232
325.00	15.876
325.37	17.539
325.73	16.138
326.10	16.803
326.46	17.489
326.83	17.410
327.19	18.832
327.56	18.766
327.92	20.951
328.29	20.268
328.65	20.943
329.01	21.875
329.38	21.751
329.74	22.380
330.11	22.984
330.47	22.635
330.84	23.462
331.20	24.905
331.56	23.796
331.93	25.845
332.29	25.298
332.66	25.882
333.02	26.301
333.38	25.756
333.75	26.374
334.11	25.873
334.48	27.108
334.84	28.571
335.20	27.081
335.57	27.199
335.93	27.642
336.29	27.440
336.66	28.247
337.02	27.230
337.38	27.315
337.75	28.364
338.11	28.674
338.47	28.558
338.84	29.113
339.20	28.611
339.56	30.734
339.93	29.812
340.29	28.807
340.65	30.735
341.02	30.319
341.38	28.407
341.74	29.064
342.11	28.510
342.47	29.181
342.83	31.055
343.20	28.746
343.56	30.348
343.92	30.115
344.28	30.487
344.65	30.570
345.01	29.386
345.37	29.100
345.73	30.711
346.10	29.594
346.46	29.521
346.82	30.196
347.19	29.842
347.55	29.574
347.91	29.935
348.27	31.124
348.63	29.983
349.00	30.353
349.36	30.091
349.72	31.095
350.08	30.820
350.45	29.928
350.81	30.482
351.17	29.723
351.53	30.857
351.89	29.645
352.26	29.520
352.62	30.968
352.98	30.361
353.34	28.824
353.70	30.421
354.07	29.677
354.43	30.424
354.79	30.306
355.15	30.317
355.51	30.934
355.87	30.421
356.24	29.608
356.60	30.800
356.96	31.032
357.32	30.192
357.68	29.867
358.04	30.614
358.40	31.029
358.77	29.984
359.13	30.184
359.49	29.969
359.85	30.967
360.21	29.825
360.57	29.839
360.93	30.106
361.29	30.438
361.66	31.661
362.02	30.985
362.38	30.236
362.74	30.431
363.10	30.098
363.46	30.022
363.82	31.705
364.18	30.554
364.54	29.191
364.90	30.179
365.26	30.058
365.62	32.190
365.98	30.572
366.35	30.736
366.71	30.894
367.07	30.769
367.43	30.050
367.79	30.671
368.15	30.653
368.51	30.881
368.87	30.869
369.23	31.191
369.59	30.758
369.95	31.378
370.31	30.347
370.67	31.866
371.03	31.591
371.39	29.905
371.75	31.429
372.11	31.455
372.47	30.843
372.83	32.647
373.19	31.384
373.55	30.469
373.91	30.454
374.27	32.105
374.63	31.228
374.99	30.638
375.35	32.173
375.71	32.517
376.07	31.320
376.42	31.224
376.78	32.953
377.14	31.009
377.50	31.873
377.86	31.794
378.22	31.461
378.58	31.667
378.94	30.939
379.30	31.503
379.66	32.414
380.02	31.330
380.38	31.467
380.74	31.658
381.09	33.129
381.45	31.009
381.81	32.017
382.17	32.043
382.53	31.918
382.89	32.392
383.25	32.110
383.61	32.866
383.97	31.365
384.32	30.769
384.68	32.693
385.04	32.230
385.40	31.861
385.76	33.396
386.12	33.053
386.48	32.695
386.83	32.784
387.19	32.357
387.55	33.375
387.91	32.579
388.27	31.319
388.62	33.921
388.98	32.904
389.34	33.292
389.70	32.691
390.06	32.347
390.42	32.448
390.77	32.701
391.13	32.093
391.49	31.824
391.85	33.268
392.20	31.952
392.56	31.914
392.92	33.881
393.28	32.547
393.64	32.192
393.99	34.608
394.35	33.586
394.71	33.269
395.07	31.427
395.42	31.998
395.78	32.508
396.14	32.535
396.50	32.720
396.85	32.711
397.21	32.581
397.57	32.351
397.92	32.654
398.28	32.471
398.64	30.723
399.00	32.731
399.35	31.659
399.71	32.223
400.07	33.011
400.42	32.436
400.78	33.435
401.14	32.184
401.49	32.519
401.85	32.115
402.21	32.349
402.57	33.000
402.92	31.493
403.28	32.957
403.63	33.039
403.99	32.462
404.35	31.668
404.70	31.845
405.06	31.257
405.42	32.256
405.77	32.074
406.13	31.548
406.49	31.024
406.84	31.968
407.20	32.089
407.55	32.003
407.91	31.484
408.27	31.740
408.62	33.046
408.98	31.177
409.34	32.652
409.69	31.460
410.05	31.712
410.40	31.790
410.76	31.966
411.11	31.812
411.47	32.216
411.83	31.073
412.18	32.497
412.54	32.459
412.89	30.419
413.25	32.371
413.60	31.366
413.96	31.104
414.31	31.341
414.67	31.751
415.03	31.358
415.38	30.483
415.74	31.596
416.09	31.156
416.45	30.790
416.80	31.064
417.16	32.251
417.51	30.380
417.87	30.965
418.22	31.347
418.58	31.839
418.93	32.038
419.29	30.154
419.64	30.914
420.00	31.927
420.35	30.985
420.71	31.774
421.06	31.308
421.42	30.589
421.77	31.387
422.12	30.250
422.48	30.536
422.83	30.104
423.19	30.587
423.54	30.276
423.90	30.389
424.25	32.262
424.61	32.069
424.96	29.965
425.31	31.369
425.67	30.282
426.02	31.979
426.38	31.997
426.73	31.053
427.09	31.835
427.44	30.647
427.79	30.878
428.15	29.672
428.50	30.042
428.85	29.545
429.21	30.277
429.56	29.757
429.92	31.279
430.27	30.476
430.62	30.162
430.98	29.830
431.33	30.021
431.68	29.723
432.04	31.582
432.39	29.606
432.74	30.607
433.10	30.862
433.45	30.824
433.80	30.528
434.16	29.307
434.51	29.892
434.86	30.546
435.22	30.006
435.57	30.131
435.92	30.958
436.28	28.623
436.63	30.975
436.98	28.621
437.34	28.615
437.69	29.934
438.04	29.858
438.39	29.750
438.75	29.690
439.10	30.051
439.45	29.519
439.81	29.847
440.16	30.582
440.51	30.448
440.86	31.541
441.22	29.977
441.57	29.746
441.92	30.115
442.27	30.044
442.63	30.193
442.98	30.213
443.33	29.327
443.68	29.019
444.03	29.359
444.39	29.169
444.74	30.045
445.09	29.844
445.44	29.915
445.79	30.480
446.15	30.121
446.50	29.617
446.85	29.490
447.20	29.458
447.55	30.246
447.91	30.118
448.26	30.507
448.61	29.879
448.96	29.260
449.31	28.786
449.66	29.210
450.02	30.177
450.37	29.164
450.72	29.267
451.07	30.759
451.42	29.526
451.77	29.777
452.12	28.768
452.47	29.041
452.83	29.682
453.18	30.234
453.53	29.772
453.88	29.326
454.23	30.424
454.58	30.353
454.93	30.541
455.28	29.333
455.63	29.758
455.98	29.826
456.34	28.544
456.69	29.670
457.04	30.750
457.39	29.526
457.74	29.686
458.09	28.193
458.44	29.725
458.79	29.188
459.14	29.119
459.49	30.269
459.84	29.329
460.19	28.762
460.54	29.523
460.89	29.034
461.24	29.752
461.59	30.344
461.94	28.491
462.29	28.770
462.64	30.432
462.99	29.316
463.34	28.790
463.69	28.958
464.04	29.056
464.39	28.078
464.74	29.264
465.09	28.322
465.44	29.198
465.79	29.252
466.14	29.190
466.49	28.062
466.84	28.316
467.19	29.287
467.54	28.416
467.89	28.111
468.24	29.258
468.59	29.143
468.94	28.508
469.29	29.508
469.64	28.640
469.99	29.362
470.34	28.396
470.68	29.381
471.03	29.016
471.38	29.173
471.73	30.042
472.08	29.037
472.43	28.523
472.78	28.444
473.13	29.456
473.48	28.339
473.83	28.829
474.17	28.951
474.52	27.888
474.87	28.788
475.22	27.639
475.57	28.571
475.92	28.579
476.27	28.347
476.61	29.167
476.96	28.165
477.31	28.610
477.66	28.258
478.01	27.850
478.36	28.050
478.70	28.222
479.05	29.011
479.40	28.670
479.75	27.789
480.10	28.418
480.45	28.400
480.79	28.499
481.14	27.971
481.49	27.438
481.84	26.882
482.19	27.736
482.53	28.297
482.88	27.399
483.23	27.255
483.58	27.830
483.92	27.154
484.27	27.393
484.62	27.925
484.97	26.783
485.31	26.915
485.66	25.551
486.01	24.966
486.36	24.954
486.70	25.243
487.05	25.352
487.40	25.750
487.75	25.662
488.09	26.143
488.44	26.582
488.79	27.381
489.13	26.923
489.48	27.832
489.83	26.771
490.17	27.191
490.52	27.575
490.87	26.747
491.22	27.364
491.56	27.609
491.91	26.912
492.26	27.807
492.60	27.927
492.95	27.890
493.30	26.820
493.64	27.063
493.99	27.198
494.34	26.359
494.68	26.619
495.03	27.056
495.37	27.429
495.72	27.814
496.07	27.659
496.41	27.075
496.76	25.979
497.11	26.409
497.45	27.876
497.80	28.153
498.14	26.975
498.49	27.476
498.84	27.794
499.18	26.908
499.53	27.034
499.87	27.140
500.22	26.261
500.56	27.231
500.91	27.159
501.26	26.990
501.60	27.300
501.95	27.365
502.29	27.361
502.64	27.027
502.98	26.196
503.33	26.513
503.67	26.361
504.02	27.322
504.36	26.967
504.71	26.162
505.06	26.522
505.40	27.056
505.75	26.701
506.09	27.674
506.44	27.567
506.78	26.480
507.13	27.301
507.47	26.319
507.82	26.389
508.16	26.466
508.51	26.915
508.85	26.269
509.19	26.397
509.54	27.131
509.88	26.807
510.23	26.412
510.57	26.777
510.92	25.800
511.26	26.950
511.61	26.898
511.95	26.521
512.30	27.217
512.64	26.489
512.98	26.390
513.33	26.861
513.67	26.720
514.02	26.945
514.36	28.000
514.70	28.438
515.05	27.615
515.39	26.860
515.74	27.844
516.08	27.376
516.42	27.680
516.77	28.496
517.11	27.300
517.46	27.588
517.80	26.579
518.14	27.312
518.49	27.103
518.83	26.853
519.17	26.986
519.52	26.288
519.86	27.011
520.20	27.461
520.55	26.892
520.89	27.666
521.23	26.789
521.58	27.066
521.92	26.923
522.26	27.912
522.61	27.597
522.95	28.278
523.29	27.382
523.64	28.780
523.98	28.451
524.32	26.418
524.66	27.849
525.01	27.727
525.35	28.127
525.69	27.273
526.04	26.720
526.38	28.210
526.72	25.638
527.06	26.978
527.41	27.441
527.75	26.475
528.09	26.645
528.43	27.549
528.78	26.271
529.12	26.387
529.46	26.186
529.80	26.219
530.15	25.875
530.49	26.397
530.83	27.018
531.17	25.722
531.51	26.744
531.86	26.920
532.20	25.261
532.54	26.276
532.88	27.242
533.22	27.554
533.57	25.885
533.91	25.392
534.25	27.279
534.59	26.427
534.93	25.614
535.27	25.825
535.62	24.951
535.96	25.636
536.30	26.583
536.64	26.465
536.98	25.854
537.32	26.671
537.66	26.648
538.01	26.993
538.35	25.312
538.69	25.766
539.03	24.880
539.37	25.101
539.71	25.835
540.05	24.711
540.39	26.593
540.73	26.011
541.07	26.243
541.42	26.747
541.76	25.809
542.10	25.258
542.44	25.434
542.78	24.019
543.12	25.549
543.46	25.522
543.80	25.052
544.14	24.166
544.48	25.716
544.82	24.744
545.16	25.751
545.50	25.367
545.84	25.000
546.18	25.603
546.52	25.451
546.86	25.234
547.20	25.536
547.54	23.463
547.88	24.253
548.22	24.063
548.56	24.670
548.90	23.989
549.24	25.275
549.58	24.471
549.92	24.303
550.26	24.689
550.60	24.907
550.94	26.662
551.28	25.270
551.62	26.231
551.96	25.489
552.30	24.854
552.64	23.343
552.98	24.895
553.32	23.894
553.66	23.077
554.00	24.818
554.34	25.702
554.68	23.968
555.02	26.042
555.36	23.710
555.69	24.103
556.03	23.412
556.37	23.915
556.71	24.404
557.05	24.683
557.39	23.123
557.73	24.588
558.07	25.113
558.41	23.430
558.75	23.617
559.08	24.113
559.42	24.048
559.76	25.701
560.10	24.924
560.44	22.934
560.78	23.497
561.12	23.766
561.45	23.823
561.79	23.459
562.13	23.492
562.47	23.022
562.81	23.559
563.15	23.272
563.48	22.914
563.82	24.022
564.16	23.816
564.50	22.973
564.84	23.762
565.17	22.066
565.51	23.770
565.85	23.388
566.19	24.005
566.52	22.520
566.86	22.686
567.20	22.291
567.54	23.236
567.88	22.203
568.21	22.229
568.55	21.739
568.89	21.920
569.23	21.184
569.56	20.665
569.90	21.112
570.24	20.394
570.57	20.036
570.91	19.972
571.25	19.138
571.59	19.309
571.92	18.667
572.26	19.082
572.60	19.535
572.93	19.768
573.27	19.122
573.61	18.735
573.95	18.979
574.28	18.644
574.62	18.332
574.96	18.674
575.29	18.122
575.63	18.217
575.97	17.972
576.30	18.499
576.64	18.358
576.98	18.764
577.31	18.530
577.65	17.982
577.98	17.751
578.32	17.643
578.66	17.645
578.99	17.829
579.33	18.036
579.67	18.269
580.00	18.228
580.34	17.811
580.67	17.582
581.01	18.036
581.35	17.334
581.68	17.674
582.02	17.196
582.35	17.177
582.69	17.199
583.02	17.133
583.36	17.459
583.70	17.939
584.03	18.154
584.37	18.718
584.70	17.995
585.04	17.254
585.37	17.617
585.71	17.329
586.04	17.751
586.38	17.525
586.72	17.704
587.05	18.255
587.39	17.696
587.72	18.070
588.06	18.101
588.39	17.858
588.73	17.796
589.06	18.134
589.40	18.355
589.73	18.802
590.07	18.807
590.40	18.460
590.73	19.069
591.07	18.914
591.40	18.344
591.74	18.869
592.07	18.831
592.41	19.214
592.74	18.479
593.08	17.255
593.41	17.990
593.75	17.272
594.08	17.645
594.41	17.831
594.75	18.168
595.08	17.480
595.42	17.814
595.75	17.724
596.09	18.178
596.42	18.313
596.75	18.783
597.09	18.633
597.42	18.112
597.75	18.278
598.09	18.017
598.42	18.186
598.76	18.404
599.09	18.109
599.42	16.825
599.76	17.532
600.09	17.685
600.42	17.324
600.76	16.679
601.09	17.214
601.42	17.117
601.76	17.864
602.09	17.327
602.42	17.523
602.76	17.615
603.09	17.483
603.42	18.227
603.76	17.056
604.09	17.335
604.42	17.217
604.76	18.247
605.09	18.464
605.42	17.968
605.75	17.907
606.09	17.580
606.42	17.389
606.75	17.922
607.09	17.626
607.42	17.412
607.75	18.517
608.08	16.757
608.42	17.131
608.75	17.831
609.08	17.788
609.41	17.614
609.75	18.145
610.08	18.522
610.41	17.005
610.74	17.309
611.07	17.261
611.41	17.125
611.74	18.443
612.07	18.094
612.40	18.490
612.73	18.136
613.07	17.717
613.40	17.888
613.73	17.963
614.06	17.807
614.39	17.484
614.72	17.591
615.06	17.151
615.39	17.467
615.72	17.169
616.05	17.821
616.38	17.493
616.71	18.165
617.05	17.912
617.38	18.165
617.71	17.987
618.04	18.540
618.37	18.159
618.70	18.944
619.03	19.931
619.36	18.741
619.69	19.181
620.03	19.649
620.36	18.670
620.69	18.701
621.02	19.190
621.35	20.166
621.68	20.493
622.01	18.750
622.34	19.314
622.67	19.479
623.00	18.760
623.33	19.207
623.66	18.699
623.99	19.440
624.32	18.783
624.65	17.744
624.99	18.661
625.32	17.817
625.65	19.717
625.98	19.500
626.31	18.371
626.64	20.277
626.97	19.546
627.30	20.315
627.63	19.237
627.96	19.677
628.29	20.259
628.62	20.452
628.95	20.741
629.28	19.153
629.61	19.541
629.94	22.287
630.26	20.553
630.59	21.852
630.92	19.897
631.25	18.769
631.58	19.824
631.91	19.956
632.24	21.216
632.57	21.932
632.90	20.522
633.23	21.412
633.56	22.544
633.89	20.962
634.22	22.346
634.55	21.474
634.88	21.073
635.20	20.256
635.53	21.333
635.86	20.546
636.19	22.510
636.52	19.770
636.85	20.347
