SpectraSuite Data File
++++++++++++++++++++++++++++++++++++
Date: Fri May 15 21:04:43 PDT 2015
User: schluterlab
Dark Spectrum Present: Yes
Reference Spectrum Present: Yes
Number of Sampled Component Spectra: 1
Spectrometers: USB2E3373
Integration Time (usec): 3000 (USB2E3373)
Spectra Averaged: 3 (USB2E3373)
Boxcar Smoothing: 0 (USB2E3373)
Correct for Electrical Dark: No (USB2E3373)
Strobe/Lamp Enabled: No (USB2E3373)
Correct for Detector Non-linearity: No (USB2E3373)
Correct for Stray Light: No (USB2E3373)
Number of Pixels in Processed Spectrum: 2048
>>>>>Begin Processed Spectral Data<<<<<
178.53	0.000
178.91	0.000
179.29	37.500
179.67	-300.000
180.04	-28.571
180.42	25.000
180.80	-300.000
181.18	366.667
181.56	150.000
181.94	-450.000
182.31	1200.000
182.69	-140.000
183.07	-333.333
183.45	-240.000
183.83	100.000
184.20	-36.364
184.58	155.556
184.96	50.000
185.34	133.333
185.72	-450.000
186.09	76.923
186.47	-1500.000
186.85	216.667
187.23	133.333
187.61	300.000
187.98	-366.667
188.36	-144.444
188.74	-333.333
189.12	11.765
189.49	0.000
189.87	0.000
190.25	0.000
190.63	100.000
191.00	-366.667
191.38	21.053
191.76	-250.000
192.14	150.000
192.51	150.000
192.89	-166.667
193.27	-142.857
193.65	400.000
194.02	227.273
194.40	-60.000
194.78	-262.500
195.15	-83.333
195.53	-100.000
195.91	375.000
196.29	-325.000
196.66	176.923
197.04	128.571
197.42	-122.222
197.79	-633.333
198.17	-107.692
198.55	1300.000
198.92	-166.667
199.30	-400.000
199.68	-160.000
200.05	-433.333
200.43	0.000
200.81	-166.667
201.18	-300.000
201.56	1300.000
201.94	-550.000
202.31	200.000
202.69	-300.000
203.07	175.000
203.44	-100.000
203.82	0.000
204.19	-50.000
204.57	-500.000
204.95	175.000
205.32	40.000
205.70	-114.286
206.08	-250.000
206.45	133.333
206.83	0.000
207.20	-242.857
207.58	500.000
207.96	100.000
208.33	-180.000
208.71	-300.000
209.08	-233.333
209.46	-2100.000
209.84	-340.000
210.21	-1400.000
210.59	-14.286
210.96	-116.667
211.34	-150.000
211.71	6.667
212.09	-185.714
212.46	-2200.000
212.84	0.000
213.22	10.000
213.59	400.000
213.97	46.154
214.34	-18.182
214.72	-150.000
215.09	625.000
215.47	23.077
215.84	0.000
216.22	-33.333
216.59	-62.500
216.97	-300.000
217.34	-50.000
217.72	20.000
218.09	25.000
218.47	225.000
218.84	-900.000
219.22	-211.111
219.59	-220.000
219.97	466.667
220.34	425.000
220.72	-14.286
221.09	-200.000
221.47	-600.000
221.84	-1300.000
222.22	-1500.000
222.59	0.000
222.97	-66.667
223.34	-66.667
223.72	-57.143
224.09	14.286
224.46	0.000
224.84	700.000
225.21	0.000
225.59	20.000
225.96	-250.000
226.34	350.000
226.71	-185.714
227.08	-83.333
227.46	-37.500
227.83	-1250.000
228.21	-122.222
228.58	-90.909
228.95	-87.500
229.33	150.000
229.70	-12.500
230.08	-175.000
230.45	-100.000
230.82	0.000
231.20	-46.667
231.57	-7.143
231.95	-114.286
232.32	-170.000
232.69	-64.286
233.07	-200.000
233.44	-380.000
233.81	-50.000
234.19	-66.667
234.56	-23.529
234.93	400.000
235.31	-100.000
235.68	-320.000
236.05	-53.846
236.43	-5.000
236.80	-70.588
237.17	-28.125
237.55	-20.000
237.92	-85.185
238.29	-25.000
238.67	-3.333
239.04	-8.824
239.41	-24.390
239.79	-30.000
240.16	-4.878
240.53	-44.737
240.91	-19.565
241.28	-1.587
241.65	14.286
242.02	-4.110
242.40	-13.333
242.77	-23.729
243.14	-18.182
243.51	-12.500
243.89	9.195
244.26	-2.299
244.63	-13.095
245.00	-4.124
245.38	2.062
245.75	-12.360
246.12	-12.069
246.49	-0.826
246.87	-4.808
247.24	-13.445
247.61	-9.649
247.98	-7.317
248.36	-1.875
248.73	2.632
249.10	-3.247
249.47	0.000
249.84	-9.150
250.22	-1.176
250.59	-1.961
250.96	-0.469
251.33	-5.233
251.70	-5.294
252.08	2.538
252.45	-1.980
252.82	-6.030
253.19	0.000
253.56	-1.402
253.94	2.252
254.31	0.870
254.68	-3.947
255.05	-1.575
255.42	-0.437
255.79	0.000
256.16	3.113
256.54	-2.612
256.91	-1.141
257.28	-0.743
257.65	-2.247
258.02	-2.482
258.39	3.367
258.76	4.029
259.14	0.000
259.51	1.294
259.88	-1.031
260.25	0.980
260.62	-1.042
260.99	-6.102
261.36	-5.822
261.73	-0.316
262.10	-1.520
262.47	0.920
262.85	-3.448
263.22	0.308
263.59	1.246
263.96	-0.932
264.33	-0.303
264.70	-2.976
265.07	-1.786
265.44	0.567
265.81	1.130
266.18	-2.732
266.55	2.314
266.92	1.036
267.29	2.350
267.66	0.512
268.03	-0.785
268.40	-2.350
268.77	4.278
269.14	0.719
269.51	2.057
269.88	-1.247
270.25	-1.020
270.62	-2.439
270.99	-2.558
271.36	0.978
271.73	1.643
272.10	0.000
272.47	0.000
272.84	-0.990
273.21	3.016
273.58	1.687
273.95	0.229
274.32	-1.617
274.69	-1.810
275.06	0.670
275.43	1.361
275.80	1.104
276.17	-2.529
276.54	0.214
276.91	1.096
277.28	-1.310
277.65	1.033
278.02	-0.851
278.39	-1.969
278.76	-0.419
279.13	-3.734
279.50	0.630
279.87	0.432
280.23	-3.656
280.60	0.975
280.97	-0.404
281.34	-0.577
281.71	1.437
282.08	-0.409
282.45	0.978
282.82	-1.351
283.19	0.967
283.56	-0.771
283.92	1.328
284.29	-0.192
284.66	-0.581
285.03	-1.965
285.40	-0.567
285.77	-1.406
286.14	1.264
286.51	0.923
286.87	0.731
287.24	-0.368
287.61	1.058
287.98	1.930
288.35	0.173
288.72	1.576
289.08	-0.347
289.45	0.000
289.82	0.874
290.19	-0.171
290.56	0.000
290.93	1.010
291.29	-0.308
291.66	1.732
292.03	1.116
292.40	0.645
292.77	0.478
293.13	0.325
293.50	-2.428
293.87	1.069
294.24	-0.618
294.60	1.639
294.97	0.595
295.34	0.613
295.71	0.000
296.08	1.495
296.44	-1.565
296.81	0.417
297.18	0.580
297.55	1.355
297.91	0.411
298.28	1.451
298.65	0.407
299.02	0.809
299.38	-2.189
299.75	1.103
300.12	0.131
300.48	-0.264
300.85	1.014
301.22	-0.130
301.59	1.184
301.95	1.646
302.32	2.464
302.69	0.746
303.05	0.990
303.42	1.121
303.79	2.453
304.15	1.314
304.52	-0.476
304.89	1.053
305.25	1.090
305.62	-0.350
305.99	0.000
306.35	-0.116
306.72	-0.562
307.09	0.798
307.45	1.148
307.82	-0.116
308.19	1.394
308.55	0.545
308.92	2.179
309.29	-0.447
309.65	0.646
310.02	0.770
310.38	1.647
310.75	1.421
311.12	0.861
311.48	0.848
311.85	1.466
312.22	1.688
312.58	1.380
312.95	0.213
313.31	1.760
313.68	0.524
314.05	1.224
314.41	2.165
314.78	1.959
315.14	2.980
315.51	3.313
315.87	2.561
316.24	4.449
316.61	3.839
316.97	3.075
317.34	4.590
317.70	4.207
318.07	5.000
318.43	4.020
318.80	5.019
319.16	4.785
319.53	6.173
319.89	6.299
320.26	6.174
320.62	6.520
320.99	5.010
321.35	6.989
321.72	7.996
322.08	7.351
322.45	7.513
322.81	8.841
323.18	8.636
323.54	9.459
323.91	9.737
324.27	9.570
324.64	12.079
325.00	11.770
325.37	12.305
325.73	12.421
326.10	11.989
326.46	13.901
326.83	12.773
327.19	13.165
327.56	14.770
327.92	15.757
328.29	15.000
328.65	15.000
329.01	15.533
329.38	16.498
329.74	15.770
330.11	16.960
330.47	16.976
330.84	17.404
331.20	18.536
331.56	17.778
331.93	18.447
332.29	19.157
332.66	17.828
333.02	18.123
333.38	17.415
333.75	19.963
334.11	18.532
334.48	19.946
334.84	20.879
335.20	19.671
335.57	18.586
335.93	20.506
336.29	19.890
336.66	19.528
337.02	19.424
337.38	21.574
337.75	20.182
338.11	20.830
338.47	21.259
338.84	20.795
339.20	20.018
339.56	20.367
339.93	20.501
340.29	20.826
340.65	20.699
341.02	19.858
341.38	20.177
341.74	20.141
342.11	19.844
342.47	20.996
342.83	21.107
343.20	19.425
343.56	20.609
343.92	22.055
344.28	21.435
344.65	21.244
345.01	21.003
345.37	20.858
345.73	22.259
346.10	23.641
346.46	21.194
346.82	20.867
347.19	21.530
347.55	21.721
347.91	21.683
348.27	21.746
348.63	22.913
349.00	21.575
349.36	22.111
349.72	22.056
350.08	22.787
350.45	21.947
350.81	22.010
351.17	20.765
351.53	23.020
351.89	21.222
352.26	21.280
352.62	22.258
352.98	21.205
353.34	21.820
353.70	22.654
354.07	22.177
354.43	21.697
354.79	22.048
355.15	22.619
355.51	22.073
355.87	22.006
356.24	21.615
356.60	21.099
356.96	22.540
357.32	22.045
357.68	21.970
358.04	21.648
358.40	21.945
358.77	21.850
359.13	22.578
359.49	20.724
359.85	21.061
360.21	21.770
360.57	20.811
360.93	22.617
361.29	21.299
361.66	22.179
362.02	22.045
362.38	22.011
362.74	22.861
363.10	22.874
363.46	22.165
363.82	22.164
364.18	23.838
364.54	21.618
364.90	21.290
365.26	21.252
365.62	21.679
365.98	22.067
366.35	23.088
366.71	22.247
367.07	22.496
367.43	21.999
367.79	21.413
368.15	22.828
368.51	21.850
368.87	22.254
369.23	21.805
369.59	22.668
369.95	22.581
370.31	22.399
370.67	22.239
371.03	21.807
371.39	22.247
371.75	22.637
372.11	21.969
372.47	22.337
372.83	20.937
373.19	22.397
373.55	21.949
373.91	22.030
374.27	22.254
374.63	22.039
374.99	21.915
375.35	22.075
375.71	21.678
376.07	21.699
376.42	22.245
376.78	21.275
377.14	21.327
377.50	21.514
377.86	21.687
378.22	21.442
378.58	21.154
378.94	21.298
379.30	21.335
379.66	22.821
380.02	20.907
380.38	21.181
380.74	21.843
381.09	22.086
381.45	21.896
381.81	21.962
382.17	22.462
382.53	21.487
382.89	21.908
383.25	21.717
383.61	22.317
383.97	19.937
384.32	21.451
384.68	21.548
385.04	21.569
385.40	20.909
385.76	21.950
386.12	21.863
386.48	21.648
386.83	20.926
387.19	20.696
387.55	21.644
387.91	21.760
388.27	20.696
388.62	22.026
388.98	20.872
389.34	20.675
389.70	21.753
390.06	20.957
390.42	20.920
390.77	21.125
391.13	21.122
391.49	20.505
391.85	20.728
392.20	20.465
392.56	19.835
392.92	20.317
393.28	19.458
393.64	19.760
393.99	22.006
394.35	20.493
394.71	20.817
395.07	20.679
395.42	19.611
395.78	19.414
396.14	20.303
396.50	20.038
396.85	19.575
397.21	19.987
397.57	20.251
397.92	20.072
398.28	20.115
398.64	19.699
399.00	20.203
399.35	19.639
399.71	19.931
400.07	20.193
400.42	19.339
400.78	19.657
401.14	20.024
401.49	19.297
401.85	19.439
402.21	19.398
402.57	19.562
402.92	18.946
403.28	19.298
403.63	19.546
403.99	19.133
404.35	19.675
404.70	18.512
405.06	18.684
405.42	18.521
405.77	18.303
406.13	18.219
406.49	17.762
406.84	18.276
407.20	18.724
407.55	17.450
407.91	17.848
408.27	17.655
408.62	18.092
408.98	18.115
409.34	18.030
409.69	17.894
410.05	17.365
410.40	18.086
410.76	18.094
411.11	18.625
411.47	18.212
411.83	17.702
412.18	17.310
412.54	18.102
412.89	17.118
413.25	18.051
413.60	17.329
413.96	16.933
414.31	17.500
414.67	17.768
415.03	17.044
415.38	16.841
415.74	17.590
416.09	18.289
416.45	17.218
416.80	16.656
417.16	19.061
417.51	18.254
417.87	17.536
418.22	17.552
418.58	16.923
418.93	17.618
419.29	16.581
419.64	16.785
420.00	18.199
420.35	16.478
420.71	17.740
421.06	17.127
421.42	17.488
421.77	16.185
422.12	16.118
422.48	17.325
422.83	16.241
423.19	16.817
423.54	16.461
423.90	17.432
424.25	16.705
424.61	17.197
424.96	16.434
425.31	17.331
425.67	16.843
426.02	16.902
426.38	16.343
426.73	16.404
427.09	17.152
427.44	16.647
427.79	16.676
428.15	17.233
428.50	16.596
428.85	15.295
429.21	16.582
429.56	16.819
429.92	17.001
430.27	16.341
430.62	16.466
430.98	16.401
431.33	16.877
431.68	16.536
432.04	16.434
432.39	15.687
432.74	16.176
433.10	17.184
433.45	16.010
433.80	15.438
434.16	16.066
434.51	15.699
434.86	15.679
435.22	16.433
435.57	15.721
435.92	15.629
436.28	15.862
436.63	15.516
436.98	15.991
437.34	15.850
437.69	16.041
438.04	15.783
438.39	14.600
438.75	15.361
439.10	16.525
439.45	16.433
439.81	15.474
440.16	16.627
440.51	16.299
440.86	16.556
441.22	15.667
441.57	14.901
441.92	15.530
442.27	15.909
442.63	16.649
442.98	16.140
443.33	15.303
443.68	15.650
444.03	15.797
444.39	15.347
444.74	15.998
445.09	15.479
445.44	16.182
445.79	16.039
446.15	15.529
446.50	14.254
446.85	15.409
447.20	14.964
447.55	15.402
447.91	15.454
448.26	15.367
448.61	15.256
448.96	15.777
449.31	15.318
449.66	14.808
450.02	15.003
450.37	15.708
450.72	14.948
451.07	15.823
451.42	14.482
451.77	15.190
452.12	14.354
452.47	14.488
452.83	14.723
453.18	14.927
453.53	15.234
453.88	14.693
454.23	14.874
454.58	15.176
454.93	15.464
455.28	13.587
455.63	14.755
455.98	14.432
456.34	14.943
456.69	15.248
457.04	15.375
457.39	14.399
457.74	14.087
458.09	14.420
458.44	14.102
458.79	14.678
459.14	14.531
459.49	15.463
459.84	14.890
460.19	13.896
460.54	14.425
460.89	14.205
461.24	14.348
461.59	14.608
461.94	14.025
462.29	14.777
462.64	14.485
462.99	15.166
463.34	13.839
463.69	14.157
464.04	14.467
464.39	13.523
464.74	13.865
465.09	14.473
465.44	14.484
465.79	13.549
466.14	14.310
466.49	13.801
466.84	14.456
467.19	13.830
467.54	13.857
467.89	13.582
468.24	13.504
468.59	14.984
468.94	13.143
469.29	14.557
469.64	15.243
469.99	13.385
470.34	13.038
470.68	14.616
471.03	13.659
471.38	13.552
471.73	13.866
472.08	14.043
472.43	12.550
472.78	13.091
473.13	13.333
473.48	14.072
473.83	13.076
474.17	14.184
474.52	12.891
474.87	13.212
475.22	13.423
475.57	13.043
475.92	13.878
476.27	12.806
476.61	13.484
476.96	12.270
477.31	14.062
477.66	12.640
478.01	12.802
478.36	12.800
478.70	13.703
479.05	13.626
479.40	13.302
479.75	13.191
480.10	13.057
480.45	13.250
480.79	13.444
481.14	13.525
481.49	12.167
481.84	13.079
482.19	12.956
482.53	12.518
482.88	12.601
483.23	12.332
483.58	12.311
483.92	12.827
484.27	12.352
484.62	12.685
484.97	12.231
485.31	12.103
485.66	12.090
486.01	12.021
486.36	11.985
486.70	12.252
487.05	12.039
487.40	12.073
487.75	12.282
488.09	12.176
488.44	12.208
488.79	12.215
489.13	12.700
489.48	12.227
489.83	12.242
490.17	11.820
490.52	12.194
490.87	11.754
491.22	12.034
491.56	11.812
491.91	12.046
492.26	11.911
492.60	12.188
492.95	12.641
493.30	12.262
493.64	11.739
493.99	11.449
494.34	11.262
494.68	11.524
495.03	11.679
495.37	11.433
495.72	11.661
496.07	11.805
496.41	11.651
496.76	12.483
497.11	11.132
497.45	11.790
497.80	11.655
498.14	11.475
498.49	12.087
498.84	11.427
499.18	11.847
499.53	12.004
499.87	11.284
500.22	11.869
500.56	11.649
500.91	11.094
501.26	11.073
501.60	11.412
501.95	11.887
502.29	11.429
502.64	11.052
502.98	11.396
503.33	10.951
503.67	11.084
504.02	12.023
504.36	11.677
504.71	10.455
505.06	11.324
505.40	10.660
505.75	10.773
506.09	10.998
506.44	11.191
506.78	11.684
507.13	11.479
507.47	11.123
507.82	11.271
508.16	11.041
508.51	11.333
508.85	10.623
509.19	10.271
509.54	10.724
509.88	10.302
510.23	10.597
510.57	10.636
510.92	9.701
511.26	10.529
511.61	10.946
511.95	10.740
512.30	10.310
512.64	11.130
512.98	9.994
513.33	11.192
513.67	10.688
514.02	11.728
514.36	11.200
514.70	11.305
515.05	10.341
515.39	11.098
515.74	10.958
516.08	10.520
516.42	11.602
516.77	11.118
517.11	10.920
517.46	9.994
517.80	10.846
518.14	9.369
518.49	10.457
518.83	10.389
519.17	10.249
519.52	9.888
519.86	9.604
520.20	10.267
520.55	9.256
520.89	11.418
521.23	9.816
521.58	10.410
521.92	10.128
522.26	10.735
522.61	10.065
522.95	11.126
523.29	10.102
523.64	11.182
523.98	10.110
524.32	9.472
524.66	10.691
525.01	10.844
525.35	11.212
525.69	10.101
526.04	10.053
526.38	11.089
526.72	9.483
527.06	9.663
527.41	10.224
527.75	9.987
528.09	9.967
528.43	11.479
528.78	10.165
529.12	10.194
529.46	9.227
529.80	9.880
530.15	11.023
530.49	9.899
530.83	10.465
531.17	10.141
531.51	10.944
531.86	9.925
532.20	9.395
532.54	9.871
532.88	9.514
533.22	9.879
533.57	9.764
533.91	9.334
534.25	10.286
534.59	10.391
534.93	10.069
535.27	8.947
535.62	9.397
535.96	9.524
536.30	9.894
536.64	10.062
536.98	9.129
537.32	9.957
537.66	10.028
538.01	10.210
538.35	8.252
538.69	10.386
539.03	9.979
539.37	10.094
539.71	9.271
540.05	9.776
540.39	9.765
540.73	9.275
541.07	10.290
541.42	9.946
541.76	10.805
542.10	9.291
542.44	10.285
542.78	8.672
543.12	8.929
543.46	10.083
543.80	9.646
544.14	8.611
544.48	9.793
544.82	9.774
545.16	9.631
545.50	9.680
545.84	9.915
546.18	9.504
546.52	9.661
546.86	9.202
547.20	9.299
547.54	8.622
547.88	8.967
548.22	9.467
548.56	8.575
548.90	10.243
549.24	8.953
549.58	9.873
549.92	8.863
550.26	8.571
550.60	9.219
550.94	9.037
551.28	7.960
551.62	10.231
551.96	8.797
552.30	9.137
552.64	9.732
552.98	9.353
553.32	8.559
553.66	9.216
554.00	8.686
554.34	9.158
554.68	8.702
555.02	9.449
555.36	9.349
555.69	8.498
556.03	8.351
556.37	8.043
556.71	8.520
557.05	9.098
557.39	8.922
557.73	8.696
558.07	9.879
558.41	9.188
558.75	8.574
559.08	9.220
559.42	8.095
559.76	8.407
560.10	9.404
560.44	8.935
560.78	9.231
561.12	9.097
561.45	9.417
561.79	9.454
562.13	8.091
562.47	8.705
562.81	8.934
563.15	9.309
563.48	9.052
563.82	8.442
564.16	7.939
564.50	8.716
564.84	8.969
565.17	8.182
565.51	9.016
565.85	8.025
566.19	8.820
566.52	8.445
566.86	9.190
567.20	8.032
567.54	8.577
567.88	8.553
568.21	8.710
568.55	8.315
568.89	8.316
569.23	8.570
569.56	8.056
569.90	8.973
570.24	8.001
570.57	8.145
570.91	8.261
571.25	7.530
571.59	7.786
571.92	8.267
572.26	7.729
572.60	8.310
572.93	8.095
573.27	8.213
573.61	7.876
573.95	8.110
574.28	7.707
574.62	7.450
574.96	7.305
575.29	7.471
575.63	7.515
575.97	7.563
576.30	7.759
576.64	7.629
576.98	8.082
577.31	7.447
577.65	7.844
577.98	7.713
578.32	7.842
578.66	7.694
578.99	7.674
579.33	7.344
579.67	7.721
580.00	7.823
580.34	7.811
580.67	7.493
581.01	7.493
581.35	7.429
581.68	7.597
582.02	7.506
582.35	7.372
582.69	7.869
583.02	7.584
583.36	7.878
583.70	7.944
584.03	7.590
584.37	7.990
584.70	7.940
585.04	7.383
585.37	7.690
585.71	7.455
586.04	7.363
586.38	7.255
586.72	7.747
587.05	7.366
587.39	7.996
587.72	8.010
588.06	7.307
588.39	7.719
588.73	7.784
589.06	7.763
589.40	8.123
589.73	8.288
590.07	8.421
590.40	7.895
590.73	8.484
591.07	7.506
591.40	7.792
591.74	7.692
592.07	7.931
592.41	8.613
592.74	7.407
593.08	7.440
593.41	7.611
593.75	7.393
594.08	7.072
594.41	8.115
594.75	7.328
595.08	7.302
595.42	7.398
595.75	7.661
596.09	7.428
596.42	7.606
596.75	7.726
597.09	7.563
597.42	7.407
597.75	7.787
598.09	7.651
598.42	7.265
598.76	7.550
599.09	7.812
599.42	7.238
599.76	7.223
600.09	7.428
600.42	7.354
600.76	7.281
601.09	6.794
601.42	7.599
601.76	7.503
602.09	7.467
602.42	7.709
602.76	7.683
603.09	7.434
603.42	7.818
603.76	6.815
604.09	6.966
604.42	7.657
604.76	7.877
605.09	7.450
605.42	7.269
605.75	7.312
606.09	7.473
606.42	7.631
606.75	8.009
607.09	7.736
607.42	7.089
607.75	7.638
608.08	7.278
608.42	7.675
608.75	6.988
609.08	7.723
609.41	7.259
609.75	7.308
610.08	8.088
610.41	6.908
610.74	7.070
611.07	7.442
611.41	8.147
611.74	8.209
612.07	7.281
612.40	7.604
612.73	7.458
613.07	6.974
613.40	7.659
613.73	7.107
614.06	7.846
614.39	7.896
614.72	7.507
615.06	6.983
615.39	7.751
615.72	7.212
616.05	7.486
616.38	6.952
616.71	7.462
617.05	8.030
617.38	6.851
617.71	7.610
618.04	7.365
618.37	8.827
618.70	7.657
619.03	8.333
619.36	6.946
619.69	8.112
620.03	8.254
620.36	7.868
620.69	7.566
621.02	7.951
621.35	7.718
621.68	6.973
622.01	6.500
622.34	7.901
622.67	8.360
623.00	7.580
623.33	8.079
623.66	7.779
623.99	8.775
624.32	7.224
624.65	7.068
624.99	8.126
625.32	6.520
625.65	8.720
625.98	7.977
626.31	6.733
626.64	7.452
626.97	7.853
627.30	8.319
627.63	7.886
627.96	7.547
628.29	6.753
628.62	8.063
628.95	7.014
629.28	8.065
629.61	7.278
629.94	8.504
630.26	7.806
630.59	8.637
630.92	8.513
631.25	6.359
631.58	7.709
631.91	6.579
632.24	6.881
632.57	8.523
632.90	6.406
633.23	8.118
633.56	7.557
633.89	7.028
634.22	8.765
634.55	7.116
634.88	7.918
635.20	7.436
635.53	7.467
635.86	5.332
636.19	9.185
636.52	7.653
636.85	6.576
637.18	6.289
637.51	8.050
637.83	6.045
638.16	8.868
638.49	5.586
638.82	8.947
639.15	7.598
639.48	7.978
639.81	7.392
640.13	7.504
640.46	7.580
640.79	7.216
641.12	5.465
641.45	5.856
641.77	9.185
642.10	9.637
642.43	7.235
