SpectraSuite Data File
++++++++++++++++++++++++++++++++++++
Date: Fri May 15 20:52:42 PDT 2015
User: schluterlab
Dark Spectrum Present: Yes
Reference Spectrum Present: Yes
Number of Sampled Component Spectra: 1
Spectrometers: USB2E3373
Integration Time (usec): 3000 (USB2E3373)
Spectra Averaged: 3 (USB2E3373)
Boxcar Smoothing: 0 (USB2E3373)
Correct for Electrical Dark: No (USB2E3373)
Strobe/Lamp Enabled: No (USB2E3373)
Correct for Detector Non-linearity: No (USB2E3373)
Correct for Stray Light: No (USB2E3373)
Number of Pixels in Processed Spectrum: 2048
>>>>>Begin Processed Spectral Data<<<<<
178.53	0.000
178.91	0.000
179.29	37.500
179.67	-450.000
180.04	71.429
180.42	25.000
180.80	-800.000
181.18	166.667
181.56	700.000
181.94	150.000
182.31	1000.000
182.69	-100.000
183.07	-266.667
183.45	-200.000
183.83	250.000
184.20	36.364
184.58	144.444
184.96	-0.000
185.34	-200.000
185.72	-450.000
186.09	61.538
186.47	-1300.000
186.85	283.333
187.23	233.333
187.61	400.000
187.98	-266.667
188.36	-88.889
188.74	-100.000
189.12	11.765
189.49	-22.222
189.87	0.000
190.25	-21.429
190.63	250.000
191.00	-233.333
191.38	21.053
191.76	500.000
192.14	125.000
192.51	250.000
192.89	-55.556
193.27	-114.286
193.65	183.333
194.02	118.182
194.40	30.000
194.78	-50.000
195.15	-33.333
195.53	-100.000
195.91	500.000
196.29	-250.000
196.66	76.923
197.04	214.286
197.42	-88.889
197.79	-500.000
198.17	-100.000
198.55	400.000
198.92	0.000
199.30	-500.000
199.68	0.000
200.05	-333.333
200.43	0.000
200.81	-66.667
201.18	100.000
201.56	700.000
201.94	-200.000
202.31	66.667
202.69	-300.000
203.07	250.000
203.44	100.000
203.82	0.000
204.19	35.714
204.57	-166.667
204.95	187.500
205.32	10.000
205.70	57.143
206.08	25.000
206.45	177.778
206.83	-35.714
207.20	-57.143
207.58	700.000
207.96	-566.667
208.33	-60.000
208.71	-175.000
209.08	-166.667
209.46	-400.000
209.84	100.000
210.21	-1000.000
210.59	42.857
210.96	-166.667
211.34	-425.000
211.71	26.667
212.09	-28.571
212.46	-2000.000
212.84	0.000
213.22	10.000
213.59	650.000
213.97	69.231
214.34	36.364
214.72	16.667
215.09	300.000
215.47	30.769
215.84	-36.364
216.22	-133.333
216.59	-125.000
216.97	300.000
217.34	-125.000
217.72	-160.000
218.09	125.000
218.47	87.500
218.84	-1000.000
219.22	-122.222
219.59	-100.000
219.97	500.000
220.34	150.000
220.72	128.571
221.09	-275.000
221.47	-650.000
221.84	-700.000
222.22	-700.000
222.59	-9.091
222.97	66.667
223.34	-300.000
223.72	0.000
224.09	19.048
224.46	7.143
224.84	600.000
225.21	20.000
225.59	20.000
225.96	-300.000
226.34	200.000
226.71	-57.143
227.08	-150.000
227.46	0.000
227.83	-650.000
228.21	-22.222
228.58	-9.091
228.95	-75.000
229.33	130.000
229.70	6.250
230.08	-50.000
230.45	-85.714
230.82	28.571
231.20	-60.000
231.57	14.286
231.95	-71.429
232.32	-80.000
232.69	57.143
233.07	100.000
233.44	-220.000
233.81	-110.000
234.19	-55.556
234.56	29.412
234.93	700.000
235.31	-75.000
235.68	-300.000
236.05	-123.077
236.43	-30.000
236.80	-23.529
237.17	15.625
237.55	-30.000
237.92	-11.111
238.29	2.778
238.67	-13.333
239.04	-11.765
239.41	-19.512
239.79	-40.000
240.16	24.390
240.53	10.526
240.91	-13.043
241.28	3.175
241.65	1.786
242.02	6.849
242.40	10.000
242.77	-11.864
243.14	-1.515
243.51	-11.250
243.89	14.943
244.26	-3.448
244.63	-10.714
245.00	0.000
245.38	-1.031
245.75	-17.978
246.12	0.000
246.49	-5.785
246.87	0.000
247.24	-9.244
247.61	-5.263
247.98	2.439
248.36	-3.750
248.73	0.000
249.10	-9.091
249.47	0.633
249.84	6.536
250.22	-1.765
250.59	-2.614
250.96	7.512
251.33	-3.488
251.70	-1.176
252.08	0.508
252.45	1.485
252.82	1.005
253.19	2.765
253.56	-6.542
253.94	2.252
254.31	6.957
254.68	-2.193
255.05	0.787
255.42	0.873
255.79	2.317
256.16	2.724
256.54	5.224
256.91	0.000
257.28	0.000
257.65	-2.247
258.02	0.000
258.39	4.040
258.76	1.832
259.14	2.990
259.51	-0.324
259.88	-1.718
260.25	1.961
260.62	-2.431
260.99	-2.373
261.36	0.342
261.73	-0.949
262.10	3.040
262.47	1.534
262.85	0.940
263.22	-1.846
263.59	-2.181
263.96	2.795
264.33	1.212
264.70	-0.893
265.07	-3.869
265.44	1.416
265.81	0.565
266.18	0.546
266.55	2.057
266.92	2.073
267.29	-0.261
267.66	3.581
268.03	2.880
268.40	0.000
268.77	2.139
269.14	2.878
269.51	2.314
269.88	-0.499
270.25	-1.276
270.62	-1.707
270.99	-0.767
271.36	2.200
271.73	2.113
272.10	2.676
272.47	0.473
272.84	1.238
273.21	2.088
273.58	0.964
273.95	2.059
274.32	1.155
274.69	0.226
275.06	3.571
275.43	1.587
275.80	1.104
276.17	-1.149
276.54	2.998
276.91	1.974
277.28	0.437
277.65	0.620
278.02	2.766
278.39	-0.875
278.76	0.210
279.13	-1.867
279.50	1.050
279.87	1.080
280.23	1.075
280.60	3.119
280.97	0.202
281.34	0.577
281.71	3.491
282.08	0.818
282.45	0.391
282.82	-1.544
283.19	1.161
283.56	1.156
283.92	-0.759
284.29	-0.192
284.66	0.775
285.03	0.589
285.40	-0.189
285.77	0.527
286.14	0.903
286.51	2.583
286.87	1.645
287.24	-0.368
287.61	0.000
287.98	2.456
288.35	1.040
288.72	3.503
289.08	0.174
289.45	2.636
289.82	1.923
290.19	0.171
290.56	2.058
290.93	2.189
291.29	2.311
291.66	2.835
292.03	1.754
292.40	1.774
292.77	1.435
293.13	0.487
293.50	0.607
293.87	1.527
294.24	1.391
294.60	2.086
294.97	1.786
295.34	2.914
295.71	1.192
296.08	1.943
296.44	-0.427
296.81	0.972
297.18	1.159
297.55	2.710
297.91	2.055
298.28	2.507
298.65	1.764
299.02	2.156
299.38	0.274
299.75	1.241
300.12	0.524
300.48	0.659
300.85	2.788
301.22	2.597
301.59	0.921
301.95	3.165
302.32	3.502
302.69	1.244
303.05	2.475
303.42	1.370
303.79	1.869
304.15	3.226
304.52	1.546
304.89	1.754
305.25	1.090
305.62	1.050
305.99	1.754
306.35	2.312
306.72	1.237
307.09	1.710
307.45	2.870
307.82	2.662
308.19	2.439
308.55	3.381
308.92	3.377
309.29	2.905
309.65	2.260
310.02	2.860
310.38	3.293
310.75	3.497
311.12	2.799
311.48	4.666
311.85	3.455
312.22	3.059
312.58	3.503
312.95	2.668
313.31	1.760
313.68	3.037
314.05	3.163
314.41	4.948
314.78	2.784
315.14	4.419
315.51	4.555
315.87	5.225
316.24	4.752
316.61	5.906
316.97	5.456
317.34	5.371
317.70	6.501
318.07	6.250
318.43	5.490
318.80	4.924
319.16	6.934
319.53	6.933
319.89	6.693
320.26	6.478
320.62	8.024
320.99	5.741
321.35	7.605
321.72	7.684
322.08	7.251
322.45	9.340
322.81	9.234
323.18	8.930
323.54	8.784
323.91	8.569
324.27	9.961
324.64	9.457
325.00	10.219
325.37	11.478
325.73	10.245
326.10	12.807
326.46	12.466
326.83	12.948
327.19	13.078
327.56	12.511
327.92	13.644
328.29	13.304
328.65	12.830
329.01	13.235
329.38	14.378
329.74	13.975
330.11	15.292
330.47	13.358
330.84	13.654
331.20	16.445
331.56	13.333
331.93	15.890
332.29	15.765
332.66	14.842
333.02	14.777
333.38	13.841
333.75	15.110
334.11	14.772
334.48	16.319
334.84	15.842
335.20	16.194
335.57	14.959
335.93	15.357
336.29	16.114
336.66	14.623
337.02	14.870
337.38	15.926
337.75	15.636
338.11	15.780
338.47	14.872
338.84	16.174
339.20	16.088
339.56	16.422
339.93	16.294
340.29	15.963
340.65	16.129
341.02	16.046
341.38	15.575
341.74	14.841
342.11	14.818
342.47	15.569
342.83	17.042
343.20	15.157
343.56	16.957
343.92	17.006
344.28	16.909
344.65	15.889
345.01	15.471
345.37	15.307
345.73	15.900
346.10	15.444
346.46	15.980
346.82	15.548
347.19	14.214
347.55	16.291
347.91	16.424
348.27	16.168
348.63	16.099
349.00	15.176
349.36	15.877
349.72	16.169
350.08	15.820
350.45	16.042
350.81	14.701
351.17	15.635
351.53	16.898
351.89	14.699
352.26	15.440
352.62	15.403
352.98	15.823
353.34	14.493
353.70	16.100
354.07	15.403
354.43	15.853
354.79	16.020
355.15	16.587
355.51	16.218
355.87	16.828
356.24	15.090
356.60	15.926
356.96	15.714
357.32	15.176
357.68	15.168
358.04	15.913
358.40	14.871
358.77	16.268
359.13	16.093
359.49	15.485
359.85	17.161
360.21	16.667
360.57	16.297
360.93	16.036
361.29	13.973
361.66	15.204
362.02	15.985
362.38	16.299
362.74	16.578
363.10	15.500
363.46	15.789
363.82	17.581
364.18	16.384
364.54	14.338
364.90	16.057
365.26	15.866
365.62	16.277
365.98	16.276
366.35	16.824
366.71	15.965
367.07	16.328
367.43	15.313
367.79	17.032
368.15	16.080
368.51	16.096
368.87	15.865
369.23	14.874
369.59	16.618
369.95	17.522
370.31	16.691
370.67	16.791
371.03	15.161
371.39	15.828
371.75	17.070
372.11	15.977
372.47	17.234
372.83	16.466
373.19	17.404
373.55	15.957
373.91	16.559
374.27	17.009
374.63	16.439
374.99	16.879
375.35	16.435
375.71	17.762
376.07	17.065
376.42	17.347
376.78	17.919
377.14	17.400
377.50	17.463
377.86	16.867
378.22	17.167
378.58	16.410
378.94	17.202
379.30	17.530
379.66	18.119
380.02	17.167
380.38	17.468
380.74	17.056
381.09	19.141
381.45	17.615
381.81	17.520
382.17	16.751
382.53	17.801
382.89	18.330
383.25	18.917
383.61	17.988
383.97	16.635
384.32	17.636
384.68	18.142
385.04	17.892
385.40	17.984
385.76	19.686
386.12	19.599
386.48	18.838
386.83	18.136
387.19	18.254
387.55	18.256
387.91	18.337
388.27	18.193
388.62	19.194
388.98	17.741
389.34	19.238
389.70	19.329
390.06	18.062
390.42	18.847
390.77	19.228
391.13	18.474
391.49	17.788
391.85	19.233
392.20	18.770
392.56	18.945
392.92	18.967
393.28	19.163
393.64	18.318
393.99	19.122
394.35	18.912
394.71	19.349
395.07	17.913
395.42	18.761
395.78	17.459
396.14	19.042
396.50	18.833
396.85	18.802
397.21	19.048
397.57	18.621
397.92	18.394
398.28	18.678
398.64	18.373
399.00	19.131
399.35	17.494
399.71	18.380
400.07	19.045
400.42	18.054
400.78	18.555
401.14	18.935
401.49	18.582
401.85	17.611
402.21	17.229
402.57	18.125
402.92	17.691
403.28	18.484
403.63	17.276
403.99	16.837
404.35	18.738
404.70	17.381
405.06	17.274
405.42	17.651
405.77	17.199
406.13	17.346
406.49	17.644
406.84	17.359
407.20	18.182
407.55	16.613
407.91	16.979
408.27	17.782
408.62	18.154
408.98	17.560
409.34	17.906
409.69	17.054
410.05	17.549
410.40	16.790
410.76	18.154
411.11	17.375
411.47	16.042
411.83	16.698
412.18	18.082
412.54	16.604
412.89	16.749
413.25	17.389
413.60	16.770
413.96	16.135
414.31	16.829
414.67	16.998
415.03	16.977
415.38	16.841
415.74	16.873
416.09	17.309
416.45	16.813
416.80	16.259
417.16	16.851
417.51	16.855
417.87	16.623
418.22	17.293
418.58	15.452
418.93	17.116
419.29	15.237
419.64	15.813
420.00	17.695
420.35	17.194
420.71	17.436
421.06	16.513
421.42	15.625
421.77	16.936
422.12	15.380
422.48	16.513
422.83	16.821
423.19	17.494
423.54	15.814
423.90	16.078
424.25	16.935
424.61	17.687
424.96	16.841
425.31	17.678
425.67	16.901
426.02	16.726
426.38	17.408
426.73	17.373
427.09	17.848
427.44	17.059
427.79	17.266
428.15	18.143
428.50	16.596
428.85	16.585
429.21	17.148
429.56	17.790
429.92	16.744
430.27	17.043
430.62	16.309
430.98	17.675
431.33	17.192
431.68	16.641
432.04	16.937
432.39	17.912
432.74	16.597
433.10	17.069
433.45	17.443
433.80	17.353
434.16	16.343
434.51	17.312
434.86	16.609
435.22	16.826
435.57	17.093
435.92	16.647
436.28	17.591
436.63	17.228
436.98	16.802
437.34	17.181
437.69	17.710
438.04	17.037
438.39	17.104
438.75	17.608
439.10	17.204
439.45	17.955
439.81	16.391
440.16	17.340
440.51	18.030
440.86	18.912
441.22	17.477
441.57	16.611
441.92	17.524
442.27	17.627
442.63	18.790
442.98	17.404
443.33	17.418
443.68	17.135
444.03	17.486
444.39	17.905
444.74	18.339
445.09	18.764
445.44	18.291
445.79	18.360
446.15	18.227
446.50	17.471
446.85	18.385
447.20	18.144
447.55	18.694
447.91	17.936
448.26	18.896
448.61	17.847
448.96	18.072
449.31	17.746
449.66	18.118
450.02	18.311
450.37	18.139
450.72	17.411
451.07	17.025
451.42	17.603
451.77	17.420
452.12	18.182
452.47	17.193
452.83	17.256
453.18	18.469
453.53	17.952
453.88	18.276
454.23	17.824
454.58	19.144
454.93	18.879
455.28	16.952
455.63	18.537
455.98	17.980
456.34	18.072
456.69	17.916
457.04	18.778
457.39	17.801
457.74	17.533
458.09	17.010
458.44	17.496
458.79	17.535
459.14	17.620
459.49	18.149
459.84	17.315
460.19	17.597
460.54	17.910
460.89	17.557
461.24	17.205
461.59	18.230
461.94	17.736
462.29	18.275
462.64	17.807
462.99	17.942
463.34	18.498
463.69	16.860
464.04	17.191
464.39	17.768
464.74	17.362
465.09	17.530
465.44	17.715
465.79	17.460
466.14	18.016
466.49	17.424
466.84	18.382
467.19	18.023
467.54	16.986
467.89	17.562
468.24	16.910
468.59	17.714
468.94	16.762
469.29	17.443
469.64	17.703
469.99	18.080
470.34	15.768
470.68	18.046
471.03	17.481
471.38	17.190
471.73	17.577
472.08	16.825
472.43	16.846
472.78	16.175
473.13	16.803
473.48	17.980
473.83	16.625
474.17	17.163
474.52	16.975
474.87	17.030
475.22	17.084
475.57	16.770
475.92	16.895
476.27	17.229
476.61	18.113
476.96	16.397
477.31	17.469
477.66	16.236
478.01	16.901
478.36	16.394
478.70	16.911
479.05	16.813
479.40	16.587
479.75	15.693
480.10	16.641
480.45	16.750
480.79	16.717
481.14	17.213
481.49	16.453
481.84	16.699
482.19	15.809
482.53	17.026
482.88	16.086
483.23	16.363
483.58	16.179
483.92	15.924
484.27	16.500
484.62	15.957
484.97	15.630
485.31	15.535
485.66	15.261
486.01	15.518
486.36	15.323
486.70	15.874
487.05	15.814
487.40	15.719
487.75	15.549
488.09	15.358
488.44	15.887
488.79	16.137
489.13	16.426
489.48	16.075
489.83	16.099
490.17	16.135
490.52	15.612
490.87	15.086
491.22	16.094
491.56	15.939
491.91	15.583
492.26	16.286
492.60	15.739
492.95	16.380
493.30	15.633
493.64	16.454
493.99	16.280
494.34	15.049
494.68	15.810
495.03	15.474
495.37	16.340
495.72	15.649
496.07	15.854
496.41	16.038
496.76	15.200
497.11	14.951
497.45	15.800
497.80	15.843
498.14	16.145
498.49	15.439
498.84	15.419
499.18	15.161
499.53	16.419
499.87	15.126
500.22	15.579
500.56	15.935
500.91	15.713
501.26	15.472
501.60	15.642
501.95	16.157
502.29	15.593
502.64	15.251
502.98	14.751
503.33	14.553
503.67	15.325
504.02	15.054
504.36	15.438
504.71	14.848
505.06	15.048
505.40	14.569
505.75	15.670
506.09	15.155
506.44	15.503
506.78	15.357
507.13	16.184
507.47	14.935
507.82	14.530
508.16	14.791
508.51	14.900
508.85	14.966
509.19	14.316
509.54	15.013
509.88	13.862
510.23	15.277
510.57	15.126
510.92	14.286
511.26	15.276
511.61	15.292
511.95	15.342
512.30	15.022
512.64	14.747
512.98	14.149
513.33	14.885
513.67	14.952
514.02	16.076
514.36	15.600
514.70	15.676
515.05	15.100
515.39	14.876
515.74	15.210
516.08	14.465
516.42	15.312
516.77	14.862
517.11	15.312
517.46	14.482
517.80	15.793
518.14	14.819
518.49	15.144
518.83	14.581
519.17	14.251
519.52	13.618
519.86	14.046
520.20	16.039
520.55	14.071
520.89	15.056
521.23	14.883
521.58	15.205
521.92	14.744
522.26	14.769
522.61	13.766
522.95	14.901
523.29	15.248
523.64	14.740
523.98	15.100
524.32	13.853
524.66	14.853
525.01	14.416
525.35	14.776
525.69	14.007
526.04	14.484
526.38	14.786
526.72	13.669
527.06	13.165
527.41	14.578
527.75	14.477
528.09	15.083
528.43	14.585
528.78	14.125
529.12	13.548
529.46	13.775
529.80	14.630
530.15	15.050
530.49	14.882
530.83	14.569
531.17	13.566
531.51	14.843
531.86	14.480
532.20	13.779
532.54	14.364
532.88	15.332
533.22	13.777
533.57	13.827
533.91	13.316
534.25	14.518
534.59	13.278
534.93	12.838
535.27	12.754
535.62	13.286
535.96	14.286
536.30	14.776
536.64	13.646
536.98	12.683
537.32	13.585
537.66	14.937
538.01	14.056
538.35	12.760
538.69	14.381
539.03	12.850
539.37	14.065
539.71	13.565
540.05	13.714
540.39	14.127
540.73	13.738
541.07	13.950
541.42	13.441
541.76	14.246
542.10	13.352
542.44	13.482
542.78	12.526
543.12	13.187
543.46	13.839
543.80	13.949
544.14	13.485
544.48	13.191
544.82	12.509
545.16	13.798
545.50	14.152
545.84	13.669
546.18	13.404
546.52	13.987
546.86	12.653
547.20	13.448
547.54	11.873
547.88	13.451
548.22	12.821
548.56	12.665
548.90	14.286
549.24	12.741
549.58	12.906
549.92	11.651
550.26	12.894
550.60	13.829
550.94	13.219
551.28	13.138
551.62	12.692
551.96	12.707
552.30	13.304
552.64	12.482
552.98	12.729
553.32	13.338
553.66	12.554
554.00	12.482
554.34	12.260
554.68	13.348
555.02	14.286
555.36	12.341
555.69	11.502
556.03	13.205
556.37	12.954
556.71	12.491
557.05	12.901
557.39	11.673
557.73	13.118
558.07	12.443
558.41	11.103
558.75	13.484
559.08	12.924
559.42	12.222
559.76	12.090
560.10	12.538
560.44	12.509
560.78	12.797
561.12	12.200
561.45	13.001
561.79	12.675
562.13	11.994
562.47	11.367
562.81	12.248
563.15	13.188
563.48	12.306
563.82	12.903
564.16	12.117
564.50	13.108
564.84	12.450
565.17	12.274
565.51	12.295
565.85	12.963
566.19	12.069
566.52	12.064
566.86	13.175
567.20	11.955
567.54	12.105
567.88	12.127
568.21	11.595
568.55	11.250
568.89	12.423
569.23	11.603
569.56	11.384
569.90	12.424
570.24	11.202
570.57	10.982
570.91	11.607
571.25	10.819
571.59	11.056
571.92	10.726
572.26	10.900
572.60	11.132
572.93	10.825
573.27	11.223
573.61	10.919
573.95	10.868
574.28	10.885
574.62	10.781
574.96	11.094
575.29	10.803
575.63	10.391
575.97	10.518
576.30	10.543
576.64	10.358
576.98	11.248
577.31	10.347
577.65	10.826
577.98	10.693
578.32	10.928
578.66	10.552
578.99	10.178
579.33	10.417
579.67	10.320
580.00	10.532
580.34	10.199
580.67	10.534
581.01	10.543
581.35	10.336
581.68	10.372
582.02	10.185
582.35	10.325
582.69	10.323
583.02	10.318
583.36	10.622
583.70	10.903
584.03	10.815
584.37	10.898
584.70	10.769
585.04	10.259
585.37	10.000
585.71	10.392
586.04	10.262
586.38	10.189
586.72	10.789
587.05	10.687
587.39	10.735
587.72	10.607
588.06	10.324
588.39	10.424
588.73	10.470
589.06	10.894
589.40	10.785
589.73	10.843
590.07	10.989
590.40	10.952
590.73	10.914
591.07	11.535
591.40	10.508
591.74	10.724
592.07	11.132
592.41	11.440
592.74	10.793
593.08	10.304
593.41	10.675
593.75	10.435
594.08	10.642
594.41	10.590
594.75	10.840
595.08	10.443
595.42	10.011
595.75	10.627
596.09	10.633
596.42	10.748
596.75	10.391
597.09	10.979
597.42	10.840
597.75	10.811
598.09	10.457
598.42	9.928
598.76	10.425
599.09	10.537
599.42	10.459
599.76	10.647
600.09	10.181
600.42	10.121
600.76	9.844
601.09	10.267
601.42	10.184
601.76	9.925
602.09	9.983
602.42	10.447
602.76	10.017
603.09	10.299
603.42	10.075
603.76	9.315
604.09	10.409
604.42	10.321
604.76	10.770
605.09	10.238
605.42	10.068
605.75	10.377
606.09	10.064
606.42	9.716
606.75	10.476
607.09	10.945
607.42	10.191
607.75	10.391
608.08	10.018
608.42	10.644
608.75	10.361
609.08	10.563
609.41	11.015
609.75	10.131
610.08	9.286
610.41	10.193
610.74	9.556
611.07	10.388
611.41	10.535
611.74	10.448
612.07	8.940
612.40	10.558
612.73	10.113
613.07	10.686
613.40	10.722
613.73	10.017
614.06	10.796
614.39	10.039
614.72	9.748
615.06	10.670
615.39	10.262
615.72	10.065
616.05	10.670
616.38	9.117
616.71	9.969
617.05	11.056
617.38	10.685
617.71	10.314
618.04	10.540
618.37	11.349
618.70	11.023
619.03	11.111
619.36	9.768
619.69	10.311
620.03	10.811
620.36	10.873
620.69	11.278
621.02	10.780
621.35	10.788
621.68	10.884
622.01	11.833
622.34	10.694
622.67	10.726
623.00	10.796
623.33	11.052
623.66	10.247
623.99	9.758
624.32	11.179
624.65	9.549
624.99	10.760
625.32	9.174
625.65	11.155
625.98	11.120
626.31	9.975
626.64	11.179
626.97	11.867
627.30	11.296
627.63	11.698
627.96	11.321
628.29	10.731
628.62	10.029
628.95	11.022
629.28	10.081
629.61	11.167
629.94	11.632
630.26	11.462
630.59	11.550
630.92	11.692
631.25	10.872
631.58	10.793
631.91	10.307
632.24	10.436
632.57	11.023
632.90	11.507
633.23	11.176
633.56	11.461
633.89	10.727
634.22	11.358
634.55	10.801
634.88	10.473
635.20	11.282
635.53	12.000
635.86	10.403
636.19	10.479
636.52	10.332
636.85	9.057
637.18	9.811
637.51	12.075
