SpectraSuite Data File
++++++++++++++++++++++++++++++++++++
Date: Fri May 15 21:09:15 PDT 2015
User: schluterlab
Dark Spectrum Present: Yes
Reference Spectrum Present: Yes
Number of Sampled Component Spectra: 1
Spectrometers: USB2E3373
Integration Time (usec): 3000 (USB2E3373)
Spectra Averaged: 3 (USB2E3373)
Boxcar Smoothing: 0 (USB2E3373)
Correct for Electrical Dark: No (USB2E3373)
Strobe/Lamp Enabled: No (USB2E3373)
Correct for Detector Non-linearity: No (USB2E3373)
Correct for Stray Light: No (USB2E3373)
Number of Pixels in Processed Spectrum: 2048
>>>>>Begin Processed Spectral Data<<<<<
178.53	0.000
178.91	0.000
179.29	87.500
179.67	-600.000
180.04	-0.000
180.42	250.000
180.80	-800.000
181.18	133.333
181.56	150.000
181.94	-50.000
182.31	700.000
182.69	-40.000
183.07	-200.000
183.45	-360.000
183.83	183.333
184.20	-27.273
184.58	122.222
184.96	50.000
185.34	66.667
185.72	-300.000
186.09	53.846
186.47	-300.000
186.85	133.333
187.23	133.333
187.61	1000.000
187.98	-233.333
188.36	77.778
188.74	0.000
189.12	64.706
189.49	5.556
189.87	0.000
190.25	0.000
190.63	50.000
191.00	-466.667
191.38	5.263
191.76	-550.000
192.14	-125.000
192.51	50.000
192.89	-100.000
193.27	-57.143
193.65	-0.000
194.02	218.182
194.40	-30.000
194.78	-162.500
195.15	16.667
195.53	-50.000
195.91	450.000
196.29	-50.000
196.66	84.615
197.04	28.571
197.42	-11.111
197.79	-533.333
198.17	-84.615
198.55	1600.000
198.92	-433.333
199.30	-700.000
199.68	-80.000
200.05	-366.667
200.43	0.000
200.81	-133.333
201.18	-133.333
201.56	600.000
201.94	-250.000
202.31	-33.333
202.69	-260.000
203.07	200.000
203.44	-100.000
203.82	0.000
204.19	0.000
204.57	-433.333
204.95	112.500
205.32	40.000
205.70	42.857
206.08	-150.000
206.45	77.778
206.83	78.571
207.20	-128.571
207.58	900.000
207.96	-100.000
208.33	-130.000
208.71	100.000
209.08	-183.333
209.46	-100.000
209.84	-160.000
210.21	-1800.000
210.59	-157.143
210.96	-133.333
211.34	50.000
211.71	0.000
212.09	-228.571
212.46	-1700.000
212.84	0.000
213.22	20.000
213.59	600.000
213.97	23.077
214.34	0.000
214.72	-133.333
215.09	425.000
215.47	-76.923
215.84	-45.455
216.22	-233.333
216.59	-25.000
216.97	-250.000
217.34	-225.000
217.72	-280.000
218.09	25.000
218.47	137.500
218.84	-1400.000
219.22	66.667
219.59	-120.000
219.97	233.333
220.34	275.000
220.72	228.571
221.09	25.000
221.47	-250.000
221.84	-450.000
222.22	-950.000
222.59	9.091
222.97	41.667
223.34	-266.667
223.72	-50.000
224.09	-4.762
224.46	7.143
224.84	400.000
225.21	-90.000
225.59	-46.667
225.96	-350.000
226.34	700.000
226.71	-128.571
227.08	-216.667
227.46	25.000
227.83	-150.000
228.21	33.333
228.58	-9.091
228.95	-25.000
229.33	90.000
229.70	43.750
230.08	-62.500
230.45	-114.286
230.82	-114.286
231.20	-60.000
231.57	64.286
231.95	-157.143
232.32	-120.000
232.69	35.714
233.07	66.667
233.44	-260.000
233.81	-100.000
234.19	-55.556
234.56	-47.059
234.93	400.000
235.31	50.000
235.68	-240.000
236.05	-84.615
236.43	0.000
236.80	11.765
237.17	3.125
237.55	25.000
237.92	18.519
238.29	19.444
238.67	3.333
239.04	0.000
239.41	24.390
239.79	-3.333
240.16	39.024
240.53	2.632
240.91	8.696
241.28	11.111
241.65	28.571
242.02	26.027
242.40	20.000
242.77	15.254
243.14	10.606
243.51	23.750
243.89	32.184
244.26	13.793
244.63	34.524
245.00	18.557
245.38	32.990
245.75	22.472
246.12	10.345
246.49	23.140
246.87	20.192
247.24	16.807
247.61	12.281
247.98	17.073
248.36	20.000
248.73	21.053
249.10	18.831
249.47	24.684
249.84	20.915
250.22	25.882
250.59	28.105
250.96	27.700
251.33	23.256
251.70	26.471
252.08	22.335
252.45	25.743
252.82	20.101
253.19	23.963
253.56	25.234
253.94	27.477
254.31	21.304
254.68	29.825
255.05	27.165
255.42	27.948
255.79	26.255
256.16	25.292
256.54	26.493
256.91	22.814
257.28	21.190
257.65	26.966
258.02	22.340
258.39	31.313
258.76	26.007
259.14	25.249
259.51	26.214
259.88	24.742
260.25	25.490
260.62	27.431
260.99	23.729
261.36	24.315
261.73	23.734
262.10	25.836
262.47	22.086
262.85	23.197
263.22	25.538
263.59	26.791
263.96	25.466
264.33	25.758
264.70	22.321
265.07	25.298
265.44	28.895
265.81	23.446
266.18	24.317
266.55	26.478
266.92	25.648
267.29	26.371
267.66	23.529
268.03	25.916
268.40	26.110
268.77	27.540
269.14	27.338
269.51	25.193
269.88	25.187
270.25	24.745
270.62	24.390
270.99	26.343
271.36	23.227
271.73	28.169
272.10	25.061
272.47	23.168
272.84	23.762
273.21	27.378
273.58	25.301
273.95	25.629
274.32	24.249
274.69	25.566
275.06	25.223
275.43	28.345
275.80	23.620
276.17	23.218
276.54	21.627
276.91	26.535
277.28	24.454
277.65	23.967
278.02	23.617
278.39	24.070
278.76	25.786
279.13	20.747
279.50	24.790
279.87	24.190
280.23	21.290
280.60	25.341
280.97	25.253
281.34	22.115
281.71	26.283
282.08	25.153
282.45	23.875
282.82	24.324
283.19	23.017
283.56	21.773
283.92	23.909
284.29	24.423
284.66	23.256
285.03	22.397
285.40	23.629
285.77	22.144
286.14	23.466
286.51	25.461
286.87	23.583
287.24	23.573
287.61	23.457
287.98	23.509
288.35	23.917
288.72	23.117
289.08	23.090
289.45	22.496
289.82	22.902
290.19	20.307
290.56	20.240
290.93	21.717
291.29	19.723
291.66	20.472
292.03	21.212
292.40	19.677
292.77	19.458
293.13	19.643
293.50	19.120
293.87	19.389
294.24	19.629
294.60	20.715
294.97	20.089
295.34	19.632
295.71	20.715
296.08	19.880
296.44	16.501
296.81	18.194
297.18	18.841
297.55	20.461
297.91	17.534
298.28	18.074
298.65	17.503
299.02	18.194
299.38	15.732
299.75	17.379
300.12	17.670
300.48	17.655
300.85	19.011
301.22	18.831
301.59	18.816
301.95	16.709
302.32	18.029
302.69	18.408
303.05	17.203
303.42	16.687
303.79	16.472
304.15	18.399
304.52	16.290
304.89	16.023
305.25	16.949
305.62	14.819
305.99	15.556
306.35	16.185
306.72	15.748
307.09	17.902
307.45	15.959
307.82	15.278
308.19	15.912
308.55	15.812
308.92	15.142
309.29	16.201
309.65	15.393
310.02	15.952
310.38	16.026
310.75	16.393
311.12	17.761
311.48	15.270
311.85	16.335
312.22	14.241
312.58	15.393
312.95	14.408
313.31	16.253
313.68	15.916
314.05	15.204
314.41	15.052
314.78	15.052
315.14	15.930
315.51	15.839
315.87	14.754
316.24	17.796
316.61	16.240
316.97	16.567
317.34	16.406
317.70	15.105
318.07	15.385
318.43	15.686
318.80	14.773
319.16	16.309
319.53	16.999
319.89	14.862
320.26	15.385
320.62	15.647
320.99	14.614
321.35	15.930
321.72	16.407
322.08	16.314
322.45	16.244
322.81	16.503
323.18	16.094
323.54	15.637
323.91	15.093
324.27	16.016
324.64	16.105
325.00	17.245
325.37	17.080
325.73	14.506
326.10	15.895
326.46	16.861
326.83	17.235
327.19	17.175
327.56	16.334
327.92	15.845
328.29	15.357
328.65	16.792
329.01	16.912
329.38	17.051
329.74	15.581
330.11	16.682
330.47	15.677
330.84	17.019
331.20	17.015
331.56	15.741
331.93	15.799
332.29	16.774
332.66	16.109
333.02	16.171
333.38	15.674
333.75	17.308
334.11	14.861
334.48	17.770
334.84	16.026
335.20	15.279
335.57	16.772
335.93	17.164
336.29	14.641
336.66	15.895
337.02	15.056
337.38	15.370
337.75	16.727
338.11	16.411
338.47	16.697
338.84	16.266
339.20	15.722
339.56	15.596
339.93	16.025
340.29	16.881
340.65	16.487
341.02	16.755
341.38	14.779
341.74	15.194
342.11	15.771
342.47	15.302
342.83	16.436
343.20	15.505
343.56	15.652
343.92	16.475
344.28	16.140
344.65	15.458
345.01	14.520
345.37	15.307
345.73	16.402
346.10	16.221
346.46	16.232
346.82	15.794
347.19	14.713
347.55	15.789
347.91	15.696
348.27	15.926
348.63	15.843
349.00	14.356
349.36	15.960
349.72	15.340
350.08	15.820
350.45	15.084
350.81	14.535
351.17	15.147
351.53	16.163
351.89	14.946
352.26	14.400
352.62	16.774
352.98	14.217
353.34	14.976
353.70	16.100
354.07	15.161
354.43	15.292
354.79	14.368
355.15	15.079
355.51	14.953
355.87	15.453
356.24	14.356
356.60	14.632
356.96	16.270
357.32	15.256
357.68	13.604
358.04	14.136
358.40	14.228
358.77	15.311
359.13	13.611
359.49	14.407
359.85	14.509
360.21	14.833
360.57	14.155
360.93	14.297
361.29	13.746
361.66	15.361
362.02	15.076
362.38	15.232
362.74	14.989
363.10	14.823
363.46	15.196
363.82	15.853
364.18	14.834
364.54	14.926
364.90	15.125
365.26	13.683
365.62	14.891
365.98	13.856
366.35	16.096
366.71	15.078
367.07	14.949
367.43	14.522
367.79	14.346
368.15	14.429
368.51	14.931
368.87	13.711
369.23	13.718
369.59	14.140
369.95	14.663
370.31	14.740
370.67	14.403
371.03	14.264
371.39	14.515
371.75	14.066
372.11	14.765
372.47	13.905
372.83	14.762
373.19	14.479
373.55	14.729
373.91	14.903
374.27	14.741
374.63	14.214
374.99	13.546
375.35	12.744
375.71	14.685
376.07	13.343
376.42	14.218
376.78	14.027
377.14	13.676
377.50	13.878
377.86	14.190
378.22	14.167
378.58	14.167
378.94	14.241
379.30	14.036
379.66	15.361
380.02	13.611
380.38	13.755
380.74	14.363
381.09	14.785
381.45	15.046
381.81	14.065
382.17	14.277
382.53	13.616
382.89	13.057
383.25	14.624
383.61	13.598
383.97	12.698
384.32	13.696
384.68	14.118
385.04	13.542
385.40	13.317
385.76	14.843
386.12	14.424
386.48	14.368
386.83	13.507
387.19	13.431
387.55	14.429
387.91	13.692
388.27	13.614
388.62	13.971
388.98	13.628
389.34	14.054
389.70	13.238
390.06	13.908
390.42	13.536
390.77	13.277
391.13	12.610
391.49	14.036
391.85	13.970
392.20	12.932
392.56	14.113
392.92	14.093
393.28	14.151
393.64	13.393
393.99	14.984
394.35	13.599
394.71	14.112
395.07	13.891
395.42	13.661
395.78	13.811
396.14	13.934
396.50	14.268
396.85	13.844
397.21	13.033
397.57	14.169
397.92	13.361
398.28	13.448
398.64	13.313
399.00	14.334
399.35	13.318
399.71	14.302
400.07	13.906
400.42	14.076
400.78	14.329
401.14	14.035
401.49	14.592
401.85	13.467
402.21	14.337
402.57	14.438
402.92	13.363
403.28	14.286
403.63	13.493
403.99	13.967
404.35	13.804
404.70	13.452
405.06	14.689
405.42	13.797
405.77	13.306
406.13	13.562
406.49	13.262
406.84	13.753
407.20	14.389
407.55	13.780
407.91	13.369
408.27	14.022
408.62	13.908
408.98	14.356
409.34	14.808
409.69	13.566
410.05	14.101
410.40	14.074
410.76	14.897
411.11	13.625
411.47	14.596
411.83	13.308
412.18	12.999
412.54	13.983
412.89	13.547
413.25	13.839
413.60	13.602
413.96	13.374
414.31	14.634
414.67	13.470
415.03	13.848
415.38	13.838
415.74	14.332
416.09	13.847
416.45	14.382
416.80	14.144
417.16	13.052
417.51	14.390
417.87	13.755
418.22	14.054
418.58	14.916
418.93	14.984
419.29	13.124
419.64	13.351
420.00	14.421
420.35	13.612
420.71	14.399
421.06	13.812
421.42	14.363
421.77	14.740
422.12	13.734
422.48	14.131
422.83	13.631
423.19	13.713
423.54	13.933
423.90	14.075
424.25	14.753
424.61	14.565
424.96	14.344
425.31	14.962
425.67	14.495
426.02	15.135
426.38	13.713
426.73	14.346
427.09	14.430
427.44	15.118
427.79	13.671
428.15	14.078
428.50	14.658
428.85	13.943
429.21	15.054
429.56	14.879
429.92	14.484
430.27	14.937
430.62	14.114
430.98	14.703
431.33	14.774
431.68	14.443
432.04	14.254
432.39	13.919
432.74	14.732
433.10	15.057
433.45	14.277
433.80	14.742
434.16	14.017
434.51	14.140
434.86	15.041
435.22	15.143
435.57	14.161
435.92	14.192
436.28	13.953
436.63	14.261
436.98	13.963
437.34	14.519
437.69	14.848
438.04	14.359
438.39	13.928
438.75	14.390
439.10	13.639
439.45	15.033
439.81	13.823
440.16	14.727
440.51	14.866
440.86	15.770
441.22	14.649
441.57	14.570
441.92	15.005
442.27	14.523
442.63	15.525
442.98	14.934
443.33	14.802
443.68	14.589
444.03	15.002
444.39	15.199
444.74	15.217
445.09	15.590
445.44	15.214
445.79	14.698
446.15	15.474
446.50	13.699
446.85	15.515
447.20	14.911
447.55	15.569
447.91	14.946
448.26	15.993
448.61	15.314
448.96	15.663
449.31	14.913
449.66	14.866
450.02	15.117
450.37	15.116
450.72	14.719
451.07	15.380
451.42	15.418
451.77	15.552
452.12	15.311
452.47	14.681
452.83	15.489
453.18	15.244
453.53	15.992
453.88	15.786
454.23	16.226
454.58	15.617
454.93	15.206
455.28	14.476
455.63	15.747
455.98	15.274
456.34	16.220
456.69	15.311
457.04	16.005
457.39	15.614
457.74	15.417
458.09	15.362
458.44	15.857
458.79	14.958
459.14	16.362
459.49	15.522
459.84	15.849
460.19	14.745
460.54	16.137
460.89	16.023
461.24	15.652
461.59	15.439
461.94	15.849
462.29	15.501
462.64	15.748
462.99	15.030
463.34	15.369
463.69	14.672
464.04	15.860
464.39	15.282
464.74	15.460
465.09	16.594
465.44	14.830
465.79	15.476
466.14	15.507
466.49	15.584
466.84	16.002
467.19	15.895
467.54	15.517
467.89	15.414
468.24	15.268
468.59	16.000
468.94	15.111
469.29	15.869
469.64	16.063
469.99	15.767
470.34	14.608
470.68	16.629
471.03	16.561
471.38	14.907
471.73	15.756
472.08	16.486
472.43	15.638
472.78	15.010
473.13	16.735
473.48	16.221
473.83	15.567
474.17	15.868
474.52	16.146
474.87	16.242
475.22	15.436
475.57	16.036
475.92	16.347
476.27	15.134
476.61	16.146
476.96	16.174
477.31	15.738
477.66	16.180
478.01	16.339
478.36	16.394
478.70	16.476
479.05	16.044
479.40	16.322
479.75	15.276
480.10	16.385
480.45	15.700
480.79	16.415
481.14	16.137
481.49	15.961
481.84	15.975
482.19	16.277
482.53	16.547
482.88	16.563
483.23	16.075
483.58	16.321
483.92	16.312
484.27	16.682
484.62	15.688
484.97	16.045
485.31	15.535
485.66	15.126
486.01	15.577
486.36	15.657
486.70	15.892
487.05	15.591
487.40	15.357
487.75	16.169
488.09	15.080
488.44	16.403
488.79	16.063
489.13	15.986
489.48	16.075
489.83	16.368
490.17	15.685
490.52	16.166
490.87	15.965
491.22	16.380
491.56	15.939
491.91	15.822
492.26	16.189
492.60	16.507
492.95	16.478
493.30	15.291
493.64	16.306
493.99	16.473
494.34	15.437
494.68	17.095
495.03	16.058
495.37	16.340
495.72	16.456
496.07	16.439
496.41	16.321
496.76	17.135
497.11	15.557
497.45	15.847
497.80	16.902
498.14	15.400
498.49	16.252
498.84	16.617
499.18	16.064
499.53	16.667
499.87	16.002
500.22	15.925
500.56	16.843
500.91	16.265
501.26	16.609
501.60	16.970
501.95	16.934
502.29	15.835
502.64	16.409
502.98	16.379
503.33	16.523
503.67	16.723
504.02	16.080
504.36	16.873
504.71	16.162
505.06	16.709
505.40	16.294
505.75	16.649
506.09	16.624
506.44	16.889
506.78	16.990
507.13	17.477
507.47	16.867
507.82	15.919
508.16	16.640
508.51	16.632
508.85	17.216
509.19	15.913
509.54	16.461
509.88	16.828
510.23	17.590
510.57	17.263
510.92	15.832
511.26	16.421
511.61	16.942
511.95	16.329
512.30	16.851
512.64	17.919
512.98	15.778
513.33	17.571
513.67	16.430
514.02	18.021
514.36	18.629
514.70	18.124
515.05	17.391
515.39	16.824
515.74	18.204
516.08	17.215
516.42	17.786
516.77	17.554
517.11	17.685
517.46	18.432
517.80	18.236
518.14	16.901
518.49	17.127
518.83	17.497
519.17	17.041
519.52	17.880
519.86	17.107
520.20	18.165
520.55	17.261
520.89	17.754
521.23	17.669
521.58	17.855
521.92	17.885
522.26	17.437
522.61	17.922
522.95	18.742
523.29	17.662
523.64	17.598
523.98	18.146
524.32	17.332
524.66	18.054
525.01	19.156
525.35	17.952
525.69	17.239
526.04	17.063
526.38	18.936
526.72	16.612
527.06	16.861
527.41	17.810
527.75	17.158
528.09	18.339
528.43	18.771
528.78	17.690
529.12	18.710
529.46	17.414
529.80	17.986
530.15	18.350
530.49	18.182
530.83	18.126
531.17	17.461
531.51	18.810
531.86	17.811
532.20	17.537
532.54	18.652
532.88	18.617
533.22	18.750
533.57	18.807
533.91	17.950
534.25	18.945
534.59	18.987
534.93	17.369
535.27	16.751
535.62	17.758
535.96	18.917
536.30	18.206
536.64	18.194
536.98	17.422
537.32	17.994
537.66	19.355
538.01	19.161
538.35	18.031
538.69	18.242
539.03	17.293
539.37	17.699
539.71	17.655
540.05	17.855
540.39	18.698
540.73	17.364
541.07	18.715
541.42	18.616
541.76	18.376
542.10	17.963
542.44	19.180
542.78	17.343
543.12	17.582
543.46	18.289
543.80	17.835
544.14	17.023
544.48	18.654
544.82	17.977
545.16	18.238
545.50	18.692
545.84	18.484
546.18	18.652
546.52	19.178
546.86	17.973
547.20	18.598
547.54	17.597
547.88	17.799
548.22	17.357
548.56	17.942
548.90	18.329
549.24	17.837
549.58	18.054
549.92	17.227
550.26	18.608
550.60	20.000
550.94	18.745
551.28	17.774
551.62	18.769
551.96	19.173
552.30	18.713
552.64	18.406
552.98	18.565
553.32	18.117
553.66	18.650
554.00	18.613
554.34	18.464
554.68	17.699
555.02	19.494
555.36	18.025
555.69	17.582
556.03	17.987
556.37	19.004
556.71	18.845
557.05	18.941
557.39	17.770
557.73	18.816
558.07	18.627
558.41	18.224
558.75	18.784
559.08	17.652
559.42	19.206
559.76	19.295
560.10	18.731
560.44	18.317
560.78	18.182
561.12	18.618
561.45	18.482
561.79	16.737
562.13	18.879
562.47	17.914
562.81	18.732
563.15	19.252
563.48	18.529
563.82	18.806
564.16	17.479
564.50	17.905
564.84	18.942
565.17	18.243
565.51	18.921
565.85	19.273
566.19	17.971
566.52	19.236
566.86	19.216
567.20	17.621
567.54	17.883
567.88	18.219
568.21	19.344
568.55	17.880
568.89	18.326
569.23	17.622
569.56	17.776
569.90	18.067
570.24	17.566
570.57	17.236
570.91	17.707
571.25	16.705
571.59	17.253
571.92	16.415
572.26	16.576
572.60	17.023
572.93	17.069
573.27	17.085
573.61	17.303
573.95	16.931
574.28	16.684
574.62	16.552
574.96	16.255
575.29	16.784
575.63	16.118
575.97	16.644
576.30	16.475
576.64	16.265
576.98	16.731
577.31	16.761
577.65	16.330
577.98	16.885
578.32	16.246
578.66	16.054
578.99	16.472
579.33	15.988
579.67	16.604
580.00	16.608
580.34	16.542
580.67	16.271
581.01	16.451
581.35	16.839
581.68	15.981
582.02	16.113
582.35	16.193
582.69	16.362
583.02	16.321
583.36	16.513
583.70	16.952
584.03	16.736
584.37	17.532
584.70	16.896
585.04	16.399
585.37	16.781
585.71	16.440
586.04	16.793
586.38	16.244
586.72	17.217
587.05	16.840
587.39	16.802
587.72	17.195
588.06	16.939
588.39	17.032
588.73	16.758
589.06	17.384
589.40	17.387
589.73	17.160
590.07	17.296
590.40	16.834
590.73	17.010
591.07	17.303
591.40	17.631
591.74	17.873
592.07	17.625
592.41	18.110
592.74	17.164
593.08	17.080
593.41	17.100
593.75	16.454
594.08	16.752
594.41	16.885
594.75	16.832
595.08	17.821
595.42	17.593
595.75	17.499
596.09	17.084
596.42	17.611
596.75	17.496
597.09	18.132
597.42	17.209
597.75	17.270
598.09	17.565
598.42	16.697
598.76	16.903
599.09	17.228
599.42	16.673
599.76	16.554
600.09	16.817
600.42	16.907
600.76	16.642
601.09	16.145
601.42	16.451
601.76	17.308
602.09	17.244
602.42	18.324
602.76	17.190
603.09	17.816
603.42	17.475
603.76	16.815
604.09	17.173
604.42	17.640
604.76	17.802
605.09	17.322
605.42	17.201
605.75	17.119
606.09	17.197
606.42	17.264
606.75	17.143
607.09	17.714
607.42	17.014
607.75	17.229
608.08	16.801
608.42	17.040
608.75	17.928
609.08	16.941
609.41	18.071
609.75	17.389
610.08	17.374
610.41	16.763
610.74	17.650
611.07	17.416
611.41	17.696
611.74	17.857
612.07	17.131
612.40	18.381
612.73	17.571
613.07	17.548
613.40	17.505
613.73	17.851
614.06	17.807
614.39	17.597
614.72	17.143
615.06	18.436
615.39	17.303
615.72	17.384
616.05	17.933
616.38	16.923
616.71	18.838
617.05	18.715
617.38	17.976
617.71	17.862
618.04	18.349
618.37	18.474
618.70	18.548
619.03	19.444
619.36	18.307
619.69	19.181
620.03	19.065
620.36	17.954
620.69	18.415
621.02	18.731
621.35	20.000
621.68	18.622
622.01	19.667
622.34	18.835
622.67	19.243
623.00	18.683
623.33	19.665
623.66	18.923
623.99	18.306
624.32	18.783
624.65	17.368
624.99	18.585
625.32	18.726
625.65	20.738
625.98	19.017
626.31	19.368
626.64	20.104
626.97	19.459
627.30	19.089
627.63	19.411
627.96	20.305
628.29	19.334
628.62	19.272
628.95	19.038
629.28	19.960
629.61	19.342
629.94	19.844
630.26	19.763
630.59	20.604
630.92	20.615
631.25	19.897
631.58	19.824
631.91	19.627
632.24	20.528
632.57	20.795
632.90	19.810
633.23	20.588
