SpectraSuite Data File
++++++++++++++++++++++++++++++++++++
Date: Fri May 15 20:35:34 PDT 2015
User: schluterlab
Dark Spectrum Present: Yes
Reference Spectrum Present: Yes
Number of Sampled Component Spectra: 1
Spectrometers: USB2E3373
Integration Time (usec): 3000 (USB2E3373)
Spectra Averaged: 3 (USB2E3373)
Boxcar Smoothing: 0 (USB2E3373)
Correct for Electrical Dark: No (USB2E3373)
Strobe/Lamp Enabled: No (USB2E3373)
Correct for Detector Non-linearity: No (USB2E3373)
Correct for Stray Light: No (USB2E3373)
Number of Pixels in Processed Spectrum: 2048
>>>>>Begin Processed Spectral Data<<<<<
178.53	0.000
178.91	0.000
179.29	112.500
179.67	-600.000
180.04	28.571
180.42	-75.000
180.80	-500.000
181.18	266.667
181.56	50.000
181.94	50.000
182.31	1000.000
182.69	-140.000
183.07	-33.333
183.45	-300.000
183.83	33.333
184.20	0.000
184.58	188.889
184.96	125.000
185.34	-33.333
185.72	-250.000
186.09	46.154
186.47	-1000.000
186.85	283.333
187.23	166.667
187.61	-400.000
187.98	-300.000
188.36	-88.889
188.74	-433.333
189.12	5.882
189.49	27.778
189.87	0.000
190.25	-21.429
190.63	-250.000
191.00	-266.667
191.38	15.789
191.76	250.000
192.14	275.000
192.51	-50.000
192.89	-33.333
193.27	-114.286
193.65	200.000
194.02	136.364
194.40	20.000
194.78	-150.000
195.15	-41.667
195.53	-125.000
195.91	250.000
196.29	-50.000
196.66	138.462
197.04	200.000
197.42	-33.333
197.79	-366.667
198.17	-100.000
198.55	1700.000
198.92	-333.333
199.30	-200.000
199.68	-220.000
200.05	-300.000
200.43	0.000
200.81	33.333
201.18	-433.333
201.56	1500.000
201.94	-750.000
202.31	33.333
202.69	-240.000
203.07	275.000
203.44	1100.000
203.82	0.000
204.19	14.286
204.57	-700.000
204.95	112.500
205.32	20.000
205.70	-57.143
206.08	-175.000
206.45	177.778
206.83	85.714
207.20	-214.286
207.58	700.000
207.96	-366.667
208.33	-90.000
208.71	-75.000
209.08	-200.000
209.46	-300.000
209.84	-140.000
210.21	-1800.000
210.59	-114.286
210.96	16.667
211.34	50.000
211.71	46.667
212.09	-228.571
212.46	-1900.000
212.84	0.000
213.22	-10.000
213.59	600.000
213.97	15.385
214.34	-18.182
214.72	-116.667
215.09	275.000
215.47	-92.308
215.84	9.091
216.22	-233.333
216.59	-200.000
216.97	-200.000
217.34	-175.000
217.72	-220.000
218.09	12.500
218.47	212.500
218.84	-300.000
219.22	-77.778
219.59	140.000
219.97	100.000
220.34	225.000
220.72	-28.571
221.09	-50.000
221.47	-600.000
221.84	-550.000
222.22	-450.000
222.59	109.091
222.97	-25.000
223.34	-33.333
223.72	-42.857
224.09	0.000
224.46	21.429
224.84	533.333
225.21	-70.000
225.59	40.000
225.96	-300.000
226.34	225.000
226.71	-157.143
227.08	-216.667
227.46	37.500
227.83	-450.000
228.21	-100.000
228.58	-63.636
228.95	-75.000
229.33	120.000
229.70	6.250
230.08	-237.500
230.45	-28.571
230.82	85.714
231.20	-40.000
231.57	-7.143
231.95	-28.571
232.32	-120.000
232.69	7.143
233.07	-500.000
233.44	80.000
233.81	-60.000
234.19	77.778
234.56	-64.706
234.93	550.000
235.31	-25.000
235.68	-420.000
236.05	-69.231
236.43	-60.000
236.80	-41.176
237.17	-9.375
237.55	-30.000
237.92	-18.519
238.29	8.333
238.67	-33.333
239.04	0.000
239.41	-7.317
239.79	-36.667
240.16	-12.195
240.53	5.263
240.91	0.000
241.28	0.000
241.65	21.429
242.02	16.438
242.40	6.667
242.77	13.559
243.14	-7.576
243.51	10.000
243.89	17.241
244.26	-10.345
244.63	7.143
245.00	2.062
245.38	13.402
245.75	-11.236
246.12	3.448
246.49	11.570
246.87	7.692
247.24	2.521
247.61	0.877
247.98	8.943
248.36	12.500
248.73	5.921
249.10	8.442
249.47	11.392
249.84	8.497
250.22	10.588
250.59	12.418
250.96	7.042
251.33	7.558
251.70	13.529
252.08	10.152
252.45	8.911
252.82	12.060
253.19	11.521
253.56	10.748
253.94	7.207
254.31	13.913
254.68	5.702
255.05	14.567
255.42	8.297
255.79	11.197
256.16	9.339
256.54	10.075
256.91	9.506
257.28	8.922
257.65	8.614
258.02	10.993
258.39	11.448
258.76	13.553
259.14	11.960
259.51	11.650
259.88	6.186
260.25	10.131
260.62	9.028
260.99	8.475
261.36	9.589
261.73	10.127
262.10	8.511
262.47	7.975
262.85	9.718
263.22	11.077
263.59	6.854
263.96	13.975
264.33	10.000
264.70	12.202
265.07	10.714
265.44	13.314
265.81	11.299
266.18	7.650
266.55	12.853
266.92	13.731
267.29	11.488
267.66	9.207
268.03	9.686
268.40	11.749
268.77	11.765
269.14	13.669
269.51	12.853
269.88	9.476
270.25	9.694
270.62	9.756
270.99	11.253
271.36	12.225
271.73	11.033
272.10	8.273
272.47	10.875
272.84	12.376
273.21	10.673
273.58	10.602
273.95	8.924
274.32	9.700
274.69	9.729
275.06	12.054
275.43	9.751
275.80	9.934
276.17	11.954
276.54	9.850
276.91	13.816
277.28	10.480
277.65	11.983
278.02	11.064
278.39	8.972
278.76	11.321
279.13	6.639
279.50	12.605
279.87	10.367
280.23	7.742
280.60	10.721
280.97	13.535
281.34	10.769
281.71	12.320
282.08	11.043
282.45	10.763
282.82	10.425
283.19	10.638
283.56	8.863
283.92	7.021
284.29	8.269
284.66	10.271
285.03	9.430
285.40	11.531
285.77	9.666
286.14	10.469
286.51	14.207
286.87	9.689
287.24	9.761
287.61	9.877
287.98	11.228
288.35	9.185
288.72	11.909
289.08	10.417
289.45	12.654
289.82	10.490
290.19	8.874
290.56	8.405
290.93	9.091
291.29	9.399
291.66	9.134
292.03	10.845
292.40	8.871
292.77	9.250
293.13	8.117
293.50	8.801
293.87	8.550
294.24	9.737
294.60	9.091
294.97	10.119
295.34	9.202
295.71	9.091
296.08	9.417
296.44	8.677
296.81	9.306
297.18	8.406
297.55	8.943
297.91	8.082
298.28	8.707
298.65	8.955
299.02	7.412
299.38	7.524
299.75	6.483
300.12	7.461
300.48	8.959
300.85	8.619
301.22	9.091
301.59	7.500
301.95	8.228
302.32	9.209
302.69	8.458
303.05	7.673
303.42	6.476
303.79	10.164
304.15	9.438
304.52	7.015
304.89	8.070
305.25	8.475
305.62	6.768
305.99	7.602
306.35	6.358
306.72	7.087
307.09	8.666
307.45	6.774
307.82	8.449
308.19	7.549
308.55	7.743
308.92	9.477
309.29	7.151
309.65	7.320
310.02	9.131
310.38	8.782
310.75	8.852
311.12	8.396
311.48	8.059
311.85	8.063
312.22	8.122
312.58	8.493
312.95	8.324
313.31	8.696
313.68	7.644
314.05	8.673
314.41	9.588
314.78	9.897
315.14	10.072
315.51	10.559
315.87	8.914
316.24	12.437
316.61	10.630
316.97	11.409
317.34	11.230
317.70	11.855
318.07	11.442
318.43	12.941
318.80	12.973
319.16	13.281
319.53	14.150
319.89	14.272
320.26	15.182
320.62	14.845
320.99	14.405
321.35	15.827
321.72	16.511
322.08	17.019
322.45	17.462
322.81	16.405
323.18	17.566
323.54	18.533
323.91	18.987
324.27	21.289
324.64	22.004
325.00	23.814
325.37	24.242
325.73	22.847
326.10	24.432
326.46	24.753
326.83	26.159
327.19	24.586
327.56	27.802
327.92	27.817
328.29	27.679
328.65	29.623
329.01	30.147
329.38	29.954
329.74	29.745
330.11	31.047
330.47	30.705
330.84	30.769
331.20	33.460
331.56	32.685
331.93	34.795
332.29	34.280
332.66	34.027
333.02	33.829
333.38	34.739
333.75	35.348
334.11	34.199
334.48	36.627
334.84	35.806
335.20	35.590
335.57	36.537
335.93	37.037
336.29	37.753
336.66	35.967
337.02	36.059
337.38	37.778
337.75	37.636
338.11	37.060
338.47	37.591
338.84	40.203
339.20	37.112
339.56	38.349
339.93	38.675
340.29	40.275
340.65	38.620
341.02	39.007
341.38	37.168
341.74	38.428
342.11	38.215
342.47	39.235
342.83	38.668
343.20	38.589
343.56	39.565
343.92	39.238
344.28	40.051
344.65	38.256
345.01	39.067
345.37	38.015
345.73	39.916
346.10	39.603
346.46	38.520
346.82	39.116
347.19	39.152
347.55	40.017
347.91	40.210
348.27	40.582
348.63	41.227
349.00	39.459
349.36	39.734
349.72	42.206
350.08	40.820
350.45	40.782
350.81	40.365
351.17	38.599
351.53	39.347
351.89	38.646
352.26	39.520
352.62	41.129
352.98	39.679
353.34	39.372
353.70	40.129
354.07	39.597
354.43	39.231
354.79	39.967
355.15	40.873
355.51	39.794
355.87	39.725
356.24	40.620
356.60	41.552
356.96	41.587
357.32	39.137
357.68	40.891
358.04	40.468
358.40	40.595
358.77	40.191
359.13	40.592
359.49	39.599
359.85	40.016
360.21	40.590
360.57	41.316
360.93	40.847
361.29	39.275
361.66	41.144
362.02	42.424
362.38	40.899
362.74	40.273
363.10	41.460
363.46	40.549
363.82	40.796
364.18	40.295
364.54	40.147
364.90	39.928
365.26	40.539
365.62	41.168
365.98	40.029
366.35	41.369
366.71	40.650
367.07	41.364
367.43	40.474
367.79	40.071
368.15	41.637
368.51	41.005
368.87	39.770
369.23	39.928
369.59	41.472
369.95	40.249
370.31	40.679
370.67	40.075
371.03	38.984
371.39	41.357
371.75	40.513
372.11	39.800
372.47	41.198
372.83	41.377
373.19	41.512
373.55	40.000
373.91	40.821
374.27	41.176
374.63	41.134
374.99	40.496
375.35	40.181
375.71	41.119
376.07	41.152
376.42	40.000
376.78	40.671
377.14	40.826
377.50	40.106
377.86	40.763
378.22	41.098
378.58	41.090
378.94	40.454
379.30	39.800
379.66	41.066
380.02	41.202
380.38	40.292
380.74	40.036
381.09	40.859
381.45	39.572
381.81	39.790
382.17	39.404
382.53	41.099
382.89	41.494
383.25	40.884
383.61	40.610
383.97	39.937
384.32	39.962
384.68	40.310
385.04	38.971
385.40	39.764
385.76	40.503
386.12	39.651
386.48	40.485
386.83	39.505
387.19	39.805
387.55	40.339
387.91	40.159
388.27	39.438
388.62	40.592
388.98	39.779
389.34	39.913
389.70	40.336
390.06	38.515
390.42	40.285
390.77	39.568
391.13	39.029
391.49	40.103
391.85	40.221
392.20	39.611
392.56	38.843
392.92	38.873
393.28	39.564
393.64	39.760
393.99	39.749
394.35	39.279
394.71	39.655
395.07	38.718
395.42	39.284
395.78	39.283
396.14	39.218
396.50	40.013
396.85	39.214
397.21	37.782
397.57	38.245
397.92	38.226
398.28	39.195
398.64	38.133
399.00	38.262
399.35	38.205
399.71	38.599
400.07	38.936
400.42	37.944
400.78	37.906
401.14	39.080
401.49	39.190
401.85	38.330
402.21	38.554
402.57	39.438
402.92	37.390
403.28	38.033
403.63	37.957
403.99	37.819
404.35	39.163
404.70	37.500
405.06	37.368
405.42	37.228
405.77	37.536
406.13	37.369
406.49	37.419
406.84	37.469
407.20	38.049
407.55	37.476
407.91	37.968
408.27	38.113
408.62	37.354
408.98	37.277
409.34	37.546
409.69	36.563
410.05	36.392
410.40	36.358
410.76	36.972
411.11	37.187
411.47	37.212
411.83	36.033
412.18	37.967
412.54	36.704
412.89	36.084
413.25	36.643
413.60	35.528
413.96	36.933
414.31	36.707
414.67	36.177
415.03	35.952
415.38	35.248
415.74	37.394
416.09	36.447
416.45	37.002
416.80	37.013
417.16	38.398
417.51	37.175
417.87	36.571
418.22	37.241
418.58	36.187
418.93	36.552
419.29	35.531
419.64	35.191
420.00	36.965
420.35	36.060
420.71	36.574
421.06	36.034
421.42	36.779
421.77	36.647
422.12	36.152
422.48	35.138
422.83	35.963
423.19	36.400
423.54	35.097
423.90	35.041
424.25	35.247
424.61	36.597
424.96	35.598
425.31	37.608
425.67	36.268
426.02	35.984
426.38	36.506
426.73	36.138
427.09	35.886
427.44	36.000
427.79	35.415
428.15	36.104
428.50	35.615
428.85	36.179
429.21	36.333
429.56	36.065
429.92	35.336
430.27	35.338
430.62	34.867
430.98	34.236
431.33	35.647
431.68	34.171
432.04	34.992
432.39	35.710
432.74	34.396
433.10	37.241
433.45	35.125
433.80	36.158
434.16	34.958
434.51	35.699
434.86	35.134
435.22	34.436
435.57	35.496
435.92	34.850
436.28	34.526
436.63	35.824
436.98	34.299
437.34	33.878
437.69	35.003
438.04	34.644
438.39	34.270
438.75	35.033
439.10	34.805
439.45	34.632
439.81	34.924
440.16	34.976
440.51	35.284
440.86	36.254
441.22	34.106
441.57	34.603
441.92	35.257
442.27	35.976
442.63	35.171
442.98	34.406
443.33	34.279
443.68	33.846
444.03	34.625
444.39	33.891
444.74	35.563
445.09	34.410
445.44	35.556
445.79	35.585
446.15	33.921
446.50	34.221
446.85	34.963
447.20	33.316
447.55	34.710
447.91	34.574
448.26	34.035
448.61	34.427
448.96	34.825
449.31	33.931
449.66	32.636
450.02	34.626
450.37	34.321
450.72	34.021
451.07	34.684
451.42	32.772
451.77	32.731
452.12	33.792
452.47	33.806
452.83	33.451
453.18	33.144
453.53	34.197
453.88	33.698
454.23	33.743
454.58	33.186
454.93	33.956
455.28	32.381
455.63	33.292
455.98	34.155
456.34	33.525
456.69	33.863
457.04	33.711
457.39	32.807
457.74	31.560
458.09	32.137
458.44	32.475
458.79	31.485
459.14	32.666
459.49	32.955
459.84	32.713
460.19	32.767
460.54	33.068
460.89	33.466
461.24	32.919
461.59	32.363
461.94	32.201
462.29	32.750
462.64	32.890
462.99	32.498
463.34	31.293
463.69	32.883
464.04	33.232
464.39	31.292
464.74	31.595
465.09	32.127
465.44	32.256
465.79	32.313
466.14	31.984
466.49	31.512
466.84	31.410
467.19	32.290
467.54	32.312
467.89	32.849
468.24	32.117
468.59	32.698
468.94	31.175
469.29	31.541
469.64	31.647
469.99	32.586
470.34	31.263
470.68	31.916
471.03	31.493
471.38	31.455
471.73	31.723
472.08	31.411
472.43	32.148
472.78	30.500
473.13	30.748
473.48	30.684
473.83	29.888
474.17	30.764
474.52	31.078
474.87	30.182
475.22	30.689
475.57	30.830
475.92	30.773
476.27	31.432
476.61	31.192
476.96	30.284
477.31	30.990
477.66	30.787
478.01	30.825
478.36	30.501
478.70	31.104
479.05	30.769
479.40	30.207
479.75	29.718
480.10	30.415
480.45	30.300
480.79	30.614
481.14	30.635
481.49	29.901
481.84	29.537
482.19	29.935
482.53	30.456
482.88	29.928
483.23	30.086
483.58	29.528
483.92	29.090
484.27	29.353
484.62	28.956
484.97	29.395
485.31	27.962
485.66	27.243
486.01	27.028
486.36	27.157
486.70	27.333
487.05	27.764
487.40	27.715
487.75	28.479
488.09	27.318
488.44	27.510
488.79	28.539
489.13	28.005
489.48	28.602
489.83	28.520
490.17	27.910
490.52	28.684
490.87	28.135
491.22	28.844
491.56	28.178
491.91	28.059
492.26	28.439
492.60	27.783
492.95	29.710
493.30	28.041
493.64	29.322
493.99	28.454
494.34	28.398
494.68	28.619
495.03	26.813
495.37	27.527
495.72	28.622
496.07	28.195
496.41	27.358
496.76	28.098
497.11	26.688
497.45	28.258
497.80	28.305
498.14	27.670
498.49	27.628
498.84	26.996
499.18	27.861
499.53	28.026
499.87	27.481
500.22	27.547
500.56	28.240
500.91	27.359
501.26	26.841
501.60	27.250
501.95	27.317
502.29	27.312
502.64	27.606
502.98	26.690
503.33	26.321
503.67	26.651
504.02	27.664
504.36	27.412
504.71	26.768
505.06	26.321
505.40	26.548
505.75	27.113
506.09	27.572
506.44	27.310
506.78	27.143
507.13	27.146
507.47	26.162
507.82	25.534
508.16	26.096
508.51	26.705
508.85	26.426
509.19	26.770
509.54	26.863
509.88	26.160
510.23	26.681
510.57	26.350
510.92	25.959
511.26	26.077
511.61	27.448
511.95	26.411
512.30	26.441
512.64	26.266
512.98	26.670
513.33	26.413
513.67	26.322
514.02	26.602
514.36	27.657
514.70	26.807
515.05	26.733
515.39	26.741
515.74	26.826
516.08	25.403
516.42	26.384
516.77	26.624
517.11	26.944
517.46	26.571
517.80	26.579
518.14	26.638
518.49	27.224
518.83	26.428
519.17	25.652
519.52	26.110
519.86	25.270
520.20	26.185
520.55	25.453
520.89	26.223
521.23	26.852
521.58	26.372
521.92	26.218
522.26	26.675
522.61	26.364
522.95	27.086
523.29	24.968
523.64	26.874
523.98	26.248
524.32	25.451
524.66	25.992
525.01	25.974
525.35	26.377
525.69	25.926
526.04	24.735
526.38	26.848
526.72	24.264
527.06	25.357
527.41	25.726
527.75	25.134
528.09	24.850
528.43	27.009
528.78	25.017
529.12	25.548
529.46	25.276
529.80	24.509
530.15	25.545
530.49	25.387
530.83	24.555
531.17	24.446
531.51	24.897
531.86	24.813
532.20	25.470
532.54	25.255
532.88	26.283
533.22	25.739
533.57	24.836
533.91	24.739
534.25	25.391
534.59	24.952
534.93	24.607
535.27	22.906
535.62	24.174
535.96	25.245
536.30	24.868
536.64	25.224
536.98	24.111
537.32	25.676
537.66	25.316
538.01	23.566
538.35	23.925
538.69	23.702
539.03	23.513
539.37	24.092
539.71	24.744
540.05	24.304
540.39	24.446
540.73	23.989
541.07	25.069
541.42	24.597
541.76	25.189
542.10	24.639
542.44	23.558
542.78	23.538
543.12	23.832
543.46	23.505
543.80	24.150
544.14	22.897
544.48	23.984
544.82	23.513
545.16	23.907
545.50	23.498
545.84	23.654
546.18	24.397
546.52	23.576
546.86	24.299
547.20	24.106
547.54	22.261
547.88	23.166
548.22	21.893
548.56	23.153
548.90	23.720
549.24	22.383
549.58	23.272
549.92	23.016
550.26	23.370
550.60	24.238
550.94	22.853
551.28	23.029
551.62	22.769
551.96	23.083
552.30	23.246
552.64	22.638
552.98	22.574
553.32	23.609
553.66	22.061
554.00	21.387
554.34	22.304
554.68	22.271
555.02	24.033
555.36	22.737
555.69	21.978
556.03	21.556
556.37	22.562
556.71	23.682
557.05	22.595
557.39	22.528
557.73	22.564
558.07	23.303
558.41	23.124
558.75	23.149
559.08	23.168
559.42	23.095
559.76	22.658
560.10	22.095
560.44	21.817
560.78	22.098
561.12	21.086
561.45	22.136
561.79	21.919
562.13	21.505
562.47	22.518
562.81	21.398
563.15	21.157
563.48	21.994
563.82	22.718
564.16	21.240
564.50	21.081
564.84	21.620
565.17	20.791
565.51	22.951
565.85	22.497
566.19	21.552
566.52	22.319
566.86	21.722
567.20	21.357
567.54	21.655
567.88	21.500
568.21	20.758
568.55	20.163
568.89	20.226
569.23	19.788
569.56	19.440
569.90	19.691
570.24	19.427
570.57	19.127
570.91	19.449
571.25	18.810
571.59	18.655
571.92	18.104
572.26	17.723
572.60	18.109
572.93	18.826
573.27	18.150
573.61	18.556
573.95	18.323
574.28	17.982
574.62	17.671
574.96	17.801
575.29	17.920
575.63	17.310
575.97	18.054
576.30	18.105
576.64	17.801
576.98	18.121
577.31	17.916
577.65	17.775
577.98	17.646
578.32	17.560
578.66	17.172
578.99	17.501
579.33	17.012
579.67	17.487
580.00	17.190
580.34	17.786
580.67	17.681
581.01	17.219
581.35	17.313
581.68	17.359
582.02	16.792
582.35	16.899
582.69	16.985
583.02	17.240
583.36	17.341
583.70	17.679
584.03	17.737
584.37	17.730
584.70	17.747
585.04	16.788
585.37	17.199
585.71	17.280
586.04	17.297
586.38	17.125
586.72	17.561
587.05	17.909
587.39	17.892
587.72	17.824
588.06	17.326
588.39	17.687
588.73	17.521
589.06	17.515
589.40	18.147
589.73	17.963
590.07	18.656
590.40	17.802
590.73	18.245
591.07	17.939
591.40	18.210
591.74	18.326
592.07	18.646
592.41	19.302
592.74	17.881
593.08	17.709
593.41	17.035
593.75	17.828
594.08	16.650
594.41	17.649
594.75	17.595
595.08	17.745
595.42	17.519
595.75	17.236
596.09	18.139
596.42	17.652
596.75	18.428
597.09	17.904
597.42	17.525
597.75	17.178
598.09	17.881
598.42	17.870
598.76	17.375
599.09	17.869
599.42	16.825
599.76	17.043
600.09	17.383
600.42	17.248
600.76	17.162
601.09	16.947
601.42	17.235
601.76	17.428
602.09	17.574
602.42	17.650
602.76	17.317
603.09	17.234
603.42	17.768
603.76	17.137
604.09	16.727
604.42	17.978
604.76	17.980
605.09	17.733
605.42	17.878
605.75	17.513
606.09	16.773
606.42	16.555
606.75	17.186
607.09	18.110
607.42	17.767
607.75	16.785
608.08	16.667
608.42	17.451
608.75	17.735
609.08	17.339
609.41	17.817
609.75	17.641
610.08	17.624
610.41	17.198
610.74	17.699
611.07	17.933
611.41	18.111
611.74	18.443
612.07	17.398
612.40	18.326
612.73	18.023
613.07	18.223
613.40	18.217
613.73	17.627
614.06	18.197
614.39	17.654
614.72	18.039
615.06	17.989
615.39	18.231
615.72	17.438
616.05	17.709
616.38	17.094
616.71	18.287
617.05	18.221
617.38	17.850
617.71	17.736
618.04	19.238
618.37	19.231
618.70	17.954
619.03	18.958
619.36	18.307
619.69	18.802
620.03	19.503
620.36	19.170
620.69	18.915
621.02	19.954
621.35	19.585
621.68	20.238
622.01	20.333
622.34	19.074
622.67	19.637
623.00	20.061
623.33	19.360
623.66	18.699
623.99	18.608
624.32	19.544
624.65	18.496
624.99	19.037
625.32	18.120
625.65	19.953
625.98	19.662
626.31	18.953
626.64	19.151
626.97	19.808
627.30	19.527
627.63	19.844
627.96	20.305
628.29	20.444
628.62	21.042
628.95	19.940
629.28	19.153
629.61	21.037
629.94	20.137
630.26	18.874
630.59	22.164
630.92	20.308
631.25	19.590
631.58	21.366
631.91	21.382
632.24	21.674
632.57	22.159
632.90	22.183
633.23	22.000
633.56	21.411
633.89	22.195
634.22	21.605
634.55	20.457
634.88	21.456
635.20	21.795
635.53	20.533
