SpectraSuite Data File
++++++++++++++++++++++++++++++++++++
Date: Fri May 15 20:38:12 PDT 2015
User: schluterlab
Dark Spectrum Present: Yes
Reference Spectrum Present: Yes
Number of Sampled Component Spectra: 1
Spectrometers: USB2E3373
Integration Time (usec): 3000 (USB2E3373)
Spectra Averaged: 3 (USB2E3373)
Boxcar Smoothing: 0 (USB2E3373)
Correct for Electrical Dark: No (USB2E3373)
Strobe/Lamp Enabled: No (USB2E3373)
Correct for Detector Non-linearity: No (USB2E3373)
Correct for Stray Light: No (USB2E3373)
Number of Pixels in Processed Spectrum: 2048
>>>>>Begin Processed Spectral Data<<<<<
178.53	0.000
178.91	0.000
179.29	75.000
179.67	-350.000
180.04	-14.286
180.42	125.000
180.80	500.000
181.18	66.667
181.56	350.000
181.94	150.000
182.31	200.000
182.69	100.000
183.07	-133.333
183.45	-240.000
183.83	216.667
184.20	0.000
184.58	133.333
184.96	25.000
185.34	-33.333
185.72	-600.000
186.09	92.308
186.47	-1200.000
186.85	166.667
187.23	122.222
187.61	-0.000
187.98	66.667
188.36	122.222
188.74	-233.333
189.12	23.529
189.49	94.444
189.87	0.000
190.25	35.714
190.63	-100.000
191.00	0.000
191.38	-52.632
191.76	400.000
192.14	-25.000
192.51	-350.000
192.89	-177.778
193.27	-185.714
193.65	333.333
194.02	109.091
194.40	40.000
194.78	-12.500
195.15	-83.333
195.53	-87.500
195.91	225.000
196.29	-325.000
196.66	107.692
197.04	100.000
197.42	-100.000
197.79	33.333
198.17	-107.692
198.55	2300.000
198.92	-166.667
199.30	-400.000
199.68	-180.000
200.05	-466.667
200.43	0.000
200.81	-66.667
201.18	-33.333
201.56	500.000
201.94	-500.000
202.31	-266.667
202.69	-260.000
203.07	125.000
203.44	1000.000
203.82	0.000
204.19	21.429
204.57	-600.000
204.95	212.500
205.32	50.000
205.70	0.000
206.08	-200.000
206.45	122.222
206.83	78.571
207.20	-142.857
207.58	800.000
207.96	-266.667
208.33	-30.000
208.71	-125.000
209.08	-133.333
209.46	-900.000
209.84	-120.000
210.21	100.000
210.59	71.429
210.96	-100.000
211.34	-25.000
211.71	13.333
212.09	71.429
212.46	-1000.000
212.84	0.000
213.22	60.000
213.59	550.000
213.97	23.077
214.34	27.273
214.72	16.667
215.09	150.000
215.47	-23.077
215.84	-81.818
216.22	-333.333
216.59	-62.500
216.97	-350.000
217.34	-75.000
217.72	-240.000
218.09	175.000
218.47	237.500
218.84	-2100.000
219.22	-55.556
219.59	-60.000
219.97	-33.333
220.34	175.000
220.72	-85.714
221.09	-250.000
221.47	150.000
221.84	-650.000
222.22	-700.000
222.59	-45.455
222.97	0.000
223.34	-600.000
223.72	-64.286
224.09	-9.524
224.46	21.429
224.84	366.667
225.21	-30.000
225.59	13.333
225.96	150.000
226.34	275.000
226.71	-114.286
227.08	-233.333
227.46	-100.000
227.83	-200.000
228.21	-11.111
228.58	72.727
228.95	25.000
229.33	150.000
229.70	0.000
230.08	-137.500
230.45	-71.429
230.82	42.857
231.20	60.000
231.57	57.143
231.95	-128.571
232.32	-140.000
232.69	0.000
233.07	-33.333
233.44	-140.000
233.81	-70.000
234.19	-66.667
234.56	35.294
234.93	500.000
235.31	-75.000
235.68	40.000
236.05	-107.692
236.43	10.000
236.80	5.882
237.17	-9.375
237.55	15.000
237.92	-22.222
238.29	8.333
238.67	-3.333
239.04	-26.471
239.41	-17.073
239.79	-10.000
240.16	0.000
240.53	15.789
240.91	17.391
241.28	4.762
241.65	3.571
242.02	21.918
242.40	-1.667
242.77	-3.390
243.14	3.030
243.51	16.250
243.89	8.046
244.26	0.000
244.63	5.952
245.00	1.031
245.38	1.031
245.75	0.000
246.12	6.897
246.49	2.479
246.87	0.962
247.24	-0.840
247.61	5.263
247.98	4.065
248.36	5.000
248.73	3.289
249.10	-1.299
249.47	3.165
249.84	10.458
250.22	0.588
250.59	-0.654
250.96	15.493
251.33	-1.744
251.70	4.118
252.08	5.584
252.45	5.446
252.82	4.523
253.19	13.825
253.56	2.804
253.94	10.360
254.31	7.826
254.68	6.140
255.05	7.874
255.42	4.803
255.79	6.178
256.16	10.506
256.54	11.940
256.91	7.985
257.28	5.948
257.65	2.622
258.02	5.319
258.39	9.091
258.76	12.454
259.14	8.638
259.51	7.443
259.88	5.842
260.25	3.595
260.62	9.722
260.99	5.424
261.36	8.562
261.73	5.696
262.10	5.471
262.47	8.282
262.85	6.897
263.22	8.000
263.59	7.788
263.96	10.870
264.33	8.182
264.70	7.143
265.07	6.845
265.44	8.782
265.81	8.192
266.18	7.650
266.55	10.283
266.92	7.772
267.29	8.355
267.66	6.394
268.03	6.806
268.40	5.483
268.77	10.428
269.14	6.475
269.51	9.769
269.88	6.983
270.25	7.653
270.62	4.634
270.99	5.115
271.36	8.068
271.73	8.920
272.10	10.219
272.47	8.038
272.84	8.911
273.21	9.049
273.58	6.506
273.95	7.094
274.32	8.776
274.69	5.656
275.06	9.152
275.43	7.937
275.80	7.726
276.17	6.437
276.54	11.135
276.91	7.456
277.28	8.079
277.65	10.537
278.02	7.021
278.39	7.221
278.76	5.241
279.13	5.187
279.50	9.244
279.87	9.071
280.23	4.946
280.60	7.602
280.97	9.293
281.34	4.423
281.71	8.830
282.08	5.521
282.45	6.458
282.82	7.529
283.19	6.190
283.56	7.322
283.92	6.641
284.29	7.500
284.66	7.558
285.03	7.466
285.40	8.318
285.77	5.975
286.14	8.484
286.51	9.410
286.87	7.313
287.24	7.735
287.61	6.702
287.98	8.772
288.35	6.932
288.72	8.932
289.08	6.424
289.45	7.909
289.82	7.867
290.19	8.020
290.56	4.974
290.93	8.249
291.29	6.471
291.66	9.606
292.03	7.974
292.40	6.613
292.77	6.539
293.13	6.006
293.50	5.463
293.87	7.481
294.24	6.028
294.60	6.706
294.97	7.143
295.34	5.368
295.71	6.259
296.08	6.577
296.44	4.694
296.81	5.556
297.18	6.667
297.55	8.808
297.91	6.301
298.28	7.916
298.65	5.834
299.02	4.987
299.38	4.241
299.75	5.931
300.12	6.021
300.48	7.246
300.85	6.971
301.22	6.623
301.59	5.395
301.95	6.456
302.32	8.042
302.69	6.095
303.05	5.817
303.42	6.600
303.79	6.192
304.15	5.854
304.52	4.756
304.89	4.795
305.25	5.932
305.62	5.484
305.99	5.146
306.35	5.318
306.72	6.187
307.09	6.043
307.45	4.018
307.82	5.324
308.19	5.343
308.55	5.998
308.92	5.882
309.29	4.358
309.65	4.736
310.02	6.381
310.38	6.257
310.75	6.011
311.12	5.597
311.48	6.575
311.85	6.702
312.22	6.646
312.58	6.900
312.95	5.443
313.31	5.797
313.68	5.969
314.05	6.020
314.41	7.835
314.78	6.804
315.14	7.091
315.51	7.660
315.87	8.402
316.24	8.392
316.61	8.071
316.97	8.730
317.34	7.324
317.70	8.126
318.07	7.115
318.43	8.529
318.80	8.333
319.16	9.473
319.53	9.497
319.89	9.547
320.26	9.919
320.62	11.033
320.99	10.125
321.35	10.277
321.72	12.150
322.08	13.192
322.45	13.299
322.81	12.475
323.18	12.659
323.54	12.741
323.91	13.145
324.27	14.160
324.64	15.262
325.00	14.872
325.37	16.070
325.73	15.141
326.10	16.985
326.46	15.964
326.83	16.885
327.19	17.001
327.56	18.071
327.92	17.518
328.29	18.125
328.65	18.113
329.01	17.279
329.38	19.263
329.74	19.452
330.11	19.741
330.47	18.738
330.84	19.615
331.20	20.152
331.56	19.815
331.93	21.096
332.29	20.440
332.66	21.086
333.02	20.446
333.38	19.890
333.75	21.154
334.11	20.054
334.48	21.578
334.84	21.062
335.20	22.141
335.57	21.306
335.93	20.777
336.29	21.915
336.66	22.071
337.02	19.888
337.38	22.222
337.75	21.909
338.11	22.092
338.47	21.989
338.84	22.089
339.20	21.207
339.56	22.661
339.93	23.187
340.29	23.119
340.65	23.925
341.02	21.365
341.38	22.212
341.74	22.261
342.11	22.010
342.47	21.619
342.83	23.270
343.20	21.690
343.56	22.696
343.92	22.321
344.28	23.399
344.65	23.143
345.01	21.780
345.37	22.540
345.73	23.933
346.10	22.865
346.46	23.549
346.82	22.422
347.19	21.530
347.55	23.308
347.91	23.544
348.27	23.848
348.63	22.998
349.00	22.642
349.36	22.610
349.72	23.549
350.08	23.525
350.45	23.384
350.81	22.508
351.17	23.290
351.53	23.510
351.89	23.369
352.26	23.600
352.62	23.468
352.98	23.614
353.34	23.510
353.70	23.948
354.07	23.226
354.43	22.818
354.79	22.956
355.15	24.841
355.51	23.576
355.87	23.139
356.24	22.268
356.60	22.959
356.96	24.444
357.32	23.882
357.68	23.612
358.04	22.940
358.40	23.955
358.77	24.561
359.13	23.379
359.49	23.960
359.85	23.245
360.21	24.083
360.57	23.336
360.93	24.811
361.29	23.716
361.66	24.843
362.02	24.318
362.38	24.905
362.74	24.375
363.10	24.755
363.46	25.204
363.82	24.869
364.18	24.576
364.54	24.191
364.90	23.728
365.26	24.381
365.62	25.839
365.98	24.267
366.35	25.346
366.71	25.351
367.07	24.601
367.43	24.155
367.79	25.018
368.15	24.480
368.51	23.962
368.87	24.551
369.23	24.188
369.59	24.417
369.95	25.367
370.31	26.156
370.67	24.328
371.03	24.197
371.39	24.362
371.75	24.469
372.11	24.822
372.47	24.260
372.83	25.692
373.19	24.893
373.55	25.271
373.91	25.414
374.27	26.293
374.63	25.197
374.99	25.319
375.35	24.791
375.71	26.084
376.07	25.632
376.42	24.898
376.78	25.973
377.14	24.780
377.50	25.896
377.86	26.037
378.22	25.718
378.58	25.128
378.94	25.331
379.30	25.328
379.66	26.520
380.02	24.954
380.38	24.893
380.74	25.673
381.09	25.767
381.45	25.505
381.81	25.601
382.17	25.190
382.53	25.984
382.89	26.554
383.25	25.700
383.61	25.488
383.97	25.587
384.32	25.203
384.68	25.882
385.04	25.000
385.40	25.762
385.76	26.478
386.12	25.614
386.48	26.117
386.83	26.569
387.19	26.007
387.55	27.604
387.91	26.528
388.27	25.336
388.62	26.054
388.98	25.537
389.34	26.234
389.70	26.041
390.06	25.362
390.42	26.425
390.77	26.292
391.13	25.284
391.49	26.197
391.85	25.666
392.20	25.173
392.56	25.429
392.92	26.307
393.28	25.649
393.64	25.465
393.99	26.959
394.35	26.692
394.71	25.734
395.07	25.770
395.42	26.230
395.78	26.645
396.14	26.986
396.50	26.252
396.85	25.821
397.21	25.815
397.57	26.082
397.92	25.165
398.28	25.747
398.64	25.361
399.00	26.298
399.35	25.000
399.71	24.526
400.07	25.816
400.42	25.704
400.78	26.332
401.14	25.529
401.49	25.730
401.85	25.594
402.21	25.422
402.57	25.750
402.92	24.906
403.28	26.754
403.63	25.788
403.99	25.893
404.35	26.046
404.70	25.595
405.06	24.853
405.42	25.668
405.77	24.985
406.13	24.913
406.49	24.748
406.84	25.550
407.20	26.129
407.55	25.435
407.91	24.666
408.27	25.366
408.62	25.477
408.98	26.186
409.34	26.084
409.69	24.612
410.05	23.522
410.40	25.123
410.76	26.236
411.11	26.000
411.47	24.589
411.83	24.984
412.18	24.968
412.54	25.531
412.89	24.261
413.25	24.910
413.60	24.907
413.96	23.988
414.31	25.854
414.67	24.631
415.03	25.100
415.38	24.347
415.74	25.342
416.09	25.082
416.45	25.253
416.80	24.323
417.16	25.138
417.51	25.516
417.87	25.098
418.22	25.194
418.58	25.418
418.93	25.517
419.29	24.008
419.64	25.664
420.00	27.204
420.35	24.179
420.71	25.152
421.06	25.414
421.42	24.760
421.77	25.260
422.12	24.461
422.48	24.526
422.83	24.536
423.19	24.436
423.54	24.280
423.90	24.382
424.25	25.086
424.61	24.419
424.96	24.506
425.31	25.072
425.67	24.765
426.02	25.972
426.38	25.423
426.73	24.455
427.09	24.430
427.44	24.647
427.79	24.337
428.15	24.818
428.50	23.259
428.85	24.017
429.21	25.354
429.56	25.822
429.92	24.242
430.27	24.110
430.62	23.471
430.98	23.832
431.33	24.080
431.68	23.339
432.04	24.092
432.39	23.674
432.74	23.692
433.10	24.943
433.45	23.656
433.80	23.331
434.16	23.657
434.51	23.226
434.86	23.984
435.22	24.117
435.57	25.016
435.92	23.114
436.28	23.852
436.63	25.214
436.98	23.870
437.34	23.230
437.69	24.150
438.04	23.875
438.39	23.763
438.75	23.983
439.10	23.769
439.45	24.589
439.81	24.159
440.16	23.575
440.51	24.358
440.86	25.257
441.22	24.378
441.57	23.841
441.92	24.029
442.27	24.446
442.63	24.143
442.98	23.665
443.33	23.539
443.68	22.812
444.03	24.540
444.39	23.069
444.74	24.080
445.09	24.220
445.44	23.761
445.79	24.755
446.15	24.119
446.50	23.849
446.85	23.911
447.20	24.296
447.55	24.275
447.91	23.407
448.26	23.734
448.61	24.180
448.96	23.810
449.31	23.815
449.66	23.461
450.02	24.073
450.37	23.711
450.72	23.310
451.07	23.797
451.42	23.533
451.77	22.725
452.12	23.026
452.47	23.117
452.83	23.498
453.18	22.960
453.53	23.135
453.88	23.497
454.23	24.032
454.58	24.307
454.93	23.840
455.28	22.032
455.63	24.179
455.98	23.933
456.34	23.755
456.69	23.062
457.04	23.756
457.39	23.694
457.74	23.337
458.09	22.190
458.44	21.943
458.79	21.849
459.14	22.712
459.49	23.463
459.84	23.350
460.19	23.604
460.54	22.922
460.89	22.841
461.24	22.174
461.59	23.456
461.94	22.013
462.29	23.643
462.64	22.458
462.99	22.681
463.34	22.045
463.69	22.329
464.04	22.881
464.39	21.528
464.74	22.577
465.09	22.583
465.44	21.696
465.79	22.166
466.14	21.608
466.49	21.679
466.84	22.130
467.19	21.840
467.54	22.222
467.89	20.910
468.24	21.898
468.59	22.159
468.94	21.587
469.29	22.885
469.64	22.488
469.99	22.565
470.34	20.819
470.68	22.670
471.03	22.930
471.38	21.541
471.73	21.919
472.08	21.574
472.43	21.678
472.78	21.590
473.13	21.224
473.48	22.085
473.83	21.731
474.17	22.474
474.52	21.187
474.87	20.727
475.22	20.927
475.57	21.231
475.92	21.284
476.27	21.769
476.61	21.296
476.96	19.743
477.31	21.147
477.66	20.955
478.01	21.336
478.36	21.024
478.70	20.446
479.05	20.495
479.40	20.721
479.75	19.708
480.10	20.533
480.45	20.200
480.79	20.896
481.14	21.209
481.49	20.640
481.84	20.077
482.19	19.691
482.53	20.624
482.88	20.239
483.23	19.914
483.58	19.481
483.92	19.603
484.27	19.736
484.62	19.991
484.97	19.154
485.31	19.762
485.66	18.297
486.01	18.287
486.36	17.910
486.70	18.631
487.05	18.830
487.40	18.769
487.75	19.127
488.09	19.098
488.44	18.707
488.79	19.051
489.13	19.511
489.48	19.324
489.83	19.731
490.17	18.247
490.52	18.568
490.87	18.741
491.22	18.720
491.56	19.782
491.91	19.551
492.26	18.911
492.60	19.098
492.95	19.528
493.30	18.906
493.64	18.664
493.99	19.469
494.34	18.689
494.68	19.238
495.03	18.540
495.37	19.921
495.72	19.081
496.07	18.341
496.41	18.302
496.76	18.333
497.11	18.444
497.45	18.663
497.80	18.920
498.14	19.225
498.49	18.283
498.84	18.513
499.18	18.524
499.53	18.353
499.87	18.872
500.22	18.002
500.56	18.205
500.91	18.424
501.26	17.894
501.60	17.806
501.95	18.244
502.29	18.692
502.64	18.243
502.98	17.958
503.33	17.867
503.67	16.867
504.02	18.524
504.36	18.704
504.71	17.374
505.06	17.413
505.40	17.411
505.75	18.505
506.09	18.348
506.44	18.172
506.78	17.296
507.13	17.890
507.47	17.493
507.82	18.002
508.16	17.908
508.51	17.838
508.85	18.263
509.19	16.817
509.54	17.962
509.88	17.584
510.23	17.536
510.57	17.798
510.92	16.418
511.26	16.585
511.61	17.602
511.95	17.315
512.30	17.461
512.64	17.418
512.98	16.508
513.33	17.459
513.67	17.681
514.02	18.364
514.36	18.286
514.70	18.182
515.05	17.920
515.39	17.769
515.74	17.844
516.08	17.394
516.42	17.903
516.77	17.145
517.11	17.092
517.46	18.492
517.80	17.580
518.14	16.840
518.49	17.909
518.83	17.193
519.17	17.586
519.52	17.348
519.86	17.047
520.20	17.497
520.55	17.323
520.89	17.817
521.23	17.416
521.58	17.981
521.92	18.269
522.26	17.111
522.61	17.532
522.95	16.755
523.29	16.836
523.64	17.027
523.98	17.174
524.32	16.817
524.66	17.029
525.01	17.597
525.35	17.304
525.69	17.172
526.04	16.799
526.38	17.510
526.72	16.808
527.06	16.991
527.41	17.018
527.75	16.488
528.09	16.080
528.43	16.948
528.78	16.502
529.12	16.387
529.46	16.569
529.80	16.466
530.15	17.426
530.49	16.296
530.83	17.168
531.17	16.185
531.51	16.895
531.86	15.772
532.20	16.980
532.54	16.542
532.88	17.180
533.22	16.129
533.57	16.514
533.91	15.927
534.25	16.602
534.59	15.330
534.93	16.300
535.27	15.292
535.62	16.332
535.96	16.177
536.30	16.161
536.64	16.402
536.98	16.516
537.32	16.856
537.66	16.900
538.01	16.294
538.35	16.158
538.69	15.246
539.03	16.268
539.37	16.151
539.71	15.883
540.05	15.275
540.39	15.997
540.73	16.248
541.07	15.677
541.42	16.465
541.76	16.105
542.10	15.623
542.44	15.775
542.78	14.935
543.12	15.659
543.46	15.229
543.80	14.990
544.14	14.286
544.48	16.922
544.82	16.815
545.16	15.915
545.50	15.754
545.84	15.581
546.18	15.816
546.52	16.727
546.86	15.385
547.20	15.451
547.54	14.700
547.88	15.082
548.22	14.201
548.56	15.501
548.90	15.633
549.24	15.496
549.58	15.092
549.92	14.796
550.26	15.751
550.60	15.093
550.94	15.011
551.28	14.683
551.62	16.077
551.96	15.338
552.30	14.985
552.64	14.386
552.98	15.331
553.32	14.551
553.66	14.006
554.00	14.380
554.34	14.919
554.68	14.528
555.02	16.295
555.36	14.361
555.69	14.799
556.03	14.561
556.37	14.235
556.71	14.296
557.05	14.840
557.39	14.498
557.73	15.067
558.07	14.404
558.41	14.778
558.75	14.263
559.08	14.184
559.42	14.524
559.76	15.292
560.10	15.061
560.44	13.999
560.78	14.965
561.12	13.752
561.45	15.109
561.79	14.496
562.13	14.691
562.47	14.532
562.81	15.346
563.15	14.669
563.48	14.639
563.82	14.550
564.16	14.554
564.50	13.919
564.84	14.123
565.17	14.621
565.51	15.027
565.85	13.512
566.19	14.125
566.52	13.874
566.86	14.203
567.20	13.761
567.54	13.017
567.88	13.767
568.21	13.518
568.55	12.935
568.89	13.963
569.23	12.903
569.56	12.172
569.90	13.276
570.24	12.170
570.57	12.836
570.91	12.548
571.25	12.562
571.59	12.177
571.92	11.822
572.26	12.228
572.60	12.310
572.93	11.955
573.27	11.693
573.61	11.844
573.95	12.043
574.28	12.209
574.62	11.670
574.96	11.518
575.29	11.484
575.63	11.272
575.97	11.602
576.30	11.330
576.64	11.417
576.98	11.712
577.31	11.428
577.65	11.491
577.98	11.496
578.32	11.178
578.66	11.154
578.99	11.184
579.33	11.441
579.67	11.178
580.00	11.089
580.34	11.368
580.67	11.375
581.01	11.215
581.35	11.068
581.68	11.002
582.02	10.974
582.35	10.882
582.69	11.005
583.02	11.280
583.36	11.450
583.70	11.864
584.03	11.843
584.37	11.829
584.70	11.648
585.04	10.777
585.37	11.376
585.71	10.763
586.04	11.145
586.38	10.830
586.72	10.674
587.05	11.785
587.39	11.546
587.72	11.700
588.06	11.182
588.39	11.279
588.73	11.752
589.06	11.807
589.40	11.925
589.73	11.683
590.07	12.009
590.40	11.416
590.73	11.697
591.07	11.450
591.40	11.309
591.74	12.127
592.07	12.384
592.41	11.661
592.74	11.669
593.08	11.491
593.41	11.334
593.75	11.187
594.08	11.260
594.41	11.208
594.75	11.336
595.08	11.918
595.42	11.152
595.75	11.528
596.09	11.493
596.42	11.658
596.75	11.679
597.09	11.663
597.42	11.382
597.75	11.727
598.09	11.408
598.42	11.868
598.76	10.596
599.09	11.498
599.42	11.330
599.76	11.926
600.09	11.388
600.42	11.448
600.76	10.884
601.09	10.992
601.42	11.516
601.76	10.877
602.09	11.056
602.42	12.005
602.76	11.587
603.09	11.213
603.42	11.329
603.76	10.726
604.09	10.733
604.42	11.379
604.76	11.972
605.09	12.020
605.42	11.242
605.75	11.340
606.09	10.998
606.42	11.760
606.75	11.818
607.09	11.912
607.42	10.722
607.75	11.012
608.08	10.692
608.42	11.558
608.75	12.145
609.08	11.659
609.41	11.574
609.75	10.937
610.08	11.333
610.41	11.546
610.74	11.799
611.07	11.059
611.41	12.039
611.74	12.740
612.07	11.670
612.40	12.090
612.73	11.808
613.07	11.249
613.40	12.418
613.73	11.136
614.06	11.909
614.39	12.521
614.72	11.597
615.06	11.173
615.39	11.681
615.72	12.217
616.05	11.732
616.38	10.940
616.71	12.049
617.05	11.427
617.38	11.816
617.71	11.572
618.04	13.079
618.37	12.673
618.70	12.409
619.03	12.569
619.36	12.012
619.69	12.509
620.03	12.856
620.36	12.661
620.69	12.562
621.02	12.156
621.35	13.527
621.68	12.925
622.01	13.250
622.34	13.328
622.67	13.091
623.00	12.634
623.33	11.738
623.66	12.266
623.99	12.557
624.32	12.395
624.65	12.256
624.99	13.695
625.32	10.690
625.65	13.433
625.98	14.263
626.31	12.219
626.64	12.738
626.97	13.351
627.30	13.310
627.63	14.125
627.96	12.938
628.29	12.211
628.62	14.454
628.95	13.727
629.28	12.298
629.61	13.759
629.94	14.370
630.26	14.229
630.59	14.672
630.92	12.615
631.25	12.821
631.58	13.216
631.91	13.487
632.24	13.417
632.57	14.205
632.90	14.116
633.23	14.941
633.56	13.224
633.89	13.070
634.22	15.062
634.55	13.342
634.88	14.815
635.20	12.436
635.53	15.467
635.86	12.874
636.19	15.265
636.52	14.158
636.85	14.888
637.18	13.585
637.51	14.214
