SpectraSuite Data File
++++++++++++++++++++++++++++++++++++
Date: Fri May 15 20:46:36 PDT 2015
User: schluterlab
Dark Spectrum Present: Yes
Reference Spectrum Present: Yes
Number of Sampled Component Spectra: 1
Spectrometers: USB2E3373
Integration Time (usec): 3000 (USB2E3373)
Spectra Averaged: 3 (USB2E3373)
Boxcar Smoothing: 0 (USB2E3373)
Correct for Electrical Dark: No (USB2E3373)
Strobe/Lamp Enabled: No (USB2E3373)
Correct for Detector Non-linearity: No (USB2E3373)
Correct for Stray Light: No (USB2E3373)
Number of Pixels in Processed Spectrum: 2048
>>>>>Begin Processed Spectral Data<<<<<
178.53	0.000
178.91	0.000
179.29	-25.000
179.67	-600.000
180.04	71.429
180.42	25.000
180.80	-500.000
181.18	100.000
181.56	400.000
181.94	0.000
182.31	1500.000
182.69	-240.000
183.07	-233.333
183.45	-160.000
183.83	233.333
184.20	-81.818
184.58	-0.000
184.96	-125.000
185.34	233.333
185.72	-1000.000
186.09	92.308
186.47	100.000
186.85	366.667
187.23	122.222
187.61	100.000
187.98	-433.333
188.36	44.444
188.74	33.333
189.12	29.412
189.49	-11.111
189.87	0.000
190.25	50.000
190.63	100.000
191.00	-266.667
191.38	31.579
191.76	500.000
192.14	-50.000
192.51	-50.000
192.89	11.111
193.27	-114.286
193.65	166.667
194.02	136.364
194.40	70.000
194.78	-25.000
195.15	0.000
195.53	-75.000
195.91	150.000
196.29	0.000
196.66	76.923
197.04	185.714
197.42	-88.889
197.79	-300.000
198.17	-100.000
198.55	1800.000
198.92	-200.000
199.30	-300.000
199.68	-180.000
200.05	-300.000
200.43	0.000
200.81	133.333
201.18	-200.000
201.56	1500.000
201.94	-550.000
202.31	66.667
202.69	-240.000
203.07	-25.000
203.44	300.000
203.82	0.000
204.19	14.286
204.57	-400.000
204.95	187.500
205.32	-30.000
205.70	-14.286
206.08	0.000
206.45	166.667
206.83	28.571
207.20	-228.571
207.58	1900.000
207.96	-400.000
208.33	-50.000
208.71	-25.000
209.08	-150.000
209.46	-900.000
209.84	40.000
210.21	-800.000
210.59	14.286
210.96	-183.333
211.34	-50.000
211.71	26.667
212.09	-142.857
212.46	-1600.000
212.84	0.000
213.22	40.000
213.59	800.000
213.97	-7.692
214.34	18.182
214.72	-33.333
215.09	725.000
215.47	-69.231
215.84	9.091
216.22	-433.333
216.59	-87.500
216.97	-100.000
217.34	-300.000
217.72	-200.000
218.09	-75.000
218.47	125.000
218.84	-400.000
219.22	-33.333
219.59	-160.000
219.97	533.333
220.34	25.000
220.72	0.000
221.09	-225.000
221.47	-350.000
221.84	-250.000
222.22	-550.000
222.59	-36.364
222.97	8.333
223.34	-266.667
223.72	-100.000
224.09	9.524
224.46	14.286
224.84	300.000
225.21	-20.000
225.59	-53.333
225.96	0.000
226.34	300.000
226.71	-214.286
227.08	-100.000
227.46	-87.500
227.83	-550.000
228.21	11.111
228.58	-36.364
228.95	-87.500
229.33	70.000
229.70	31.250
230.08	-75.000
230.45	-157.143
230.82	100.000
231.20	-60.000
231.57	57.143
231.95	-100.000
232.32	-80.000
232.69	35.714
233.07	-233.333
233.44	-200.000
233.81	-70.000
234.19	66.667
234.56	-41.176
234.93	450.000
235.31	-175.000
235.68	-340.000
236.05	-30.769
236.43	-45.000
236.80	-11.765
237.17	21.875
237.55	-15.000
237.92	-22.222
238.29	2.778
238.67	20.000
239.04	-8.824
239.41	-21.951
239.79	-3.333
240.16	-9.756
240.53	-5.263
240.91	2.174
241.28	11.111
241.65	28.571
242.02	9.589
242.40	6.667
242.77	0.000
243.14	-6.061
243.51	2.500
243.89	22.989
244.26	1.149
244.63	19.048
245.00	9.278
245.38	5.155
245.75	-5.618
246.12	4.310
246.49	17.355
246.87	6.731
247.24	8.403
247.61	7.895
247.98	9.756
248.36	8.750
248.73	13.816
249.10	10.390
249.47	10.759
249.84	9.150
250.22	11.176
250.59	15.686
250.96	20.188
251.33	14.535
251.70	14.706
252.08	17.259
252.45	19.802
252.82	13.065
253.19	15.668
253.56	14.019
253.94	15.766
254.31	17.826
254.68	14.474
255.05	12.598
255.42	16.594
255.79	18.533
256.16	14.397
256.54	17.164
256.91	12.928
257.28	17.100
257.65	13.483
258.02	14.184
258.39	14.478
258.76	17.582
259.14	19.269
259.51	16.181
259.88	16.495
260.25	18.301
260.62	21.528
260.99	15.254
261.36	15.411
261.73	17.405
262.10	17.629
262.47	14.417
262.85	16.614
263.22	13.538
263.59	14.019
263.96	16.770
264.33	16.061
264.70	15.774
265.07	17.262
265.44	18.980
265.81	18.362
266.18	17.213
266.55	16.195
266.92	19.430
267.29	16.449
267.66	16.113
268.03	17.801
268.40	14.360
268.77	17.914
269.14	17.266
269.51	16.967
269.88	15.461
270.25	15.306
270.62	16.341
270.99	15.601
271.36	12.714
271.73	16.901
272.10	16.545
272.47	15.130
272.84	16.337
273.21	16.241
273.58	17.831
273.95	15.332
274.32	16.166
274.69	12.896
275.06	16.071
275.43	17.460
275.80	15.453
276.17	15.862
276.54	13.062
276.91	17.105
277.28	15.939
277.65	13.223
278.02	15.957
278.39	13.786
278.76	15.514
279.13	11.203
279.50	16.597
279.87	16.199
280.23	15.054
280.60	15.010
280.97	17.172
281.34	16.154
281.71	18.275
282.08	14.519
282.45	16.047
282.82	13.514
283.19	14.120
283.56	15.992
283.92	15.750
284.29	15.962
284.66	14.341
285.03	15.717
285.40	13.800
285.77	15.466
286.14	16.426
286.51	17.897
286.87	14.625
287.24	13.260
287.61	13.933
287.98	15.965
288.35	14.385
288.72	16.988
289.08	13.368
289.45	14.587
289.82	14.685
290.19	12.628
290.56	14.580
290.93	14.646
291.29	12.018
291.66	15.118
292.03	12.759
292.40	14.516
292.77	14.195
293.13	11.201
293.50	13.505
293.87	13.282
294.24	13.910
294.60	12.966
294.97	12.946
295.34	11.810
295.71	13.264
296.08	13.004
296.44	10.242
296.81	12.083
297.18	10.290
297.55	13.821
297.91	11.644
298.28	13.720
298.65	11.805
299.02	10.512
299.38	10.534
299.75	11.724
300.12	11.257
300.48	10.804
300.85	11.787
301.22	10.909
301.59	11.184
301.95	11.519
302.32	12.192
302.69	12.189
303.05	11.634
303.42	12.329
303.79	12.033
304.15	11.350
304.52	10.583
304.89	10.058
305.25	11.259
305.62	9.802
305.99	10.058
306.35	10.983
306.72	9.336
307.09	10.376
307.45	11.022
307.82	11.806
308.19	10.918
308.55	10.251
308.92	11.002
309.29	9.832
309.65	11.518
310.02	10.011
310.38	11.745
310.75	12.240
311.12	11.195
311.48	11.453
311.85	11.623
312.22	10.232
312.58	11.040
312.95	10.779
313.31	11.491
313.68	10.471
314.05	9.592
314.41	11.753
314.78	10.722
315.14	11.922
315.51	11.801
315.87	11.270
316.24	13.448
316.61	11.811
316.97	13.194
317.34	12.500
317.70	13.002
318.07	12.981
318.43	12.843
318.80	11.648
319.16	12.207
319.53	13.960
319.89	14.173
320.26	14.676
320.62	14.744
320.99	12.944
321.35	14.902
321.72	15.472
322.08	15.710
322.45	16.041
322.81	15.128
323.18	14.818
323.54	15.927
323.91	16.066
324.27	17.676
324.64	17.228
325.00	17.701
325.37	20.018
325.73	17.951
326.10	20.708
326.46	19.372
326.83	19.860
327.19	19.355
327.56	21.286
327.92	21.743
328.29	21.071
328.65	22.830
329.01	21.967
329.38	21.935
329.74	23.135
330.11	22.057
330.47	22.263
330.84	22.500
331.20	23.479
331.56	23.333
331.93	23.653
332.29	23.281
332.66	23.891
333.02	23.141
333.38	24.840
333.75	24.176
334.11	23.993
334.48	24.932
334.84	25.641
335.20	24.794
335.57	23.753
335.93	24.571
336.29	23.941
336.66	24.342
337.02	25.465
337.38	24.074
337.75	25.182
338.11	25.969
338.47	26.186
338.84	25.693
339.20	24.954
339.56	25.046
339.93	25.067
340.29	25.872
340.65	25.806
341.02	25.443
341.38	25.044
341.74	24.735
342.11	24.177
342.47	24.822
342.83	25.260
343.20	24.913
343.56	25.913
343.92	26.218
344.28	25.448
344.65	24.611
345.01	26.102
345.37	25.147
345.73	25.607
346.10	27.006
346.46	25.904
346.82	25.368
347.19	25.686
347.55	25.564
347.91	26.052
348.27	24.656
348.63	25.894
349.00	25.923
349.36	26.600
349.72	25.871
350.08	25.902
350.45	25.140
350.81	24.834
351.17	26.547
351.53	26.939
351.89	24.112
352.26	26.880
352.62	26.774
352.98	25.060
353.34	26.329
353.70	26.699
354.07	25.726
354.43	25.941
354.79	25.434
355.15	26.429
355.51	26.266
355.87	26.133
356.24	26.509
356.60	24.818
356.96	27.302
357.32	26.518
357.68	25.723
358.04	26.656
358.40	26.688
358.77	27.512
359.13	25.620
359.49	25.886
359.85	26.365
360.21	26.077
360.57	25.784
360.93	27.156
361.29	25.831
361.66	27.116
362.02	26.667
362.38	27.342
362.74	26.571
363.10	27.239
363.46	28.243
363.82	27.724
364.18	26.568
364.54	27.059
364.90	26.595
365.26	26.346
365.62	27.810
365.98	27.493
366.35	27.385
366.71	27.125
367.07	27.794
367.43	26.815
367.79	27.067
368.15	27.423
368.51	27.240
368.87	26.274
369.23	26.931
369.59	27.770
369.95	27.859
370.31	27.240
370.67	28.358
371.03	27.633
371.39	28.009
371.75	27.253
372.11	28.103
372.47	28.550
372.83	28.176
373.19	27.033
373.55	28.014
373.91	29.086
374.27	28.703
374.63	29.361
374.99	28.723
375.35	28.412
375.71	29.650
376.07	28.862
376.42	28.571
376.78	29.463
377.14	28.978
377.50	28.884
377.86	28.849
378.22	28.845
378.58	28.846
378.94	28.922
379.30	29.382
379.66	29.216
380.02	28.939
380.38	28.545
380.74	29.084
381.09	29.877
381.45	29.358
381.81	29.981
382.17	30.076
382.53	28.982
382.89	29.379
383.25	29.932
383.61	29.817
383.97	29.016
384.32	30.269
384.68	29.907
385.04	29.350
385.40	29.060
385.76	30.818
386.12	30.466
386.48	30.843
386.83	28.662
387.19	30.586
387.55	30.678
387.91	30.685
388.27	30.037
388.62	30.963
388.98	29.711
389.34	29.794
389.70	30.764
390.06	30.459
390.42	29.858
390.77	30.281
391.13	30.580
391.49	31.307
391.85	31.449
392.20	30.006
392.56	30.896
392.92	30.711
393.28	32.134
393.64	30.931
393.99	32.539
394.35	30.740
394.71	31.418
395.07	30.421
395.42	29.994
395.78	31.401
396.14	30.769
396.50	31.579
396.85	32.131
397.21	31.955
397.57	30.721
397.92	31.216
398.28	31.667
398.64	30.181
399.00	31.885
399.35	30.756
399.71	29.983
400.07	31.681
400.42	31.028
400.78	31.904
401.14	31.397
401.49	31.983
401.85	31.322
402.21	31.084
402.57	31.188
402.92	30.928
403.28	31.642
403.63	31.463
403.99	31.569
404.35	32.979
404.70	30.595
405.06	31.022
405.42	31.510
405.77	32.191
406.13	31.141
406.49	32.268
406.84	32.518
407.20	31.487
407.55	30.586
407.91	31.484
408.27	32.505
408.62	32.492
408.98	32.101
409.34	32.280
409.69	30.879
410.05	31.219
410.40	31.605
410.76	32.630
411.11	32.812
411.47	31.755
411.83	31.513
412.18	32.239
412.54	32.210
412.89	31.897
413.25	32.010
413.60	32.919
413.96	32.393
414.31	32.805
414.67	32.264
415.03	31.425
415.38	32.702
415.74	32.834
416.09	32.985
416.45	32.546
416.80	31.593
417.16	33.425
417.51	33.311
417.87	31.747
418.22	32.383
418.58	32.107
418.93	32.665
419.29	31.242
419.64	31.951
420.00	33.438
420.35	32.537
420.71	31.652
421.06	32.781
421.42	32.933
421.77	32.948
422.12	31.612
422.48	33.135
422.83	31.671
423.19	32.336
423.54	32.099
423.90	32.155
424.25	33.123
424.61	32.681
424.96	31.882
425.31	34.662
425.67	34.272
426.02	33.628
426.38	34.314
426.73	33.898
427.09	34.430
427.44	33.471
427.79	33.353
428.15	34.648
428.50	34.282
428.85	32.617
429.21	33.899
429.56	33.639
429.92	32.614
430.27	33.484
430.62	32.619
430.98	33.917
431.33	34.280
431.68	33.490
432.04	33.874
432.39	33.485
432.74	33.434
433.10	33.966
433.45	33.453
433.80	33.430
434.16	33.130
434.51	33.548
434.86	34.727
435.22	33.707
435.57	34.248
435.92	33.772
436.28	34.168
436.63	33.086
436.98	32.966
437.34	33.394
437.69	34.884
438.04	34.131
438.39	33.415
438.75	35.458
439.10	33.673
439.45	34.814
439.81	34.985
440.16	35.986
440.51	35.224
440.86	35.710
441.22	34.842
441.57	34.823
441.92	35.519
442.27	35.033
442.63	34.636
442.98	34.980
443.33	34.502
443.68	34.907
444.03	34.923
444.39	34.924
444.74	36.232
445.09	36.247
445.44	36.125
445.79	36.926
446.15	35.518
446.50	35.053
446.85	36.663
447.20	35.506
447.55	35.435
447.91	35.646
448.26	35.913
448.61	35.003
448.96	36.890
449.31	36.474
449.66	35.714
450.02	35.083
450.37	36.218
450.72	36.541
451.07	36.456
451.42	35.893
451.77	36.046
452.12	35.467
452.47	35.222
452.83	36.042
453.18	34.978
453.53	35.651
453.88	35.823
454.23	36.939
454.58	36.965
454.93	36.340
455.28	35.365
455.63	35.896
455.98	36.861
456.34	35.824
456.69	36.595
457.04	37.681
457.39	35.723
457.74	36.518
458.09	35.609
458.44	35.810
458.79	35.742
459.14	35.812
459.49	35.821
459.84	35.533
460.19	36.044
460.54	36.186
460.89	35.852
461.24	37.329
461.59	36.520
461.94	35.975
462.29	36.731
462.64	37.542
462.99	37.102
463.34	36.787
463.69	36.486
464.04	36.380
464.39	37.235
464.74	35.644
465.09	37.430
465.44	37.796
465.79	37.132
466.14	36.887
466.49	36.343
466.84	37.359
467.19	36.984
467.54	36.462
467.89	37.840
468.24	36.922
468.59	37.333
468.94	36.889
469.29	37.443
469.64	36.910
469.99	39.173
470.34	37.065
470.68	38.777
471.03	38.004
471.38	38.802
471.73	38.515
472.08	37.246
472.43	37.785
472.78	38.108
473.13	38.571
473.48	37.850
473.83	37.547
474.17	38.212
474.52	37.396
474.87	38.606
475.22	38.621
475.57	37.211
475.92	38.563
476.27	39.173
476.61	39.873
476.96	35.862
477.31	38.886
477.66	38.652
478.01	38.069
478.36	36.819
478.70	39.804
479.05	38.846
479.40	37.573
479.75	38.425
480.10	38.505
480.45	37.600
480.79	38.066
481.14	39.344
481.49	37.094
481.84	37.983
482.19	38.447
482.53	38.417
482.88	38.282
483.23	38.004
483.58	37.783
483.92	38.480
484.27	37.420
484.62	37.831
484.97	37.521
485.31	37.175
485.66	34.901
486.01	34.590
486.36	35.270
486.70	35.658
487.05	36.319
487.40	36.841
487.75	36.479
488.09	36.279
488.44	36.348
488.79	37.355
489.13	38.862
489.48	38.948
489.83	37.982
490.17	38.067
490.52	37.182
490.87	38.223
491.22	38.682
491.56	38.188
491.91	37.524
492.26	39.135
492.60	38.484
492.95	39.547
493.30	38.837
493.64	38.605
493.99	39.517
494.34	38.350
494.68	38.429
495.03	39.173
495.37	39.058
495.72	39.273
496.07	40.293
496.41	38.632
496.76	39.199
497.11	38.426
497.45	38.473
497.80	39.707
498.14	39.295
498.49	39.766
498.84	39.022
499.18	39.408
499.53	39.038
499.87	38.230
500.22	39.416
500.56	40.192
500.91	39.207
501.26	38.655
501.60	38.810
501.95	39.350
502.29	39.419
502.64	39.913
502.98	40.701
503.33	38.761
503.67	39.663
504.02	39.638
504.36	39.782
504.71	39.192
505.06	39.004
505.40	40.203
505.75	40.619
506.09	40.091
506.44	40.862
506.78	40.612
507.13	39.814
507.47	40.574
507.82	40.171
508.16	41.310
508.51	41.028
508.85	41.183
509.19	41.831
509.54	41.930
509.88	40.992
510.23	42.873
510.57	41.529
510.92	39.925
511.26	41.953
511.61	41.804
511.95	41.151
512.30	41.519
512.64	41.736
512.98	42.392
513.33	42.473
513.67	41.558
514.02	42.449
514.36	42.800
514.70	43.298
515.05	42.949
515.39	43.684
515.74	45.150
516.08	44.112
516.42	43.816
516.77	44.061
517.11	43.680
517.46	44.524
517.80	45.352
518.14	43.601
518.49	43.810
518.83	44.957
519.17	44.209
519.52	43.339
519.86	44.478
520.20	45.383
520.55	44.278
520.89	44.918
521.23	44.015
521.58	45.678
521.92	45.641
522.26	45.283
522.61	44.286
522.95	45.430
523.29	46.315
523.64	44.790
523.98	46.403
524.32	45.425
524.66	46.031
525.01	46.494
525.35	46.662
525.69	46.330
526.04	45.569
526.38	46.757
526.72	44.343
527.06	45.460
527.41	46.636
527.75	45.442
528.09	46.445
528.43	48.346
528.78	44.950
529.12	45.935
529.46	45.549
529.80	45.282
530.15	46.403
530.49	45.993
530.83	45.691
531.17	46.004
531.51	46.033
531.86	45.819
532.20	45.372
532.54	46.358
532.88	46.954
533.22	44.556
533.57	45.085
533.91	44.191
534.25	46.289
534.59	44.965
534.93	44.997
535.27	44.353
535.62	45.690
535.96	46.053
536.30	46.702
536.64	46.933
536.98	45.505
537.32	46.586
537.66	46.073
538.01	46.224
538.35	46.255
538.69	45.539
539.03	44.566
539.37	45.155
539.71	45.126
540.05	44.807
540.39	46.330
540.73	46.234
541.07	45.304
541.42	46.102
541.76	45.836
542.10	45.630
542.44	44.684
542.78	45.423
543.12	45.536
543.46	45.063
543.80	45.593
544.14	44.526
544.48	45.103
544.82	44.908
545.16	45.765
545.50	44.192
545.84	46.105
546.18	46.099
546.52	46.359
546.86	44.716
547.20	45.780
547.54	44.382
547.88	44.293
548.22	44.247
548.56	44.855
548.90	44.609
549.24	44.904
549.58	45.769
549.92	44.889
550.26	44.908
550.60	46.468
550.94	46.154
551.28	45.981
551.62	46.308
551.96	45.188
552.30	45.541
552.64	44.922
552.98	46.132
553.32	44.437
553.66	45.283
554.00	45.255
554.34	45.864
554.68	44.764
555.02	45.536
555.36	44.503
555.69	45.128
556.03	44.825
556.37	44.413
556.71	44.693
557.05	44.892
557.39	43.494
557.73	46.552
558.07	46.078
558.41	46.937
558.75	45.207
559.08	45.863
559.42	45.794
559.76	46.277
560.10	44.954
560.44	44.006
560.78	44.056
561.12	45.487
561.45	46.030
561.79	44.188
562.13	45.564
562.47	45.108
562.81	45.821
563.15	44.076
563.48	44.837
563.82	44.544
564.16	46.031
564.50	44.122
564.84	44.980
565.17	44.333
565.51	46.448
565.85	44.582
566.19	44.164
566.52	44.303
566.86	44.344
567.20	43.524
567.54	43.856
567.88	44.405
568.21	44.005
568.55	42.174
568.89	42.864
569.23	41.984
569.56	41.594
569.90	40.885
570.24	39.821
570.57	41.091
570.91	40.119
571.25	39.658
571.59	38.524
571.92	38.370
572.26	38.647
572.60	38.884
572.93	38.594
573.27	38.339
573.61	38.246
573.95	38.886
574.28	38.030
574.62	37.656
574.96	37.622
575.29	37.759
575.63	37.367
575.97	37.381
576.30	37.813
576.64	37.775
576.98	37.761
577.31	37.995
577.65	37.133
577.98	37.701
578.32	36.934
578.66	36.278
578.99	37.155
579.33	36.972
579.67	37.118
580.00	37.443
580.34	37.786
580.67	36.548
581.01	37.560
581.35	37.059
581.68	36.115
582.02	36.043
582.35	36.472
582.69	36.833
583.02	36.552
583.36	37.213
583.70	38.136
584.03	38.588
584.37	37.945
584.70	37.912
585.04	36.658
585.37	36.953
585.71	37.423
586.04	37.141
586.38	36.863
586.72	37.704
587.05	37.695
587.39	37.769
587.72	37.698
588.06	37.116
588.39	37.710
588.73	38.065
589.06	38.389
589.40	38.196
589.73	38.810
590.07	38.935
590.40	38.971
590.73	40.404
591.07	38.931
591.40	39.359
591.74	39.593
592.07	39.610
592.41	39.620
592.74	38.431
593.08	36.884
593.41	37.858
593.75	37.259
594.08	37.281
594.41	37.809
594.75	38.244
595.08	37.571
595.42	37.909
595.75	38.903
596.09	38.546
596.42	38.776
596.75	38.632
597.09	39.043
597.42	38.437
597.75	39.304
598.09	38.207
598.42	38.538
598.76	38.610
599.09	37.420
599.42	37.059
599.76	37.547
600.09	37.783
600.42	37.225
600.76	37.147
601.09	37.290
601.42	36.976
601.76	37.753
602.09	37.748
602.42	39.090
602.76	38.031
603.09	38.621
603.42	39.799
603.76	37.782
604.09	37.667
604.42	37.648
604.76	38.852
605.09	39.077
605.42	38.826
605.75	37.522
606.09	37.410
606.42	37.406
606.75	38.355
607.09	38.154
607.42	37.749
607.75	37.522
608.08	38.679
608.42	37.095
608.75	38.795
609.08	37.469
609.41	37.563
609.75	38.962
610.08	39.491
610.41	38.406
610.74	38.176
611.07	38.915
611.41	39.491
611.74	39.499
612.07	38.223
612.40	39.770
612.73	39.435
613.07	38.976
613.40	38.731
613.73	37.997
614.06	38.843
614.39	39.989
614.72	38.319
615.06	38.883
615.39	36.954
615.72	38.052
616.05	37.877
616.38	37.721
616.71	39.266
617.05	38.851
617.38	39.661
617.71	40.000
618.04	41.206
618.37	40.479
618.70	39.472
619.03	40.486
619.36	39.942
619.69	42.002
620.03	41.490
620.36	41.917
620.69	39.686
621.02	39.602
621.35	42.407
621.68	42.687
622.01	42.583
622.34	39.824
622.67	41.009
623.00	40.735
623.33	40.777
623.66	41.137
623.99	40.091
624.32	41.217
624.65	40.602
624.99	41.610
625.32	40.030
625.65	41.241
625.98	42.546
626.31	39.983
626.64	42.114
626.97	43.106
627.30	41.944
627.63	42.808
627.96	42.498
628.29	41.906
628.62	43.559
628.95	43.788
629.28	44.052
629.61	41.675
629.94	43.891
630.26	42.194
630.59	44.329
630.92	43.179
631.25	41.231
631.58	43.612
631.91	43.969
632.24	45.069
632.57	43.977
632.90	44.721
633.23	43.647
633.56	46.222
