SpectraSuite Data File
++++++++++++++++++++++++++++++++++++
Date: Fri May 15 20:46:19 PDT 2015
User: schluterlab
Dark Spectrum Present: Yes
Reference Spectrum Present: Yes
Number of Sampled Component Spectra: 1
Spectrometers: USB2E3373
Integration Time (usec): 3000 (USB2E3373)
Spectra Averaged: 3 (USB2E3373)
Boxcar Smoothing: 0 (USB2E3373)
Correct for Electrical Dark: No (USB2E3373)
Strobe/Lamp Enabled: No (USB2E3373)
Correct for Detector Non-linearity: No (USB2E3373)
Correct for Stray Light: No (USB2E3373)
Number of Pixels in Processed Spectrum: 2048
>>>>>Begin Processed Spectral Data<<<<<
178.53	0.000
178.91	0.000
179.29	62.500
179.67	-800.000
180.04	-57.143
180.42	100.000
180.80	-700.000
181.18	-0.000
181.56	850.000
181.94	-100.000
182.31	900.000
182.69	-240.000
183.07	-300.000
183.45	-160.000
183.83	-16.667
184.20	-18.182
184.58	33.333
184.96	50.000
185.34	200.000
185.72	-550.000
186.09	115.385
186.47	-1000.000
186.85	150.000
187.23	122.222
187.61	100.000
187.98	-200.000
188.36	-11.111
188.74	-200.000
189.12	-11.765
189.49	27.778
189.87	0.000
190.25	-21.429
190.63	-50.000
191.00	-300.000
191.38	42.105
191.76	200.000
192.14	150.000
192.51	100.000
192.89	-188.889
193.27	-114.286
193.65	183.333
194.02	209.091
194.40	20.000
194.78	-112.500
195.15	-66.667
195.53	-112.500
195.91	375.000
196.29	-250.000
196.66	69.231
197.04	142.857
197.42	-44.444
197.79	-733.333
198.17	-69.231
198.55	700.000
198.92	-366.667
199.30	-300.000
199.68	-140.000
200.05	-233.333
200.43	0.000
200.81	-400.000
201.18	-133.333
201.56	1100.000
201.94	100.000
202.31	-33.333
202.69	-380.000
203.07	125.000
203.44	800.000
203.82	0.000
204.19	-21.429
204.57	-633.333
204.95	37.500
205.32	-20.000
205.70	-57.143
206.08	125.000
206.45	111.111
206.83	50.000
207.20	-100.000
207.58	100.000
207.96	-300.000
208.33	-90.000
208.71	-150.000
209.08	-350.000
209.46	-1300.000
209.84	-240.000
210.21	-1300.000
210.59	-57.143
210.96	66.667
211.34	25.000
211.71	20.000
212.09	71.429
212.46	-2200.000
212.84	0.000
213.22	-40.000
213.59	200.000
213.97	15.385
214.34	45.455
214.72	-166.667
215.09	650.000
215.47	-38.462
215.84	-163.636
216.22	-300.000
216.59	-87.500
216.97	-100.000
217.34	75.000
217.72	-360.000
218.09	100.000
218.47	100.000
218.84	-100.000
219.22	-100.000
219.59	-100.000
219.97	166.667
220.34	100.000
220.72	0.000
221.09	-350.000
221.47	-250.000
221.84	-500.000
222.22	-650.000
222.59	45.455
222.97	-16.667
223.34	-233.333
223.72	-35.714
224.09	-19.048
224.46	25.000
224.84	533.333
225.21	-20.000
225.59	20.000
225.96	-350.000
226.34	575.000
226.71	-28.571
227.08	-50.000
227.46	62.500
227.83	-550.000
228.21	-11.111
228.58	54.545
228.95	-37.500
229.33	30.000
229.70	-31.250
230.08	-212.500
230.45	-57.143
230.82	28.571
231.20	-80.000
231.57	64.286
231.95	-142.857
232.32	-40.000
232.69	42.857
233.07	100.000
233.44	-100.000
233.81	-80.000
234.19	100.000
234.56	-47.059
234.93	500.000
235.31	50.000
235.68	-80.000
236.05	23.077
236.43	55.000
236.80	47.059
237.17	37.500
237.55	10.000
237.92	22.222
238.29	58.333
238.67	50.000
239.04	41.176
239.41	24.390
239.79	50.000
240.16	46.341
240.53	28.947
240.91	28.261
241.28	58.730
241.65	66.071
242.02	60.274
242.40	70.000
242.77	61.017
243.14	63.636
243.51	57.500
243.89	66.667
244.26	55.172
244.63	73.810
245.00	55.670
245.38	67.010
245.75	60.674
246.12	56.897
246.49	61.157
246.87	73.077
247.24	57.983
247.61	69.298
247.98	73.984
248.36	65.000
248.73	71.053
249.10	71.429
249.47	69.620
249.84	68.627
250.22	69.412
250.59	68.627
250.96	64.789
251.33	71.512
251.70	77.647
252.08	71.066
252.45	68.317
252.82	72.362
253.19	70.968
253.56	68.692
253.94	71.622
254.31	73.478
254.68	78.509
255.05	68.898
255.42	73.799
255.79	67.954
256.16	72.374
256.54	69.403
256.91	67.300
257.28	70.260
257.65	70.787
258.02	69.858
258.39	73.064
258.76	74.725
259.14	72.425
259.51	68.285
259.88	72.509
260.25	71.242
260.62	76.389
260.99	71.186
261.36	68.493
261.73	72.468
262.10	71.125
262.47	73.006
262.85	68.966
263.22	70.462
263.59	75.389
263.96	75.155
264.33	76.061
264.70	72.619
265.07	74.702
265.44	77.054
265.81	75.141
266.18	74.044
266.55	72.237
266.92	75.389
267.29	72.324
267.66	70.588
268.03	71.466
268.40	73.107
268.77	77.005
269.14	68.106
269.51	73.522
269.88	71.571
270.25	71.429
270.62	69.024
270.99	72.123
271.36	70.416
271.73	70.657
272.10	75.426
272.47	73.759
272.84	74.752
273.21	72.622
273.58	72.771
273.95	73.227
274.32	69.746
274.69	65.611
275.06	71.875
275.43	67.574
275.80	71.302
276.17	68.736
276.54	67.666
276.91	71.053
277.28	67.686
277.65	69.835
278.02	70.638
278.39	72.429
278.76	73.166
279.13	66.183
279.50	72.899
279.87	71.274
280.23	67.742
280.60	63.938
280.97	67.677
281.34	67.500
281.71	70.021
282.08	69.939
282.45	68.885
282.82	66.602
283.19	69.826
283.56	66.667
283.92	66.034
284.29	67.692
284.66	66.085
285.03	69.352
285.40	66.352
285.77	63.972
286.14	64.440
286.51	68.081
286.87	63.985
287.24	66.851
287.61	63.668
287.98	66.140
288.35	63.085
288.72	67.776
289.08	62.153
289.45	63.796
289.82	63.462
290.19	60.751
290.56	63.293
290.93	61.785
291.29	55.624
291.66	60.945
292.03	58.852
292.40	60.484
292.77	57.576
293.13	56.494
293.50	58.422
293.87	56.947
294.24	55.332
294.60	57.377
294.97	52.976
295.34	55.521
295.71	54.545
296.08	54.709
296.44	51.920
296.81	53.056
297.18	51.739
297.55	53.252
297.91	50.959
298.28	51.583
298.65	51.018
299.02	49.057
299.38	49.932
299.75	52.276
300.12	49.346
300.48	48.353
300.85	49.176
301.22	47.922
301.59	48.289
301.95	50.633
302.32	50.843
302.69	49.751
303.05	47.772
303.42	47.821
303.79	48.949
304.15	49.462
304.52	46.730
304.89	46.784
305.25	46.731
305.62	46.558
305.99	45.380
306.35	47.746
306.72	45.782
307.09	46.180
307.45	47.302
307.82	47.106
308.19	46.109
308.55	45.802
308.92	46.732
309.29	44.469
309.65	45.533
310.02	45.765
310.38	44.896
310.75	45.902
311.12	47.147
311.48	42.948
311.85	44.817
312.22	43.249
312.58	45.117
312.95	44.397
313.31	44.203
313.68	44.817
314.05	44.490
314.41	44.742
314.78	44.742
315.14	45.529
315.51	45.031
315.87	45.287
316.24	46.714
316.61	44.193
316.97	43.849
317.34	44.238
317.70	42.639
318.07	43.077
318.43	44.314
318.80	43.939
319.16	45.117
319.53	43.970
319.89	43.996
320.26	44.636
320.62	44.233
320.99	42.797
321.35	43.679
321.72	44.548
322.08	43.202
322.45	43.858
322.81	43.713
323.18	44.455
323.54	44.208
323.91	42.454
324.27	42.578
324.64	43.258
325.00	42.427
325.37	43.526
325.73	42.792
326.10	42.870
326.46	42.960
326.83	42.695
327.19	42.720
327.56	42.659
327.92	42.606
328.29	42.768
328.65	43.962
329.01	40.349
329.38	42.304
329.74	41.926
330.11	41.242
330.47	40.074
330.84	41.346
331.20	43.441
331.56	41.204
331.93	42.466
332.29	42.896
332.66	40.362
333.02	41.450
333.38	41.522
333.75	42.216
334.11	40.555
334.48	40.979
334.84	41.850
335.20	41.903
335.57	40.707
335.93	40.921
336.29	40.884
336.66	40.872
337.02	41.078
337.38	40.370
337.75	39.182
338.11	40.036
338.47	41.332
338.84	40.573
339.20	41.133
339.56	40.459
339.93	40.286
340.29	40.550
340.65	39.516
341.02	39.184
341.38	39.646
341.74	40.194
342.11	38.821
342.47	37.900
342.83	39.533
343.20	39.721
343.56	39.826
343.92	40.035
344.28	39.966
344.65	40.674
345.01	38.375
345.37	39.445
345.73	40.251
346.10	40.035
346.46	38.520
346.82	38.625
347.19	38.321
347.55	38.179
347.91	38.754
348.27	38.480
348.63	40.204
349.00	38.556
349.36	38.321
349.72	39.303
350.08	38.279
350.45	38.148
350.81	38.040
351.17	37.052
351.53	38.694
351.89	37.242
352.26	37.600
352.62	37.581
352.98	36.466
353.34	36.473
353.70	38.107
354.07	36.452
354.43	38.351
354.79	37.655
355.15	38.254
355.51	38.449
355.87	38.107
356.24	37.357
356.60	36.944
356.96	38.413
357.32	36.821
357.68	37.373
358.04	37.480
358.40	37.942
358.77	37.480
359.13	36.829
359.49	35.516
359.85	36.193
360.21	37.161
360.57	35.425
360.93	36.309
361.29	35.650
361.66	36.834
362.02	36.515
362.38	37.243
362.74	35.276
363.10	36.795
363.46	36.027
363.82	37.340
364.18	36.753
364.54	36.397
364.90	36.416
365.26	35.953
365.62	37.518
365.98	36.657
366.35	37.363
366.71	36.511
367.07	36.357
367.43	36.305
367.79	35.689
368.15	36.037
368.51	36.125
368.87	34.243
369.23	34.513
369.59	36.152
369.95	36.730
370.31	35.910
370.67	34.478
371.03	36.146
371.39	34.865
371.75	35.604
372.11	35.235
372.47	35.577
372.83	36.480
373.19	34.807
373.55	34.729
373.91	34.989
374.27	34.869
374.63	35.176
374.99	34.681
375.35	35.167
375.71	35.455
376.07	36.025
376.42	35.510
376.78	35.101
377.14	34.191
377.50	35.724
377.86	35.475
378.22	34.397
378.58	35.513
378.94	34.279
379.30	33.999
379.66	34.608
380.02	34.028
380.38	34.388
380.74	34.470
381.09	35.153
381.45	34.740
381.81	35.225
382.17	34.201
382.53	34.104
382.89	34.903
383.25	34.848
383.61	34.756
383.97	34.349
384.32	34.459
384.68	34.613
385.04	34.314
385.40	33.665
385.76	35.346
386.12	35.317
386.48	34.100
386.83	33.037
387.19	34.310
387.55	34.504
387.91	34.902
388.27	33.150
388.62	35.179
388.98	34.070
389.34	34.041
389.70	34.742
390.06	33.858
390.42	33.484
390.77	34.402
391.13	33.417
391.49	33.635
391.85	33.593
392.20	32.643
392.56	33.058
392.92	33.705
393.28	33.078
393.64	34.294
393.99	35.423
394.35	34.219
394.71	33.780
395.07	32.872
395.42	34.366
395.78	33.290
396.14	32.472
396.50	33.925
396.85	32.775
397.21	33.083
397.57	33.292
397.92	32.834
398.28	34.943
398.64	32.349
399.00	33.578
399.35	32.788
399.71	33.199
400.07	33.857
400.42	32.925
400.78	33.864
401.14	33.394
401.49	33.294
401.85	32.968
402.21	33.434
402.57	33.438
402.92	32.999
403.28	33.584
403.63	32.850
403.99	33.865
404.35	34.104
404.70	32.024
405.06	32.256
405.42	32.753
405.77	32.074
406.13	32.014
406.49	32.090
406.84	33.619
407.20	32.932
407.55	32.775
407.91	33.356
408.27	33.015
408.62	33.108
408.98	32.532
409.34	32.466
409.69	32.881
410.05	32.635
410.40	32.593
410.76	32.992
411.11	32.500
411.47	33.728
411.83	32.957
412.18	33.655
412.54	32.335
412.89	32.143
413.25	33.394
413.60	31.988
413.96	32.270
414.31	32.317
414.67	32.649
415.03	31.691
415.38	32.115
415.74	32.899
416.09	33.312
416.45	33.086
416.80	32.716
417.16	33.011
417.51	32.845
417.87	32.138
418.22	32.966
418.58	32.575
418.93	33.166
419.29	31.818
419.64	33.701
420.00	33.879
420.35	32.000
420.71	33.354
421.06	32.658
421.42	32.632
421.77	31.214
422.12	32.293
422.48	32.160
422.83	32.367
423.19	32.111
423.54	32.040
423.90	33.510
424.25	33.352
424.61	33.599
424.96	32.927
425.31	33.738
425.67	33.451
426.02	33.569
426.38	34.001
426.73	32.748
427.09	33.608
427.44	33.059
427.79	32.410
428.15	32.828
428.50	32.647
428.85	32.371
429.21	32.654
429.56	33.639
429.92	33.077
430.27	32.180
430.62	32.358
430.98	32.325
431.33	32.650
431.68	32.444
432.04	33.091
432.39	32.230
432.74	33.494
433.10	33.103
433.45	31.720
433.80	32.966
434.16	32.410
434.51	33.441
434.86	33.391
435.22	32.586
435.57	33.375
435.92	33.593
436.28	32.141
436.63	33.029
436.98	32.213
437.34	32.970
437.69	33.333
438.04	31.852
438.39	32.376
438.75	32.605
439.10	32.654
439.45	32.623
439.81	32.661
440.16	33.314
440.51	33.373
440.86	33.474
441.22	32.692
441.57	33.720
441.92	33.211
442.27	32.650
442.63	33.458
442.98	33.027
443.33	33.222
443.68	33.156
444.03	33.135
444.39	33.251
444.74	33.445
445.09	33.296
445.44	33.561
445.79	33.780
446.15	32.985
446.50	32.390
446.85	32.944
447.20	32.534
447.55	32.980
447.91	32.713
448.26	33.352
448.61	32.758
448.96	33.276
449.31	32.890
449.66	32.753
450.02	33.485
450.37	33.136
450.72	32.761
451.07	33.165
451.42	32.709
451.77	32.851
452.12	32.297
452.47	32.904
452.83	33.569
453.18	32.764
453.53	34.008
453.88	33.515
454.23	33.251
454.58	34.824
454.93	33.634
455.28	31.937
455.63	33.354
455.98	33.313
456.34	33.269
456.69	33.990
457.04	33.522
457.39	33.232
457.74	31.862
458.09	32.666
458.44	32.066
458.79	32.549
459.14	33.181
459.49	34.090
459.84	33.615
460.19	33.434
460.54	33.924
460.89	34.318
461.24	33.851
461.59	34.086
461.94	32.453
462.29	33.474
462.64	33.953
462.99	32.905
463.34	33.032
463.69	32.690
464.04	33.717
464.39	32.323
464.74	32.945
465.09	33.437
465.44	33.468
465.79	33.220
466.14	33.637
466.49	32.087
466.84	34.622
467.19	34.418
467.54	33.333
467.89	33.291
468.24	33.698
468.59	33.270
468.94	32.635
469.29	32.852
469.64	33.698
469.99	33.777
470.34	33.311
470.68	33.482
471.03	34.466
471.38	32.882
471.73	32.213
472.08	33.379
472.43	32.617
472.78	32.077
473.13	33.401
473.48	32.573
473.83	32.690
474.17	34.003
474.52	32.738
474.87	33.515
475.22	33.069
475.57	33.089
475.92	33.736
476.27	33.702
476.61	33.796
476.96	32.571
477.31	32.720
477.66	33.876
478.01	34.026
478.36	32.462
478.70	33.496
479.05	34.451
479.40	33.174
479.75	32.638
480.10	32.668
480.45	32.550
480.79	34.240
481.14	33.658
481.49	33.153
481.84	33.929
482.19	33.349
482.53	33.381
482.88	33.270
483.23	33.493
483.58	32.783
483.92	32.914
484.27	33.045
484.62	33.079
484.97	33.209
485.31	33.020
485.66	31.730
486.01	32.528
486.36	33.317
486.70	34.883
487.05	34.353
487.40	34.049
487.75	34.310
488.09	33.591
488.44	34.216
488.79	34.479
489.13	33.574
489.48	32.877
489.83	34.036
490.17	32.764
490.52	32.933
490.87	32.207
491.22	32.665
491.56	32.448
491.91	32.839
492.26	33.301
492.60	32.678
492.95	33.546
493.30	31.803
493.64	33.546
493.99	33.140
494.34	32.718
494.68	33.952
495.03	33.090
495.37	33.660
495.72	32.862
496.07	33.317
496.41	32.830
496.76	33.164
497.11	32.557
497.45	33.413
497.80	33.552
498.14	33.482
498.49	33.215
498.84	32.585
499.18	32.831
499.53	33.036
499.87	32.490
500.22	32.394
500.56	32.627
500.91	32.380
501.26	33.465
501.60	33.005
501.95	32.606
502.29	33.269
502.64	33.542
502.98	32.906
503.33	32.229
503.67	32.964
504.02	33.040
504.36	33.795
504.71	33.081
505.06	32.209
505.40	32.234
505.75	31.907
506.09	31.931
506.44	33.727
506.78	33.367
507.13	33.971
507.47	32.115
507.82	32.105
508.16	32.435
508.51	33.473
508.85	33.019
509.19	32.837
509.54	32.225
509.88	32.470
510.23	33.620
510.57	32.977
510.92	31.876
511.26	32.515
511.61	32.728
511.95	32.548
512.30	32.483
512.64	32.554
512.98	32.566
513.33	32.792
513.67	32.689
514.02	34.096
514.36	33.543
514.70	33.800
515.05	34.430
515.39	32.113
515.74	33.174
516.08	32.158
516.42	33.628
516.77	33.119
517.11	33.353
517.46	33.393
517.80	33.194
518.14	32.823
518.49	32.392
518.83	32.260
519.17	31.959
519.52	34.221
519.86	33.193
520.20	34.204
520.55	32.270
520.89	32.434
521.23	32.932
521.58	33.312
521.92	32.756
522.26	32.206
522.61	32.922
522.95	32.583
523.29	31.639
523.64	33.100
523.98	32.728
524.32	32.023
524.66	33.547
525.01	33.377
525.35	33.312
525.69	32.121
526.04	31.481
526.38	34.565
526.72	31.916
527.06	32.425
527.41	31.530
527.75	32.440
528.09	32.558
528.43	33.761
528.78	32.937
529.12	32.645
529.46	33.658
529.80	31.856
530.15	32.937
530.49	33.064
530.83	34.131
531.17	33.042
531.51	32.558
531.86	33.651
532.20	32.777
532.54	32.743
532.88	34.018
533.22	33.132
533.57	33.683
533.91	32.702
534.25	33.268
534.59	32.777
534.93	32.851
535.27	32.805
535.62	32.016
535.96	32.811
536.30	33.443
536.64	33.563
536.98	32.056
537.32	35.420
537.66	34.712
538.01	33.147
538.35	33.495
538.69	34.154
539.03	32.126
539.37	33.513
539.71	32.720
540.05	33.809
540.39	34.003
540.73	33.333
541.07	34.323
541.42	34.341
541.76	34.136
542.10	34.067
542.44	33.773
542.78	31.796
543.12	32.898
543.46	32.476
543.80	32.894
544.14	32.977
544.48	33.378
544.82	33.219
545.16	34.085
545.50	33.645
545.84	34.844
546.18	33.617
546.52	33.165
546.86	34.292
547.20	34.049
547.54	32.155
547.88	34.035
548.22	32.610
548.56	33.773
548.90	33.962
549.24	33.127
549.58	34.062
549.92	33.095
550.26	33.773
550.60	34.572
550.94	34.578
551.28	34.003
551.62	33.692
551.96	32.782
552.30	33.699
552.64	34.344
552.98	32.771
553.32	34.165
553.66	33.019
554.00	33.723
554.34	34.860
554.68	33.112
555.02	33.854
555.36	35.228
555.69	31.795
556.03	33.547
556.37	32.811
556.71	33.646
557.05	33.706
557.39	32.639
557.73	33.133
558.07	34.314
558.41	33.308
558.75	33.983
559.08	32.782
559.42	32.460
559.76	34.347
560.10	32.416
560.44	34.177
560.78	33.077
561.12	33.709
561.45	33.942
561.79	34.104
562.13	33.073
562.47	33.381
562.81	34.294
563.15	33.286
563.48	33.876
563.82	34.180
564.16	32.939
564.50	33.919
564.84	33.066
565.17	33.602
565.51	35.656
565.85	34.842
566.19	34.814
566.52	33.914
566.86	34.704
567.20	33.998
567.54	33.942
567.88	34.856
568.21	35.520
568.55	33.641
568.89	35.472
569.23	35.002
569.56	35.771
569.90	34.714
570.24	34.127
570.57	34.727
570.91	35.831
571.25	34.561
571.59	34.880
571.92	34.104
572.26	34.541
572.60	34.543
572.93	35.111
573.27	35.172
573.61	34.785
573.95	35.063
574.28	34.375
574.62	34.376
574.96	34.306
575.29	34.831
575.63	34.128
575.97	34.589
576.30	34.186
576.64	33.987
576.98	35.058
577.31	34.726
577.65	34.954
577.98	34.615
578.32	34.765
578.66	34.515
578.99	34.581
579.33	34.199
579.67	34.141
580.00	34.684
580.34	34.453
580.67	34.298
581.01	34.678
581.35	34.690
581.68	34.678
582.02	34.667
582.35	35.116
582.69	35.372
583.02	35.377
583.36	35.841
583.70	36.371
584.03	35.919
584.37	35.855
584.70	35.440
585.04	34.430
585.37	34.742
585.71	34.732
586.04	34.871
586.38	33.902
586.72	34.778
587.05	35.442
587.39	35.309
587.72	36.277
588.06	35.151
588.39	35.403
588.73	35.073
589.06	36.399
589.40	35.603
589.73	36.291
590.07	35.574
590.40	36.262
590.73	37.068
591.07	35.369
591.40	34.996
591.74	35.430
592.07	35.993
592.41	35.292
592.74	35.325
593.08	34.090
593.41	35.552
593.75	35.165
594.08	34.089
594.41	35.553
594.75	35.038
595.08	34.885
595.42	35.812
595.75	35.824
596.09	35.966
596.42	35.180
596.75	35.835
597.09	34.897
597.42	34.959
597.75	35.685
598.09	34.450
598.42	34.477
598.76	33.891
599.09	34.615
599.42	34.293
599.76	33.785
600.09	35.219
600.42	34.647
600.76	34.064
601.09	35.153
601.42	34.548
601.76	34.577
602.09	35.314
602.42	36.858
602.76	34.677
603.09	35.590
603.42	36.580
603.76	35.444
604.09	35.358
604.42	35.068
604.76	35.247
605.09	35.375
605.42	35.034
605.75	35.070
606.09	35.202
606.42	36.113
606.75	34.978
607.09	35.692
607.42	35.002
607.75	35.080
608.08	34.726
608.42	35.039
608.75	36.048
609.08	34.928
609.41	34.873
609.75	35.232
610.08	35.746
610.41	35.266
610.74	35.251
611.07	35.039
611.41	36.637
611.74	36.407
612.07	34.797
612.40	34.737
612.73	34.576
613.07	35.039
613.40	35.941
613.73	36.262
614.06	34.446
614.39	34.913
614.72	34.734
615.06	35.028
615.39	33.843
615.72	34.015
616.05	35.475
616.38	34.131
616.71	34.067
617.05	34.280
617.38	34.884
617.71	33.962
618.04	36.508
618.37	35.876
618.70	35.314
619.03	36.319
619.36	33.792
619.69	34.875
620.03	34.770
620.36	34.764
620.69	36.331
621.02	35.474
621.35	35.187
621.68	35.544
622.01	35.750
622.34	35.116
622.67	35.962
623.00	34.380
623.33	34.832
623.66	34.331
623.99	34.266
624.32	34.981
624.65	33.759
624.99	35.666
625.32	34.041
625.65	33.936
625.98	34.811
626.31	33.416
626.64	35.962
626.97	36.126
627.30	35.201
627.63	34.142
627.96	36.208
628.29	34.690
628.62	34.907
628.95	33.768
629.28	35.585
629.61	35.593
629.94	36.070
630.26	34.783
630.59	34.651
630.92	34.872
631.25	33.538
631.58	34.581
631.91	33.224
632.24	36.353
632.57	35.341
632.90	36.062
