SpectraSuite Data File
++++++++++++++++++++++++++++++++++++
Date: Fri May 15 21:11:28 PDT 2015
User: schluterlab
Dark Spectrum Present: Yes
Reference Spectrum Present: Yes
Number of Sampled Component Spectra: 1
Spectrometers: USB2E3373
Integration Time (usec): 3000 (USB2E3373)
Spectra Averaged: 3 (USB2E3373)
Boxcar Smoothing: 0 (USB2E3373)
Correct for Electrical Dark: No (USB2E3373)
Strobe/Lamp Enabled: No (USB2E3373)
Correct for Detector Non-linearity: No (USB2E3373)
Correct for Stray Light: No (USB2E3373)
Number of Pixels in Processed Spectrum: 2048
>>>>>Begin Processed Spectral Data<<<<<
178.53	0.000
178.91	0.000
179.29	100.000
179.67	-1100.000
180.04	128.571
180.42	-75.000
180.80	-700.000
181.18	-33.333
181.56	450.000
181.94	-250.000
182.31	500.000
182.69	80.000
183.07	-33.333
183.45	-40.000
183.83	-0.000
184.20	-18.182
184.58	144.444
184.96	50.000
185.34	266.667
185.72	-500.000
186.09	123.077
186.47	-500.000
186.85	266.667
187.23	133.333
187.61	-300.000
187.98	33.333
188.36	22.222
188.74	-333.333
189.12	0.000
189.49	33.333
189.87	0.000
190.25	64.286
190.63	-200.000
191.00	-200.000
191.38	5.263
191.76	-50.000
192.14	400.000
192.51	-150.000
192.89	-111.111
193.27	-100.000
193.65	216.667
194.02	172.727
194.40	20.000
194.78	-175.000
195.15	-16.667
195.53	75.000
195.91	200.000
196.29	-175.000
196.66	138.462
197.04	228.571
197.42	-66.667
197.79	-866.667
198.17	-130.769
198.55	1200.000
198.92	-500.000
199.30	-300.000
199.68	-200.000
200.05	-233.333
200.43	0.000
200.81	33.333
201.18	33.333
201.56	1500.000
201.94	-550.000
202.31	-200.000
202.69	-60.000
203.07	225.000
203.44	-200.000
203.82	0.000
204.19	42.857
204.57	-266.667
204.95	75.000
205.32	-160.000
205.70	0.000
206.08	-75.000
206.45	22.222
206.83	42.857
207.20	-142.857
207.58	1500.000
207.96	-233.333
208.33	-10.000
208.71	-50.000
209.08	-300.000
209.46	-800.000
209.84	-220.000
210.21	-600.000
210.59	71.429
210.96	-66.667
211.34	25.000
211.71	13.333
212.09	-171.429
212.46	-900.000
212.84	0.000
213.22	80.000
213.59	200.000
213.97	-61.538
214.34	90.909
214.72	50.000
215.09	375.000
215.47	-84.615
215.84	-81.818
216.22	66.667
216.59	25.000
216.97	-100.000
217.34	-50.000
217.72	-240.000
218.09	0.000
218.47	100.000
218.84	-700.000
219.22	-55.556
219.59	-40.000
219.97	500.000
220.34	200.000
220.72	-57.143
221.09	-125.000
221.47	50.000
221.84	-800.000
222.22	-850.000
222.59	36.364
222.97	-8.333
223.34	0.000
223.72	-57.143
224.09	19.048
224.46	10.714
224.84	266.667
225.21	60.000
225.59	33.333
225.96	-450.000
226.34	275.000
226.71	-157.143
227.08	-100.000
227.46	-25.000
227.83	-550.000
228.21	77.778
228.58	18.182
228.95	-87.500
229.33	80.000
229.70	-18.750
230.08	-25.000
230.45	-185.714
230.82	0.000
231.20	-53.333
231.57	64.286
231.95	-128.571
232.32	-70.000
232.69	85.714
233.07	133.333
233.44	120.000
233.81	-60.000
234.19	122.222
234.56	5.882
234.93	350.000
235.31	200.000
235.68	-120.000
236.05	-15.385
236.43	15.000
236.80	70.588
237.17	28.125
237.55	5.000
237.92	-7.407
238.29	47.222
238.67	56.667
239.04	35.294
239.41	14.634
239.79	26.667
240.16	65.854
240.53	60.526
240.91	21.739
241.28	36.508
241.65	37.500
242.02	57.534
242.40	48.333
242.77	47.458
243.14	53.030
243.51	40.000
243.89	51.724
244.26	48.276
244.63	65.476
245.00	49.485
245.38	47.423
245.75	51.685
246.12	44.828
246.49	52.893
246.87	55.769
247.24	46.218
247.61	50.000
247.98	45.528
248.36	51.250
248.73	47.368
249.10	53.247
249.47	47.468
249.84	50.980
250.22	53.529
250.59	53.595
250.96	53.052
251.33	45.349
251.70	58.824
252.08	49.746
252.45	47.525
252.82	53.266
253.19	52.995
253.56	53.738
253.94	52.703
254.31	52.609
254.68	55.263
255.05	48.425
255.42	55.459
255.79	51.351
256.16	51.751
256.54	50.000
256.91	50.190
257.28	49.071
257.65	52.434
258.02	51.773
258.39	53.199
258.76	56.410
259.14	56.478
259.51	52.751
259.88	54.983
260.25	55.556
260.62	54.861
260.99	54.576
261.36	51.712
261.73	49.051
262.10	53.191
262.47	51.227
262.85	51.411
263.22	52.923
263.59	58.879
263.96	54.658
264.33	56.061
264.70	53.869
265.07	54.167
265.44	58.357
265.81	54.237
266.18	50.820
266.55	51.157
266.92	53.109
267.29	53.003
267.66	52.430
268.03	54.188
268.40	53.003
268.77	60.428
269.14	48.921
269.51	49.357
269.88	54.115
270.25	50.510
270.62	54.634
270.99	51.407
271.36	50.122
271.73	53.991
272.10	54.988
272.47	52.719
272.84	50.248
273.21	52.204
273.58	52.530
273.95	51.259
274.32	52.194
274.69	51.584
275.06	52.902
275.43	49.206
275.80	52.759
276.17	49.425
276.54	51.606
276.91	50.000
277.28	50.655
277.65	49.793
278.02	50.851
278.39	53.829
278.76	50.524
279.13	48.755
279.50	50.000
279.87	49.460
280.23	47.312
280.60	48.928
280.97	52.727
281.34	46.538
281.71	51.540
282.08	49.489
282.45	45.205
282.82	50.000
283.19	49.710
283.56	49.904
283.92	48.767
284.29	47.692
284.66	49.806
285.03	50.884
285.40	49.527
285.77	44.288
286.14	48.195
286.51	50.369
286.87	46.801
287.24	50.276
287.61	50.617
287.98	48.772
288.35	48.180
288.72	46.935
289.08	46.528
289.45	45.518
289.82	45.979
290.19	43.003
290.56	45.283
290.93	44.949
291.29	42.835
291.66	43.622
292.03	42.903
292.40	43.065
292.77	42.903
293.13	40.909
293.50	40.819
293.87	40.611
294.24	39.876
294.60	41.282
294.97	40.625
295.34	41.871
295.71	39.493
296.08	39.910
296.44	37.696
296.81	39.028
297.18	37.536
297.55	39.973
297.91	37.397
298.28	38.654
298.65	36.635
299.02	37.601
299.38	35.157
299.75	37.241
300.12	35.209
300.48	36.891
300.85	35.995
301.22	38.052
301.59	35.526
301.95	35.190
302.32	38.003
302.69	36.567
303.05	35.891
303.42	35.492
303.79	35.981
304.15	35.723
304.52	33.769
304.89	33.918
305.25	34.262
305.62	34.656
305.99	34.620
306.35	34.220
306.72	36.108
307.09	35.348
307.45	34.214
307.82	33.333
308.19	36.469
308.55	34.569
308.92	35.948
309.29	35.307
309.65	34.446
310.02	34.433
310.38	33.370
310.75	37.158
311.12	34.984
311.48	34.040
311.85	33.822
312.22	33.650
312.58	34.183
312.95	35.005
313.31	34.369
313.68	34.555
314.05	34.592
314.41	34.124
314.78	35.361
315.14	34.841
315.51	35.507
315.87	35.451
316.24	36.805
316.61	36.516
316.97	35.913
317.34	36.719
317.70	36.807
318.07	36.058
318.43	38.333
318.80	36.648
319.16	40.039
319.53	38.367
319.89	39.075
320.26	39.271
320.62	40.020
320.99	38.935
321.35	39.054
321.72	40.291
322.08	39.879
322.45	41.117
322.81	42.240
323.18	40.236
323.54	41.988
323.91	43.038
324.27	41.406
324.64	44.288
325.00	43.613
325.37	44.720
325.73	43.608
326.10	45.141
326.46	45.381
326.83	46.019
327.19	45.161
327.56	45.873
327.92	47.535
328.29	45.714
328.65	49.245
329.01	47.335
329.38	48.571
329.74	48.253
330.11	49.490
330.47	48.330
330.84	47.692
331.20	50.951
331.56	49.444
331.93	50.868
332.29	50.229
332.66	50.407
333.02	50.929
333.38	50.412
333.75	49.908
334.11	48.254
334.48	51.043
334.84	51.007
335.20	51.327
335.57	50.045
335.93	51.762
336.29	51.473
336.66	50.318
337.02	50.186
337.38	49.815
337.75	51.364
338.11	51.037
338.47	52.646
338.84	51.664
339.20	52.285
339.56	52.385
339.93	51.746
340.29	52.477
340.65	53.763
341.02	52.216
341.38	52.566
341.74	52.739
342.11	50.520
342.47	53.203
342.83	52.855
343.20	52.700
343.56	54.957
343.92	53.764
344.28	54.825
344.65	53.886
345.01	54.538
345.37	53.827
345.73	53.808
346.10	56.514
346.46	53.574
346.82	54.583
347.19	52.702
347.55	55.305
347.91	54.369
348.27	51.900
348.63	55.196
349.00	55.537
349.36	54.530
349.72	55.721
350.08	57.459
350.45	55.547
350.81	56.229
351.17	55.945
351.53	56.245
351.89	55.739
352.26	55.840
352.62	57.742
352.98	56.064
353.34	55.636
353.70	57.039
354.07	57.823
354.43	56.445
354.79	57.391
355.15	58.016
355.51	58.070
355.87	57.120
356.24	56.362
356.60	57.720
356.96	58.254
357.32	56.949
357.68	58.092
358.04	58.401
358.40	58.119
358.77	58.453
359.13	58.847
359.49	56.163
359.85	58.034
360.21	59.809
360.57	58.761
360.93	59.455
361.29	57.704
361.66	58.934
362.02	58.636
362.38	60.244
362.74	59.500
363.10	61.249
363.46	60.934
363.82	62.134
364.18	58.524
364.54	58.824
364.90	60.645
365.26	61.063
365.62	62.263
365.98	60.704
366.35	62.345
366.71	61.197
367.07	61.466
367.43	60.748
367.79	60.777
368.15	61.019
368.51	62.782
368.87	60.302
369.23	58.412
369.59	62.026
369.95	61.657
370.31	61.416
370.67	60.970
371.03	62.211
371.39	62.582
371.75	61.758
372.11	61.698
372.47	62.944
372.83	62.952
373.19	63.267
373.55	62.455
373.91	62.707
374.27	64.706
374.63	62.455
374.99	63.050
375.35	63.997
375.71	63.706
376.07	64.115
376.42	62.517
376.78	63.490
377.14	62.695
377.50	64.143
377.86	63.320
378.22	63.050
378.58	63.269
378.94	64.020
379.30	63.631
379.66	63.386
380.02	63.765
380.38	64.151
380.74	63.256
381.09	64.908
381.45	63.425
381.81	64.281
382.17	64.657
382.53	64.522
382.89	66.227
383.25	64.966
383.61	65.427
383.97	64.635
384.32	65.041
384.68	65.201
385.04	64.583
385.40	65.277
385.76	66.855
386.12	66.882
386.48	65.326
386.83	66.265
387.19	63.980
387.55	67.189
387.91	65.954
388.27	64.347
388.62	67.149
388.98	64.457
389.34	66.271
389.70	66.004
390.06	64.254
390.42	65.933
390.77	66.056
391.13	64.376
391.49	66.365
391.85	65.172
392.20	65.348
392.56	65.925
392.92	66.412
393.28	65.448
393.64	66.126
393.99	67.085
394.35	66.097
394.71	65.773
395.07	64.111
395.42	64.906
395.78	66.059
396.14	65.889
396.50	66.392
396.85	66.259
397.21	66.353
397.57	66.082
397.92	65.548
398.28	64.885
398.64	63.855
399.00	66.761
399.35	64.673
399.71	63.871
400.07	66.022
400.42	64.810
400.78	65.279
401.14	64.973
401.49	64.562
401.85	64.412
402.21	64.639
402.57	65.125
402.92	63.363
403.28	63.534
403.63	65.574
403.99	63.776
404.35	64.959
404.70	64.048
405.06	63.925
405.42	63.456
405.77	63.451
406.13	65.076
406.49	64.239
406.84	63.509
407.20	63.456
407.55	63.039
407.91	64.639
408.27	64.563
408.62	63.323
408.98	63.339
409.34	63.879
409.69	64.276
410.05	61.823
410.40	61.852
410.76	62.907
411.11	64.125
411.47	63.248
411.83	62.147
412.18	64.286
412.54	63.171
412.89	61.392
413.25	63.357
413.60	62.174
413.96	61.779
414.31	61.646
414.67	61.899
415.03	61.651
415.38	62.076
415.74	62.345
416.09	63.031
416.45	61.310
416.80	61.732
417.16	64.572
417.51	61.626
417.87	61.213
418.22	62.370
418.58	62.341
418.93	62.132
419.29	60.435
419.64	62.152
420.00	62.783
420.35	60.657
420.71	61.118
421.06	62.554
421.42	61.899
421.77	62.197
422.12	61.351
422.48	61.126
422.83	61.659
423.19	62.698
423.54	60.494
423.90	60.306
424.25	60.964
424.61	61.873
424.96	61.324
425.31	61.583
425.67	62.031
426.02	62.839
426.38	62.116
426.73	62.591
427.09	61.646
427.44	63.353
427.79	61.402
428.15	62.075
428.50	62.023
428.85	59.705
429.21	62.083
429.56	62.695
429.92	60.657
430.27	61.053
430.62	60.115
430.98	61.465
431.33	60.726
431.68	59.969
432.04	61.431
432.39	58.813
432.74	60.012
433.10	59.943
433.45	60.275
433.80	61.346
434.16	59.945
434.51	60.645
434.86	61.672
435.22	61.077
435.57	59.638
435.92	61.018
436.28	60.942
436.63	59.498
436.98	59.618
437.34	59.891
437.69	61.658
438.04	60.342
438.39	59.133
438.75	60.838
439.10	59.253
439.45	60.803
439.81	59.939
440.16	60.986
440.51	60.836
440.86	61.571
441.22	59.559
441.57	60.706
441.92	61.752
442.27	61.308
442.63	59.422
442.98	60.425
443.33	59.488
443.68	59.416
444.03	59.762
444.39	58.337
444.74	59.030
445.09	59.354
445.44	59.601
445.79	61.269
446.15	58.260
446.50	59.124
446.85	57.917
447.20	59.489
447.55	59.431
447.91	58.996
448.26	58.907
448.61	58.607
448.96	58.921
449.31	58.150
449.66	58.885
450.02	58.699
450.37	60.344
450.72	58.247
451.07	59.494
451.42	58.427
451.77	59.011
452.12	58.433
452.47	57.888
452.83	57.656
453.18	56.736
453.53	59.039
453.88	58.774
454.23	57.345
454.58	57.997
454.93	57.861
455.28	56.127
455.63	58.648
455.98	58.689
456.34	56.833
456.69	58.069
457.04	57.467
457.39	56.501
457.74	57.255
458.09	55.856
458.44	56.641
458.79	56.078
459.14	55.778
459.49	57.433
459.84	55.781
460.19	55.097
460.54	55.318
460.89	56.534
461.24	55.466
461.59	55.582
461.94	54.528
462.29	56.273
462.64	54.950
462.99	55.383
463.34	54.103
463.69	54.955
464.04	55.145
464.39	54.639
464.74	53.497
465.09	54.523
465.44	54.761
465.79	52.834
466.14	54.333
466.49	53.249
466.84	52.766
467.19	53.442
467.54	53.065
467.89	54.896
468.24	53.102
468.59	54.730
468.94	53.460
469.29	52.656
469.64	52.427
469.99	54.170
470.34	52.082
470.68	54.213
471.03	52.583
471.38	52.853
471.73	53.711
472.08	52.985
472.43	52.685
472.78	52.159
473.13	51.769
473.48	52.378
473.83	52.117
474.17	52.137
474.52	51.181
474.87	52.182
475.22	51.678
475.57	51.214
475.92	50.905
476.27	51.455
476.61	51.100
476.96	49.582
477.31	50.838
477.66	50.169
478.01	51.207
478.36	50.218
478.70	51.223
479.05	51.209
479.40	51.298
479.75	48.749
480.10	50.077
480.45	50.900
480.79	50.252
481.14	50.102
481.49	49.064
481.84	49.517
482.19	48.784
482.53	49.832
482.88	48.592
483.23	48.800
483.58	49.434
483.92	48.258
484.27	48.314
484.62	49.260
484.97	47.637
485.31	47.146
485.66	46.077
486.01	46.553
486.36	46.086
486.70	45.946
487.05	46.929
487.40	46.174
487.75	46.028
488.09	45.241
488.44	45.633
488.79	46.022
489.13	46.875
489.48	46.687
489.83	47.265
490.17	45.798
490.52	47.159
490.87	46.876
491.22	47.660
491.56	46.584
491.91	46.319
492.26	47.399
492.60	46.401
492.95	47.368
493.30	46.214
493.64	47.741
493.99	46.715
494.34	45.971
494.68	47.000
495.03	46.521
495.37	46.418
495.72	45.533
496.07	46.000
496.41	45.236
496.76	45.785
497.11	45.133
497.45	46.635
497.80	47.275
498.14	45.007
498.49	45.708
498.84	44.711
499.18	45.833
499.53	46.131
499.87	44.504
500.22	45.252
500.56	45.134
500.91	44.026
501.26	44.192
501.60	45.253
501.95	44.396
502.29	44.552
502.64	45.270
502.98	44.943
503.33	43.180
503.67	44.000
504.02	44.477
504.36	43.939
504.71	44.848
505.06	44.087
505.40	45.178
505.75	44.278
506.09	42.676
506.44	43.737
506.78	44.694
507.13	43.433
507.47	42.559
507.82	43.803
508.16	43.846
508.51	43.337
508.85	44.427
509.19	43.800
509.54	43.968
509.88	42.017
510.23	43.841
510.57	43.666
510.92	43.017
511.26	43.099
511.61	43.894
511.95	44.055
512.30	43.404
512.64	42.682
512.98	43.964
513.33	44.320
513.67	42.638
514.02	44.565
514.36	43.143
514.70	44.580
515.05	43.713
515.39	42.680
515.74	43.892
516.08	44.411
516.42	43.698
516.77	42.305
517.11	43.442
517.46	42.071
517.80	42.908
518.14	42.621
518.49	42.428
518.83	43.074
519.17	41.298
519.52	41.504
519.86	42.557
520.20	42.406
520.55	43.027
520.89	42.535
521.23	43.509
521.58	43.912
521.92	44.231
522.26	43.071
522.61	42.922
522.95	43.576
523.29	42.567
523.64	43.266
523.98	42.968
524.32	42.848
524.66	44.046
525.01	42.403
525.35	42.255
525.69	42.559
526.04	41.733
526.38	44.358
526.72	42.446
527.06	42.672
527.41	42.480
527.75	42.091
528.09	40.997
528.43	43.214
528.78	43.234
529.12	41.355
529.46	42.820
529.80	41.609
530.15	42.640
530.49	42.896
530.83	43.092
531.17	41.437
531.51	42.681
531.86	41.808
532.20	41.545
532.54	42.069
532.88	42.231
533.22	41.398
533.57	41.547
533.91	41.188
534.25	41.732
534.59	40.539
534.93	39.899
535.27	39.530
535.62	40.959
535.96	40.900
536.30	41.425
536.64	40.937
536.98	40.906
537.32	41.750
537.66	41.795
538.01	41.049
538.35	41.123
538.69	40.479
539.03	40.465
539.37	40.242
539.71	40.082
540.05	40.530
540.39	41.413
540.73	40.237
541.07	40.262
541.42	40.860
541.76	41.156
542.10	40.055
542.44	39.889
542.78	40.881
543.12	39.354
543.46	39.847
543.80	41.152
544.14	37.316
544.48	38.974
544.82	40.260
545.16	40.574
545.50	39.119
545.84	40.439
546.18	40.496
546.52	39.510
546.86	38.102
547.20	39.127
547.54	37.739
547.88	38.519
548.22	38.199
548.56	39.578
548.90	40.768
549.24	37.948
549.58	38.223
549.92	38.385
550.26	38.242
550.60	40.000
550.94	39.731
551.28	40.031
551.62	39.769
551.96	38.647
552.30	38.450
552.64	37.377
552.98	38.045
553.32	38.730
553.66	38.462
554.00	38.686
554.34	41.064
554.68	37.537
555.02	38.914
555.36	37.771
555.69	37.802
556.03	39.472
556.37	38.007
556.71	37.617
557.05	38.777
557.39	36.803
557.73	38.006
558.07	38.989
558.41	37.672
558.75	38.504
559.08	39.559
559.42	38.810
559.76	38.671
560.10	38.150
560.44	37.602
560.78	37.832
561.12	38.223
561.45	38.791
561.79	38.235
562.13	36.835
562.47	38.489
562.81	38.617
563.15	37.659
563.48	37.341
563.82	36.719
564.16	36.908
564.50	36.959
564.84	36.814
565.17	37.089
565.51	38.730
565.85	37.791
566.19	37.666
566.52	38.405
566.86	37.339
567.20	36.986
567.54	36.740
567.88	37.434
568.21	37.274
568.55	36.359
568.89	37.680
569.23	37.458
569.56	35.902
569.90	36.054
570.24	35.095
570.57	35.564
570.91	35.587
571.25	34.528
571.59	34.880
571.92	34.281
572.26	34.873
572.60	35.132
572.93	34.421
573.27	34.545
573.61	34.755
573.95	34.517
574.28	34.349
574.62	33.740
574.96	33.508
575.29	33.720
575.63	33.091
575.97	33.288
576.30	33.708
576.64	33.086
576.98	33.797
577.31	33.768
577.65	34.174
577.98	33.855
578.32	33.180
578.66	32.904
578.99	33.318
579.33	33.125
579.67	32.702
580.00	32.886
580.34	33.632
580.67	33.136
581.01	33.477
581.35	33.484
581.68	33.674
582.02	32.997
582.35	33.352
582.69	33.424
583.02	33.134
583.36	33.097
583.70	34.086
584.03	33.778
584.37	33.851
584.70	33.352
585.04	32.927
585.37	33.120
585.71	32.955
586.04	32.854
586.38	32.835
586.72	33.056
587.05	34.027
587.39	33.827
587.72	33.324
588.06	33.546
588.39	32.982
588.73	33.700
589.06	33.790
589.40	34.255
589.73	33.078
590.07	34.101
590.40	33.901
590.73	34.885
591.07	34.436
591.40	33.927
591.74	34.118
592.07	35.019
592.41	34.143
592.74	33.373
593.08	32.798
593.41	33.674
593.75	32.941
594.08	33.127
594.41	33.224
594.75	33.359
595.08	33.447
595.42	33.530
595.75	33.609
596.09	33.346
596.42	34.270
596.75	33.481
597.09	33.759
597.42	33.469
597.75	34.311
598.09	33.997
598.42	33.348
598.76	32.733
599.09	32.853
599.42	32.740
599.76	33.183
600.09	32.843
600.42	33.169
600.76	32.764
601.09	32.519
601.42	32.432
601.76	32.235
602.09	32.591
602.42	34.330
602.76	32.980
603.09	33.596
603.42	33.319
603.76	32.621
604.09	33.293
604.42	33.122
604.76	34.134
605.09	33.821
605.42	33.409
605.75	33.363
606.09	33.291
606.42	32.736
606.75	33.420
607.09	32.791
607.42	32.964
607.75	32.638
608.08	32.704
608.42	32.435
608.75	33.253
609.08	32.935
609.41	33.249
609.75	33.165
610.08	33.999
610.41	32.899
610.74	33.301
611.07	33.540
611.41	34.043
611.74	34.168
612.07	32.334
612.40	34.081
612.73	33.164
613.07	33.633
613.40	34.190
613.73	32.457
614.06	34.001
614.39	33.221
614.72	33.333
615.06	33.240
615.39	32.478
615.72	32.992
616.05	33.631
616.38	31.966
616.71	33.700
617.05	32.922
617.38	32.935
617.71	33.208
618.04	33.587
618.37	34.363
618.70	35.248
619.03	33.750
619.36	33.792
619.69	34.344
620.03	34.405
620.36	33.548
620.69	34.333
621.02	34.021
621.35	35.436
621.68	35.034
622.01	35.583
622.34	33.360
622.67	34.385
623.00	34.686
623.33	33.613
623.66	33.807
623.99	33.359
624.32	33.916
624.65	32.782
624.99	34.161
625.32	33.131
625.65	34.014
625.98	33.441
626.31	33.001
626.64	34.575
626.97	34.729
627.30	35.114
627.63	33.969
627.96	33.962
628.29	34.320
628.62	34.808
628.95	35.271
629.28	35.585
629.61	36.889
629.94	36.657
630.26	33.597
630.59	35.484
630.92	36.410
631.25	34.051
631.58	35.463
631.91	35.636
632.24	35.780
632.57	35.909
632.90	33.926
633.23	33.765
