SpectraSuite Data File
++++++++++++++++++++++++++++++++++++
Date: Fri May 15 21:04:38 PDT 2015
User: schluterlab
Dark Spectrum Present: Yes
Reference Spectrum Present: Yes
Number of Sampled Component Spectra: 1
Spectrometers: USB2E3373
Integration Time (usec): 3000 (USB2E3373)
Spectra Averaged: 3 (USB2E3373)
Boxcar Smoothing: 0 (USB2E3373)
Correct for Electrical Dark: No (USB2E3373)
Strobe/Lamp Enabled: No (USB2E3373)
Correct for Detector Non-linearity: No (USB2E3373)
Correct for Stray Light: No (USB2E3373)
Number of Pixels in Processed Spectrum: 2048
>>>>>Begin Processed Spectral Data<<<<<
178.53	0.000
178.91	0.000
179.29	62.500
179.67	-100.000
180.04	100.000
180.42	25.000
180.80	-1300.000
181.18	266.667
181.56	450.000
181.94	-650.000
182.31	800.000
182.69	80.000
183.07	-433.333
183.45	-100.000
183.83	266.667
184.20	-127.273
184.58	166.667
184.96	75.000
185.34	-33.333
185.72	-250.000
186.09	61.538
186.47	-400.000
186.85	233.333
187.23	155.556
187.61	1200.000
187.98	-200.000
188.36	22.222
188.74	-433.333
189.12	0.000
189.49	5.556
189.87	0.000
190.25	50.000
190.63	0.000
191.00	-266.667
191.38	-42.105
191.76	-150.000
192.14	225.000
192.51	-200.000
192.89	44.444
193.27	-200.000
193.65	266.667
194.02	81.818
194.40	-20.000
194.78	-187.500
195.15	-58.333
195.53	-175.000
195.91	350.000
196.29	-150.000
196.66	115.385
197.04	185.714
197.42	-33.333
197.79	-366.667
198.17	-107.692
198.55	1400.000
198.92	-133.333
199.30	-700.000
199.68	-280.000
200.05	-166.667
200.43	0.000
200.81	-133.333
201.18	-266.667
201.56	800.000
201.94	-400.000
202.31	166.667
202.69	-380.000
203.07	450.000
203.44	600.000
203.82	0.000
204.19	-42.857
204.57	-433.333
204.95	100.000
205.32	40.000
205.70	-42.857
206.08	50.000
206.45	155.556
206.83	42.857
207.20	-214.286
207.58	1200.000
207.96	-333.333
208.33	-40.000
208.71	-25.000
209.08	-166.667
209.46	-1200.000
209.84	140.000
210.21	-700.000
210.59	-128.571
210.96	-150.000
211.34	-75.000
211.71	33.333
212.09	-100.000
212.46	-1600.000
212.84	0.000
213.22	0.000
213.59	650.000
213.97	84.615
214.34	81.818
214.72	66.667
215.09	700.000
215.47	23.077
215.84	-63.636
216.22	-233.333
216.59	62.500
216.97	-200.000
217.34	-400.000
217.72	-400.000
218.09	150.000
218.47	125.000
218.84	-1800.000
219.22	-133.333
219.59	-140.000
219.97	300.000
220.34	225.000
220.72	-85.714
221.09	-25.000
221.47	-150.000
221.84	-950.000
222.22	-550.000
222.59	0.000
222.97	-50.000
223.34	-100.000
223.72	-21.429
224.09	9.524
224.46	14.286
224.84	566.667
225.21	-10.000
225.59	40.000
225.96	-550.000
226.34	325.000
226.71	-185.714
227.08	100.000
227.46	-100.000
227.83	-750.000
228.21	-66.667
228.58	0.000
228.95	-75.000
229.33	140.000
229.70	12.500
230.08	-187.500
230.45	-157.143
230.82	-114.286
231.20	-46.667
231.57	21.429
231.95	-42.857
232.32	-70.000
232.69	-64.286
233.07	-166.667
233.44	-60.000
233.81	-50.000
234.19	11.111
234.56	-5.882
234.93	600.000
235.31	-75.000
235.68	-400.000
236.05	-76.923
236.43	-25.000
236.80	-64.706
237.17	-3.125
237.55	-40.000
237.92	-18.519
238.29	-25.000
238.67	-3.333
239.04	11.765
239.41	-29.268
239.79	-20.000
240.16	-4.878
240.53	-18.421
240.91	-6.522
241.28	11.111
241.65	-3.571
242.02	10.959
242.40	11.667
242.77	-6.780
243.14	6.061
243.51	17.500
243.89	13.793
244.26	-2.299
244.63	-8.333
245.00	3.093
245.38	10.309
245.75	-3.371
246.12	4.310
246.49	16.529
246.87	18.269
247.24	5.882
247.61	5.263
247.98	0.000
248.36	17.500
248.73	9.211
249.10	14.286
249.47	12.658
249.84	5.882
250.22	15.294
250.59	9.804
250.96	14.554
251.33	8.140
251.70	11.176
252.08	10.660
252.45	6.436
252.82	10.553
253.19	11.521
253.56	12.150
253.94	8.559
254.31	12.609
254.68	11.404
255.05	7.480
255.42	10.480
255.79	7.722
256.16	10.895
256.54	14.925
256.91	12.167
257.28	6.691
257.65	9.738
258.02	10.284
258.39	12.121
258.76	15.751
259.14	10.631
259.51	12.298
259.88	6.186
260.25	10.784
260.62	10.764
260.99	7.797
261.36	8.219
261.73	12.025
262.10	10.942
262.47	9.202
262.85	9.091
263.22	8.000
263.59	11.838
263.96	11.180
264.33	9.697
264.70	14.286
265.07	7.143
265.44	10.482
265.81	9.887
266.18	13.388
266.55	10.797
266.92	13.731
267.29	12.533
267.66	10.742
268.03	11.257
268.40	7.833
268.77	13.904
269.14	11.271
269.51	13.625
269.88	9.726
270.25	9.694
270.62	10.732
270.99	10.230
271.36	11.736
271.73	10.094
272.10	12.652
272.47	11.584
272.84	12.624
273.21	12.297
273.58	11.325
273.95	13.501
274.32	11.778
274.69	8.371
275.06	15.848
275.43	11.338
275.80	10.375
276.17	10.345
276.54	11.563
276.91	12.281
277.28	11.354
277.65	14.463
278.02	11.277
278.39	10.284
278.76	10.901
279.13	9.751
279.50	12.395
279.87	13.607
280.23	9.247
280.60	14.620
280.97	10.707
281.34	8.077
281.71	14.990
282.08	9.611
282.45	9.002
282.82	12.548
283.19	11.605
283.56	10.790
283.92	10.816
284.29	11.346
284.66	10.078
285.03	12.770
285.40	9.452
285.77	11.072
286.14	11.733
286.51	14.022
286.87	8.592
287.24	10.497
287.61	9.347
287.98	13.684
288.35	9.012
288.72	11.559
289.08	11.111
289.45	12.654
289.82	11.538
290.19	10.751
290.56	8.576
290.93	10.101
291.29	10.324
291.66	11.024
292.03	10.845
292.40	10.806
292.77	8.931
293.13	7.630
293.50	10.470
293.87	11.298
294.24	10.974
294.60	10.283
294.97	11.458
295.34	9.663
295.71	10.432
296.08	10.613
296.44	9.246
296.81	10.556
297.18	10.725
297.55	13.008
297.91	11.096
298.28	11.609
298.65	9.905
299.02	10.377
299.38	8.755
299.75	9.655
300.12	9.162
300.48	10.540
300.85	10.013
301.22	10.519
301.59	9.079
301.95	12.785
302.32	12.581
302.69	10.697
303.05	11.386
303.42	12.453
303.79	11.565
304.15	11.470
304.52	10.464
304.89	11.111
305.25	10.654
305.62	9.918
305.99	10.643
306.35	10.405
306.72	9.449
307.09	9.806
307.45	11.251
307.82	11.690
308.19	11.034
308.55	12.105
308.92	13.399
309.29	11.061
309.65	12.056
310.02	12.321
310.38	11.196
310.75	12.350
311.12	12.809
311.48	11.771
311.85	12.147
312.22	13.080
312.58	13.694
312.95	12.060
313.31	11.905
313.68	13.194
314.05	14.082
314.41	14.433
314.78	14.639
315.14	13.977
315.51	13.665
315.87	14.549
316.24	15.369
316.61	14.862
316.97	17.163
317.34	14.258
317.70	15.201
318.07	14.712
318.43	15.882
318.80	15.814
319.16	16.113
319.53	17.569
319.89	17.421
320.26	17.105
320.62	17.252
320.99	16.910
321.35	17.472
321.72	19.003
322.08	18.731
322.45	18.883
322.81	18.959
323.18	18.940
323.54	20.463
323.91	18.890
324.27	19.922
324.64	21.629
325.00	20.985
325.37	22.773
325.73	20.399
326.10	22.162
326.46	22.152
326.83	22.660
327.19	23.714
327.56	24.761
327.92	23.504
328.29	23.393
328.65	24.623
329.01	24.357
329.38	25.253
329.74	24.646
330.11	24.374
330.47	24.490
330.84	26.250
331.20	27.567
331.56	24.907
331.93	26.393
332.29	25.848
332.66	25.249
333.02	24.071
333.38	25.206
333.75	26.465
334.11	24.440
334.48	26.473
334.84	24.542
335.20	25.984
335.57	24.479
335.93	27.010
336.29	25.875
336.66	25.068
337.02	25.836
337.38	25.926
337.75	25.455
338.11	25.248
338.47	27.007
338.84	26.525
339.20	26.051
339.56	27.523
339.93	26.679
340.29	26.606
340.65	26.792
341.02	25.621
341.38	26.637
341.74	25.707
342.11	25.303
342.47	25.445
342.83	27.076
343.20	26.394
343.56	27.652
343.92	26.218
344.28	25.961
344.65	25.561
345.01	24.201
345.37	26.661
345.73	27.280
346.10	27.092
346.46	25.904
346.82	25.859
347.19	25.187
347.55	26.399
347.91	26.133
348.27	26.516
348.63	26.405
349.00	27.071
349.36	26.850
349.72	27.363
350.08	26.311
350.45	26.975
350.81	25.581
351.17	27.036
351.53	27.592
351.89	25.103
352.26	25.760
352.62	26.774
352.98	25.863
353.34	26.731
353.70	27.751
354.07	27.016
354.43	26.341
354.79	26.259
355.15	26.270
355.51	26.741
355.87	26.861
356.24	26.101
356.60	26.597
356.96	27.460
357.32	27.316
357.68	26.740
358.04	26.494
358.40	26.125
358.77	27.432
359.13	26.501
359.49	26.194
359.85	25.975
360.21	26.715
360.57	26.932
360.93	27.458
361.29	26.888
361.66	27.586
362.02	27.803
362.38	28.104
362.74	27.328
363.10	28.217
363.46	28.021
363.82	27.874
364.18	28.118
364.54	27.279
364.90	27.384
365.26	26.638
365.62	27.883
365.98	26.906
366.35	28.551
366.71	28.529
367.07	28.592
367.43	28.037
367.79	27.703
368.15	26.992
368.51	28.259
368.87	27.925
369.23	27.220
369.59	27.187
369.95	27.786
370.31	27.168
370.67	27.761
371.03	27.558
371.39	26.915
371.75	27.912
372.11	28.031
372.47	29.068
372.83	28.034
373.19	27.960
373.55	27.726
373.91	27.862
374.27	27.782
374.63	29.361
374.99	27.305
375.35	28.273
375.71	28.112
376.07	28.862
376.42	27.959
376.78	28.523
377.14	28.030
377.50	28.220
377.86	28.581
378.22	26.803
378.58	28.141
378.94	28.292
379.30	27.573
379.66	27.900
380.02	27.836
380.38	27.815
380.74	27.828
381.09	29.018
381.45	27.951
381.81	28.748
382.17	28.046
382.53	29.544
382.89	28.249
383.25	28.376
383.61	29.207
383.97	27.810
384.32	28.330
384.68	28.607
385.04	27.941
385.40	27.816
385.76	28.994
386.12	28.913
386.48	28.608
386.83	28.218
387.19	28.083
387.55	28.356
387.91	27.934
388.27	27.839
388.62	29.641
388.98	27.624
389.34	27.858
389.70	28.589
390.06	27.376
390.42	28.433
390.77	28.385
391.13	27.554
391.49	28.525
391.85	27.420
392.20	27.558
392.56	28.036
392.92	27.540
393.28	27.535
393.64	27.808
393.99	29.091
394.35	27.577
394.71	28.736
395.07	27.090
395.42	27.262
395.78	27.296
396.14	27.680
396.50	27.457
396.85	27.173
397.21	27.193
397.57	26.834
397.92	27.561
398.28	28.103
398.64	26.205
399.00	26.919
399.35	26.919
399.71	26.996
400.07	28.053
400.42	27.417
400.78	27.128
401.14	26.921
401.49	26.861
401.85	26.813
402.21	26.627
402.57	26.687
402.92	27.039
403.28	27.318
403.63	27.554
403.99	26.658
404.35	27.295
404.70	26.250
405.06	25.558
405.42	26.414
405.77	25.857
406.13	26.368
406.49	27.590
406.84	25.733
407.20	26.911
407.55	26.787
407.91	27.139
408.27	25.813
408.62	27.200
408.98	26.864
409.34	26.270
409.69	25.969
410.05	25.677
410.40	26.728
410.76	25.694
411.11	26.312
411.47	26.364
411.83	26.428
412.18	26.641
412.54	25.905
412.89	25.431
413.25	26.955
413.60	26.522
413.96	25.337
414.31	26.768
414.67	25.593
415.03	26.498
415.38	25.718
415.74	25.863
416.09	27.041
416.45	26.469
416.80	25.644
417.16	26.588
417.51	26.249
417.87	26.858
418.22	26.295
418.58	27.023
418.93	27.649
419.29	26.184
419.64	26.572
420.00	27.897
420.35	26.627
420.71	27.278
421.06	27.256
421.42	26.322
421.77	27.168
422.12	26.844
422.48	26.692
422.83	26.914
423.19	26.580
423.54	26.514
423.90	26.678
424.25	26.980
424.61	27.173
424.96	27.700
425.31	26.748
425.67	27.641
426.02	27.562
426.38	27.301
426.73	27.663
427.09	28.354
427.44	28.882
427.79	27.991
428.15	28.701
428.50	27.922
428.85	27.273
429.21	27.844
429.56	27.871
429.92	27.375
430.27	26.917
430.62	26.660
430.98	27.282
431.33	28.707
431.68	28.048
432.04	28.116
432.39	27.553
432.74	28.022
433.10	28.506
433.45	28.315
433.80	28.497
434.16	27.036
434.51	27.957
434.86	27.410
435.22	28.155
435.57	28.197
435.92	28.563
436.28	28.145
436.63	27.268
436.98	27.810
437.34	27.163
437.69	29.159
438.04	28.433
438.39	28.528
438.75	28.355
439.10	28.070
439.45	28.971
439.81	28.930
440.16	29.097
440.51	28.418
440.86	29.003
441.22	27.828
441.57	28.091
441.92	28.751
442.27	29.379
442.63	29.122
442.98	29.351
443.33	27.713
443.68	28.435
444.03	28.713
444.39	28.628
444.74	28.930
445.09	29.065
445.44	28.775
445.79	29.654
446.15	28.965
446.50	28.231
446.85	28.374
447.20	28.311
447.55	28.850
447.91	29.216
448.26	28.913
448.61	29.016
448.96	29.088
449.31	28.786
449.66	30.139
450.02	30.348
450.37	30.053
450.72	28.179
451.07	29.557
451.42	28.714
451.77	29.054
452.12	28.409
452.47	29.813
452.83	29.093
453.18	28.526
453.53	30.152
453.88	29.690
454.23	29.072
454.58	30.038
454.93	29.897
455.28	28.381
455.63	28.580
455.98	29.465
456.34	28.863
456.69	30.241
457.04	29.868
457.39	28.372
457.74	28.900
458.09	28.840
458.44	28.906
458.79	29.020
459.14	29.462
459.49	29.373
459.84	29.103
460.19	28.823
460.54	28.973
460.89	29.886
461.24	29.814
461.59	30.879
461.94	28.428
462.29	30.820
462.64	30.764
462.99	29.452
463.34	29.485
463.69	29.215
464.04	28.995
464.39	28.441
464.74	29.448
465.09	28.447
465.44	29.371
465.79	28.798
466.14	29.647
466.49	29.615
466.84	30.042
467.19	29.850
467.54	29.821
467.89	29.248
468.24	30.049
468.59	29.714
468.94	29.524
469.29	29.705
469.64	29.870
469.99	30.413
470.34	29.693
470.68	30.201
471.03	30.502
471.38	29.458
471.73	30.882
472.08	30.733
472.43	30.000
472.78	29.335
473.13	28.571
473.48	29.837
473.83	29.639
474.17	30.635
474.52	30.121
474.87	30.061
475.22	29.103
475.57	29.701
475.92	29.622
476.27	30.501
476.61	29.745
476.96	29.615
477.31	30.178
477.66	30.056
478.01	29.590
478.36	29.793
478.70	30.614
479.05	30.330
479.40	31.002
479.75	29.562
480.10	30.005
480.45	29.650
480.79	30.967
481.14	30.225
481.49	29.557
481.84	29.681
482.19	29.747
482.53	30.552
482.88	30.549
483.23	30.182
483.58	30.094
483.92	29.235
484.27	29.353
484.62	29.404
484.97	29.892
485.31	28.721
485.66	27.270
486.01	27.637
486.36	27.258
486.70	28.126
487.05	28.926
487.40	28.852
487.75	29.465
488.09	29.450
488.44	29.849
488.79	30.071
489.13	30.529
489.48	30.013
489.83	30.628
490.17	29.843
490.52	30.393
490.87	28.968
491.22	30.898
491.56	29.507
491.91	29.828
492.26	30.287
492.60	29.846
492.95	31.136
493.30	29.604
493.64	30.206
493.99	30.821
494.34	30.437
494.68	30.524
495.03	29.927
495.37	29.490
495.72	30.338
496.07	30.780
496.41	30.566
496.76	30.170
497.11	29.856
497.45	29.737
497.80	30.575
498.14	30.502
498.49	30.523
498.84	30.589
499.18	30.622
499.53	29.861
499.87	29.621
500.22	30.267
500.56	31.165
500.91	29.468
501.26	29.906
501.60	30.448
501.95	30.713
502.29	30.266
502.64	30.792
502.98	30.242
503.33	30.115
503.67	31.181
504.02	30.596
504.36	31.865
504.71	30.758
505.06	31.002
505.40	30.761
505.75	31.443
506.09	30.512
506.44	31.622
506.78	31.378
507.13	31.024
507.47	30.496
507.82	30.929
508.16	30.481
508.51	30.797
508.85	30.926
509.19	30.655
509.54	31.367
509.88	30.367
510.23	31.200
510.57	32.229
510.92	30.437
511.26	31.424
511.61	31.133
511.95	31.836
512.30	31.763
512.64	31.608
512.98	31.499
513.33	32.065
513.67	32.405
514.02	32.723
514.36	32.571
514.70	33.683
515.05	33.255
515.39	33.117
515.74	33.772
516.08	32.995
516.42	33.922
516.77	33.236
517.11	32.641
517.46	33.393
517.80	33.552
518.14	34.354
518.49	33.233
518.83	33.779
519.17	33.535
519.52	32.800
519.86	33.733
520.20	33.657
520.55	33.896
520.89	33.438
521.23	33.946
521.58	35.710
521.92	33.846
522.26	33.702
522.61	35.325
522.95	34.768
523.29	34.053
523.64	35.642
523.98	36.099
524.32	33.376
524.66	35.019
525.01	35.455
525.35	35.450
525.69	35.219
526.04	35.053
526.38	35.344
526.72	34.925
527.06	35.019
527.41	35.752
527.75	35.456
528.09	36.213
528.43	35.989
528.78	35.116
529.12	35.548
529.46	35.543
529.80	35.275
530.15	36.304
530.49	36.768
530.83	35.773
531.17	35.662
531.51	36.525
531.86	35.758
532.20	35.699
532.54	37.168
532.88	36.482
533.22	35.484
533.57	34.535
533.91	35.117
534.25	36.198
534.59	36.049
534.93	34.172
535.27	33.947
535.62	35.904
535.96	35.486
536.30	36.544
536.64	36.113
536.98	35.331
537.32	36.984
537.66	36.746
538.01	36.434
538.35	35.576
538.69	35.020
539.03	34.860
539.37	35.935
539.71	36.333
540.05	35.709
540.39	36.288
540.73	35.983
541.07	37.086
541.42	36.492
541.76	37.371
542.10	36.407
542.44	36.414
542.78	34.480
543.12	35.989
543.46	36.787
543.80	35.878
544.14	34.980
544.48	35.710
544.82	35.543
545.16	36.407
545.50	36.515
545.84	37.323
546.18	35.390
546.52	36.337
546.86	36.161
547.20	36.838
547.54	35.618
547.88	35.870
548.22	34.583
548.56	36.214
548.90	36.658
549.24	34.642
549.58	37.236
549.92	35.382
550.26	36.557
550.60	36.952
550.94	36.968
551.28	36.862
551.62	37.769
551.96	37.143
552.30	36.842
552.64	36.248
552.98	36.990
553.32	35.806
553.66	36.067
554.00	37.591
554.34	37.445
554.68	36.357
555.02	36.161
555.36	36.874
555.69	35.971
556.03	35.617
556.37	35.516
556.71	36.390
557.05	37.286
557.39	36.059
557.73	37.031
558.07	36.878
558.41	37.672
558.75	36.867
559.08	37.431
559.42	37.063
559.76	38.671
560.10	36.544
560.44	37.007
560.78	35.455
561.12	35.896
561.45	36.472
561.79	36.835
562.13	36.196
562.47	36.331
562.81	37.608
563.15	36.883
563.48	36.280
563.82	37.200
564.16	36.699
564.50	35.946
564.84	35.743
565.17	36.620
565.51	36.885
565.85	37.106
566.19	36.671
566.52	37.131
566.86	36.825
567.20	34.932
567.54	34.732
567.88	36.204
568.21	35.351
568.55	34.674
568.89	34.805
569.23	35.339
569.56	33.056
569.90	33.171
570.24	32.527
570.57	32.909
570.91	32.694
571.25	31.338
571.59	31.766
571.92	30.193
572.26	31.643
572.60	31.876
572.93	31.346
573.27	31.442
573.61	31.265
573.95	31.131
574.28	30.588
574.62	30.257
574.96	30.092
575.29	30.262
575.63	30.137
575.97	30.442
576.30	31.234
576.64	29.801
576.98	30.837
577.31	30.278
577.65	30.000
577.98	30.473
578.32	29.510
578.66	29.701
578.99	30.089
579.33	30.352
579.67	30.785
580.00	30.329
580.34	30.199
580.67	30.663
581.01	30.115
581.35	29.866
581.68	29.325
582.02	29.345
582.35	29.489
582.69	29.801
583.02	29.844
583.36	30.731
583.70	30.607
584.03	31.554
584.37	31.395
584.70	31.044
585.04	29.896
585.37	29.656
585.71	30.314
586.04	30.282
586.38	29.555
586.72	30.674
587.05	30.820
587.39	30.780
587.72	30.919
588.06	30.612
588.39	30.960
588.73	31.105
589.06	31.931
589.40	30.833
589.73	31.982
590.07	31.798
590.40	31.850
590.73	32.908
591.07	32.867
591.40	33.259
591.74	32.986
592.07	33.256
592.41	32.288
592.74	30.824
593.08	30.632
593.41	30.610
593.75	29.899
594.08	30.347
594.41	31.041
594.75	31.221
595.08	31.442
595.42	31.469
595.75	31.618
596.09	31.392
596.42	31.583
596.75	31.972
597.09	32.574
597.42	32.385
597.75	32.432
598.09	31.553
598.42	31.949
598.76	31.317
599.09	30.609
599.42	30.390
599.76	31.339
600.09	29.864
600.42	31.691
600.76	30.646
601.09	31.031
601.42	30.826
601.76	31.679
602.09	31.807
602.42	31.845
602.76	31.112
603.09	31.935
603.42	32.358
603.76	30.565
604.09	30.579
604.42	31.599
604.76	31.820
605.09	31.170
605.42	32.686
605.75	31.699
606.09	30.531
606.42	30.567
606.75	30.866
607.09	31.516
607.42	30.926
607.75	31.172
608.08	31.087
608.42	30.973
608.75	31.373
609.08	31.839
609.41	32.386
609.75	31.956
610.08	31.752
610.41	32.367
610.74	31.156
611.07	31.628
611.41	32.071
611.74	33.262
612.07	31.370
612.40	33.260
612.73	32.599
613.07	32.340
613.40	32.221
613.73	31.953
614.06	32.554
614.39	32.657
614.72	32.437
615.06	31.899
615.39	31.114
615.72	31.109
616.05	31.899
616.38	31.282
616.71	31.254
617.05	33.416
617.38	31.804
617.71	32.830
618.04	32.952
618.37	33.985
618.70	33.993
619.03	34.097
619.36	33.647
619.69	33.813
620.03	34.551
620.36	33.190
620.69	32.477
621.02	34.251
621.35	35.519
621.68	34.439
622.01	34.333
622.34	33.360
622.67	34.227
623.00	33.767
623.33	32.774
623.66	33.657
623.99	33.056
624.32	34.068
624.65	33.158
624.99	32.957
625.32	33.662
625.65	34.171
625.98	33.763
626.31	34.580
626.64	34.662
626.97	34.904
627.30	34.851
627.63	35.615
627.96	35.490
628.29	34.505
628.62	36.087
628.95	35.070
629.28	35.786
629.61	35.593
629.94	37.341
630.26	35.277
630.59	37.149
630.92	36.103
631.25	36.410
631.58	36.674
631.91	35.417
632.24	36.812
632.57	36.136
632.90	36.892
633.23	36.941
633.56	38.287
633.89	36.868
