SpectraSuite Data File
++++++++++++++++++++++++++++++++++++
Date: Fri May 15 21:07:44 PDT 2015
User: schluterlab
Dark Spectrum Present: Yes
Reference Spectrum Present: Yes
Number of Sampled Component Spectra: 1
Spectrometers: USB2E3373
Integration Time (usec): 3000 (USB2E3373)
Spectra Averaged: 3 (USB2E3373)
Boxcar Smoothing: 0 (USB2E3373)
Correct for Electrical Dark: No (USB2E3373)
Strobe/Lamp Enabled: No (USB2E3373)
Correct for Detector Non-linearity: No (USB2E3373)
Correct for Stray Light: No (USB2E3373)
Number of Pixels in Processed Spectrum: 2048
>>>>>Begin Processed Spectral Data<<<<<
178.53	0.000
178.91	0.000
179.29	25.000
179.67	-350.000
180.04	-0.000
180.42	-75.000
180.80	-200.000
181.18	66.667
181.56	700.000
181.94	0.000
182.31	100.000
182.69	20.000
183.07	-166.667
183.45	-160.000
183.83	200.000
184.20	0.000
184.58	200.000
184.96	-25.000
185.34	-66.667
185.72	-300.000
186.09	115.385
186.47	-800.000
186.85	150.000
187.23	33.333
187.61	-300.000
187.98	-266.667
188.36	-33.333
188.74	-533.333
189.12	11.765
189.49	11.111
189.87	0.000
190.25	50.000
190.63	0.000
191.00	-266.667
191.38	-10.526
191.76	-250.000
192.14	250.000
192.51	-200.000
192.89	-55.556
193.27	-114.286
193.65	83.333
194.02	154.545
194.40	-20.000
194.78	-87.500
195.15	-66.667
195.53	-75.000
195.91	450.000
196.29	-250.000
196.66	161.538
197.04	114.286
197.42	-133.333
197.79	-600.000
198.17	-115.385
198.55	1600.000
198.92	-566.667
199.30	-1400.000
199.68	60.000
200.05	-466.667
200.43	0.000
200.81	166.667
201.18	-233.333
201.56	700.000
201.94	-550.000
202.31	-33.333
202.69	-320.000
203.07	300.000
203.44	-600.000
203.82	0.000
204.19	14.286
204.57	-266.667
204.95	162.500
205.32	-10.000
205.70	0.000
206.08	-175.000
206.45	166.667
206.83	92.857
207.20	0.000
207.58	-100.000
207.96	-133.333
208.33	-60.000
208.71	-300.000
209.08	-283.333
209.46	-1300.000
209.84	-60.000
210.21	-2000.000
210.59	-42.857
210.96	-50.000
211.34	-25.000
211.71	0.000
212.09	-157.143
212.46	-1200.000
212.84	0.000
213.22	20.000
213.59	950.000
213.97	-69.231
214.34	-81.818
214.72	-100.000
215.09	375.000
215.47	-23.077
215.84	-109.091
216.22	-233.333
216.59	-62.500
216.97	200.000
217.34	-150.000
217.72	-100.000
218.09	62.500
218.47	150.000
218.84	-900.000
219.22	-211.111
219.59	-200.000
219.97	266.667
220.34	400.000
220.72	-14.286
221.09	-175.000
221.47	-150.000
221.84	-650.000
222.22	-900.000
222.59	27.273
222.97	-66.667
223.34	-200.000
223.72	-21.429
224.09	9.524
224.46	-7.143
224.84	400.000
225.21	-80.000
225.59	20.000
225.96	-300.000
226.34	350.000
226.71	-200.000
227.08	-133.333
227.46	87.500
227.83	-750.000
228.21	-33.333
228.58	-54.545
228.95	-87.500
229.33	120.000
229.70	31.250
230.08	-162.500
230.45	-114.286
230.82	-28.571
231.20	-26.667
231.57	0.000
231.95	-157.143
232.32	-80.000
232.69	42.857
233.07	-333.333
233.44	-100.000
233.81	-60.000
234.19	0.000
234.56	-47.059
234.93	500.000
235.31	-300.000
235.68	-60.000
236.05	-53.846
236.43	-80.000
236.80	-5.882
237.17	3.125
237.55	-30.000
237.92	-29.630
238.29	-8.333
238.67	3.333
239.04	-5.882
239.41	-43.902
239.79	-26.667
240.16	-26.829
240.53	-36.842
240.91	-23.913
241.28	-3.175
241.65	-14.286
242.02	19.178
242.40	-15.000
242.77	-22.034
243.14	-10.606
243.51	7.500
243.89	10.345
244.26	-1.149
244.63	-10.714
245.00	4.124
245.38	1.031
245.75	-13.483
246.12	-4.310
246.49	-1.653
246.87	1.923
247.24	-4.202
247.61	-15.789
247.98	-2.439
248.36	3.125
248.73	1.974
249.10	-2.597
249.47	2.532
249.84	1.307
250.22	-1.176
250.59	-1.961
250.96	7.981
251.33	-5.814
251.70	-4.118
252.08	1.015
252.45	-0.990
252.82	1.005
253.19	2.304
253.56	-5.607
253.94	-0.450
254.31	-1.304
254.68	4.386
255.05	1.575
255.42	2.183
255.79	1.931
256.16	1.167
256.54	5.597
256.91	0.380
257.28	2.974
257.65	-1.873
258.02	-0.355
258.39	4.714
258.76	0.366
259.14	0.332
259.51	2.265
259.88	0.000
260.25	0.980
260.62	0.000
260.99	-1.356
261.36	-3.425
261.73	-3.481
262.10	4.559
262.47	0.613
262.85	0.313
263.22	4.308
263.59	0.623
263.96	1.863
264.33	1.515
264.70	-0.893
265.07	2.679
265.44	1.416
265.81	0.565
266.18	1.913
266.55	2.057
266.92	3.109
267.29	0.000
267.66	3.581
268.03	2.094
268.40	0.000
268.77	1.872
269.14	-0.240
269.51	3.856
269.88	1.247
270.25	-2.806
270.62	0.000
270.99	1.279
271.36	0.489
271.73	1.408
272.10	0.973
272.47	3.073
272.84	1.485
273.21	-0.232
273.58	0.482
273.95	0.915
274.32	1.386
274.69	1.131
275.06	2.455
275.43	1.587
275.80	0.883
276.17	0.920
276.54	1.713
276.91	1.754
277.28	0.000
277.65	2.686
278.02	2.128
278.39	-2.188
278.76	1.677
279.13	-4.149
279.50	1.050
279.87	1.728
280.23	-1.075
280.60	1.754
280.97	0.606
281.34	2.115
281.71	1.437
282.08	0.613
282.45	0.391
282.82	0.579
283.19	0.967
283.56	1.734
283.92	-0.190
284.29	1.346
284.66	0.000
285.03	0.982
285.40	2.268
285.77	0.879
286.14	1.805
286.51	2.030
286.87	0.183
287.24	0.737
287.61	2.116
287.98	3.509
288.35	1.733
288.72	2.452
289.08	2.951
289.45	1.933
289.82	1.923
290.19	0.512
290.56	1.201
290.93	0.000
291.29	1.079
291.66	3.150
292.03	0.159
292.40	2.742
292.77	1.116
293.13	0.000
293.50	0.759
293.87	0.611
294.24	1.082
294.60	2.235
294.97	2.976
295.34	0.460
295.71	0.149
296.08	1.046
296.44	0.427
296.81	1.667
297.18	2.029
297.55	3.117
297.91	1.918
298.28	3.034
298.65	2.307
299.02	2.022
299.38	0.410
299.75	1.103
300.12	2.356
300.48	0.791
300.85	2.915
301.22	1.948
301.59	1.579
301.95	2.658
302.32	2.594
302.69	2.363
303.05	1.238
303.42	2.117
303.79	2.687
304.15	4.540
304.52	1.546
304.89	2.924
305.25	3.269
305.62	2.217
305.99	2.924
306.35	1.965
306.72	2.925
307.09	2.509
307.45	2.755
307.82	0.579
308.19	2.787
308.55	3.162
308.92	3.050
309.29	2.570
309.65	3.660
310.02	3.960
310.38	2.744
310.75	4.372
311.12	3.660
311.48	3.712
311.85	2.932
312.22	3.270
312.58	4.246
312.95	4.589
313.31	3.727
313.68	4.503
314.05	5.000
314.41	4.948
314.78	4.845
315.14	5.344
315.51	6.522
315.87	6.352
316.24	7.685
316.61	6.890
316.97	6.845
317.34	5.762
317.70	6.501
318.07	6.154
318.43	8.431
318.80	7.576
319.16	8.105
319.53	9.877
319.89	7.776
320.26	9.008
320.62	10.130
320.99	9.395
321.35	9.661
321.72	10.592
322.08	9.970
322.45	11.980
322.81	12.574
323.18	10.500
323.54	11.776
323.91	12.561
324.27	13.086
324.64	13.764
325.00	14.599
325.37	15.519
325.73	14.325
326.10	14.896
326.46	15.336
326.83	16.710
327.19	16.391
327.56	15.812
327.92	16.989
328.29	17.054
328.65	17.736
329.01	17.463
329.38	18.249
329.74	18.508
330.11	19.370
330.47	17.811
330.84	17.692
331.20	21.198
331.56	19.167
331.93	20.091
332.29	20.440
332.66	20.362
333.02	21.283
333.38	19.065
333.75	20.788
334.11	20.680
334.48	21.306
334.84	22.070
335.20	21.043
335.57	21.034
335.93	21.229
336.29	20.994
336.66	21.072
337.02	21.097
337.38	20.833
337.75	21.182
338.11	20.559
338.47	22.080
338.84	21.719
339.20	21.846
339.56	21.927
339.93	22.381
340.29	21.009
340.65	21.595
341.02	22.163
341.38	21.062
341.74	20.671
342.11	19.497
342.47	22.687
342.83	21.540
343.20	20.470
343.56	20.957
343.92	22.586
344.28	22.118
344.65	20.380
345.01	21.608
345.37	21.110
345.73	21.255
346.10	22.519
346.46	21.783
346.82	21.113
347.19	20.615
347.55	21.053
347.91	20.550
348.27	20.453
348.63	21.039
349.00	20.016
349.36	19.867
349.72	21.476
350.08	18.934
350.45	20.910
350.81	21.013
351.17	20.440
351.53	21.224
351.89	20.231
352.26	20.160
352.62	20.323
352.98	20.723
353.34	20.129
353.70	21.197
354.07	19.597
354.43	19.856
354.79	20.149
355.15	21.587
355.51	20.095
355.87	20.469
356.24	18.923
356.60	19.644
356.96	20.952
357.32	20.288
357.68	19.077
358.04	20.113
358.40	20.177
358.77	19.936
359.13	19.776
359.49	19.260
359.85	19.501
360.21	19.298
360.57	20.046
360.93	19.592
361.29	18.051
361.66	20.376
362.02	20.682
362.38	19.040
362.74	19.833
363.10	20.015
363.46	19.718
363.82	19.459
364.18	20.148
364.54	19.191
364.90	18.996
365.26	18.486
365.62	20.365
365.98	19.428
366.35	19.956
366.71	19.143
367.07	19.811
367.43	18.620
367.79	17.880
368.15	18.449
368.51	19.301
368.87	18.521
369.23	18.845
369.59	19.825
369.95	17.815
370.31	19.581
370.67	19.104
371.03	18.073
371.39	18.600
371.75	18.535
372.11	18.474
372.47	19.231
372.83	19.021
373.19	19.971
373.55	18.773
373.91	19.006
374.27	18.710
374.63	19.670
374.99	19.007
375.35	18.384
375.71	19.580
376.07	18.890
376.42	18.776
376.78	19.530
377.14	19.296
377.50	17.663
377.86	19.277
378.22	18.634
378.58	18.846
378.94	18.147
379.30	17.592
379.66	18.871
380.02	18.516
380.38	17.772
380.74	17.475
381.09	17.791
381.45	18.777
381.81	18.507
382.17	18.909
382.53	18.738
382.89	17.891
383.25	18.108
383.61	18.659
383.97	17.333
384.32	18.386
384.68	17.709
385.04	17.218
385.40	18.171
385.76	18.302
386.12	18.887
386.48	17.688
386.83	16.931
387.19	17.827
387.55	17.817
387.91	18.215
388.27	17.643
388.62	18.376
388.98	17.311
389.34	18.301
389.70	19.080
390.06	17.306
390.42	17.681
390.77	17.789
391.13	17.528
391.49	17.335
391.85	18.064
392.20	17.640
392.56	18.055
392.92	17.792
393.28	16.627
393.64	16.757
393.99	17.994
394.35	16.762
394.71	18.008
395.07	16.530
395.42	16.454
395.78	16.612
396.14	16.961
396.50	16.107
396.85	17.901
397.21	17.105
397.57	16.803
397.92	17.256
398.28	16.897
398.64	15.723
399.00	16.817
399.35	15.971
399.71	16.715
400.07	16.989
400.42	16.585
400.78	17.146
401.14	16.999
401.49	16.617
401.85	16.149
402.21	16.084
402.57	15.500
402.92	15.558
403.28	16.792
403.63	15.889
403.99	15.370
404.35	16.490
404.70	16.012
405.06	15.276
405.42	15.848
405.77	14.875
406.13	16.007
406.49	15.335
406.84	15.465
407.20	16.315
407.55	15.132
407.91	14.639
408.27	15.743
408.62	15.631
408.98	15.588
409.34	15.551
409.69	14.276
410.05	15.764
410.40	15.556
410.76	15.501
411.11	15.750
411.47	14.727
411.83	13.999
412.18	14.929
412.54	14.295
412.89	14.039
413.25	15.283
413.60	13.665
413.96	14.724
414.31	15.549
414.67	14.112
415.03	14.647
415.38	14.817
415.74	14.984
416.09	16.003
416.45	15.192
416.80	14.144
417.16	14.019
417.51	14.124
417.87	13.625
418.22	14.832
418.58	13.645
418.93	14.232
419.29	13.956
419.64	14.258
420.00	14.798
420.35	15.045
420.71	14.399
421.06	14.426
421.42	14.363
421.77	14.509
422.12	13.621
422.48	13.535
422.83	14.211
423.19	14.165
423.54	13.169
423.90	13.310
424.25	13.318
424.61	13.158
424.96	13.647
425.31	14.558
425.67	13.732
426.02	13.899
426.38	13.651
426.73	14.044
427.09	14.177
427.44	14.176
427.79	14.496
428.15	13.956
428.50	13.083
428.85	12.654
429.21	14.035
429.56	13.693
429.92	13.559
430.27	13.835
430.62	12.859
430.98	13.323
431.33	13.933
431.68	12.611
432.04	13.304
432.39	13.349
432.74	13.229
433.10	13.391
433.45	13.262
433.80	13.059
434.16	12.687
434.51	13.011
434.86	12.660
435.22	12.844
435.57	12.913
435.92	12.216
436.28	12.284
436.63	13.349
436.98	12.630
437.34	12.886
437.69	13.119
438.04	12.308
438.39	13.195
438.75	12.690
439.10	12.620
439.45	12.842
439.81	12.661
440.16	12.352
440.51	13.075
440.86	12.991
441.22	13.009
441.57	12.859
441.92	13.484
442.27	12.805
442.63	13.276
442.98	12.981
443.33	12.354
443.68	12.732
444.03	13.214
444.39	12.002
444.74	12.988
445.09	12.416
445.44	12.821
445.79	13.306
446.15	12.059
446.50	12.479
446.85	13.177
447.20	13.347
447.55	13.225
447.91	12.916
448.26	12.408
448.61	12.205
448.96	12.565
449.31	12.139
449.66	12.253
450.02	12.835
450.37	12.685
450.72	13.001
451.07	12.658
451.42	13.046
451.77	12.055
452.12	12.440
452.47	11.912
452.83	12.426
453.18	12.460
453.53	12.642
453.88	13.358
454.23	12.907
454.58	13.476
454.93	13.209
455.28	12.000
455.63	12.461
455.98	12.207
456.34	12.069
456.69	12.071
457.04	12.539
457.39	12.090
457.74	11.971
458.09	12.655
458.44	12.112
458.79	12.437
459.14	13.158
459.49	12.358
459.84	12.126
460.19	12.379
460.54	12.653
460.89	12.443
461.24	12.360
461.59	12.470
461.94	12.327
462.29	12.063
462.64	12.691
462.99	12.729
463.34	12.100
463.69	12.870
464.04	12.651
464.39	12.432
464.74	12.638
465.09	12.477
465.44	11.656
465.79	12.132
466.14	11.859
466.49	11.673
466.84	12.136
467.19	11.827
467.54	12.005
467.89	10.929
468.24	11.861
468.59	12.444
468.94	11.873
469.29	12.590
469.64	12.714
469.99	12.263
470.34	11.468
470.68	13.647
471.03	13.163
471.38	11.912
471.73	12.255
472.08	11.194
472.43	11.275
472.78	11.241
473.13	12.585
473.48	11.922
473.83	11.768
474.17	12.306
474.52	11.487
474.87	12.182
475.22	11.714
475.57	11.745
475.92	11.903
476.27	12.340
476.61	11.285
476.96	11.991
477.31	12.061
477.66	11.854
478.01	11.454
478.36	11.438
478.70	12.670
479.05	12.143
479.40	12.083
479.75	11.157
480.10	11.470
480.45	12.100
480.79	11.782
481.14	11.629
481.49	11.182
481.84	11.245
482.19	11.319
482.53	12.086
482.88	11.456
483.23	11.132
483.58	11.981
483.92	11.713
484.27	11.212
484.62	11.385
484.97	11.194
485.31	10.874
485.66	10.666
486.01	10.784
486.36	10.749
486.70	10.667
487.05	10.945
487.40	10.988
487.75	11.042
488.09	11.403
488.44	11.176
488.79	11.169
489.13	11.979
489.48	11.586
489.83	11.570
490.17	11.101
490.52	11.316
490.87	10.875
491.22	11.700
491.56	10.436
491.91	11.568
492.26	11.424
492.60	11.756
492.95	11.608
493.30	11.480
493.64	11.640
493.99	11.111
494.34	11.165
494.68	10.905
495.03	11.144
495.37	11.433
495.72	11.106
496.07	11.171
496.41	11.651
496.76	11.377
497.11	10.713
497.45	11.551
497.80	11.453
498.14	11.575
498.49	10.919
498.84	10.878
499.18	11.044
499.53	10.962
499.87	10.700
500.22	10.732
500.56	10.842
500.91	10.040
501.26	10.875
501.60	10.674
501.95	11.887
502.29	10.702
502.64	10.618
502.98	10.459
503.33	10.567
503.67	10.506
504.02	10.508
504.36	11.578
504.71	10.707
505.06	11.122
505.40	11.218
505.75	10.979
506.09	10.846
506.44	11.191
506.78	11.480
507.13	10.341
507.47	10.548
507.82	9.882
508.16	11.252
508.51	11.805
508.85	10.832
509.19	10.644
509.54	11.046
509.88	10.841
510.23	11.081
510.57	10.636
510.92	10.501
511.26	11.511
511.61	11.056
511.95	11.507
512.30	10.698
512.64	10.796
512.98	10.275
513.33	10.968
513.67	10.290
514.02	11.442
514.36	11.543
514.70	11.305
515.05	11.281
515.39	10.803
515.74	11.317
516.08	11.596
516.42	10.836
516.77	11.118
517.11	11.098
517.46	12.089
517.80	11.502
518.14	11.145
518.49	10.817
518.83	10.510
519.17	11.158
519.52	10.894
519.86	10.204
520.20	10.450
520.55	10.507
520.89	10.853
521.23	11.653
521.58	11.609
521.92	11.154
522.26	10.865
522.61	10.649
522.95	11.325
523.29	12.071
523.64	11.182
523.98	11.666
524.32	10.116
524.66	11.140
525.01	11.039
525.35	11.017
525.69	9.966
526.04	10.119
526.38	11.543
526.72	11.445
527.06	10.571
527.41	10.752
527.75	11.059
528.09	11.096
528.43	11.884
528.78	10.099
529.12	10.774
529.46	10.526
529.80	10.830
530.15	12.211
530.49	9.495
530.83	10.465
531.17	9.671
531.51	10.944
531.86	10.265
532.20	9.812
532.54	11.028
532.88	11.020
533.22	10.954
533.57	10.288
533.91	10.770
534.25	10.872
534.59	10.263
534.93	9.880
535.27	10.787
535.62	9.786
535.96	11.220
536.30	10.290
536.64	10.820
536.98	10.592
537.32	10.953
537.66	10.729
538.01	11.399
538.35	9.778
538.69	11.119
539.03	10.936
539.37	10.027
539.71	9.884
540.05	10.523
540.39	10.526
540.73	10.600
541.07	11.326
541.42	10.887
541.76	11.012
542.10	10.323
542.44	10.910
542.78	10.048
543.12	9.478
543.46	11.683
543.80	10.548
544.14	10.080
544.48	10.060
544.82	9.979
545.16	10.587
545.50	11.215
545.84	10.340
546.18	11.348
546.52	10.382
546.86	10.784
547.20	10.801
547.54	10.177
547.88	10.054
548.22	10.191
548.56	9.828
548.90	10.243
549.24	10.606
549.58	10.719
549.92	9.650
550.26	9.963
550.60	9.368
550.94	10.754
551.28	10.201
551.62	9.923
551.96	9.850
552.30	10.161
552.64	9.661
552.98	9.634
553.32	10.485
553.66	9.869
554.00	10.511
554.34	10.340
554.68	9.735
555.02	10.417
555.36	9.349
555.69	9.817
556.03	9.921
556.37	10.320
556.71	10.325
557.05	10.365
557.39	9.591
557.73	10.195
558.07	10.030
558.41	9.571
558.75	9.899
559.08	10.481
559.42	9.762
559.76	10.008
560.10	9.862
560.44	9.978
560.78	10.280
561.12	9.450
561.45	9.487
561.79	9.664
562.13	9.865
562.47	9.568
562.81	9.366
563.15	9.661
563.48	9.406
563.82	10.501
564.16	9.680
564.50	10.270
564.84	9.839
565.17	9.121
565.51	9.699
565.85	9.671
566.19	9.881
566.52	10.121
566.86	10.668
567.20	9.589
567.54	9.063
567.88	10.076
568.21	10.238
568.55	9.674
568.89	9.908
569.23	9.581
569.56	9.194
569.90	8.689
570.24	9.453
570.57	8.800
570.91	9.237
571.25	8.418
571.59	8.689
571.92	8.385
572.26	8.575
572.60	8.465
572.93	8.974
573.27	8.652
573.61	8.771
573.95	8.684
574.28	8.448
574.62	8.340
574.96	8.601
575.29	8.430
575.63	8.370
575.97	8.458
576.30	8.350
576.64	8.159
576.98	8.906
577.31	8.503
577.65	8.624
577.98	8.347
578.32	8.488
578.66	8.317
578.99	8.329
579.33	8.319
579.67	8.277
580.00	8.304
580.34	8.607
580.67	8.581
581.01	8.237
581.35	8.096
581.68	8.168
582.02	7.946
582.35	8.245
582.69	8.395
583.02	8.396
583.36	8.209
583.70	8.411
584.03	8.396
584.37	8.554
584.70	8.544
585.04	8.420
585.37	8.305
585.71	8.171
586.04	8.296
586.38	8.162
586.72	8.407
587.05	8.954
587.39	8.471
587.72	8.803
588.06	8.359
588.39	8.317
588.73	8.547
589.06	8.643
589.40	8.745
589.73	9.273
590.07	8.724
590.40	9.056
590.73	8.896
591.07	8.821
591.40	8.727
591.74	9.231
592.07	8.720
592.41	9.408
592.74	8.363
593.08	8.418
593.41	8.468
593.75	8.047
594.08	8.582
594.41	8.261
594.75	8.550
595.08	8.664
595.42	8.392
595.75	7.998
596.09	8.757
596.42	8.268
596.75	8.748
597.09	8.929
597.42	8.537
597.75	8.566
598.09	8.330
598.42	8.484
598.76	8.065
599.09	8.654
599.42	8.412
599.76	8.540
600.09	8.446
600.42	8.302
600.76	8.321
601.09	7.863
601.42	8.617
601.76	7.860
602.09	7.880
602.42	8.846
602.76	8.362
603.09	8.804
603.42	8.779
603.76	8.105
604.09	7.979
604.42	8.883
604.76	8.901
605.09	8.684
605.42	8.172
605.75	8.319
606.09	8.577
606.42	8.257
606.75	7.922
607.09	8.923
607.42	8.463
607.75	8.837
608.08	8.041
608.42	9.045
608.75	9.060
609.08	8.072
609.41	8.934
609.75	8.821
610.08	8.987
610.41	7.826
610.74	8.240
611.07	8.630
611.41	8.874
611.74	9.009
612.07	8.084
612.40	8.096
612.73	9.096
613.07	9.224
613.40	8.807
613.73	8.506
614.06	9.182
614.39	8.686
614.72	7.787
615.06	9.050
615.39	8.079
615.72	8.235
616.05	8.603
616.38	8.319
616.71	7.829
617.05	9.018
617.38	9.239
617.71	8.428
618.04	8.381
618.37	9.142
618.70	8.779
619.03	9.375
619.36	8.755
619.69	9.401
620.03	9.715
620.36	9.156
620.69	8.137
621.02	8.792
621.35	8.963
621.68	9.609
622.01	8.833
622.34	8.939
622.67	10.252
623.00	8.652
623.33	8.689
623.66	7.554
623.99	9.153
624.32	9.202
624.65	7.519
624.99	9.029
625.32	7.885
625.65	9.112
625.98	9.750
626.31	8.229
626.64	8.925
626.97	9.599
627.30	9.720
627.63	9.099
627.96	9.883
628.29	8.233
628.62	10.226
628.95	8.617
629.28	8.468
629.61	9.870
629.94	9.482
630.26	9.387
630.59	9.573
630.92	9.231
631.25	8.000
631.58	9.692
631.91	9.101
632.24	8.716
632.57	9.318
632.90	8.897
633.23	10.353
633.56	10.202
633.89	8.631
634.22	9.383
634.55	9.149
634.88	10.345
635.20	8.077
635.53	8.000
635.86	9.103
636.19	10.996
636.52	9.821
636.85	7.692
637.18	9.937
637.51	9.434
637.83	10.775
638.16	11.323
638.49	7.493
638.82	9.868
639.15	7.598
639.48	8.116
639.81	9.344
640.13	9.091
640.46	9.621
640.79	8.689
641.12	9.601
641.45	10.060
641.77	8.889
642.10	10.427
