SpectraSuite Data File
++++++++++++++++++++++++++++++++++++
Date: Fri May 15 21:06:03 PDT 2015
User: schluterlab
Dark Spectrum Present: Yes
Reference Spectrum Present: Yes
Number of Sampled Component Spectra: 1
Spectrometers: USB2E3373
Integration Time (usec): 3000 (USB2E3373)
Spectra Averaged: 3 (USB2E3373)
Boxcar Smoothing: 0 (USB2E3373)
Correct for Electrical Dark: No (USB2E3373)
Strobe/Lamp Enabled: No (USB2E3373)
Correct for Detector Non-linearity: No (USB2E3373)
Correct for Stray Light: No (USB2E3373)
Number of Pixels in Processed Spectrum: 2048
>>>>>Begin Processed Spectral Data<<<<<
178.53	0.000
178.91	0.000
179.29	-12.500
179.67	-600.000
180.04	42.857
180.42	0.000
180.80	300.000
181.18	666.667
181.56	-50.000
181.94	-200.000
182.31	800.000
182.69	-40.000
183.07	-633.333
183.45	-240.000
183.83	250.000
184.20	-36.364
184.58	122.222
184.96	225.000
185.34	-466.667
185.72	-650.000
186.09	100.000
186.47	-1200.000
186.85	250.000
187.23	166.667
187.61	900.000
187.98	-300.000
188.36	-22.222
188.74	-300.000
189.12	58.824
189.49	0.000
189.87	0.000
190.25	50.000
190.63	-100.000
191.00	-400.000
191.38	-15.789
191.76	200.000
192.14	250.000
192.51	200.000
192.89	-122.222
193.27	-71.429
193.65	283.333
194.02	154.545
194.40	-90.000
194.78	-237.500
195.15	-58.333
195.53	-187.500
195.91	350.000
196.29	-225.000
196.66	161.538
197.04	71.429
197.42	-111.111
197.79	-600.000
198.17	-38.462
198.55	-0.000
198.92	-266.667
199.30	-1400.000
199.68	-60.000
200.05	-500.000
200.43	0.000
200.81	33.333
201.18	-300.000
201.56	800.000
201.94	-350.000
202.31	333.333
202.69	-440.000
203.07	350.000
203.44	-300.000
203.82	0.000
204.19	14.286
204.57	-300.000
204.95	125.000
205.32	-40.000
205.70	57.143
206.08	-50.000
206.45	133.333
206.83	50.000
207.20	-271.429
207.58	300.000
207.96	-600.000
208.33	-100.000
208.71	-225.000
209.08	-283.333
209.46	-1200.000
209.84	-40.000
210.21	-2000.000
210.59	57.143
210.96	-150.000
211.34	-225.000
211.71	46.667
212.09	-114.286
212.46	-1600.000
212.84	0.000
213.22	30.000
213.59	250.000
213.97	61.538
214.34	-72.727
214.72	-83.333
215.09	475.000
215.47	-15.385
215.84	-45.455
216.22	33.333
216.59	-25.000
216.97	-50.000
217.34	-100.000
217.72	-200.000
218.09	-37.500
218.47	137.500
218.84	-500.000
219.22	-111.111
219.59	-100.000
219.97	166.667
220.34	300.000
220.72	-14.286
221.09	-75.000
221.47	-200.000
221.84	-550.000
222.22	-750.000
222.59	-9.091
222.97	41.667
223.34	-400.000
223.72	-100.000
224.09	-23.810
224.46	-7.143
224.84	500.000
225.21	-10.000
225.59	-20.000
225.96	-450.000
226.34	25.000
226.71	-14.286
227.08	-283.333
227.46	-37.500
227.83	-300.000
228.21	0.000
228.58	18.182
228.95	-175.000
229.33	170.000
229.70	-18.750
230.08	-175.000
230.45	-142.857
230.82	14.286
231.20	26.667
231.57	28.571
231.95	-142.857
232.32	-60.000
232.69	-21.429
233.07	-133.333
233.44	-240.000
233.81	-30.000
234.19	11.111
234.56	52.941
234.93	950.000
235.31	225.000
235.68	-360.000
236.05	-123.077
236.43	-40.000
236.80	-100.000
237.17	9.375
237.55	-35.000
237.92	0.000
238.29	13.889
238.67	6.667
239.04	-26.471
239.41	-41.463
239.79	-40.000
240.16	-7.317
240.53	-18.421
240.91	-10.870
241.28	22.222
241.65	7.143
242.02	10.959
242.40	-11.667
242.77	-10.169
243.14	-19.697
243.51	3.750
243.89	14.943
244.26	-3.448
244.63	-4.762
245.00	4.124
245.38	1.031
245.75	-19.101
246.12	5.172
246.49	4.959
246.87	9.615
247.24	-10.924
247.61	-9.649
247.98	-3.252
248.36	3.750
248.73	3.947
249.10	0.649
249.47	1.266
249.84	1.307
250.22	0.000
250.59	-5.229
250.96	4.225
251.33	2.326
251.70	7.647
252.08	2.538
252.45	4.455
252.82	0.503
253.19	7.373
253.56	0.467
253.94	5.405
254.31	-0.435
254.68	3.509
255.05	2.756
255.42	-0.437
255.79	3.861
256.16	4.669
256.54	5.970
256.91	1.521
257.28	0.372
257.65	-2.622
258.02	2.482
258.39	6.734
258.76	4.396
259.14	2.990
259.51	2.589
259.88	0.344
260.25	4.575
260.62	3.819
260.99	0.000
261.36	1.712
261.73	1.266
262.10	5.775
262.47	2.147
262.85	7.210
263.22	5.846
263.59	5.919
263.96	4.969
264.33	5.152
264.70	2.679
265.07	4.167
265.44	4.533
265.81	3.955
266.18	3.005
266.55	6.684
266.92	4.922
267.29	4.178
267.66	4.859
268.03	3.141
268.40	1.567
268.77	4.545
269.14	2.158
269.51	2.571
269.88	1.496
270.25	2.296
270.62	-0.488
270.99	2.813
271.36	-0.733
271.73	4.225
272.10	2.190
272.47	2.364
272.84	2.228
273.21	3.944
273.58	4.819
273.95	3.204
274.32	3.695
274.69	1.810
275.06	3.348
275.43	1.587
275.80	2.649
276.17	2.759
276.54	3.212
276.91	3.070
277.28	2.183
277.65	3.926
278.02	2.979
278.39	0.656
278.76	2.725
279.13	0.207
279.50	6.303
279.87	3.024
280.23	2.151
280.60	4.483
280.97	3.838
281.34	2.885
281.71	4.928
282.08	2.454
282.45	4.892
282.82	1.158
283.19	2.901
283.56	4.432
283.92	1.898
284.29	2.885
284.66	3.101
285.03	2.358
285.40	4.537
285.77	2.988
286.14	3.249
286.51	5.535
286.87	3.656
287.24	2.210
287.61	1.411
287.98	4.561
288.35	2.426
288.72	5.954
289.08	3.472
289.45	3.515
289.82	2.797
290.19	3.242
290.56	2.744
290.93	2.694
291.29	3.852
291.66	2.835
292.03	3.190
292.40	3.065
292.77	2.871
293.13	0.325
293.50	1.973
293.87	3.817
294.24	1.700
294.60	2.832
294.97	2.530
295.34	4.141
295.71	1.788
296.08	1.644
296.44	2.703
296.81	3.472
297.18	3.478
297.55	4.607
297.91	3.425
298.28	5.277
298.65	2.035
299.02	3.235
299.38	0.958
299.75	2.621
300.12	2.880
300.48	2.108
300.85	2.788
301.22	1.818
301.59	3.421
301.95	3.165
302.32	5.318
302.69	2.114
303.05	2.970
303.42	3.362
303.79	3.505
304.15	5.376
304.52	2.735
304.89	2.222
305.25	3.148
305.62	2.800
305.99	2.690
306.35	2.890
306.72	2.812
307.09	3.193
307.45	3.674
307.82	2.894
308.19	2.904
308.55	2.726
308.92	3.704
309.29	2.793
309.65	3.122
310.02	3.410
310.38	3.074
310.75	3.716
311.12	3.122
311.48	3.606
311.85	2.618
312.22	3.165
312.58	3.079
312.95	3.095
313.31	3.623
313.68	4.293
314.05	3.571
314.41	4.330
314.78	3.711
315.14	4.214
315.51	4.037
315.87	4.303
316.24	5.359
316.61	5.906
316.97	4.762
317.34	4.980
317.70	4.876
318.07	5.385
318.43	5.392
318.80	4.924
319.16	5.859
319.53	6.173
319.89	7.283
320.26	5.870
320.62	6.921
320.99	5.741
321.35	6.166
321.72	7.580
322.08	8.560
322.45	7.716
322.81	7.662
323.18	7.458
323.54	7.819
323.91	7.887
324.27	8.984
324.64	9.831
325.00	10.584
325.37	10.836
325.73	10.335
326.10	11.807
326.46	12.287
326.83	11.024
327.19	12.990
327.56	11.903
327.92	13.292
328.29	12.857
328.65	13.491
329.01	13.235
329.38	15.207
329.74	12.842
330.11	14.551
330.47	13.729
330.84	13.942
331.20	16.065
331.56	15.556
331.93	16.164
332.29	16.224
332.66	14.570
333.02	15.149
333.38	15.765
333.75	15.659
334.11	16.115
334.48	16.682
334.84	15.018
335.20	15.462
335.57	15.050
335.93	16.260
336.29	16.851
336.66	15.895
337.02	15.985
337.38	15.370
337.75	16.545
338.11	16.862
338.47	16.788
338.84	15.804
339.20	17.459
339.56	17.523
339.93	17.189
340.29	17.615
340.65	17.473
341.02	17.376
341.38	16.549
341.74	16.431
342.11	15.511
342.47	17.260
342.83	16.609
343.20	16.812
343.56	17.130
343.92	16.740
344.28	17.592
344.65	16.753
345.01	16.422
345.37	16.905
345.73	17.490
346.10	16.652
346.46	17.578
346.82	17.349
347.19	16.708
347.55	17.711
347.91	18.932
348.27	17.138
348.63	16.099
349.00	17.391
349.36	16.791
349.72	17.745
350.08	16.885
350.45	17.239
350.81	16.528
351.17	16.450
351.53	16.735
351.89	16.928
352.26	16.320
352.62	17.097
352.98	17.590
353.34	16.747
353.70	16.505
354.07	17.419
354.43	16.733
354.79	17.836
355.15	17.540
355.51	17.089
355.87	16.990
356.24	16.150
356.60	16.815
356.96	17.143
357.32	17.332
357.68	16.654
358.04	17.609
358.40	17.605
358.77	17.145
359.13	16.733
359.49	17.103
359.85	16.225
360.21	17.305
360.57	16.832
360.93	17.398
361.29	15.937
361.66	16.614
362.02	18.106
362.38	17.822
362.74	17.033
363.10	18.134
363.46	17.050
363.82	18.032
364.18	17.417
364.54	16.912
364.90	17.204
365.26	17.467
365.62	18.029
365.98	18.622
366.35	17.553
366.71	17.812
367.07	17.707
367.43	16.679
367.79	17.385
368.15	16.152
368.51	17.626
368.87	16.368
369.23	16.534
369.59	16.983
369.95	17.595
370.31	17.847
370.67	17.910
371.03	16.953
371.39	17.360
371.75	16.996
372.11	17.190
372.47	16.790
372.83	17.743
373.19	18.260
373.55	17.690
373.91	17.495
374.27	17.576
374.63	17.660
374.99	18.227
375.35	18.036
375.71	17.483
376.07	17.697
376.42	17.551
376.78	17.785
377.14	17.197
377.50	16.999
377.86	17.001
378.22	17.358
378.58	16.346
378.94	17.769
379.30	17.218
379.66	18.683
380.02	16.309
380.38	17.529
380.74	16.876
381.09	17.791
381.45	17.431
381.81	17.027
382.17	18.338
382.53	17.239
382.89	16.384
383.25	17.424
383.61	18.598
383.97	16.762
384.32	17.886
384.68	17.771
385.04	16.667
385.40	16.615
385.76	18.176
386.12	18.241
386.48	17.944
386.83	17.185
387.19	17.949
387.55	17.503
387.91	17.359
388.27	16.606
388.62	17.432
388.98	16.882
389.34	17.676
389.70	18.210
390.06	16.740
390.42	17.422
390.77	17.397
391.13	16.267
391.49	16.818
391.85	17.479
392.20	16.824
392.56	17.991
392.92	18.027
393.28	17.217
393.64	16.577
393.99	18.809
394.35	17.078
394.71	17.433
395.07	16.719
395.42	16.879
395.78	16.352
396.14	17.024
396.50	17.692
396.85	17.321
397.21	16.479
397.57	17.492
397.92	16.717
398.28	17.816
398.64	16.807
399.00	17.099
399.35	16.535
399.71	17.346
400.07	17.050
400.42	16.157
400.78	17.085
401.14	16.636
401.49	15.783
401.85	17.002
402.21	16.747
402.57	16.188
402.92	15.747
403.28	16.855
403.63	16.393
403.99	15.816
404.35	16.740
404.70	16.131
405.06	15.981
405.42	16.408
405.77	16.095
406.13	15.658
406.49	15.986
406.84	16.565
407.20	16.797
407.55	15.969
407.91	16.243
408.27	16.125
408.62	16.677
408.98	16.143
409.34	16.667
409.69	16.860
410.05	15.394
410.40	15.494
410.76	16.164
411.11	15.750
411.47	16.502
411.83	15.694
412.18	15.380
412.54	16.167
412.89	15.394
413.25	15.463
413.60	16.149
413.96	15.337
414.31	16.159
414.67	16.421
415.03	15.113
415.38	15.535
415.74	16.547
416.09	17.113
416.45	16.003
416.80	15.929
417.16	16.022
417.51	15.989
417.87	15.515
418.22	16.775
418.58	15.652
418.93	16.552
419.29	14.533
419.64	15.943
420.00	16.436
420.35	15.403
420.71	15.674
421.06	15.224
421.42	15.685
421.77	15.665
422.12	15.267
422.48	15.918
422.83	16.067
423.19	15.576
423.54	15.109
423.90	15.548
424.25	15.614
424.61	16.340
424.96	15.738
425.31	16.233
425.67	16.197
426.02	15.783
426.38	15.341
426.73	16.102
427.09	16.646
427.44	16.000
427.79	16.264
428.15	16.201
428.50	15.263
428.85	16.032
429.21	15.620
429.56	15.849
429.92	16.127
430.27	14.837
430.62	15.107
430.98	15.870
431.33	16.404
431.68	15.960
432.04	15.875
432.39	16.258
432.74	15.274
433.10	16.954
433.45	15.233
433.80	15.206
434.16	15.180
434.51	15.699
434.86	16.028
435.22	15.199
435.57	15.970
435.92	15.509
436.28	15.564
436.63	15.744
436.98	15.353
437.34	15.487
437.69	15.265
438.04	16.866
438.39	15.211
438.75	15.604
439.10	15.563
439.45	16.981
439.81	15.474
440.16	17.162
440.51	16.299
440.86	16.677
441.22	16.403
441.57	15.673
441.92	16.002
442.27	15.521
442.63	17.077
442.98	16.485
443.33	15.860
443.68	16.021
444.03	16.841
444.39	16.724
444.74	16.221
445.09	15.813
445.44	16.296
445.79	16.658
446.15	15.749
446.50	16.306
446.85	16.578
447.20	15.902
447.55	16.908
447.91	15.341
448.26	16.619
448.61	16.983
448.96	16.294
449.31	16.705
449.66	16.492
450.02	15.630
450.37	16.775
450.72	15.464
451.07	16.709
451.42	16.230
451.77	16.757
452.12	16.447
452.47	16.227
452.83	16.313
453.18	16.256
453.53	16.372
453.88	16.454
454.23	16.165
454.58	16.814
454.93	17.139
455.28	17.016
455.63	16.801
455.98	16.356
456.34	15.198
456.69	15.693
457.04	17.832
457.39	15.614
457.74	16.687
458.09	15.774
458.44	15.974
458.79	16.190
459.14	16.762
459.49	16.896
459.84	17.202
460.19	15.959
460.54	15.892
460.89	16.761
461.24	16.708
461.59	16.865
461.94	15.031
462.29	16.405
462.64	16.678
462.99	16.655
463.34	15.716
463.69	16.216
464.04	16.404
464.39	15.706
464.74	15.276
465.09	16.781
465.44	16.561
465.79	15.873
466.14	15.964
466.49	16.676
466.84	17.549
467.19	16.708
467.54	16.603
467.89	16.361
468.24	16.180
468.59	17.079
468.94	16.000
469.29	17.049
469.64	16.200
469.99	16.538
470.34	15.700
470.68	16.480
471.03	16.631
471.38	16.405
471.73	15.896
472.08	16.214
472.43	16.443
472.78	15.147
473.13	15.510
473.48	16.091
473.83	15.878
474.17	15.933
474.52	15.826
474.87	16.061
475.22	16.229
475.57	15.415
475.92	16.456
476.27	16.880
476.61	15.914
476.96	15.449
477.31	16.495
477.66	15.562
478.01	15.834
478.36	15.251
478.70	15.824
479.05	15.989
479.40	16.004
479.75	16.006
480.10	15.924
480.45	16.600
480.79	16.213
481.14	15.625
481.49	15.172
481.84	15.251
482.19	15.388
482.53	15.300
482.88	15.800
483.23	15.403
483.58	15.802
483.92	15.102
484.27	15.406
484.62	15.464
484.97	15.340
485.31	15.282
485.66	14.320
486.01	14.535
486.36	14.088
486.70	14.505
487.05	15.077
487.40	14.607
487.75	15.324
488.09	14.462
488.44	15.234
488.79	14.867
489.13	15.064
489.48	15.733
489.83	15.022
490.17	15.506
490.52	14.965
490.87	15.502
491.22	15.998
491.56	15.133
491.91	14.484
492.26	15.459
492.60	15.211
492.95	15.642
493.30	15.340
493.64	14.931
493.99	16.039
494.34	15.000
494.68	15.095
495.03	15.036
495.37	15.407
495.72	15.295
496.07	15.317
496.41	14.811
496.76	15.062
497.11	15.510
497.45	15.131
497.80	16.044
498.14	15.201
498.49	14.576
498.84	15.269
499.18	15.211
499.53	15.625
499.87	14.591
500.22	15.331
500.56	14.927
500.91	14.759
501.26	14.731
501.60	14.953
501.95	14.799
502.29	15.061
502.64	14.961
502.98	14.800
503.33	14.457
503.67	15.229
504.02	15.347
504.36	15.042
504.71	14.545
505.06	15.199
505.40	14.619
505.75	14.845
506.09	14.698
506.44	15.092
506.78	15.714
507.13	15.098
507.47	13.995
507.82	14.316
508.16	15.267
508.51	14.900
508.85	14.966
509.19	14.210
509.54	14.960
509.88	14.617
510.23	15.277
510.57	15.019
510.92	13.913
511.26	14.675
511.61	14.961
511.95	14.466
512.30	14.579
512.64	14.413
512.98	14.767
513.33	14.885
513.67	14.554
514.02	14.760
514.36	15.371
514.70	15.443
515.05	15.159
515.39	15.821
515.74	14.431
516.08	15.720
516.42	15.430
516.77	14.745
517.11	14.896
517.46	14.782
517.80	15.137
518.14	14.513
518.49	14.904
518.83	15.310
519.17	14.857
519.52	14.802
519.86	14.286
520.20	14.459
520.55	13.759
520.89	15.558
521.23	15.516
521.58	15.268
521.92	14.936
522.26	15.550
522.61	14.675
522.95	14.901
523.29	14.994
523.64	14.803
523.98	15.100
524.32	13.918
524.66	15.045
525.01	15.649
525.35	16.008
525.69	14.613
526.04	14.484
526.38	16.083
526.72	14.716
527.06	13.943
527.41	14.710
527.75	14.209
528.09	14.684
528.43	15.598
528.78	13.663
529.12	14.194
529.46	14.425
529.80	14.566
530.15	14.719
530.49	14.343
530.83	14.774
531.17	14.103
531.51	15.321
531.86	14.548
532.20	13.152
532.54	14.976
532.88	14.511
533.22	14.583
533.57	14.155
533.91	14.034
534.25	14.323
534.59	14.368
534.93	13.656
535.27	13.515
535.62	13.934
535.96	14.351
536.30	14.116
536.64	13.990
536.98	14.286
537.32	13.940
537.66	15.077
538.01	13.916
538.35	13.245
538.69	13.515
539.03	13.124
539.37	14.199
539.71	13.701
540.05	12.831
540.39	14.335
540.73	14.017
541.07	14.227
541.42	15.054
541.76	14.384
542.10	13.145
542.44	13.760
542.78	13.627
543.12	13.255
543.46	13.769
543.80	13.949
544.14	13.284
544.48	13.524
544.82	13.671
545.16	13.593
545.50	14.553
545.84	13.739
546.18	14.823
546.52	13.987
546.86	13.947
547.20	13.448
547.54	13.216
547.88	13.859
548.22	12.821
548.56	12.203
548.90	13.949
549.24	12.741
549.58	14.104
549.92	12.723
550.26	13.407
550.60	13.978
550.94	13.518
551.28	13.833
551.62	13.385
551.96	13.383
552.30	14.035
552.64	12.764
552.98	13.502
553.32	13.409
553.66	12.700
554.00	12.628
554.34	13.516
554.68	13.274
555.02	13.393
555.36	12.939
555.69	12.088
556.03	12.634
556.37	13.238
556.71	12.635
557.05	13.497
557.39	12.416
557.73	12.969
558.07	14.253
558.41	13.017
558.75	13.172
559.08	13.633
559.42	12.302
559.76	14.091
560.10	12.920
560.44	12.733
560.78	12.867
561.12	12.412
561.45	12.087
561.79	13.305
562.13	12.704
562.47	13.094
562.81	12.320
563.15	12.764
563.48	12.518
563.82	13.040
564.16	12.465
564.50	13.108
564.84	13.253
565.17	11.670
565.51	12.842
565.85	13.237
566.19	11.870
566.52	12.936
566.86	12.789
567.20	12.391
567.54	11.983
567.88	12.888
568.21	12.104
568.55	10.761
568.89	11.602
569.23	12.085
569.56	11.471
569.90	11.409
570.24	10.867
570.57	11.055
570.91	11.154
571.25	10.457
571.59	10.931
571.92	10.548
572.26	10.477
572.60	10.450
572.93	11.108
573.27	10.502
573.61	10.442
573.95	10.868
574.28	10.222
574.62	10.374
574.96	10.521
575.29	10.146
575.63	10.158
575.97	10.111
576.30	10.402
576.64	10.066
576.98	10.322
577.31	10.543
577.65	10.183
577.98	10.101
578.32	9.844
578.66	9.886
578.99	10.084
579.33	10.017
579.67	9.816
580.00	10.278
580.34	9.950
580.67	9.743
581.01	10.399
581.35	9.948
581.68	9.506
582.02	9.433
582.35	9.842
582.69	9.895
583.02	9.891
583.36	9.818
583.70	10.462
584.03	9.981
584.37	10.474
584.70	9.863
585.04	9.611
585.37	10.123
585.71	9.849
586.04	10.010
586.38	9.869
586.72	10.387
587.05	10.139
587.39	10.400
587.72	10.279
588.06	10.102
588.39	10.367
588.73	10.348
589.06	10.535
589.40	10.957
589.73	10.880
590.07	10.612
590.40	10.952
590.73	10.750
591.07	10.729
591.40	10.953
591.74	10.679
592.07	11.085
592.41	10.954
592.74	10.315
593.08	9.640
593.41	10.247
593.75	10.272
594.08	10.093
594.41	10.044
594.75	9.924
595.08	10.594
595.42	10.269
595.75	10.289
596.09	10.321
596.42	10.376
596.75	10.835
597.09	10.661
597.42	10.208
597.75	10.399
598.09	10.095
598.42	9.973
598.76	10.124
599.09	10.417
599.42	10.231
599.76	9.631
600.09	10.143
600.42	9.629
600.76	9.807
601.09	10.305
601.42	9.636
601.76	10.361
602.09	10.272
602.42	11.163
602.76	10.017
603.09	10.465
603.42	10.661
603.76	10.121
604.09	9.802
604.42	10.956
604.76	11.437
605.09	10.603
605.42	10.023
605.75	10.639
606.09	9.851
606.42	9.633
606.75	10.260
607.09	10.374
607.42	10.323
607.75	10.346
608.08	9.793
608.42	9.959
608.75	10.458
609.08	9.965
609.41	10.812
609.75	10.333
610.08	10.384
610.41	10.193
610.74	10.141
611.07	10.078
611.41	10.690
611.74	10.768
612.07	10.064
612.40	11.105
612.73	10.791
613.07	10.517
613.40	11.160
613.73	9.457
614.06	10.851
614.39	11.562
614.72	10.588
615.06	11.117
615.39	10.862
615.72	9.849
616.05	10.950
616.38	10.085
616.71	11.865
617.05	11.242
617.38	11.062
617.71	11.006
618.04	10.794
618.37	11.223
618.70	11.617
619.03	12.222
619.36	9.986
619.69	11.296
620.03	11.395
620.36	10.587
620.69	11.206
621.02	11.697
621.35	12.282
621.68	11.139
622.01	10.917
622.34	11.732
622.67	11.751
623.00	11.485
623.33	10.899
623.66	10.920
623.99	10.893
624.32	11.331
624.65	10.752
624.99	10.986
625.32	10.008
625.65	11.705
625.98	11.765
626.31	11.305
626.64	11.612
626.97	11.867
627.30	11.909
627.63	12.305
627.96	11.411
628.29	11.841
628.62	11.603
628.95	11.423
629.28	12.903
629.61	11.366
629.94	13.294
630.26	12.154
630.59	12.175
630.92	12.205
631.25	11.077
631.58	12.225
631.91	11.294
632.24	11.812
632.57	11.591
632.90	12.100
633.23	12.824
633.56	10.579
633.89	12.454
634.22	12.963
634.55	11.817
634.88	12.899
635.20	12.308
635.53	12.533
635.86	11.053
636.19	14.748
636.52	11.990
636.85	10.918
637.18	11.950
637.51	12.453
637.83	12.352
