SpectraSuite Data File
++++++++++++++++++++++++++++++++++++
Date: Fri May 15 20:42:49 PDT 2015
User: schluterlab
Dark Spectrum Present: Yes
Reference Spectrum Present: Yes
Number of Sampled Component Spectra: 1
Spectrometers: USB2E3373
Integration Time (usec): 3000 (USB2E3373)
Spectra Averaged: 3 (USB2E3373)
Boxcar Smoothing: 0 (USB2E3373)
Correct for Electrical Dark: No (USB2E3373)
Strobe/Lamp Enabled: No (USB2E3373)
Correct for Detector Non-linearity: No (USB2E3373)
Correct for Stray Light: No (USB2E3373)
Number of Pixels in Processed Spectrum: 2048
>>>>>Begin Processed Spectral Data<<<<<
178.53	0.000
178.91	0.000
179.29	125.000
179.67	150.000
180.04	14.286
180.42	50.000
180.80	-200.000
181.18	-266.667
181.56	-100.000
181.94	50.000
182.31	600.000
182.69	60.000
183.07	-100.000
183.45	-40.000
183.83	100.000
184.20	-27.273
184.58	122.222
184.96	-175.000
185.34	166.667
185.72	150.000
186.09	61.538
186.47	-1000.000
186.85	166.667
187.23	244.444
187.61	-400.000
187.98	-66.667
188.36	44.444
188.74	-233.333
189.12	17.647
189.49	55.556
189.87	0.000
190.25	-35.714
190.63	-500.000
191.00	-33.333
191.38	-10.526
191.76	-100.000
192.14	100.000
192.51	50.000
192.89	-77.778
193.27	-200.000
193.65	116.667
194.02	90.909
194.40	50.000
194.78	-62.500
195.15	-16.667
195.53	37.500
195.91	100.000
196.29	-100.000
196.66	100.000
197.04	171.429
197.42	0.000
197.79	-833.333
198.17	-123.077
198.55	1000.000
198.92	-233.333
199.30	200.000
199.68	-60.000
200.05	-300.000
200.43	0.000
200.81	-200.000
201.18	-166.667
201.56	900.000
201.94	-350.000
202.31	100.000
202.69	-200.000
203.07	150.000
203.44	-500.000
203.82	0.000
204.19	42.857
204.57	-533.333
204.95	75.000
205.32	-30.000
205.70	100.000
206.08	0.000
206.45	133.333
206.83	-35.714
207.20	-128.571
207.58	400.000
207.96	-66.667
208.33	-30.000
208.71	-75.000
209.08	-250.000
209.46	-200.000
209.84	-80.000
210.21	-1300.000
210.59	57.143
210.96	-200.000
211.34	-50.000
211.71	26.667
212.09	-185.714
212.46	-1300.000
212.84	0.000
213.22	30.000
213.59	-0.000
213.97	7.692
214.34	-54.545
214.72	-66.667
215.09	750.000
215.47	-38.462
215.84	-27.273
216.22	-300.000
216.59	-125.000
216.97	-500.000
217.34	-25.000
217.72	-200.000
218.09	125.000
218.47	150.000
218.84	200.000
219.22	-55.556
219.59	-80.000
219.97	433.333
220.34	400.000
220.72	28.571
221.09	-225.000
221.47	-50.000
221.84	-450.000
222.22	-950.000
222.59	-100.000
222.97	-108.333
223.34	-200.000
223.72	64.286
224.09	38.095
224.46	10.714
224.84	466.667
225.21	70.000
225.59	40.000
225.96	150.000
226.34	475.000
226.71	-85.714
227.08	-16.667
227.46	12.500
227.83	-600.000
228.21	44.444
228.58	-81.818
228.95	-62.500
229.33	180.000
229.70	-25.000
230.08	-200.000
230.45	-85.714
230.82	28.571
231.20	40.000
231.57	-14.286
231.95	57.143
232.32	-130.000
232.69	35.714
233.07	166.667
233.44	-180.000
233.81	-130.000
234.19	-22.222
234.56	-23.529
234.93	450.000
235.31	-150.000
235.68	-260.000
236.05	-30.769
236.43	0.000
236.80	11.765
237.17	3.125
237.55	-20.000
237.92	-11.111
238.29	13.889
238.67	-13.333
239.04	-20.588
239.41	-26.829
239.79	-33.333
240.16	14.634
240.53	-13.158
240.91	0.000
241.28	9.524
241.65	12.500
242.02	19.178
242.40	8.333
242.77	10.169
243.14	-4.545
243.51	1.250
243.89	24.138
244.26	4.598
244.63	1.190
245.00	2.062
245.38	17.526
245.75	-3.371
246.12	-0.862
246.49	12.397
246.87	9.615
247.24	2.521
247.61	-0.877
247.98	4.878
248.36	6.250
248.73	9.868
249.10	1.299
249.47	6.329
249.84	15.033
250.22	11.176
250.59	5.229
250.96	17.371
251.33	10.465
251.70	10.000
252.08	12.183
252.45	4.455
252.82	10.553
253.19	6.912
253.56	9.813
253.94	13.063
254.31	10.435
254.68	14.035
255.05	11.811
255.42	13.100
255.79	10.425
256.16	9.339
256.54	13.806
256.91	11.787
257.28	10.781
257.65	5.618
258.02	10.284
258.39	10.438
258.76	11.722
259.14	13.289
259.51	12.621
259.88	13.402
260.25	9.150
260.62	11.458
260.99	8.475
261.36	6.164
261.73	12.025
262.10	12.766
262.47	11.043
262.85	8.464
263.22	11.385
263.59	9.969
263.96	10.248
264.33	9.091
264.70	9.821
265.07	6.548
265.44	10.198
265.81	13.842
266.18	11.202
266.55	10.540
266.92	11.399
267.29	10.183
267.66	12.788
268.03	7.853
268.40	7.050
268.77	12.032
269.14	10.072
269.51	12.082
269.88	9.227
270.25	8.163
270.62	8.537
270.99	8.184
271.36	10.269
271.73	10.798
272.10	10.949
272.47	10.875
272.84	9.901
273.21	12.529
273.58	10.843
273.95	10.526
274.32	8.545
274.69	9.502
275.06	12.277
275.43	10.431
275.80	11.038
276.17	9.425
276.54	10.064
276.91	9.430
277.28	11.354
277.65	11.364
278.02	7.234
278.39	10.503
278.76	10.901
279.13	7.676
279.50	11.134
279.87	9.935
280.23	7.312
280.60	11.501
280.97	9.899
281.34	10.769
281.71	11.088
282.08	10.634
282.45	9.393
282.82	8.301
283.19	8.124
283.56	10.597
283.92	8.918
284.29	11.731
284.66	10.465
285.03	9.823
285.40	9.263
285.77	9.490
286.14	11.191
286.51	11.808
286.87	6.947
287.24	10.497
287.61	9.171
287.98	11.754
288.35	10.572
288.72	12.960
289.08	9.028
289.45	9.139
289.82	9.441
290.19	8.874
290.56	9.777
290.93	9.091
291.29	8.012
291.66	9.291
292.03	8.293
292.40	8.387
292.77	8.931
293.13	6.331
293.50	8.649
293.87	9.466
294.24	9.892
294.60	8.942
294.97	8.482
295.34	7.822
295.71	9.836
296.08	7.922
296.44	5.974
296.81	8.472
297.18	8.986
297.55	8.130
297.91	7.671
298.28	9.763
298.65	8.141
299.02	8.356
299.38	6.019
299.75	6.759
300.12	7.068
300.48	7.378
300.85	8.745
301.22	7.143
301.59	7.632
301.95	8.101
302.32	8.949
302.69	7.587
303.05	6.559
303.42	7.597
303.79	9.229
304.15	7.288
304.52	6.897
304.89	7.485
305.25	8.111
305.62	7.118
305.99	7.602
306.35	6.590
306.72	6.974
307.09	7.640
307.45	7.807
307.82	7.755
308.19	7.549
308.55	7.525
308.92	9.259
309.29	6.927
309.65	7.858
310.02	7.261
310.38	7.135
310.75	8.306
311.12	7.966
311.48	8.271
311.85	7.330
312.22	8.333
312.58	6.688
312.95	7.471
313.31	7.039
313.68	8.586
314.05	6.735
314.41	6.701
314.78	7.938
315.14	8.839
315.51	8.385
315.87	8.402
316.24	8.493
316.61	7.677
316.97	9.028
317.34	8.105
317.70	8.604
318.07	8.942
318.43	8.431
318.80	7.481
319.16	8.398
319.53	10.351
319.89	9.843
320.26	9.615
320.62	11.234
320.99	9.081
321.35	10.072
321.72	11.111
322.08	10.070
322.45	11.675
322.81	11.002
323.18	10.206
323.54	10.618
323.91	10.419
324.27	11.914
324.64	11.049
325.00	11.588
325.37	13.958
325.73	11.967
326.10	12.897
326.46	13.543
326.83	11.724
327.19	13.252
327.56	14.422
327.92	14.261
328.29	13.482
328.65	14.340
329.01	12.224
329.38	14.009
329.74	12.842
330.11	14.180
330.47	14.378
330.84	14.519
331.20	15.589
331.56	14.444
331.93	16.347
332.29	15.949
332.66	15.113
333.02	15.056
333.38	14.665
333.75	15.201
334.11	15.219
334.48	15.322
334.84	15.110
335.20	16.194
335.57	13.962
335.93	14.092
336.29	15.746
336.66	15.168
337.02	14.405
337.38	14.722
337.75	15.727
338.11	15.059
338.47	15.602
338.84	16.451
339.20	15.996
339.56	15.321
339.93	15.219
340.29	15.413
340.65	16.756
341.02	15.337
341.38	15.575
341.74	15.194
342.11	14.991
342.47	15.302
342.83	17.042
343.20	14.199
343.56	15.217
343.92	15.323
344.28	15.542
344.65	15.026
345.01	14.520
345.37	15.391
345.73	14.979
346.10	15.272
346.46	14.971
346.82	14.894
347.19	13.799
347.55	15.288
347.91	15.210
348.27	14.147
348.63	16.014
349.00	14.684
349.36	16.209
349.72	15.340
350.08	16.311
350.45	16.999
350.81	14.701
351.17	14.902
351.53	15.755
351.89	14.616
352.26	14.320
352.62	15.806
352.98	14.940
353.34	14.976
353.70	15.939
354.07	14.194
354.43	16.013
354.79	15.690
355.15	16.746
355.51	15.981
355.87	15.696
356.24	12.806
356.60	15.683
356.96	15.714
357.32	14.297
357.68	15.794
358.04	15.024
358.40	15.113
358.77	14.992
359.13	15.853
359.49	15.331
359.85	15.367
360.21	15.152
360.57	14.920
360.93	15.204
361.29	14.804
361.66	15.831
362.02	15.985
362.38	16.070
362.74	15.443
363.10	15.576
363.46	16.531
363.82	15.702
364.18	14.982
364.54	14.926
364.90	15.412
365.26	15.357
365.62	16.204
365.98	16.056
366.35	16.242
366.71	15.595
367.07	15.820
367.43	14.738
367.79	16.184
368.15	16.439
368.51	15.586
368.87	15.937
369.23	15.596
369.59	15.671
369.95	17.229
370.31	16.474
370.67	15.522
371.03	15.982
371.39	15.244
371.75	17.070
372.11	16.262
372.47	16.198
372.83	16.749
373.19	16.548
373.55	16.029
373.91	16.775
374.27	16.726
374.63	16.511
374.99	16.383
375.35	16.643
375.71	16.294
376.07	16.573
376.42	16.531
376.78	16.510
377.14	16.926
377.50	17.795
377.86	15.730
378.22	16.784
378.58	16.795
378.94	16.761
379.30	16.656
379.66	16.301
380.02	16.800
380.38	16.859
380.74	16.158
381.09	16.626
381.45	17.064
381.81	17.397
382.17	17.195
382.53	16.927
382.89	17.137
383.25	16.677
383.61	17.317
383.97	16.444
384.32	18.136
384.68	17.833
385.04	16.789
385.40	16.864
385.76	18.428
386.12	18.047
386.48	17.944
386.83	17.185
387.19	18.620
387.55	17.127
387.91	18.093
388.27	17.643
388.62	17.999
388.98	17.188
389.34	17.864
389.70	17.961
390.06	17.621
390.42	19.041
390.77	18.901
391.13	17.718
391.49	18.435
391.85	18.389
392.20	17.765
392.56	16.910
392.92	18.027
393.28	17.394
393.64	17.658
393.99	18.683
394.35	17.204
394.71	17.944
395.07	17.850
395.42	17.608
395.78	18.111
396.14	17.654
396.50	18.389
396.85	18.158
397.21	18.045
397.57	17.555
397.92	17.496
398.28	18.506
398.64	17.410
399.00	17.833
399.35	17.494
399.71	17.863
400.07	17.956
400.42	18.482
400.78	18.249
401.14	18.875
401.49	18.702
401.85	18.282
402.21	17.831
402.57	18.625
402.92	17.315
403.28	18.108
403.63	17.339
403.99	16.964
404.35	18.613
404.70	17.857
405.06	17.509
405.42	17.402
405.77	16.734
406.13	16.414
406.49	17.584
406.84	17.604
407.20	17.881
407.55	16.677
407.91	16.912
408.27	17.782
408.62	17.846
408.98	17.868
409.34	17.038
409.69	17.119
410.05	16.502
410.40	16.852
410.76	18.094
411.11	17.125
411.47	17.751
411.83	17.200
412.18	16.795
412.54	16.916
412.89	17.241
413.25	17.088
413.60	16.894
413.96	17.239
414.31	17.378
414.67	16.870
415.03	16.977
415.38	16.841
415.74	17.524
416.09	16.982
416.45	17.556
416.80	18.705
417.16	17.680
417.51	17.522
417.87	17.340
418.22	17.293
418.58	16.789
418.93	17.743
419.29	16.261
419.64	17.045
420.00	17.947
420.35	16.776
420.71	17.558
421.06	17.741
421.42	17.248
421.77	17.688
422.12	16.913
422.48	17.217
422.83	16.705
423.19	17.946
423.54	16.402
423.90	17.786
424.25	17.107
424.61	17.564
424.96	17.015
425.31	18.486
425.67	17.195
426.02	18.257
426.38	17.470
426.73	17.554
427.09	18.671
427.44	18.235
427.79	17.207
428.15	17.476
428.50	18.534
428.85	16.769
429.21	18.506
429.56	18.491
429.92	17.463
430.27	17.494
430.62	17.250
430.98	18.365
431.33	18.297
431.68	17.373
432.04	18.055
432.39	17.228
432.74	17.739
433.10	18.736
433.45	17.324
433.80	17.876
434.16	17.950
434.51	17.957
434.86	18.525
435.22	18.284
435.57	18.653
435.92	17.784
436.28	17.472
436.63	19.110
436.98	17.381
437.34	17.181
437.69	18.545
438.04	18.405
438.39	18.326
438.75	18.519
439.10	18.676
439.45	19.355
439.81	17.859
440.16	18.943
440.51	19.821
440.86	20.302
441.22	19.174
441.57	19.757
441.92	19.832
442.27	19.180
442.63	20.021
442.98	19.816
443.33	19.755
443.68	19.151
444.03	20.368
444.39	20.167
444.74	21.014
445.09	20.212
445.44	20.570
445.79	21.351
446.15	20.485
446.50	20.632
446.85	20.723
447.20	20.542
447.55	21.819
447.91	20.925
448.26	20.888
448.61	22.050
448.96	22.031
449.31	20.462
449.66	21.312
450.02	20.707
450.37	21.399
450.72	21.707
451.07	22.152
451.42	21.660
451.77	21.760
452.12	20.395
452.47	20.734
452.83	20.789
453.18	21.442
453.53	21.808
453.88	21.979
454.23	21.451
454.58	22.859
454.93	22.358
455.28	20.698
455.63	22.753
455.98	21.768
456.34	21.392
456.69	21.537
457.04	22.621
457.39	21.810
457.74	21.100
458.09	21.483
458.44	21.650
458.79	21.625
459.14	22.483
459.49	22.269
459.84	22.673
460.19	21.299
460.54	22.494
460.89	21.932
461.24	21.925
461.59	22.209
461.94	21.698
462.29	22.557
462.64	22.525
462.99	21.869
463.34	21.558
463.69	20.785
464.04	22.034
464.39	22.317
464.74	21.963
465.09	22.645
465.44	21.754
465.79	21.939
466.14	21.494
466.49	21.622
466.84	22.546
467.19	22.090
467.54	21.711
467.89	20.594
468.24	21.472
468.59	22.667
468.94	21.778
469.29	22.361
469.64	21.394
469.99	22.775
470.34	21.775
470.68	23.415
471.03	21.939
471.38	23.110
471.73	22.339
472.08	22.049
472.43	21.678
472.78	20.356
473.13	21.973
473.48	22.215
473.83	21.793
474.17	22.085
474.52	22.080
474.87	21.273
475.22	22.087
475.57	21.062
475.92	22.216
476.27	21.769
476.61	22.106
476.96	20.915
477.31	22.390
477.66	22.472
478.01	21.505
478.36	22.331
478.70	21.207
479.05	21.978
479.40	21.569
479.75	21.481
480.10	21.249
480.45	21.550
480.79	21.954
481.14	21.824
481.49	21.084
481.84	21.863
482.19	21.048
482.53	21.871
482.88	21.289
483.23	21.497
483.58	21.934
483.92	20.862
484.27	21.650
484.62	20.753
484.97	20.896
485.31	20.665
485.66	20.392
486.01	20.035
486.36	20.214
486.70	20.468
487.05	20.482
487.40	20.450
487.75	20.451
488.09	20.426
488.44	20.805
488.79	20.620
489.13	21.114
489.48	21.462
489.83	21.076
490.17	21.169
490.52	20.739
490.87	21.009
491.22	21.347
491.56	20.825
491.91	21.080
492.26	21.682
492.60	20.777
492.95	21.053
493.30	21.153
493.64	21.562
493.99	21.546
494.34	21.117
494.68	21.714
495.03	20.389
495.37	21.688
495.72	21.151
496.07	21.756
496.41	20.377
496.76	21.096
497.11	20.773
497.45	21.337
497.80	21.594
498.14	21.013
498.49	20.975
498.84	20.908
499.18	21.888
499.53	21.131
499.87	20.039
500.22	20.227
500.56	21.180
500.91	21.084
501.26	20.267
501.60	21.348
501.95	22.368
502.29	21.162
502.64	20.705
502.98	20.474
503.33	19.885
503.67	20.434
504.02	21.261
504.36	21.475
504.71	20.808
505.06	20.735
505.40	20.914
505.75	20.464
506.09	21.085
506.44	21.201
506.78	21.173
507.13	21.096
507.47	20.418
507.82	19.765
508.16	20.602
508.51	20.934
508.85	20.879
509.19	20.383
509.54	21.287
509.88	20.280
510.23	20.334
510.57	20.203
510.92	19.136
511.26	21.440
511.61	21.012
511.95	21.370
512.30	20.510
512.64	20.534
512.98	19.764
513.33	21.880
513.67	20.864
514.02	22.597
514.36	20.457
514.70	21.270
515.05	21.387
515.39	20.543
515.74	21.617
516.08	22.116
516.42	22.438
516.77	21.767
517.11	20.534
517.46	21.245
517.80	21.097
518.14	21.617
518.49	20.433
518.83	20.899
519.17	20.376
519.52	21.078
519.86	20.348
520.20	21.385
520.55	20.450
520.89	21.706
521.23	21.406
521.58	21.893
521.92	20.962
522.26	20.950
522.61	21.948
522.95	22.185
523.29	20.966
523.64	21.474
523.98	21.581
524.32	20.232
524.66	22.791
525.01	21.104
525.35	21.646
525.69	20.741
526.04	21.296
526.38	21.012
526.72	21.125
527.06	21.012
527.41	21.306
527.75	20.174
528.09	21.462
528.43	21.945
528.78	20.660
529.12	20.710
529.46	20.533
529.80	21.343
530.15	21.584
530.49	20.067
530.83	20.383
531.17	20.349
531.51	21.819
531.86	20.530
532.20	20.320
532.54	20.014
532.88	21.150
533.22	21.237
533.57	20.773
533.91	19.452
534.25	20.378
534.59	20.269
534.93	19.257
535.27	19.734
535.62	19.896
535.96	20.678
536.30	21.042
536.64	20.744
536.98	20.070
537.32	20.839
537.66	20.477
538.01	20.559
538.35	19.417
538.69	20.706
539.03	19.275
539.37	20.727
539.71	20.723
540.05	19.891
540.39	20.291
540.73	20.572
541.07	19.475
541.42	20.161
541.76	19.408
542.10	19.752
542.44	19.875
542.78	19.064
543.12	19.368
543.46	20.584
543.80	19.778
544.14	19.359
544.48	19.454
544.82	19.822
545.16	21.038
545.50	19.226
545.84	19.688
546.18	20.355
546.52	19.611
546.86	19.698
547.20	19.170
547.54	17.951
547.88	20.584
548.22	18.146
548.56	18.140
548.90	19.407
549.24	18.802
549.58	20.099
549.92	19.371
550.26	19.121
550.60	19.405
550.94	18.447
551.28	19.320
551.62	19.154
551.96	19.398
552.30	18.860
552.64	17.560
552.98	19.761
553.32	18.973
553.66	17.997
554.00	19.489
554.34	18.907
554.68	19.469
555.02	19.345
555.36	18.624
555.69	17.729
556.03	18.273
556.37	18.007
556.71	18.989
557.05	18.121
557.39	17.695
557.73	18.666
558.07	19.457
558.41	18.224
558.75	18.239
559.08	19.070
559.42	18.968
559.76	18.975
560.10	19.113
560.44	18.466
560.78	18.252
561.12	18.195
561.45	19.044
561.79	18.697
562.13	18.382
562.47	17.554
562.81	18.372
563.15	17.066
563.48	17.539
563.82	18.531
564.16	17.409
564.50	17.838
564.84	18.809
565.17	17.237
565.51	18.648
565.85	17.901
566.19	18.435
566.52	17.627
566.86	18.188
567.20	17.310
567.54	17.397
567.88	17.458
568.21	17.760
568.55	17.500
568.89	17.813
569.23	17.140
569.56	16.594
569.90	16.931
570.24	16.822
570.57	16.618
570.91	16.975
571.25	16.080
571.59	16.132
571.92	16.267
572.26	16.184
572.60	16.093
572.93	15.375
573.27	15.580
573.61	15.662
573.95	16.357
574.28	15.810
574.62	15.739
574.96	15.931
575.29	15.270
575.63	15.548
575.97	15.370
576.30	15.744
576.64	15.735
576.98	15.804
577.31	15.532
577.65	15.734
577.98	15.702
578.32	14.974
578.66	15.280
578.99	15.255
579.33	15.139
579.67	15.342
580.00	15.367
580.34	15.572
580.67	15.232
581.01	15.466
581.35	15.116
581.68	15.174
582.02	15.030
582.35	14.875
582.69	15.095
583.02	15.403
583.36	15.401
583.70	16.070
584.03	15.902
584.37	16.177
584.70	15.467
585.04	15.259
585.37	15.111
585.71	15.404
586.04	15.003
586.38	14.804
586.72	15.581
587.05	15.742
587.39	15.739
587.72	15.473
588.06	15.250
588.39	15.836
588.73	15.354
589.06	15.917
589.40	15.313
589.73	15.553
590.07	14.992
590.40	16.176
590.73	15.198
591.07	16.327
591.40	15.494
591.74	15.747
592.07	16.605
592.41	15.989
592.74	15.054
593.08	14.670
593.41	15.189
593.75	15.440
594.08	15.208
594.41	15.393
594.75	15.000
595.08	15.361
595.42	15.385
595.75	15.621
596.09	15.246
596.42	15.213
596.75	16.030
597.09	15.535
597.42	15.041
597.75	15.437
598.09	15.663
598.42	15.162
598.76	15.487
599.09	15.425
599.42	14.665
599.76	14.898
600.09	14.517
600.42	14.973
600.76	14.487
601.09	14.847
601.42	14.924
601.76	14.966
602.09	14.934
602.42	15.375
602.76	14.813
603.09	15.532
603.42	15.844
603.76	14.637
604.09	14.621
604.42	15.440
604.76	15.532
605.09	15.402
605.42	15.440
605.75	14.755
606.09	14.989
606.42	14.804
606.75	15.022
607.09	15.297
607.42	14.355
607.75	14.742
608.08	15.004
608.42	15.121
608.75	15.133
609.08	14.748
609.41	14.518
609.75	15.222
610.08	15.327
610.41	14.251
610.74	14.627
611.07	14.522
611.41	15.153
611.74	15.352
612.07	14.936
612.40	15.646
612.73	14.802
613.07	15.017
613.40	15.263
613.73	14.270
614.06	14.858
614.39	15.003
614.72	14.510
615.06	14.916
615.39	15.393
615.72	14.909
616.05	15.363
616.38	14.245
616.71	14.985
617.05	15.133
617.38	15.839
617.71	15.597
618.04	14.730
618.37	15.637
618.70	15.248
619.03	15.764
619.36	14.399
619.69	15.694
620.03	15.632
620.36	15.093
620.69	14.847
621.02	15.367
621.35	17.012
621.68	16.156
622.01	15.750
622.34	16.281
622.67	15.852
623.00	15.391
623.33	15.473
623.66	15.108
623.99	15.053
624.32	15.894
624.65	13.910
624.99	15.801
625.32	14.253
625.65	16.575
625.98	15.713
626.31	14.214
626.64	15.511
626.97	16.143
627.30	15.587
627.63	15.165
627.96	15.454
628.29	15.264
628.62	16.618
628.95	15.431
629.28	15.625
629.61	15.553
629.94	15.640
630.26	15.810
630.59	16.441
630.92	16.410
631.25	15.077
631.58	15.419
631.91	15.570
632.24	14.679
632.57	16.250
632.90	14.828
633.23	17.059
633.56	15.995
633.89	16.893
634.22	13.827
634.55	15.883
634.88	15.198
635.20	16.538
635.53	16.800
635.86	14.434
