SpectraSuite Data File
++++++++++++++++++++++++++++++++++++
Date: Fri May 15 20:39:45 PDT 2015
User: schluterlab
Dark Spectrum Present: Yes
Reference Spectrum Present: Yes
Number of Sampled Component Spectra: 1
Spectrometers: USB2E3373
Integration Time (usec): 3000 (USB2E3373)
Spectra Averaged: 3 (USB2E3373)
Boxcar Smoothing: 0 (USB2E3373)
Correct for Electrical Dark: No (USB2E3373)
Strobe/Lamp Enabled: No (USB2E3373)
Correct for Detector Non-linearity: No (USB2E3373)
Correct for Stray Light: No (USB2E3373)
Number of Pixels in Processed Spectrum: 2048
>>>>>Begin Processed Spectral Data<<<<<
178.53	0.000
178.91	0.000
179.29	37.500
179.67	-700.000
180.04	28.571
180.42	275.000
180.80	-200.000
181.18	66.667
181.56	350.000
181.94	-100.000
182.31	900.000
182.69	-60.000
183.07	-600.000
183.45	-80.000
183.83	16.667
184.20	27.273
184.58	-0.000
184.96	-75.000
185.34	133.333
185.72	50.000
186.09	53.846
186.47	-300.000
186.85	-16.667
187.23	144.444
187.61	-600.000
187.98	-33.333
188.36	11.111
188.74	-433.333
189.12	-11.765
189.49	44.444
189.87	0.000
190.25	42.857
190.63	-150.000
191.00	-433.333
191.38	31.579
191.76	550.000
192.14	-175.000
192.51	150.000
192.89	-88.889
193.27	-42.857
193.65	200.000
194.02	136.364
194.40	50.000
194.78	-75.000
195.15	-58.333
195.53	-50.000
195.91	275.000
196.29	-100.000
196.66	53.846
197.04	171.429
197.42	77.778
197.79	-266.667
198.17	-100.000
198.55	900.000
198.92	-200.000
199.30	600.000
199.68	-120.000
200.05	-33.333
200.43	0.000
200.81	-100.000
201.18	-66.667
201.56	1100.000
201.94	-600.000
202.31	-233.333
202.69	-140.000
203.07	125.000
203.44	-100.000
203.82	0.000
204.19	7.143
204.57	-500.000
204.95	150.000
205.32	-30.000
205.70	71.429
206.08	-175.000
206.45	155.556
206.83	14.286
207.20	-157.143
207.58	-0.000
207.96	-66.667
208.33	-150.000
208.71	175.000
209.08	-150.000
209.46	-600.000
209.84	-140.000
210.21	-900.000
210.59	0.000
210.96	0.000
211.34	-75.000
211.71	53.333
212.09	-171.429
212.46	-200.000
212.84	0.000
213.22	-30.000
213.59	450.000
213.97	69.231
214.34	36.364
214.72	16.667
215.09	225.000
215.47	46.154
215.84	-18.182
216.22	-233.333
216.59	-87.500
216.97	100.000
217.34	-325.000
217.72	-80.000
218.09	112.500
218.47	200.000
218.84	-1300.000
219.22	-33.333
219.59	-120.000
219.97	600.000
220.34	225.000
220.72	100.000
221.09	-50.000
221.47	100.000
221.84	-600.000
222.22	-400.000
222.59	27.273
222.97	100.000
223.34	133.333
223.72	0.000
224.09	0.000
224.46	25.000
224.84	233.333
225.21	-30.000
225.59	-26.667
225.96	-50.000
226.34	275.000
226.71	28.571
227.08	16.667
227.46	62.500
227.83	-400.000
228.21	-44.444
228.58	54.545
228.95	-125.000
229.33	70.000
229.70	12.500
230.08	-12.500
230.45	-28.571
230.82	-28.571
231.20	-6.667
231.57	50.000
231.95	-28.571
232.32	-70.000
232.69	28.571
233.07	-500.000
233.44	-40.000
233.81	-100.000
234.19	11.111
234.56	23.529
234.93	50.000
235.31	75.000
235.68	-80.000
236.05	-15.385
236.43	-35.000
236.80	52.941
237.17	31.250
237.55	-10.000
237.92	-22.222
238.29	8.333
238.67	30.000
239.04	26.471
239.41	-9.756
239.79	-3.333
240.16	39.024
240.53	5.263
240.91	6.522
241.28	30.159
241.65	16.071
242.02	19.178
242.40	33.333
242.77	13.559
243.14	31.818
243.51	23.750
243.89	31.034
244.26	13.793
244.63	28.571
245.00	25.773
245.38	22.680
245.75	26.966
246.12	18.966
246.49	27.273
246.87	25.000
247.24	23.529
247.61	25.439
247.98	30.894
248.36	33.750
248.73	22.368
249.10	18.182
249.47	24.051
249.84	23.529
250.22	32.941
250.59	33.333
250.96	31.925
251.33	21.512
251.70	32.941
252.08	26.904
252.45	26.733
252.82	30.151
253.19	29.493
253.56	22.430
253.94	30.180
254.31	29.130
254.68	35.526
255.05	29.134
255.42	28.384
255.79	29.344
256.16	26.848
256.54	30.597
256.91	28.897
257.28	26.022
257.65	26.217
258.02	28.014
258.39	28.956
258.76	31.136
259.14	25.249
259.51	30.421
259.88	29.553
260.25	31.699
260.62	27.083
260.99	28.475
261.36	26.027
261.73	28.165
262.10	28.571
262.47	26.687
262.85	26.332
263.22	28.000
263.59	31.776
263.96	30.124
264.33	31.212
264.70	27.976
265.07	31.845
265.44	32.295
265.81	27.401
266.18	30.055
266.55	27.763
266.92	27.202
267.29	28.721
267.66	27.110
268.03	32.984
268.40	25.587
268.77	33.155
269.14	29.017
269.51	26.735
269.88	27.431
270.25	26.020
270.62	25.854
270.99	26.087
271.36	26.895
271.73	29.812
272.10	29.197
272.47	28.605
272.84	23.515
273.21	29.698
273.58	30.361
273.95	28.375
274.32	27.252
274.69	26.471
275.06	30.357
275.43	28.345
275.80	25.386
276.17	25.057
276.54	26.767
276.91	28.947
277.28	24.454
277.65	27.066
278.02	27.021
278.39	25.383
278.76	27.883
279.13	22.199
279.50	27.731
279.87	27.862
280.23	24.946
280.60	26.511
280.97	28.081
281.34	24.808
281.71	29.158
282.08	26.585
282.45	25.440
282.82	27.799
283.19	26.886
283.56	26.397
283.92	26.186
284.29	24.808
284.66	24.031
285.03	26.719
285.40	26.276
285.77	25.483
286.14	25.271
286.51	25.830
286.87	23.766
287.24	25.230
287.61	23.280
287.98	26.140
288.35	24.437
288.72	24.343
289.08	26.910
289.45	25.132
289.82	24.476
290.19	21.843
290.56	22.813
290.93	21.380
291.29	20.801
291.66	24.567
292.03	22.967
292.40	21.935
292.77	21.850
293.13	20.455
293.50	22.003
293.87	20.000
294.24	22.411
294.60	22.951
294.97	21.577
295.34	21.626
295.71	20.566
296.08	20.777
296.44	18.208
296.81	20.417
297.18	20.580
297.55	21.409
297.91	18.630
298.28	20.185
298.65	19.403
299.02	19.407
299.38	16.963
299.75	20.414
300.12	18.194
300.48	19.499
300.85	18.251
301.22	17.922
301.59	17.895
301.95	19.873
302.32	18.547
302.69	18.408
303.05	18.069
303.42	17.933
303.79	19.042
304.15	18.877
304.52	17.479
304.89	18.012
305.25	16.707
305.62	16.336
305.99	18.012
306.35	17.919
306.72	17.210
307.09	18.700
307.45	18.255
307.82	15.972
308.19	18.235
308.55	18.975
308.92	18.627
309.29	16.760
309.65	16.469
310.02	17.602
310.38	17.673
310.75	18.251
311.12	17.976
311.48	16.967
311.85	17.801
312.22	17.194
312.58	16.242
312.95	16.756
313.31	17.495
313.68	18.010
314.05	16.122
314.41	17.216
314.78	18.144
315.14	18.397
315.51	18.116
315.87	18.955
316.24	20.627
316.61	18.701
316.97	19.544
317.34	20.215
317.70	19.025
318.07	19.519
318.43	20.294
318.80	20.265
319.16	20.117
319.53	21.178
319.89	19.980
320.26	21.559
320.62	22.066
320.99	21.399
321.35	21.891
321.72	22.638
322.08	21.752
322.45	21.929
322.81	23.772
323.18	22.767
323.54	25.000
323.91	24.635
324.27	26.172
324.64	27.341
325.00	27.555
325.37	28.834
325.73	27.471
326.10	29.700
326.46	30.045
326.83	30.709
327.19	30.078
327.56	31.277
327.92	32.042
328.29	31.607
328.65	31.321
329.01	32.629
329.38	33.456
329.74	32.956
330.11	34.569
330.47	32.653
330.84	34.423
331.20	36.312
331.56	34.444
331.93	35.434
332.29	34.739
332.66	35.566
333.02	35.688
333.38	35.289
333.75	37.821
334.11	35.989
334.48	36.899
334.84	36.905
335.20	38.152
335.57	37.081
335.93	38.302
336.29	38.766
336.66	37.057
337.02	37.454
337.38	38.056
337.75	38.364
338.11	39.044
338.47	39.325
338.84	38.078
339.20	38.940
339.56	39.450
339.93	37.422
340.29	39.541
340.65	40.054
341.02	38.298
341.38	39.469
341.74	39.488
342.11	38.648
342.47	38.523
342.83	39.706
343.20	37.108
343.56	40.870
343.92	39.770
344.28	40.820
344.65	39.292
345.01	38.721
345.37	40.706
345.73	38.912
346.10	39.862
346.46	40.202
346.82	40.344
347.19	40.399
347.55	39.850
347.91	40.615
348.27	40.582
348.63	41.567
349.00	40.443
349.36	41.397
349.72	43.118
350.08	41.393
350.45	42.298
350.81	41.196
351.17	40.717
351.53	42.122
351.89	41.040
352.26	41.280
352.62	43.548
352.98	40.161
353.34	40.258
353.70	43.285
354.07	40.887
354.43	41.313
354.79	41.123
355.15	42.302
355.51	43.829
355.87	43.042
356.24	41.680
356.60	42.765
356.96	41.825
357.32	42.492
357.68	42.846
358.04	44.265
358.40	44.212
358.77	44.737
359.13	44.355
359.49	43.220
359.85	43.994
360.21	44.657
360.57	43.229
360.93	45.234
361.29	43.278
361.66	45.455
362.02	44.167
362.38	45.773
362.74	45.269
363.10	46.275
363.46	45.219
363.82	46.807
364.18	44.280
364.54	45.441
364.90	47.097
365.26	46.652
365.62	47.080
365.98	46.114
366.35	46.322
366.71	46.637
367.07	47.097
367.43	47.232
367.79	47.350
368.15	47.164
368.51	48.434
368.87	46.590
369.23	46.426
369.59	48.032
369.95	47.067
370.31	48.555
370.67	47.537
371.03	47.573
371.39	46.754
371.75	48.278
372.11	47.718
372.47	49.038
372.83	47.622
373.19	48.431
373.55	49.170
373.91	48.668
374.27	50.106
374.63	49.677
374.99	49.149
375.35	49.304
375.71	51.608
376.07	49.368
376.42	49.796
376.78	49.530
377.14	50.711
377.50	50.664
377.86	49.732
378.22	50.734
378.58	51.603
378.94	50.536
379.30	50.655
379.66	51.473
380.02	50.766
380.38	50.517
380.74	50.748
381.09	51.350
381.45	51.743
381.81	50.895
382.17	51.396
382.53	51.780
382.89	53.233
383.25	53.516
383.61	52.683
383.97	52.762
384.32	51.970
384.68	53.251
385.04	51.164
385.40	52.645
385.76	53.396
386.12	53.752
386.48	54.917
386.83	54.471
387.19	53.419
387.55	53.890
387.91	54.156
388.27	53.114
388.62	55.318
388.98	54.389
389.34	53.716
389.70	54.382
390.06	53.304
390.42	54.793
390.77	55.657
391.13	54.477
391.49	53.946
391.85	54.971
392.20	54.614
392.56	54.100
392.92	54.081
393.28	55.601
393.64	53.453
393.99	54.608
394.35	54.586
394.71	55.939
395.07	54.683
395.42	55.313
395.78	55.049
396.14	54.603
396.50	55.295
396.85	55.055
397.21	54.762
397.57	55.361
397.92	56.261
398.28	55.805
398.64	54.277
399.00	54.966
399.35	53.499
399.71	55.026
400.07	54.716
400.42	54.468
400.78	54.562
401.14	55.051
401.49	54.735
401.85	54.784
402.21	55.843
402.57	55.000
402.92	54.078
403.28	55.952
403.63	55.738
403.99	54.528
404.35	56.590
404.70	54.524
405.06	54.054
405.42	55.998
405.77	55.491
406.13	54.598
406.49	53.641
406.84	55.501
407.20	55.569
407.55	53.896
407.91	54.144
408.27	54.493
408.62	53.662
408.98	54.590
409.34	54.151
409.69	54.651
410.05	51.970
410.40	54.938
410.76	54.222
411.11	55.062
411.47	55.030
411.83	53.672
412.18	54.955
412.54	53.184
412.89	53.879
413.25	54.152
413.60	53.540
413.96	53.374
414.31	54.329
414.67	51.828
415.03	54.860
415.38	53.329
415.74	53.290
416.09	55.062
416.45	53.342
416.80	52.941
417.16	54.765
417.51	54.164
417.87	52.934
418.22	54.469
418.58	54.783
418.93	52.978
419.29	51.665
419.64	54.958
420.00	55.038
420.35	52.657
420.71	52.491
421.06	52.732
421.42	53.245
421.77	52.370
422.12	52.894
422.48	53.005
422.83	53.770
423.19	53.160
423.54	53.028
423.90	52.827
424.25	53.157
424.61	53.917
424.96	51.974
425.31	53.495
425.67	53.638
426.02	54.005
426.38	53.601
426.73	53.753
427.09	54.051
427.44	52.471
427.79	52.092
428.15	52.973
428.50	53.180
428.85	51.229
429.21	51.839
429.56	53.639
429.92	51.567
430.27	51.529
430.62	51.228
430.98	51.274
431.33	53.207
431.68	52.486
432.04	53.941
432.39	51.226
432.74	51.594
433.10	52.816
433.45	51.314
433.80	52.873
434.16	52.299
434.51	52.742
434.86	52.497
435.22	53.057
435.57	53.462
435.92	52.754
436.28	51.103
436.63	52.710
436.98	51.217
437.34	51.845
437.69	53.071
438.04	52.251
438.39	51.985
438.75	53.430
439.10	52.405
439.45	53.561
439.81	52.049
440.16	54.691
440.51	52.000
440.86	54.139
441.22	51.980
441.57	51.711
441.92	52.886
442.27	53.714
442.63	51.820
442.98	52.671
443.33	52.421
443.68	51.777
444.03	51.863
444.39	52.336
444.74	53.902
445.09	52.394
445.44	52.707
445.79	52.450
446.15	51.707
446.50	52.690
446.85	52.816
447.20	52.033
447.55	52.902
447.91	52.228
448.26	53.386
448.61	53.195
448.96	52.553
449.31	53.006
449.66	52.613
450.02	52.082
450.37	52.460
450.72	52.635
451.07	52.152
451.42	51.623
451.77	52.441
452.12	50.239
452.47	52.415
452.83	52.179
453.18	52.056
453.53	52.781
453.88	51.184
454.23	52.059
454.58	52.267
454.93	52.191
455.28	51.302
455.63	51.829
455.98	51.233
456.34	51.341
456.69	51.207
457.04	51.985
457.39	50.851
457.74	50.363
458.09	50.736
458.44	50.556
458.79	49.412
459.14	50.286
459.49	50.985
459.84	50.818
460.19	50.971
460.54	51.406
460.89	51.648
461.24	50.870
461.59	49.822
461.94	49.937
462.29	50.663
462.64	49.502
462.99	50.305
463.34	49.166
463.69	49.807
464.04	49.697
464.39	49.363
464.74	48.773
465.09	50.468
465.44	49.913
465.79	48.186
466.14	48.062
466.49	48.706
466.84	50.208
467.19	48.310
467.54	48.851
467.89	48.831
468.24	48.479
468.59	49.333
468.94	48.190
469.29	47.672
469.64	49.419
469.99	49.054
470.34	47.986
470.68	49.590
471.03	48.195
471.38	48.288
471.73	49.650
472.08	47.829
472.43	49.262
472.78	47.293
473.13	48.707
473.48	48.860
473.83	47.696
474.17	48.251
474.52	48.181
474.87	46.848
475.22	46.553
475.57	46.866
475.92	46.407
476.27	47.963
476.61	46.875
476.96	45.455
477.31	47.161
477.66	46.292
478.01	46.659
478.36	46.895
478.70	46.547
479.05	46.593
479.40	46.370
479.75	45.829
480.10	45.878
480.45	46.400
480.79	46.324
481.14	46.516
481.49	45.419
481.84	46.139
482.19	44.761
482.53	45.372
482.88	44.535
483.23	44.818
483.58	45.047
483.92	43.998
484.27	43.619
484.62	44.509
484.97	43.905
485.31	43.353
485.66	41.859
486.01	42.310
486.36	41.763
486.70	42.180
487.05	42.238
487.40	42.528
487.75	42.423
488.09	41.965
488.44	42.435
488.79	43.295
489.13	42.869
489.48	43.095
489.83	42.601
490.17	42.697
490.52	42.125
490.87	42.527
491.22	43.362
491.56	41.841
491.91	42.304
492.26	44.142
492.60	42.466
492.95	42.548
493.30	43.527
493.64	42.878
493.99	41.932
494.34	42.524
494.68	42.190
495.03	41.071
495.37	42.493
495.72	43.311
496.07	43.073
496.41	41.981
496.76	41.456
497.11	41.639
497.45	42.482
497.80	42.180
498.14	41.480
498.49	42.001
498.84	42.216
499.18	41.516
499.53	40.972
499.87	41.196
500.22	41.444
500.56	40.746
500.91	41.416
501.26	40.781
501.60	41.269
501.95	41.145
502.29	40.823
502.64	40.927
502.98	40.750
503.33	39.914
503.67	40.386
504.02	40.616
504.36	40.475
504.71	40.202
505.06	40.211
505.40	39.543
505.75	40.773
506.09	39.686
506.44	40.965
506.78	40.561
507.13	40.124
507.47	39.687
507.82	39.103
508.16	39.567
508.51	39.874
508.85	39.979
509.19	39.542
509.54	39.893
509.88	39.644
510.23	40.290
510.57	39.337
510.92	38.220
511.26	39.389
511.61	39.769
511.95	39.945
512.30	40.521
512.64	39.510
512.98	38.686
513.33	40.627
513.67	39.795
514.02	39.588
514.36	40.286
514.70	40.793
515.05	40.129
515.39	39.138
515.74	39.820
516.08	39.390
516.42	40.518
516.77	39.731
517.11	39.525
517.46	40.036
517.80	38.617
518.14	39.314
518.49	39.123
518.83	40.401
519.17	39.054
519.52	39.432
519.86	38.535
520.20	40.279
520.55	38.899
520.89	38.080
521.23	38.822
521.58	40.820
521.92	40.064
522.26	38.777
522.61	40.325
522.95	40.530
523.29	38.755
523.64	39.771
523.98	39.209
524.32	38.789
524.66	39.373
525.01	39.221
525.35	39.339
525.69	37.576
526.04	37.963
526.38	38.586
526.72	37.802
527.06	38.132
527.41	38.061
527.75	38.338
528.09	37.276
528.43	38.488
528.78	38.548
529.12	38.323
529.46	38.142
529.80	37.492
530.15	38.680
530.49	37.845
530.83	39.261
531.17	37.475
531.51	38.030
531.86	36.234
532.20	38.900
532.54	37.781
532.88	37.851
533.22	36.962
533.57	38.532
533.91	36.554
534.25	38.477
534.59	35.920
534.93	36.941
535.27	35.596
535.62	37.265
535.96	37.639
536.30	37.929
536.64	38.043
536.98	36.794
537.32	37.838
537.66	37.588
538.01	37.343
538.35	36.338
538.69	36.285
539.03	36.022
539.37	35.734
539.71	35.787
540.05	35.234
540.39	35.457
540.73	36.541
541.07	36.050
541.42	36.089
541.76	35.719
542.10	35.926
542.44	35.928
542.78	34.480
543.12	35.234
543.46	35.675
543.80	35.323
544.14	34.179
544.48	34.177
544.82	35.612
545.16	36.134
545.50	35.247
545.84	35.836
546.18	36.028
546.52	35.544
546.86	34.723
547.20	34.979
547.54	32.721
547.88	34.103
548.22	34.583
548.56	34.367
548.90	34.434
549.24	34.435
549.58	34.133
549.92	34.525
550.26	34.505
550.60	34.647
550.94	36.594
551.28	35.549
551.62	34.308
551.96	34.511
552.30	34.942
552.64	33.709
552.98	33.685
553.32	33.951
553.66	34.107
554.00	34.526
554.34	34.343
554.68	33.997
555.02	34.077
555.36	34.630
555.69	34.212
556.03	34.333
556.37	34.377
556.71	33.502
557.05	33.557
557.39	32.268
557.73	33.808
558.07	33.861
558.41	33.155
558.75	35.464
559.08	33.176
559.42	32.937
559.76	34.428
560.10	32.339
560.44	33.135
560.78	33.427
561.12	33.568
561.45	33.169
561.79	32.913
562.13	32.150
562.47	33.525
562.81	32.997
563.15	32.370
563.48	31.895
563.82	33.082
564.16	33.148
564.50	31.284
564.84	31.861
565.17	31.657
565.51	33.402
565.85	32.716
566.19	33.024
566.52	32.976
566.86	32.519
567.20	31.196
567.54	31.934
567.88	31.693
568.21	31.448
568.55	32.065
568.89	31.211
569.23	30.669
569.56	30.166
569.90	31.628
570.24	30.220
570.57	30.764
570.91	30.708
571.25	29.300
571.59	29.399
571.92	28.800
572.26	29.167
572.60	29.271
572.93	29.024
573.27	28.621
573.61	29.266
573.95	29.465
574.28	28.549
574.62	28.299
574.96	27.923
575.29	27.890
575.63	27.727
575.97	27.894
576.30	28.592
576.64	27.656
576.98	28.366
577.31	28.607
577.65	28.326
577.98	28.043
578.32	28.133
578.66	27.789
578.99	27.866
579.33	27.454
579.67	27.328
580.00	28.203
580.34	27.612
580.67	27.596
581.01	27.858
581.35	27.476
581.68	27.298
582.02	27.601
582.35	27.539
582.69	28.126
583.02	27.729
583.36	27.845
583.70	27.544
584.03	28.218
584.37	28.374
584.70	27.390
585.04	27.098
585.37	27.420
585.71	27.450
586.04	27.105
586.38	27.181
586.72	27.776
587.05	28.076
587.39	28.404
587.72	28.185
588.06	27.678
588.39	27.143
588.73	27.808
589.06	28.441
589.40	27.860
589.73	28.003
590.07	28.210
590.40	28.173
590.73	29.036
591.07	28.584
591.40	28.406
591.74	28.190
592.07	28.942
592.41	29.064
592.74	27.957
593.08	26.895
593.41	28.501
593.75	27.380
594.08	27.257
594.41	27.220
594.75	27.748
595.08	26.826
595.42	27.420
595.75	28.089
596.09	28.186
596.42	27.821
596.75	28.153
597.09	28.656
597.42	27.823
597.75	28.951
598.09	27.795
598.42	27.978
598.76	27.799
599.09	27.804
599.42	27.283
599.76	27.577
600.09	27.262
600.42	28.089
600.76	27.155
601.09	27.519
601.42	26.635
601.76	27.035
602.09	27.104
602.42	28.054
602.76	27.207
603.09	28.156
603.42	28.261
603.76	26.976
604.09	27.380
604.42	27.369
604.76	28.037
605.09	27.742
605.42	27.630
605.75	27.539
606.09	26.921
606.42	27.481
606.75	27.619
607.09	27.648
607.42	26.761
607.75	26.377
608.08	26.730
608.42	26.999
608.75	27.855
609.08	27.304
609.41	28.477
609.75	28.478
610.08	28.357
610.41	27.343
610.74	26.816
611.07	27.339
611.41	27.971
611.74	29.211
612.07	27.891
612.40	27.899
612.73	27.910
613.07	26.940
613.40	27.407
613.73	26.581
614.06	26.656
614.39	27.806
614.72	27.899
615.06	27.542
615.39	26.365
615.72	27.018
616.05	28.380
616.38	26.439
616.71	27.034
617.05	27.486
617.38	27.467
617.71	28.050
618.04	28.063
618.37	27.680
618.70	28.119
619.03	28.750
619.36	27.786
619.69	29.340
620.03	29.072
620.36	27.969
620.69	27.837
621.02	27.982
621.35	27.386
621.68	28.741
622.01	29.333
622.34	29.609
622.67	29.416
623.00	28.867
623.33	27.515
623.66	28.048
623.99	27.383
624.32	28.593
624.65	26.842
624.99	29.496
625.32	28.203
625.65	29.222
625.98	27.317
626.31	26.766
626.64	29.463
626.97	29.145
627.30	29.072
627.63	28.856
627.96	28.571
628.29	29.602
628.62	29.499
628.95	29.760
629.28	30.343
629.61	27.218
629.94	28.935
630.26	29.842
630.59	29.136
630.92	28.103
631.25	27.590
631.58	30.727
631.91	29.167
632.24	29.587
632.57	28.864
632.90	28.588
633.23	30.471
633.56	30.479
