SpectraSuite Data File
++++++++++++++++++++++++++++++++++++
Date: Fri May 15 20:50:03 PDT 2015
User: schluterlab
Dark Spectrum Present: Yes
Reference Spectrum Present: Yes
Number of Sampled Component Spectra: 1
Spectrometers: USB2E3373
Integration Time (usec): 3000 (USB2E3373)
Spectra Averaged: 3 (USB2E3373)
Boxcar Smoothing: 0 (USB2E3373)
Correct for Electrical Dark: No (USB2E3373)
Strobe/Lamp Enabled: No (USB2E3373)
Correct for Detector Non-linearity: No (USB2E3373)
Correct for Stray Light: No (USB2E3373)
Number of Pixels in Processed Spectrum: 2048
>>>>>Begin Processed Spectral Data<<<<<
178.53	0.000
178.91	0.000
179.29	-25.000
179.67	-400.000
180.04	171.429
180.42	0.000
180.80	-1000.000
181.18	233.333
181.56	450.000
181.94	-50.000
182.31	-100.000
182.69	-220.000
183.07	0.000
183.45	-20.000
183.83	233.333
184.20	63.636
184.58	88.889
184.96	300.000
185.34	-166.667
185.72	-100.000
186.09	146.154
186.47	-300.000
186.85	233.333
187.23	77.778
187.61	1200.000
187.98	33.333
188.36	-33.333
188.74	-233.333
189.12	-52.941
189.49	-5.556
189.87	0.000
190.25	42.857
190.63	-200.000
191.00	-333.333
191.38	47.368
191.76	450.000
192.14	25.000
192.51	0.000
192.89	-144.444
193.27	-200.000
193.65	216.667
194.02	190.909
194.40	-50.000
194.78	-200.000
195.15	-16.667
195.53	-112.500
195.91	150.000
196.29	-50.000
196.66	53.846
197.04	100.000
197.42	-55.556
197.79	-666.667
198.17	-100.000
198.55	1100.000
198.92	-166.667
199.30	-200.000
199.68	-80.000
200.05	-300.000
200.43	0.000
200.81	-266.667
201.18	33.333
201.56	1100.000
201.94	-500.000
202.31	66.667
202.69	-280.000
203.07	150.000
203.44	500.000
203.82	0.000
204.19	14.286
204.57	-366.667
204.95	62.500
205.32	80.000
205.70	14.286
206.08	-25.000
206.45	88.889
206.83	85.714
207.20	-200.000
207.58	-0.000
207.96	66.667
208.33	-40.000
208.71	-100.000
209.08	-216.667
209.46	-1300.000
209.84	-160.000
210.21	-800.000
210.59	42.857
210.96	-150.000
211.34	-300.000
211.71	-26.667
212.09	-71.429
212.46	-1800.000
212.84	0.000
213.22	60.000
213.59	700.000
213.97	-7.692
214.34	0.000
214.72	-166.667
215.09	475.000
215.47	-7.692
215.84	-154.545
216.22	-166.667
216.59	-87.500
216.97	-50.000
217.34	-200.000
217.72	-280.000
218.09	-75.000
218.47	250.000
218.84	-1400.000
219.22	-211.111
219.59	20.000
219.97	766.667
220.34	500.000
220.72	-200.000
221.09	-50.000
221.47	-700.000
221.84	-650.000
222.22	-1150.000
222.59	9.091
222.97	66.667
223.34	-733.333
223.72	14.286
224.09	9.524
224.46	-21.429
224.84	666.667
225.21	-60.000
225.59	-6.667
225.96	-200.000
226.34	475.000
226.71	-257.143
227.08	-116.667
227.46	-12.500
227.83	-650.000
228.21	44.444
228.58	9.091
228.95	-62.500
229.33	100.000
229.70	-6.250
230.08	-112.500
230.45	-114.286
230.82	-71.429
231.20	-13.333
231.57	71.429
231.95	0.000
232.32	30.000
232.69	-64.286
233.07	0.000
233.44	-100.000
233.81	-30.000
234.19	-77.778
234.56	11.765
234.93	650.000
235.31	75.000
235.68	-300.000
236.05	-69.231
236.43	20.000
236.80	29.412
237.17	3.125
237.55	-45.000
237.92	-14.815
238.29	22.222
238.67	10.000
239.04	-2.941
239.41	-9.756
239.79	16.667
240.16	41.463
240.53	18.421
240.91	34.783
241.28	31.746
241.65	30.357
242.02	46.575
242.40	20.000
242.77	18.644
243.14	4.545
243.51	32.500
243.89	32.184
244.26	24.138
244.63	30.952
245.00	24.742
245.38	34.021
245.75	19.101
246.12	20.690
246.49	26.446
246.87	32.692
247.24	23.529
247.61	16.667
247.98	22.764
248.36	29.375
248.73	26.316
249.10	24.675
249.47	29.114
249.84	32.680
250.22	23.529
250.59	26.797
250.96	29.108
251.33	30.233
251.70	34.118
252.08	27.919
252.45	25.743
252.82	32.663
253.19	35.023
253.56	30.374
253.94	31.081
254.31	30.870
254.68	30.702
255.05	25.591
255.42	32.751
255.79	28.958
256.16	35.019
256.54	29.104
256.91	27.757
257.28	33.086
257.65	29.213
258.02	25.532
258.39	34.007
258.76	31.502
259.14	28.239
259.51	29.773
259.88	28.866
260.25	32.680
260.62	31.250
260.99	30.169
261.36	27.740
261.73	29.430
262.10	33.435
262.47	30.368
262.85	29.154
263.22	31.692
263.59	33.022
263.96	32.919
264.33	28.485
264.70	29.167
265.07	32.143
265.44	34.278
265.81	31.073
266.18	32.787
266.55	31.105
266.92	31.606
267.29	31.070
267.66	36.829
268.03	29.581
268.40	29.765
268.77	32.086
269.14	30.216
269.51	33.676
269.88	28.928
270.25	30.102
270.62	28.780
270.99	28.389
271.36	29.584
271.73	30.986
272.10	29.197
272.47	31.442
272.84	32.178
273.21	31.090
273.58	33.735
273.95	30.206
274.32	29.330
274.69	30.090
275.06	32.813
275.43	29.705
275.80	31.567
276.17	27.816
276.54	30.835
276.91	34.211
277.28	28.821
277.65	31.612
278.02	29.149
278.39	29.322
278.76	29.979
279.13	28.008
279.50	31.092
279.87	29.590
280.23	28.387
280.60	27.485
280.97	31.717
281.34	28.077
281.71	30.185
282.08	28.016
282.45	27.202
282.82	28.378
283.19	27.660
283.56	30.058
283.92	29.412
284.29	29.808
284.66	27.713
285.03	29.666
285.40	27.977
285.77	26.889
286.14	28.339
286.51	28.044
286.87	27.422
287.24	31.492
287.61	26.455
287.98	27.895
288.35	26.863
288.72	28.546
289.08	27.257
289.45	28.471
289.82	26.923
290.19	24.403
290.56	24.014
290.93	24.242
291.29	24.653
291.66	25.039
292.03	24.880
292.40	24.355
292.77	25.359
293.13	21.591
293.50	22.458
293.87	23.053
294.24	23.957
294.60	24.143
294.97	23.065
295.34	23.926
295.71	24.441
296.08	23.468
296.44	21.764
296.81	22.917
297.18	23.913
297.55	26.287
297.91	21.918
298.28	24.011
298.65	23.066
299.02	22.237
299.38	19.836
299.75	20.552
300.12	21.466
300.48	21.080
300.85	21.546
301.22	20.909
301.59	21.316
301.95	24.051
302.32	21.790
302.69	21.891
303.05	21.658
303.42	21.171
303.79	21.379
304.15	21.266
304.52	20.333
304.89	19.883
305.25	20.823
305.62	18.786
305.99	19.415
306.35	20.809
306.72	21.260
307.09	19.840
307.45	22.273
307.82	20.023
308.19	20.906
308.55	21.701
308.92	22.004
309.29	21.229
309.65	20.990
310.02	19.802
310.38	20.966
310.75	21.311
311.12	20.344
311.48	19.512
311.85	19.686
312.22	20.148
312.58	21.125
312.95	21.665
313.31	21.014
313.68	20.942
314.05	21.122
314.41	21.340
314.78	20.722
315.14	22.302
315.51	22.671
315.87	22.029
316.24	23.559
316.61	21.850
316.97	23.611
317.34	22.656
317.70	21.893
318.07	22.885
318.43	23.725
318.80	23.295
319.16	24.023
319.53	23.742
319.89	22.146
320.26	23.785
320.62	24.875
320.99	23.800
321.35	23.741
321.72	24.403
322.08	25.478
322.45	25.584
322.81	26.031
323.18	25.908
323.54	26.641
323.91	26.874
324.27	25.879
324.64	27.622
325.00	26.551
325.37	27.273
325.73	25.657
326.10	26.975
326.46	27.534
326.83	27.122
327.19	27.463
327.56	27.628
327.92	28.081
328.29	27.857
328.65	26.698
329.01	27.482
329.38	27.834
329.74	26.629
330.11	27.340
330.47	27.087
330.84	27.596
331.20	30.133
331.56	28.704
331.93	28.767
332.29	28.598
332.66	27.873
333.02	26.673
333.38	27.681
333.75	27.564
334.11	27.216
334.48	28.558
334.84	27.564
335.20	28.179
335.57	26.836
335.93	28.907
336.29	28.913
336.66	27.248
337.02	26.022
337.38	26.389
337.75	27.091
338.11	27.502
338.47	28.011
338.84	27.079
339.20	26.691
339.56	27.156
339.93	27.216
340.29	28.165
340.65	27.509
341.02	27.039
341.38	27.876
341.74	25.795
342.11	26.603
342.47	26.957
342.83	27.336
343.20	25.610
343.56	26.261
343.92	27.104
344.28	26.985
344.65	25.907
345.01	25.411
345.37	26.661
345.73	26.695
346.10	27.351
346.46	25.988
346.82	25.859
347.19	26.185
347.55	26.566
347.91	26.780
348.27	25.303
348.63	26.661
349.00	25.267
349.36	27.016
349.72	26.700
350.08	26.393
350.45	25.140
350.81	25.332
351.17	25.407
351.53	25.551
351.89	25.186
352.26	26.720
352.62	25.806
352.98	25.382
353.34	25.443
353.70	26.537
354.07	25.081
354.43	25.460
354.79	24.690
355.15	26.111
355.51	25.870
355.87	25.809
356.24	23.736
356.60	24.899
356.96	24.365
357.32	24.920
357.68	23.847
358.04	23.910
358.40	25.161
358.77	25.439
359.13	23.779
359.49	24.114
359.85	24.727
360.21	24.482
360.57	23.642
360.93	25.189
361.29	22.961
361.66	24.216
362.02	25.379
362.38	24.752
362.74	25.057
363.10	25.282
363.46	23.721
363.82	25.094
364.18	24.428
364.54	23.603
364.90	24.014
365.26	23.581
365.62	25.474
365.98	24.853
366.35	24.545
366.71	24.464
367.07	24.238
367.43	24.012
367.79	23.180
368.15	23.977
368.51	24.545
368.87	23.690
369.23	23.032
369.59	24.125
369.95	23.900
370.31	24.277
370.67	23.582
371.03	23.973
371.39	23.414
371.75	24.469
372.11	22.825
372.47	23.964
372.83	24.627
373.19	23.466
373.55	23.177
373.91	22.750
374.27	23.671
374.63	23.546
374.99	24.397
375.35	23.816
375.71	23.217
376.07	23.315
376.42	24.286
376.78	23.221
377.14	23.155
377.50	22.709
377.86	24.297
378.22	23.357
378.58	23.013
378.94	22.243
379.30	23.456
379.66	24.013
380.02	22.747
380.38	23.250
380.74	22.801
381.09	23.558
381.45	22.324
381.81	23.812
382.17	23.414
382.53	22.548
382.89	22.222
383.25	23.335
383.61	23.232
383.97	22.730
384.32	22.702
384.68	22.848
385.04	21.569
385.40	22.153
385.76	22.767
386.12	23.480
386.48	22.925
386.83	23.399
387.19	23.199
387.55	22.961
387.91	23.655
388.27	22.894
388.62	23.159
388.98	22.959
389.34	22.798
389.70	22.747
390.06	22.907
390.42	22.668
390.77	23.414
391.13	22.573
391.49	22.186
391.85	21.897
392.20	22.285
392.56	22.632
392.92	22.666
393.28	22.052
393.64	21.321
393.99	23.824
394.35	21.885
394.71	23.116
395.07	22.250
395.42	21.797
395.78	22.020
396.14	21.942
396.50	22.448
396.85	22.022
397.21	20.802
397.57	21.818
397.92	21.989
398.28	22.414
398.64	21.687
399.00	21.727
399.35	21.106
399.71	21.252
400.07	22.914
400.42	21.971
400.78	22.290
401.14	21.658
401.49	22.096
401.85	22.060
402.21	21.867
402.57	22.188
402.92	22.146
403.28	22.055
403.63	22.383
403.99	22.321
404.35	22.049
404.70	20.417
405.06	20.975
405.42	21.255
405.77	20.976
406.13	20.955
406.49	20.308
406.84	21.516
407.20	21.915
407.55	21.249
407.91	20.789
408.27	20.905
408.62	21.292
408.98	21.380
409.34	21.561
409.69	19.961
410.05	20.628
410.40	22.037
410.76	20.567
411.11	20.875
411.47	21.368
411.83	20.465
412.18	21.493
412.54	20.911
412.89	20.382
413.25	21.360
413.60	21.863
413.96	20.429
414.31	20.915
414.67	20.654
415.03	19.774
415.38	20.692
415.74	20.651
416.09	21.620
416.45	20.459
416.80	20.687
417.16	20.166
417.51	21.386
417.87	20.274
418.22	20.855
418.58	20.201
418.93	20.502
419.29	19.718
419.64	19.896
420.00	20.970
420.35	20.418
420.71	20.838
421.06	20.933
421.42	20.913
421.77	20.405
422.12	21.396
422.48	20.520
422.83	20.128
423.19	20.147
423.54	19.636
423.90	20.436
424.25	20.379
424.61	19.523
424.96	20.325
425.31	20.971
425.67	20.599
426.02	21.084
426.38	21.039
426.73	20.823
427.09	20.696
427.44	20.941
427.79	20.742
428.15	20.388
428.50	20.109
428.85	19.840
429.21	19.808
429.56	20.323
429.92	20.339
430.27	20.351
430.62	19.707
430.98	19.533
431.33	20.557
431.68	19.414
432.04	19.843
432.39	20.080
432.74	20.084
433.10	20.230
433.45	19.713
433.80	20.197
434.16	19.945
434.51	20.484
434.86	19.280
435.22	20.303
435.57	19.526
435.92	19.461
436.28	19.618
436.63	19.566
436.98	20.046
437.34	19.964
437.69	20.215
438.04	19.259
438.39	18.754
438.75	20.279
439.10	19.808
439.45	19.963
439.81	19.939
440.16	19.477
440.51	20.000
440.86	20.846
441.22	19.853
441.57	19.812
441.92	19.570
442.27	20.455
442.63	20.343
442.98	20.735
443.33	20.812
443.68	19.682
444.03	20.119
444.39	20.167
444.74	20.234
445.09	20.546
445.44	20.342
445.79	20.423
446.15	20.154
446.50	19.523
446.85	20.457
447.20	20.647
447.55	20.480
447.91	20.361
448.26	21.172
448.61	20.725
448.96	20.998
449.31	20.173
449.66	19.977
450.02	19.966
450.37	20.569
450.72	20.389
451.07	21.013
451.42	20.474
451.77	20.253
452.12	19.916
452.47	20.090
452.83	21.260
453.18	20.999
453.53	19.659
453.88	20.947
454.23	20.160
454.58	20.718
454.93	20.490
455.28	19.619
455.63	20.459
455.98	20.866
456.34	20.051
456.69	20.584
457.04	20.983
457.39	21.021
457.74	20.496
458.09	19.305
458.44	19.719
458.79	20.112
459.14	21.224
459.49	22.090
459.84	20.643
460.19	20.449
460.54	20.966
460.89	19.659
461.24	20.807
461.59	20.962
461.94	20.189
462.29	20.748
462.64	20.266
462.99	20.244
463.34	20.097
463.69	20.077
464.04	20.339
464.39	21.164
464.74	20.491
465.09	19.900
465.44	21.177
465.79	20.011
466.14	21.152
466.49	20.357
466.84	20.880
467.19	20.839
467.54	20.498
467.89	20.341
468.24	19.830
468.59	20.381
468.94	20.381
469.29	20.262
469.64	20.848
469.99	19.972
470.34	19.044
470.68	20.880
471.03	20.878
471.38	21.541
471.73	20.658
472.08	20.624
472.43	19.262
472.78	18.574
473.13	19.456
473.48	19.479
473.83	19.614
474.17	20.725
474.52	20.357
474.87	20.727
475.22	19.829
475.57	19.932
475.92	20.900
476.27	20.838
476.61	19.734
476.96	19.967
477.31	20.660
477.66	20.393
478.01	19.876
478.36	19.771
478.70	20.065
479.05	20.385
479.40	20.615
479.75	19.239
480.10	20.533
480.45	19.650
480.79	21.098
481.14	20.441
481.49	19.212
481.84	19.932
482.19	20.112
482.53	20.480
482.88	20.048
483.23	19.962
483.58	20.142
483.92	19.700
484.27	19.462
484.62	19.901
484.97	19.652
485.31	19.147
485.66	19.855
486.01	20.467
486.36	20.214
486.70	20.505
487.05	20.505
487.40	20.191
487.75	20.197
488.09	20.025
488.44	20.014
488.79	20.209
489.13	20.232
489.48	19.581
489.83	19.596
490.17	19.326
490.52	19.630
490.87	19.574
491.22	19.866
491.56	19.639
491.91	18.929
492.26	20.029
492.60	19.674
492.95	19.823
493.30	19.492
493.64	18.861
493.99	19.855
494.34	19.466
494.68	19.143
495.03	18.248
495.37	19.136
495.72	19.031
496.07	19.854
496.41	19.151
496.76	19.438
497.11	18.864
497.45	19.809
497.80	19.526
498.14	19.523
498.49	18.842
498.84	19.212
499.18	18.825
499.53	20.238
499.87	18.872
500.22	18.694
500.56	19.617
500.91	19.478
501.26	19.575
501.60	19.528
501.95	18.971
502.29	19.855
502.64	18.967
502.98	19.043
503.33	17.867
503.67	19.373
504.02	19.648
504.36	19.545
504.71	19.192
505.06	18.973
505.40	18.832
505.75	19.433
506.09	18.956
506.44	19.969
506.78	19.643
507.13	19.390
507.47	18.695
507.82	18.964
508.16	18.436
508.51	19.098
508.85	18.734
509.19	17.882
509.54	18.391
509.88	18.501
510.23	18.827
510.57	19.241
510.92	17.751
511.26	18.494
511.61	19.142
511.95	18.740
512.30	18.902
512.64	18.253
512.98	18.304
513.33	19.194
513.67	18.135
514.02	19.165
514.36	19.429
514.70	19.697
515.05	19.918
515.39	18.123
515.74	19.820
516.08	18.649
516.42	19.317
516.77	19.193
517.11	18.872
517.46	18.372
517.80	20.024
518.14	19.045
518.49	18.810
518.83	18.044
519.17	18.253
519.52	18.117
519.86	19.268
520.20	19.077
520.55	17.886
520.89	18.632
521.23	18.113
521.58	18.927
521.92	19.038
522.26	18.933
522.61	18.442
522.95	19.404
523.29	18.933
523.64	18.361
523.98	18.859
524.32	18.170
524.66	19.142
525.01	19.221
525.35	18.795
525.69	17.912
526.04	17.857
526.38	20.039
526.72	18.247
527.06	18.353
527.41	18.799
527.75	18.834
528.09	18.738
528.43	18.501
528.78	18.746
529.12	18.581
529.46	18.519
529.80	20.076
530.15	18.680
530.49	18.316
530.83	18.673
531.17	18.872
531.51	18.331
531.86	18.695
532.20	17.884
532.54	18.584
532.88	18.891
533.22	18.817
533.57	19.266
533.91	18.603
534.25	18.685
534.59	18.345
534.93	17.495
535.27	17.957
535.62	18.146
535.96	19.113
536.30	19.459
536.64	19.435
536.98	18.188
537.32	19.275
537.66	18.934
538.01	19.161
538.35	18.516
538.69	19.108
539.03	17.977
539.37	18.035
539.71	18.337
540.05	17.923
540.39	18.837
540.73	18.271
541.07	19.337
541.42	19.086
541.76	19.202
542.10	19.064
542.44	17.860
542.78	17.756
543.12	18.132
543.46	18.150
543.80	19.847
544.14	18.425
544.48	19.254
544.82	18.797
545.16	18.784
545.50	18.892
545.84	19.547
546.18	18.865
546.52	19.034
546.86	18.476
547.20	19.099
547.54	17.739
547.88	17.595
548.22	18.080
548.56	18.799
548.90	19.003
549.24	18.388
549.58	17.983
549.92	18.370
550.26	18.168
550.60	18.810
550.94	18.521
551.28	18.006
551.62	18.462
551.96	18.271
552.30	18.494
552.64	17.560
552.98	18.003
553.32	17.832
553.66	17.054
554.00	18.321
554.34	17.799
554.68	18.363
555.02	18.824
555.36	18.624
555.69	18.242
556.03	18.558
556.37	17.936
556.71	18.556
557.05	19.314
557.39	17.844
557.73	18.516
558.07	19.005
558.41	17.841
558.75	17.381
559.08	18.046
559.42	18.016
559.76	18.735
560.10	16.820
560.44	18.987
560.78	17.902
561.12	18.477
561.45	18.623
561.79	17.647
562.13	17.814
562.47	18.489
562.81	18.084
563.15	19.252
563.48	18.741
563.82	18.806
564.16	18.245
564.50	16.959
564.84	18.608
565.17	18.042
565.51	18.511
565.85	19.136
566.19	18.501
566.52	18.365
566.86	19.280
567.20	18.057
567.54	19.161
567.88	19.215
568.21	20.079
568.55	19.022
568.89	19.559
569.23	19.355
569.56	19.352
569.90	20.585
570.24	19.166
570.57	20.291
570.91	20.460
571.25	19.369
571.59	19.682
571.92	19.289
572.26	19.203
572.60	19.411
572.93	20.176
573.27	19.373
573.61	19.391
573.95	19.825
574.28	19.412
574.62	19.578
574.96	19.571
575.29	19.132
575.63	18.969
575.97	18.731
576.30	19.230
576.64	19.152
576.98	19.588
577.31	20.079
577.65	20.138
577.98	19.865
578.32	20.042
578.66	19.600
578.99	19.981
579.33	19.485
579.67	19.304
580.00	19.646
580.34	19.104
580.67	19.659
581.01	19.693
581.35	19.789
581.68	20.311
582.02	19.582
582.35	19.907
582.69	20.238
583.02	19.504
583.36	20.109
583.70	20.353
584.03	20.017
584.37	20.469
584.70	20.055
585.04	19.378
585.37	20.074
585.71	19.946
586.04	19.995
586.38	19.632
586.72	19.742
587.05	20.075
587.39	19.989
587.72	20.448
588.06	20.066
588.39	19.766
588.73	20.116
589.06	20.581
589.40	19.737
589.73	19.715
590.07	19.675
590.40	19.466
590.73	20.016
591.07	18.999
591.40	19.056
591.74	19.548
592.07	19.527
592.41	19.920
592.74	19.793
593.08	19.001
593.41	20.099
593.75	19.235
594.08	19.327
594.41	19.651
594.75	19.084
595.08	19.410
595.42	19.507
595.75	20.015
596.09	19.429
596.42	19.760
596.75	19.538
597.09	19.818
597.42	18.880
597.75	19.927
598.09	18.696
598.42	18.998
598.76	19.133
599.09	19.712
599.42	19.401
599.76	19.676
600.09	19.570
600.42	19.447
600.76	19.279
601.09	19.847
601.42	19.506
601.76	18.896
602.09	19.348
602.42	19.840
602.76	19.270
603.09	19.892
603.42	19.941
603.76	19.315
604.09	19.725
604.42	19.755
604.76	19.493
605.09	19.698
605.42	19.729
605.75	19.221
606.09	19.958
606.42	19.391
606.75	19.437
607.09	19.473
607.42	19.451
607.75	19.139
608.08	19.182
608.42	19.826
608.75	19.566
609.08	19.631
609.41	19.848
609.75	19.960
610.08	19.171
610.41	19.179
610.74	18.918
611.07	19.483
611.41	19.512
611.74	19.670
612.07	18.790
612.40	18.654
612.73	19.322
613.07	19.235
613.40	19.584
613.73	18.579
614.06	20.534
614.39	18.049
614.72	19.608
615.06	19.218
615.39	19.378
615.72	18.837
616.05	19.553
616.38	18.860
616.71	19.388
617.05	18.530
617.38	18.856
617.71	19.308
618.04	19.937
618.37	20.555
618.70	18.284
619.03	19.236
619.36	18.090
619.69	18.878
620.03	18.408
620.36	17.740
620.69	18.986
621.02	19.266
621.35	19.751
621.68	19.218
622.01	18.250
622.34	19.393
622.67	18.849
623.00	18.070
623.33	18.826
623.66	18.100
623.99	18.759
624.32	18.935
624.65	18.571
624.99	18.585
625.32	16.983
625.65	19.324
625.98	19.259
626.31	17.872
626.64	18.804
626.97	18.325
627.30	19.965
627.63	18.544
627.96	17.161
628.29	17.761
628.62	18.879
628.95	19.138
629.28	16.734
629.61	17.547
629.94	19.257
630.26	18.577
630.59	19.771
630.92	19.179
631.25	18.462
631.58	17.952
631.91	17.215
632.24	17.087
632.57	19.091
632.90	17.319
633.23	18.353
