SpectraSuite Data File
++++++++++++++++++++++++++++++++++++
Date: Fri May 15 21:04:05 PDT 2015
User: schluterlab
Dark Spectrum Present: Yes
Reference Spectrum Present: Yes
Number of Sampled Component Spectra: 1
Spectrometers: USB2E3373
Integration Time (usec): 3000 (USB2E3373)
Spectra Averaged: 3 (USB2E3373)
Boxcar Smoothing: 0 (USB2E3373)
Correct for Electrical Dark: No (USB2E3373)
Strobe/Lamp Enabled: No (USB2E3373)
Correct for Detector Non-linearity: No (USB2E3373)
Correct for Stray Light: No (USB2E3373)
Number of Pixels in Processed Spectrum: 2048
>>>>>Begin Processed Spectral Data<<<<<
178.53	0.000
178.91	0.000
179.29	12.500
179.67	-500.000
180.04	85.714
180.42	-25.000
180.80	-500.000
181.18	233.333
181.56	250.000
181.94	-650.000
182.31	800.000
182.69	-20.000
183.07	-466.667
183.45	-60.000
183.83	66.667
184.20	-18.182
184.58	122.222
184.96	-0.000
185.34	266.667
185.72	-200.000
186.09	146.154
186.47	-1300.000
186.85	100.000
187.23	244.444
187.61	400.000
187.98	-166.667
188.36	-33.333
188.74	-433.333
189.12	-23.529
189.49	27.778
189.87	0.000
190.25	-21.429
190.63	-200.000
191.00	-500.000
191.38	15.789
191.76	-350.000
192.14	50.000
192.51	0.000
192.89	-44.444
193.27	-100.000
193.65	66.667
194.02	227.273
194.40	10.000
194.78	-87.500
195.15	-16.667
195.53	-212.500
195.91	250.000
196.29	-300.000
196.66	176.923
197.04	185.714
197.42	-166.667
197.79	-700.000
198.17	-130.769
198.55	600.000
198.92	66.667
199.30	-1000.000
199.68	-80.000
200.05	-566.667
200.43	0.000
200.81	-333.333
201.18	-266.667
201.56	900.000
201.94	-450.000
202.31	333.333
202.69	-340.000
203.07	200.000
203.44	500.000
203.82	0.000
204.19	-21.429
204.57	-800.000
204.95	225.000
205.32	-20.000
205.70	-71.429
206.08	-100.000
206.45	188.889
206.83	21.429
207.20	-100.000
207.58	300.000
207.96	-233.333
208.33	-250.000
208.71	-50.000
209.08	-166.667
209.46	-600.000
209.84	-120.000
210.21	-400.000
210.59	-85.714
210.96	-250.000
211.34	-125.000
211.71	33.333
212.09	-157.143
212.46	-1700.000
212.84	0.000
213.22	10.000
213.59	600.000
213.97	-30.769
214.34	27.273
214.72	-150.000
215.09	575.000
215.47	7.692
215.84	-90.909
216.22	-133.333
216.59	-200.000
216.97	0.000
217.34	-350.000
217.72	-80.000
218.09	-37.500
218.47	87.500
218.84	-100.000
219.22	-111.111
219.59	-100.000
219.97	433.333
220.34	100.000
220.72	-142.857
221.09	-25.000
221.47	-300.000
221.84	-600.000
222.22	-650.000
222.59	0.000
222.97	25.000
223.34	-300.000
223.72	-78.571
224.09	9.524
224.46	10.714
224.84	166.667
225.21	-50.000
225.59	-26.667
225.96	-500.000
226.34	500.000
226.71	-100.000
227.08	-50.000
227.46	-100.000
227.83	-600.000
228.21	0.000
228.58	-9.091
228.95	-25.000
229.33	190.000
229.70	18.750
230.08	-62.500
230.45	-200.000
230.82	-85.714
231.20	-6.667
231.57	78.571
231.95	-100.000
232.32	-100.000
232.69	-14.286
233.07	-233.333
233.44	-360.000
233.81	-130.000
234.19	-66.667
234.56	-35.294
234.93	750.000
235.31	0.000
235.68	-180.000
236.05	-15.385
236.43	-35.000
236.80	-23.529
237.17	40.625
237.55	-45.000
237.92	-37.037
238.29	27.778
238.67	10.000
239.04	0.000
239.41	-7.317
239.79	-10.000
240.16	9.756
240.53	13.158
240.91	-4.348
241.28	22.222
241.65	26.786
242.02	28.767
242.40	13.333
242.77	27.119
243.14	10.606
243.51	21.250
243.89	39.080
244.26	17.241
244.63	27.381
245.00	26.804
245.38	30.928
245.75	22.472
246.12	19.828
246.49	23.140
246.87	36.538
247.24	18.487
247.61	19.298
247.98	26.016
248.36	21.250
248.73	28.289
249.10	22.078
249.47	24.684
249.84	25.490
250.22	29.412
250.59	28.758
250.96	31.925
251.33	23.837
251.70	34.118
252.08	35.533
252.45	27.723
252.82	27.638
253.19	28.111
253.56	26.636
253.94	23.423
254.31	30.870
254.68	35.526
255.05	27.559
255.42	27.948
255.79	29.730
256.16	33.463
256.54	29.851
256.91	30.418
257.28	26.022
257.65	28.839
258.02	27.305
258.39	28.620
258.76	36.630
259.14	32.558
259.51	26.861
259.88	29.897
260.25	31.699
260.62	32.292
260.99	30.847
261.36	27.397
261.73	31.329
262.10	29.483
262.47	30.061
262.85	30.408
263.22	32.615
263.59	32.399
263.96	30.745
264.33	30.909
264.70	31.250
265.07	29.464
265.44	35.411
265.81	31.921
266.18	28.142
266.55	30.077
266.92	29.016
267.29	31.070
267.66	26.854
268.03	28.010
268.40	28.460
268.77	29.947
269.14	32.374
269.51	29.306
269.88	29.426
270.25	29.592
270.62	30.488
270.99	28.645
271.36	27.628
271.73	26.761
272.10	30.900
272.47	30.260
272.84	28.465
273.21	29.002
273.58	30.361
273.95	31.350
274.32	28.406
274.69	29.864
275.06	32.366
275.43	27.664
275.80	29.581
276.17	26.667
276.54	29.336
276.91	30.044
277.28	29.258
277.65	32.025
278.02	25.957
278.39	29.759
278.76	30.189
279.13	26.971
279.50	33.403
279.87	30.238
280.23	26.237
280.60	28.265
280.97	30.707
281.34	27.308
281.71	32.238
282.08	29.039
282.45	26.419
282.82	29.151
283.19	30.561
283.56	30.636
283.92	27.324
284.29	27.885
284.66	27.519
285.03	27.701
285.40	26.843
285.77	28.295
286.14	27.978
286.51	29.336
286.87	26.325
287.24	27.993
287.61	27.690
287.98	29.298
288.35	28.423
288.72	26.445
289.08	28.646
289.45	27.417
289.82	26.748
290.19	27.986
290.56	27.273
290.93	25.589
291.29	26.194
291.66	27.087
292.03	24.561
292.40	26.290
292.77	24.721
293.13	22.890
293.50	24.279
293.87	25.038
294.24	25.502
294.60	23.249
294.97	24.851
295.34	22.393
295.71	22.951
296.08	23.468
296.44	23.613
296.81	23.194
297.18	24.783
297.55	25.474
297.91	22.603
298.28	22.691
298.65	22.931
299.02	21.563
299.38	20.246
299.75	21.655
300.12	22.120
300.48	21.344
300.85	21.420
301.22	22.208
301.59	21.053
301.95	24.430
302.32	23.087
302.69	22.512
303.05	22.030
303.42	22.790
303.79	22.313
304.15	23.536
304.52	19.263
304.89	20.468
305.25	22.397
305.62	19.253
305.99	19.532
306.35	21.040
306.72	20.922
307.09	21.551
307.45	21.355
307.82	21.991
308.19	22.184
308.55	21.156
308.92	21.024
309.29	20.559
309.65	20.667
310.02	21.342
310.38	20.856
310.75	22.514
311.12	21.529
311.48	20.785
311.85	20.105
312.22	21.308
312.58	19.533
312.95	20.704
313.31	20.704
313.68	19.686
314.05	20.408
314.41	20.928
314.78	20.103
315.14	19.424
315.51	21.429
315.87	20.287
316.24	21.436
316.61	22.146
316.97	21.329
317.34	19.922
317.70	21.128
318.07	20.096
318.43	19.510
318.80	19.981
319.16	20.996
319.53	22.222
319.89	20.768
320.26	19.534
320.62	20.261
320.99	18.163
321.35	20.349
321.72	20.145
322.08	20.443
322.45	20.203
322.81	19.941
323.18	19.921
323.54	19.402
323.91	19.864
324.27	19.531
324.64	20.974
325.00	20.529
325.37	22.130
325.73	19.855
326.10	19.619
326.46	20.359
326.83	20.560
327.19	20.139
327.56	19.374
327.92	20.951
328.29	19.196
328.65	20.094
329.01	19.577
329.38	20.092
329.74	19.358
330.11	20.389
330.47	19.109
330.84	20.481
331.20	21.958
331.56	18.889
331.93	20.183
332.29	19.798
332.66	19.729
333.02	18.866
333.38	19.707
333.75	19.597
334.11	18.353
334.48	20.036
334.84	19.963
335.20	18.756
335.57	18.676
335.93	19.964
336.29	19.429
336.66	19.619
337.02	17.937
337.38	17.778
337.75	19.636
338.11	19.928
338.47	19.982
338.84	19.316
339.20	18.739
339.56	18.624
339.93	19.606
340.29	19.266
340.65	19.534
341.02	18.794
341.38	18.230
341.74	18.463
342.11	18.111
342.47	17.794
342.83	20.502
343.20	18.293
343.56	18.870
343.92	18.246
344.28	18.873
344.65	19.430
345.01	17.805
345.37	17.662
345.73	18.828
346.10	18.550
346.46	18.167
346.82	18.903
347.19	18.703
347.55	18.296
347.91	18.932
348.27	17.623
348.63	17.888
349.00	18.868
349.36	18.620
349.72	17.993
350.08	18.443
350.45	19.154
350.81	18.771
351.17	17.834
351.53	19.510
351.89	17.506
352.26	17.600
352.62	18.871
352.98	17.671
353.34	17.874
353.70	18.123
354.07	17.258
354.43	19.295
354.79	18.249
355.15	18.492
355.51	17.880
355.87	17.880
356.24	16.069
356.60	18.593
356.96	18.095
357.32	17.732
357.68	17.670
358.04	16.721
358.40	17.846
358.77	18.102
359.13	17.294
359.49	16.718
359.85	17.941
360.21	17.145
360.57	17.292
360.93	17.398
361.29	17.069
361.66	17.163
362.02	17.273
362.38	18.126
362.74	16.427
363.10	17.607
363.46	18.384
363.82	17.881
364.18	17.491
364.54	17.132
364.90	16.846
365.26	16.739
365.62	17.883
365.98	17.082
366.35	17.990
366.71	18.182
367.07	17.634
367.43	17.326
367.79	16.537
368.15	17.373
368.51	18.135
368.87	16.511
369.23	16.534
369.59	16.837
369.95	17.522
370.31	17.775
370.67	17.164
371.03	17.028
371.39	16.849
371.75	17.802
372.11	16.476
372.47	17.086
372.83	17.175
373.19	16.904
373.55	16.390
373.91	17.063
374.27	17.576
374.63	17.588
374.99	16.667
375.35	17.131
375.71	17.692
376.07	15.871
376.42	17.347
376.78	17.383
377.14	17.671
377.50	16.600
377.86	17.403
378.22	16.975
378.58	16.795
378.94	16.824
379.30	16.594
379.66	17.931
380.02	17.045
380.38	16.677
380.74	16.158
381.09	17.362
381.45	16.942
381.81	16.965
382.17	16.815
382.53	16.864
382.89	17.577
383.25	16.490
383.61	18.232
383.97	16.063
384.32	16.323
384.68	16.780
385.04	15.748
385.40	15.806
385.76	15.975
386.12	16.882
386.48	17.433
386.83	16.867
387.19	17.216
387.55	17.252
387.91	17.298
388.27	16.422
388.62	17.118
388.98	16.268
389.34	17.676
389.70	17.713
390.06	15.922
390.42	16.192
390.77	16.220
391.13	15.700
391.49	16.235
391.85	15.919
392.20	16.761
392.56	16.020
392.92	17.616
393.28	15.920
393.64	16.817
393.99	16.928
394.35	16.003
394.71	17.178
395.07	15.776
395.42	16.818
395.78	16.091
396.14	16.456
396.50	16.994
396.85	17.064
397.21	15.727
397.57	16.865
397.92	16.297
398.28	16.092
398.64	16.386
399.00	16.874
399.35	15.971
399.71	16.542
400.07	16.808
400.42	15.851
400.78	16.779
401.14	16.394
401.49	16.677
401.85	16.453
402.21	16.928
402.57	17.562
402.92	15.496
403.28	17.168
403.63	15.448
403.99	16.263
404.35	17.114
404.70	16.071
405.06	15.452
405.42	16.781
405.77	16.502
406.13	15.774
406.49	16.637
406.84	16.565
407.20	16.797
407.55	15.196
407.91	15.307
408.27	15.551
408.62	17.169
408.98	16.636
409.34	15.799
409.69	15.568
410.05	17.057
410.40	16.914
410.76	17.008
411.11	16.688
411.47	17.160
411.83	15.631
412.18	16.731
412.54	15.980
412.89	16.441
413.25	16.847
413.60	16.646
413.96	15.644
414.31	17.073
414.67	16.036
415.03	15.313
415.38	16.057
415.74	16.938
416.09	16.329
416.45	16.610
416.80	16.986
417.16	16.160
417.51	17.055
417.87	16.167
418.22	16.516
418.58	16.254
418.93	16.991
419.29	15.685
419.64	16.461
420.00	16.940
420.35	16.657
420.71	16.343
421.06	15.899
421.42	16.947
421.77	16.416
422.12	16.118
422.48	17.001
422.83	16.241
423.19	16.196
423.54	16.167
423.90	15.489
424.25	17.164
424.61	16.646
424.96	16.086
425.31	16.869
425.67	16.667
426.02	17.079
426.38	16.155
426.73	17.252
427.09	17.089
427.44	17.294
427.79	17.089
428.15	17.112
428.50	16.959
428.85	16.830
429.21	17.600
429.56	16.712
429.92	16.949
430.27	16.441
430.62	16.780
430.98	16.667
431.33	17.350
431.68	16.693
432.04	16.881
432.39	15.744
432.74	16.476
433.10	17.011
433.45	16.428
433.80	16.077
434.16	16.454
434.51	16.935
434.86	16.957
435.22	17.274
435.57	16.719
435.92	16.647
436.28	16.279
436.63	16.372
436.98	15.991
437.34	16.152
437.69	16.637
438.04	16.524
438.39	16.555
438.75	17.001
439.10	17.204
439.45	17.529
439.81	16.147
440.16	17.399
440.51	17.433
440.86	17.341
441.22	16.742
441.57	16.170
441.92	18.363
442.27	16.741
442.63	17.773
442.98	16.312
443.33	16.583
443.68	17.401
444.03	17.933
444.39	16.773
444.74	18.116
445.09	17.205
445.44	16.923
445.79	17.844
446.15	17.456
446.50	15.530
446.85	16.950
447.20	17.570
447.55	17.969
447.91	17.654
448.26	17.359
448.61	17.674
448.96	17.613
449.31	17.052
449.66	16.667
450.02	17.456
450.37	16.657
450.72	17.010
451.07	16.709
451.42	16.667
451.77	17.300
452.12	16.687
452.47	16.935
452.83	16.961
453.18	16.888
453.53	17.067
453.88	17.001
454.23	17.701
454.58	17.947
454.93	17.590
455.28	16.889
455.63	18.165
455.98	17.859
456.34	16.922
456.69	18.107
457.04	17.895
457.39	17.072
457.74	16.687
458.09	16.775
458.44	17.086
458.79	16.246
459.14	18.307
459.49	17.851
459.84	17.766
460.19	17.961
460.54	17.665
460.89	16.591
461.24	17.640
461.59	18.587
461.94	17.799
462.29	18.999
462.64	18.272
462.99	17.603
463.34	17.316
463.69	17.246
464.04	17.857
464.39	17.162
464.74	17.914
465.09	18.153
465.44	17.773
465.79	17.347
466.14	17.731
466.49	17.251
466.84	17.847
467.19	17.897
467.54	18.582
467.89	17.941
468.24	17.762
468.59	18.222
468.94	17.778
469.29	18.098
469.64	18.319
469.99	18.711
470.34	18.157
470.68	19.165
471.03	17.410
471.38	17.475
471.73	17.857
472.08	17.639
472.43	17.584
472.78	17.272
473.13	19.320
473.48	18.176
473.83	18.244
474.17	18.005
474.52	18.507
474.87	18.606
475.22	17.877
475.57	17.335
475.92	17.992
476.27	17.695
476.61	18.750
476.96	18.070
477.31	18.010
477.66	18.090
478.01	18.248
478.36	17.375
478.70	18.760
479.05	18.626
479.40	18.336
479.75	17.570
480.10	18.126
480.45	17.900
480.79	18.781
481.14	19.006
481.49	17.094
481.84	18.195
482.19	17.867
482.53	18.034
482.88	18.043
483.23	17.610
483.58	18.396
483.92	17.619
484.27	18.140
484.62	17.840
484.97	17.413
485.31	17.341
485.66	16.900
486.01	17.226
486.36	16.925
486.70	17.477
487.05	17.824
487.40	17.658
487.75	17.915
488.09	17.553
488.44	17.985
488.79	17.706
489.13	18.429
489.48	17.785
489.83	18.117
490.17	18.112
490.52	18.522
490.87	18.093
491.22	19.150
491.56	18.596
491.91	17.925
492.26	18.425
492.60	18.522
492.95	19.380
493.30	18.173
493.64	18.517
493.99	17.826
494.34	17.767
494.68	18.476
495.03	18.102
495.37	18.106
495.72	18.324
496.07	18.244
496.41	17.925
496.76	18.379
497.11	18.025
497.45	19.379
497.80	19.627
498.14	18.530
498.49	17.826
498.84	18.513
499.18	18.072
499.53	17.907
499.87	18.239
500.22	17.953
500.56	19.112
500.91	18.323
501.26	17.944
501.60	18.249
501.95	18.680
502.29	18.305
502.64	19.112
502.98	18.796
503.33	17.963
503.67	18.988
504.02	18.768
504.36	18.803
504.71	18.636
505.06	18.269
505.40	18.883
505.75	18.454
506.09	18.855
506.44	19.456
506.78	19.796
507.13	18.718
507.47	18.538
507.82	18.750
508.16	18.595
508.51	18.783
508.85	18.629
509.19	18.574
509.54	18.445
509.88	19.094
510.23	18.397
510.57	19.294
510.92	18.177
511.26	19.203
511.61	19.087
511.95	19.233
512.30	18.681
512.64	19.421
512.98	18.473
513.33	18.467
513.67	18.988
514.02	19.508
514.36	20.000
514.70	20.455
515.05	19.448
515.39	19.185
515.74	20.060
516.08	19.785
516.42	20.259
516.77	20.070
517.11	20.000
517.46	20.108
517.80	19.190
518.14	18.861
518.49	19.351
518.83	20.535
519.17	19.345
519.52	20.012
519.86	20.228
520.20	19.563
520.55	19.012
520.89	20.201
521.23	20.393
521.58	19.874
521.92	21.154
522.26	19.519
522.61	20.390
522.95	21.854
523.29	19.314
523.64	20.330
523.98	20.739
524.32	19.265
524.66	20.487
525.01	20.909
525.35	20.998
525.69	19.596
526.04	19.180
526.38	21.012
526.72	19.228
527.06	19.650
527.41	21.108
527.75	19.772
528.09	20.133
528.43	20.527
528.78	19.274
529.12	20.129
529.46	20.143
529.80	20.583
530.15	20.792
530.49	20.337
530.83	20.657
531.17	20.081
531.51	20.520
531.86	20.802
532.20	20.042
532.54	20.762
532.88	20.671
533.22	20.430
533.57	21.166
533.91	20.757
534.25	21.224
534.59	20.911
534.93	19.761
535.27	20.114
535.62	19.767
535.96	20.483
536.30	20.449
536.64	21.089
536.98	20.697
537.32	21.764
537.66	20.757
538.01	20.629
538.35	19.279
538.69	20.839
539.03	19.344
539.37	20.794
539.71	20.314
540.05	20.502
540.39	21.053
540.73	21.478
541.07	20.304
541.42	20.833
541.76	20.922
542.10	20.303
542.44	20.778
542.78	19.752
543.12	20.604
543.46	21.419
543.80	20.680
544.14	19.893
544.48	21.186
544.82	20.437
545.16	20.014
545.50	21.028
545.84	20.326
546.18	21.773
546.52	20.836
546.86	20.992
547.20	21.030
547.54	20.353
547.88	20.245
548.22	20.579
548.56	20.449
548.90	21.496
549.24	19.972
549.58	20.663
549.92	19.871
550.26	20.293
550.60	20.892
550.94	19.567
551.28	19.629
551.62	20.615
551.96	20.752
552.30	20.468
552.64	20.874
552.98	20.042
553.32	20.399
553.66	19.811
554.00	20.876
554.34	21.196
554.68	21.165
555.02	21.354
555.36	20.942
555.69	20.366
556.03	19.700
556.37	20.214
556.71	20.794
557.05	21.253
557.39	19.703
557.73	20.765
558.07	21.719
558.41	21.133
558.75	19.875
559.08	20.252
559.42	21.587
559.76	21.297
560.10	21.024
560.44	20.998
560.78	20.350
561.12	20.733
561.45	21.644
561.79	20.938
562.13	21.292
562.47	20.360
562.81	20.605
563.15	20.733
563.48	20.438
563.82	22.032
564.16	19.429
564.50	20.338
564.84	21.084
565.17	20.590
565.51	21.038
565.85	20.027
566.19	20.292
566.52	20.509
566.86	20.887
567.20	20.423
567.54	20.316
567.88	21.031
568.21	19.853
568.55	20.272
568.89	20.175
569.23	19.740
569.56	18.827
569.90	19.813
570.24	19.241
570.57	18.727
570.91	19.624
571.25	18.579
571.59	18.592
571.92	18.607
572.26	18.961
572.60	18.729
572.93	18.858
573.27	18.746
573.61	18.586
573.95	18.514
574.28	18.194
574.62	18.205
574.96	18.175
575.29	17.845
575.63	18.450
575.97	17.810
576.30	18.218
576.64	17.881
576.98	18.481
577.31	18.063
577.65	18.509
577.98	17.963
578.32	17.581
578.66	18.031
578.99	18.109
579.33	17.987
579.67	17.790
580.00	18.506
580.34	18.085
580.67	18.027
581.01	17.939
581.35	17.873
581.68	17.930
582.02	17.416
582.35	17.567
582.69	18.251
583.02	17.560
583.36	18.098
583.70	18.821
584.03	18.905
584.37	19.057
584.70	18.571
585.04	17.720
585.37	18.231
585.71	18.094
586.04	17.902
586.38	17.898
586.72	18.135
587.05	18.313
587.39	18.619
587.72	18.835
588.06	18.378
588.39	18.485
588.73	18.315
589.06	18.787
589.40	18.769
589.73	19.022
590.07	19.260
590.40	18.731
590.73	19.522
591.07	18.448
591.40	19.145
591.74	19.502
592.07	19.620
592.41	20.009
592.74	18.837
593.08	18.302
593.41	18.221
593.75	18.646
594.08	18.400
594.41	18.523
594.75	17.901
595.08	18.880
595.42	18.955
595.75	18.626
596.09	19.038
596.42	18.892
596.75	19.361
597.09	18.815
597.42	18.699
597.75	18.690
598.09	19.013
598.42	18.276
598.76	18.962
599.09	18.309
599.42	18.113
599.76	18.736
600.09	18.363
600.42	18.537
600.76	18.425
601.09	18.588
601.42	18.645
601.76	17.825
602.09	18.564
602.42	19.503
602.76	18.463
603.09	18.854
603.42	18.980
603.76	18.306
604.09	18.996
604.42	18.697
604.76	19.181
605.09	19.104
605.42	18.600
605.75	18.827
606.09	19.278
606.42	18.557
606.75	19.264
607.09	19.341
607.42	18.875
607.75	18.739
608.08	17.880
608.42	19.004
608.75	19.084
609.08	19.133
609.41	19.492
609.75	18.498
610.08	19.321
610.41	19.034
610.74	19.454
611.07	19.225
611.41	19.720
611.74	19.776
612.07	18.790
612.40	19.092
612.73	19.774
613.07	18.898
613.40	19.365
613.73	18.747
614.06	19.199
614.39	19.233
614.72	19.048
615.06	18.771
615.39	18.996
615.72	18.945
616.05	19.721
616.38	18.234
616.71	18.654
617.05	20.074
617.38	19.547
617.71	19.686
618.04	19.873
618.37	20.744
618.70	20.132
619.03	21.111
619.36	20.188
619.69	20.318
620.03	20.380
620.36	20.815
620.69	20.485
621.02	20.642
621.35	22.324
621.68	22.109
622.01	21.500
622.34	21.149
622.67	21.215
623.00	20.980
623.33	20.351
623.66	19.746
623.99	20.121
624.32	19.620
624.65	19.850
624.99	21.595
625.32	20.394
625.65	20.581
625.98	20.790
626.31	20.781
626.64	22.357
626.97	21.117
627.30	21.541
627.63	21.924
627.96	21.653
628.29	21.462
628.62	22.026
628.95	21.643
629.28	20.665
629.61	20.937
629.94	21.310
630.26	20.949
630.59	22.789
630.92	22.051
631.25	20.308
631.58	22.357
631.91	20.724
632.24	21.560
632.57	22.955
