SpectraSuite Data File
++++++++++++++++++++++++++++++++++++
Date: Fri May 15 20:35:31 PDT 2015
User: schluterlab
Dark Spectrum Present: Yes
Reference Spectrum Present: Yes
Number of Sampled Component Spectra: 1
Spectrometers: USB2E3373
Integration Time (usec): 3000 (USB2E3373)
Spectra Averaged: 3 (USB2E3373)
Boxcar Smoothing: 0 (USB2E3373)
Correct for Electrical Dark: No (USB2E3373)
Strobe/Lamp Enabled: No (USB2E3373)
Correct for Detector Non-linearity: No (USB2E3373)
Correct for Stray Light: No (USB2E3373)
Number of Pixels in Processed Spectrum: 2048
>>>>>Begin Processed Spectral Data<<<<<
178.53	0.000
178.91	0.000
179.29	37.500
179.67	-450.000
180.04	42.857
180.42	175.000
180.80	-900.000
181.18	66.667
181.56	-50.000
181.94	-550.000
182.31	1900.000
182.69	60.000
183.07	133.333
183.45	-260.000
183.83	16.667
184.20	81.818
184.58	255.556
184.96	25.000
185.34	-33.333
185.72	-700.000
186.09	69.231
186.47	-700.000
186.85	166.667
187.23	88.889
187.61	600.000
187.98	-333.333
188.36	133.333
188.74	-133.333
189.12	35.294
189.49	-33.333
189.87	0.000
190.25	-7.143
190.63	-250.000
191.00	0.000
191.38	-26.316
191.76	150.000
192.14	125.000
192.51	200.000
192.89	-211.111
193.27	-214.286
193.65	183.333
194.02	154.545
194.40	-20.000
194.78	-125.000
195.15	0.000
195.53	-150.000
195.91	375.000
196.29	100.000
196.66	76.923
197.04	185.714
197.42	-55.556
197.79	-300.000
198.17	-100.000
198.55	1800.000
198.92	-233.333
199.30	-1100.000
199.68	-160.000
200.05	-433.333
200.43	0.000
200.81	-166.667
201.18	33.333
201.56	-0.000
201.94	-350.000
202.31	233.333
202.69	-240.000
203.07	175.000
203.44	-200.000
203.82	0.000
204.19	64.286
204.57	-533.333
204.95	262.500
205.32	-80.000
205.70	57.143
206.08	-100.000
206.45	44.444
206.83	57.143
207.20	-57.143
207.58	600.000
207.96	-100.000
208.33	-70.000
208.71	-250.000
209.08	-316.667
209.46	-900.000
209.84	-220.000
210.21	-900.000
210.59	0.000
210.96	-183.333
211.34	-175.000
211.71	20.000
212.09	-100.000
212.46	-1400.000
212.84	0.000
213.22	60.000
213.59	650.000
213.97	-38.462
214.34	27.273
214.72	83.333
215.09	425.000
215.47	-100.000
215.84	-18.182
216.22	-200.000
216.59	-75.000
216.97	50.000
217.34	25.000
217.72	-140.000
218.09	50.000
218.47	262.500
218.84	-1800.000
219.22	-111.111
219.59	-20.000
219.97	466.667
220.34	50.000
220.72	-200.000
221.09	-225.000
221.47	-300.000
221.84	-450.000
222.22	-800.000
222.59	-90.909
222.97	0.000
223.34	-266.667
223.72	-71.429
224.09	52.381
224.46	-10.714
224.84	300.000
225.21	30.000
225.59	20.000
225.96	-200.000
226.34	225.000
226.71	-100.000
227.08	-100.000
227.46	-25.000
227.83	-250.000
228.21	88.889
228.58	81.818
228.95	-137.500
229.33	140.000
229.70	31.250
230.08	-150.000
230.45	-185.714
230.82	-28.571
231.20	-26.667
231.57	-28.571
231.95	-28.571
232.32	-110.000
232.69	-21.429
233.07	133.333
233.44	-140.000
233.81	-120.000
234.19	88.889
234.56	-23.529
234.93	600.000
235.31	-225.000
235.68	-320.000
236.05	-123.077
236.43	-35.000
236.80	11.765
237.17	21.875
237.55	0.000
237.92	-44.444
238.29	-22.222
238.67	23.333
239.04	-8.824
239.41	-31.707
239.79	-23.333
240.16	7.317
240.53	-21.053
240.91	-32.609
241.28	-11.111
241.65	14.286
242.02	23.288
242.40	-1.667
242.77	5.085
243.14	4.545
243.51	-6.250
243.89	10.345
244.26	11.494
244.63	9.524
245.00	-4.124
245.38	-5.155
245.75	-21.348
246.12	0.862
246.49	4.959
246.87	4.808
247.24	-2.521
247.61	-13.158
247.98	0.000
248.36	6.875
248.73	-1.974
249.10	1.948
249.47	4.430
249.84	7.843
250.22	8.824
250.59	0.654
250.96	10.798
251.33	4.070
251.70	-0.588
252.08	10.152
252.45	3.960
252.82	-2.010
253.19	8.295
253.56	1.869
253.94	4.054
254.31	6.957
254.68	8.772
255.05	6.299
255.42	1.747
255.79	5.405
256.16	6.615
256.54	6.716
256.91	5.703
257.28	1.859
257.65	4.120
258.02	3.546
258.39	7.744
258.76	6.593
259.14	7.641
259.51	7.443
259.88	2.405
260.25	5.882
260.62	10.069
260.99	2.712
261.36	3.082
261.73	5.063
262.10	7.599
262.47	5.828
262.85	2.821
263.22	5.231
263.59	4.673
263.96	6.211
264.33	6.970
264.70	4.167
265.07	3.571
265.44	6.799
265.81	5.367
266.18	7.104
266.55	10.797
266.92	5.440
267.29	6.005
267.66	5.115
268.03	6.283
268.40	5.222
268.77	7.219
269.14	7.674
269.51	7.712
269.88	5.736
270.25	4.592
270.62	5.610
270.99	3.069
271.36	7.579
271.73	7.277
272.10	3.163
272.47	6.856
272.84	5.693
273.21	10.441
273.58	8.434
273.95	7.323
274.32	3.695
274.69	4.751
275.06	10.045
275.43	6.122
275.80	6.402
276.17	6.667
276.54	4.497
276.91	6.579
277.28	2.620
277.65	6.612
278.02	7.447
278.39	2.626
278.76	7.128
279.13	2.905
279.50	6.723
279.87	4.752
280.23	2.581
280.60	7.992
280.97	8.081
281.34	3.654
281.71	7.598
282.08	6.544
282.45	7.241
282.82	6.178
283.19	6.963
283.56	7.707
283.92	3.226
284.29	5.577
284.66	3.682
285.03	3.929
285.40	3.781
285.77	6.503
286.14	7.581
286.51	6.089
286.87	2.742
287.24	7.735
287.61	4.586
287.98	8.596
288.35	5.893
288.72	6.480
289.08	4.340
289.45	6.678
289.82	4.895
290.19	5.631
290.56	4.803
290.93	5.892
291.29	6.317
291.66	5.039
292.03	5.423
292.40	6.613
292.77	5.901
293.13	4.708
293.50	3.945
293.87	4.122
294.24	3.246
294.60	5.216
294.97	6.101
295.34	3.681
295.71	3.577
296.08	5.680
296.44	3.841
296.81	4.722
297.18	4.783
297.55	7.453
297.91	5.890
298.28	4.749
298.65	3.935
299.02	5.391
299.38	3.283
299.75	4.414
300.12	4.581
300.48	4.216
300.85	7.224
301.22	4.156
301.59	3.553
301.95	4.557
302.32	4.799
302.69	2.861
303.05	4.827
303.42	6.600
303.79	4.907
304.15	6.452
304.52	3.805
304.89	5.263
305.25	5.085
305.62	3.034
305.99	4.561
306.35	4.393
306.72	3.825
307.09	4.903
307.45	4.363
307.82	4.861
308.19	5.691
308.55	5.453
308.92	5.882
309.29	4.022
309.65	5.382
310.02	4.620
310.38	5.269
310.75	6.120
311.12	5.705
311.48	5.302
311.85	4.293
312.22	5.274
312.58	5.945
312.95	5.016
313.31	5.901
313.68	5.131
314.05	5.714
314.41	6.495
314.78	6.495
315.14	8.428
315.51	7.039
315.87	6.967
316.24	9.505
316.61	8.760
316.97	8.829
317.34	7.812
317.70	8.413
318.07	7.596
318.43	11.275
318.80	9.659
319.16	10.840
319.53	10.161
319.89	10.236
320.26	10.729
320.62	11.735
320.99	10.438
321.35	11.100
321.72	12.669
322.08	12.991
322.45	13.299
322.81	12.868
323.18	13.346
323.54	14.768
323.91	16.358
324.27	15.625
324.64	15.637
325.00	17.245
325.37	17.998
325.73	16.500
326.10	18.710
326.46	18.834
326.83	18.723
327.19	19.529
327.56	20.417
327.92	20.158
328.29	20.982
328.65	22.358
329.01	23.162
329.38	23.687
329.74	22.663
330.11	23.911
330.47	22.171
330.84	24.519
331.20	26.806
331.56	24.259
331.93	27.032
332.29	26.764
332.66	27.149
333.02	26.487
333.38	25.940
333.75	27.656
334.11	26.679
334.48	28.558
334.84	27.289
335.20	29.277
335.57	27.471
335.93	28.275
336.29	27.993
336.66	28.247
337.02	27.602
337.38	28.981
337.75	28.727
338.11	29.125
338.47	30.657
338.84	29.760
339.20	29.433
339.56	29.541
339.93	29.991
340.29	29.358
340.65	29.749
341.02	29.521
341.38	28.761
341.74	29.505
342.11	28.683
342.47	30.160
342.83	29.152
343.20	29.181
343.56	29.304
343.92	29.761
344.28	30.401
344.65	29.275
345.01	29.818
345.37	29.016
345.73	30.377
346.10	30.889
346.46	28.932
346.82	29.951
347.19	29.177
347.55	29.825
347.91	29.045
348.27	29.992
348.63	29.472
349.00	28.958
349.36	30.673
349.72	30.265
350.08	29.508
350.45	29.848
350.81	29.817
351.17	28.664
351.53	30.122
351.89	29.645
352.26	28.880
352.62	30.806
352.98	28.996
353.34	28.824
353.70	30.097
354.07	29.355
354.43	29.063
354.79	29.645
355.15	29.841
355.51	30.380
355.87	30.502
356.24	29.935
356.60	30.073
356.96	30.476
357.32	30.112
357.68	29.398
358.04	29.645
358.40	29.260
358.77	30.781
359.13	29.784
359.49	28.968
359.85	29.485
360.21	30.144
360.57	29.151
360.93	29.728
361.29	28.625
361.66	30.251
362.02	29.924
362.38	30.465
362.74	30.886
363.10	30.850
363.46	30.393
363.82	30.128
364.18	29.446
364.54	28.897
364.90	30.108
365.26	29.476
365.62	31.606
365.98	29.472
366.35	30.954
366.71	30.451
367.07	29.681
367.43	30.266
367.79	30.459
368.15	30.223
368.51	29.497
368.87	29.433
369.23	28.592
369.59	29.738
369.95	30.865
370.31	29.986
370.67	30.149
371.03	29.873
371.39	29.613
371.75	29.744
372.11	29.529
372.47	29.586
372.83	29.454
373.19	29.957
373.55	29.675
373.91	29.518
374.27	30.050
374.63	30.223
374.99	29.787
375.35	29.735
375.71	29.650
376.07	29.424
376.42	30.476
376.78	29.396
377.14	30.467
377.50	29.615
377.86	29.585
378.22	29.994
378.58	29.167
378.94	28.607
379.30	28.946
379.66	28.966
380.02	28.694
380.38	27.754
380.74	29.623
381.09	29.693
381.45	29.908
381.81	29.858
382.17	29.188
382.53	29.107
382.89	29.127
383.25	29.309
383.61	30.061
383.97	28.381
384.32	27.955
384.68	29.412
385.04	28.064
385.40	29.185
385.76	29.560
386.12	29.690
386.48	29.502
386.83	28.472
387.19	28.816
387.55	28.984
387.91	28.301
388.27	28.632
388.62	28.760
388.98	28.545
389.34	28.545
389.70	30.267
390.06	28.131
390.42	28.044
390.77	28.450
391.13	27.617
391.49	27.749
391.85	28.590
392.20	28.186
392.56	28.290
392.92	29.066
393.28	28.656
393.64	28.108
393.99	29.592
394.35	28.590
394.71	28.608
395.07	27.341
395.42	27.201
395.78	28.795
396.14	27.364
396.50	28.599
396.85	28.139
397.21	27.256
397.57	28.715
397.92	27.621
398.28	27.989
398.64	27.169
399.00	27.427
399.35	27.257
399.71	28.087
400.07	26.965
400.42	27.356
400.78	27.863
401.14	27.647
401.49	28.052
401.85	27.422
402.21	26.988
402.57	27.437
402.92	27.604
403.28	27.820
403.63	27.301
403.99	26.339
404.35	28.045
404.70	26.786
405.06	26.910
405.42	26.414
405.77	26.031
406.13	26.251
406.49	27.353
406.84	27.384
407.20	26.911
407.55	25.757
407.91	26.671
408.27	25.621
408.62	27.323
408.98	26.741
409.34	27.447
409.69	26.227
410.05	26.232
410.40	26.852
410.76	26.236
411.11	25.750
411.47	26.496
411.83	26.177
412.18	26.577
412.54	26.779
412.89	26.232
413.25	25.933
413.60	25.839
413.96	25.521
414.31	26.585
414.67	26.171
415.03	25.566
415.38	25.261
415.74	26.319
416.09	26.192
416.45	25.321
416.80	26.636
417.16	26.588
417.51	25.117
417.87	26.141
418.22	25.712
418.58	26.020
418.93	26.834
419.29	24.136
419.64	25.081
420.00	26.071
420.35	25.612
420.71	25.577
421.06	24.800
421.42	25.300
421.77	25.723
422.12	25.539
422.48	25.122
422.83	25.290
423.19	26.242
423.54	25.397
423.90	24.912
424.25	25.660
424.61	26.622
424.96	24.855
425.31	26.921
425.67	26.291
426.02	26.384
426.38	26.863
426.73	26.271
427.09	26.266
427.44	25.647
427.79	26.282
428.15	25.425
428.50	25.984
428.85	25.123
429.21	26.712
429.56	26.092
429.92	25.064
430.27	25.313
430.62	24.569
430.98	25.584
431.33	25.499
431.68	25.641
432.04	25.545
432.39	24.986
432.74	24.654
433.10	26.552
433.45	25.926
433.80	26.465
434.16	24.211
434.51	25.376
434.86	25.900
435.22	25.687
435.57	26.388
435.92	25.868
436.28	25.045
436.63	25.328
436.98	24.508
437.34	24.743
437.69	25.880
438.04	24.615
438.39	24.618
438.75	25.562
439.10	25.241
439.45	26.111
439.81	24.832
440.16	25.475
440.51	26.567
440.86	26.586
441.22	25.735
441.57	25.607
441.92	26.285
442.27	26.330
442.63	25.321
442.98	25.388
443.33	24.930
443.68	25.358
444.03	26.180
444.39	25.726
444.74	26.589
445.09	26.225
445.44	25.755
445.79	26.921
446.15	25.275
446.50	25.846
446.85	26.249
447.20	25.912
447.55	25.781
447.91	26.340
448.26	26.522
448.61	26.828
448.96	25.645
449.31	26.763
449.66	25.610
450.02	26.640
450.37	26.141
450.72	26.289
451.07	26.519
451.42	26.654
451.77	25.618
452.12	25.778
452.47	25.563
452.83	25.442
453.18	25.933
453.53	25.601
453.88	24.954
454.23	25.569
454.58	26.385
454.93	26.418
455.28	24.889
455.63	25.480
455.98	26.037
456.34	25.926
456.69	25.540
457.04	26.528
457.39	24.423
457.74	24.849
458.09	24.544
458.44	25.863
458.79	24.650
459.14	24.714
459.49	25.552
459.84	25.494
460.19	25.182
460.54	24.817
460.89	25.511
461.24	24.658
461.59	26.069
461.94	25.031
462.29	26.900
462.64	25.581
462.99	24.983
463.34	24.270
463.69	24.453
464.04	25.242
464.39	25.045
464.74	24.233
465.09	25.078
465.44	24.639
465.79	24.660
466.14	25.428
466.49	24.324
466.84	24.628
467.19	24.844
467.54	25.543
467.89	23.752
468.24	25.426
468.59	24.635
468.94	24.381
469.29	25.377
469.64	25.290
469.99	25.999
470.34	24.027
470.68	25.056
471.03	25.124
471.38	24.180
471.73	24.300
472.08	23.813
472.43	24.295
472.78	24.743
473.13	24.286
473.48	24.430
473.83	24.159
474.17	25.194
474.52	24.250
474.87	24.121
475.22	23.856
475.57	23.998
475.92	24.410
476.27	23.516
476.61	23.785
476.96	23.480
477.31	23.580
477.66	23.146
478.01	23.414
478.36	23.693
478.70	24.470
479.05	24.231
479.40	23.370
479.75	23.879
480.10	23.554
480.45	23.400
480.79	23.867
481.14	23.770
481.49	22.906
481.84	23.552
482.19	23.527
482.53	23.741
482.88	22.625
483.23	22.889
483.58	23.585
483.92	22.798
484.27	23.200
484.62	22.680
484.97	22.595
485.31	22.435
485.66	21.574
486.01	21.960
486.36	21.532
486.70	22.018
487.05	22.180
487.40	22.208
487.75	21.831
488.09	22.095
488.44	22.730
488.79	22.600
489.13	23.077
489.48	22.830
489.83	22.780
490.17	22.652
490.52	22.356
490.87	22.536
491.22	22.732
491.56	22.533
491.91	22.562
492.26	22.849
492.60	22.025
492.95	22.922
493.30	22.716
493.64	22.397
493.99	23.333
494.34	22.136
494.68	22.714
495.03	22.044
495.37	21.835
495.72	22.514
496.07	22.195
496.41	22.217
496.76	21.511
497.11	21.472
497.45	23.055
497.80	22.452
498.14	22.355
498.49	22.143
498.84	22.255
499.18	22.590
499.53	22.817
499.87	21.060
500.22	21.563
500.56	22.088
500.91	21.586
501.26	21.157
501.60	21.151
501.95	22.174
502.29	21.550
502.64	21.573
502.98	21.559
503.33	20.701
503.67	21.446
504.02	21.310
504.36	21.623
504.71	20.808
505.06	21.238
505.40	21.777
505.75	22.010
506.09	21.085
506.44	21.509
506.78	21.684
507.13	21.510
507.47	20.783
507.82	21.154
508.16	21.500
508.51	21.196
508.85	21.612
509.19	21.181
509.54	21.501
509.88	20.820
510.23	20.925
510.57	21.165
510.92	20.149
511.26	20.731
511.61	21.177
511.95	20.384
512.30	20.953
512.64	21.647
512.98	21.673
513.33	21.041
513.67	19.727
514.02	21.739
514.36	21.600
514.70	21.387
515.05	21.210
515.39	21.133
515.74	21.796
516.08	20.741
516.42	21.378
516.77	21.943
517.11	20.950
517.46	22.023
517.80	20.799
518.14	20.269
518.49	20.793
518.83	21.446
519.17	20.800
519.52	21.196
519.86	20.288
520.20	19.988
520.55	19.887
520.89	21.706
521.23	20.709
521.58	21.325
521.92	20.962
522.26	21.080
522.61	20.714
522.95	21.589
523.29	20.902
523.64	21.220
523.98	21.711
524.32	20.039
524.66	21.639
525.01	21.299
525.35	21.646
525.69	20.000
526.04	20.767
526.38	21.660
526.72	19.686
527.06	20.169
527.41	20.712
527.75	19.973
528.09	19.601
528.43	20.729
528.78	20.264
529.12	20.516
529.46	19.753
529.80	20.646
530.15	20.924
530.49	19.663
530.83	20.178
531.17	20.215
531.51	20.657
531.86	19.035
532.20	19.833
532.54	20.150
532.88	19.986
533.22	19.960
533.57	20.052
533.91	19.843
534.25	20.443
534.59	19.436
534.93	18.754
535.27	19.289
535.62	19.183
535.96	19.765
536.30	20.580
536.64	20.813
536.98	19.303
537.32	20.270
537.66	19.495
538.01	20.070
538.35	19.487
538.69	19.441
539.03	19.139
539.37	20.323
539.71	19.564
540.05	19.620
540.39	19.668
540.73	20.572
541.07	19.820
541.42	19.355
541.76	19.133
542.10	19.339
542.44	19.736
542.78	18.169
543.12	18.750
543.46	19.750
543.80	19.084
544.14	18.825
544.48	18.854
544.82	19.207
545.16	19.262
545.50	19.292
545.84	20.042
546.18	19.787
546.52	20.115
546.86	19.770
547.20	20.815
547.54	19.011
547.88	18.410
548.22	18.540
548.56	18.338
548.90	18.935
549.24	17.218
549.58	17.278
549.92	18.585
550.26	17.436
550.60	18.587
550.94	18.372
551.28	18.006
551.62	19.077
551.96	17.970
552.30	17.909
552.64	17.207
552.98	18.073
553.32	17.618
553.66	17.779
554.00	20.146
554.34	18.685
554.68	17.994
555.02	18.006
555.36	18.325
555.69	17.436
556.03	18.201
556.37	17.438
556.71	19.495
557.05	17.823
557.39	18.141
557.73	17.916
558.07	19.005
558.41	17.994
558.75	18.706
559.08	18.282
559.42	18.175
559.76	18.014
560.10	17.737
560.44	17.275
560.78	17.622
561.12	17.630
561.45	18.833
561.79	17.717
562.13	18.666
562.47	17.626
562.81	17.795
563.15	19.041
563.48	16.761
563.82	17.845
564.16	17.618
564.50	17.568
564.84	18.273
565.17	16.968
565.51	18.033
565.85	18.038
566.19	17.507
566.52	17.493
566.86	18.380
567.20	17.684
567.54	16.971
567.88	17.750
568.21	17.195
568.55	16.739
568.89	17.351
569.23	15.985
569.56	16.112
569.90	16.119
570.24	16.487
570.57	16.109
570.91	16.452
571.25	15.587
571.59	15.198
571.92	15.644
572.26	15.700
572.60	15.535
572.93	15.814
573.27	15.235
573.61	15.543
573.95	15.511
574.28	15.307
574.62	14.874
574.96	15.358
575.29	14.917
575.63	14.589
575.97	14.991
576.30	14.675
576.64	14.887
576.98	15.212
577.31	15.385
577.65	15.046
577.98	14.899
578.32	14.786
578.66	14.507
578.99	14.998
579.33	15.039
579.67	14.913
580.00	15.215
580.34	15.299
580.67	14.590
581.01	15.250
581.35	14.793
581.68	14.741
582.02	14.388
582.35	14.299
582.69	14.316
583.02	14.505
583.36	14.786
583.70	15.291
584.03	15.874
584.37	15.613
584.70	15.192
585.04	14.326
585.37	14.545
585.71	14.416
586.04	14.549
586.38	14.617
586.72	15.122
587.05	14.847
587.39	15.320
587.72	15.063
588.06	14.808
588.39	15.295
588.73	14.927
589.06	15.068
589.40	15.417
589.73	15.955
590.07	15.899
590.40	15.596
590.73	15.815
591.07	15.776
591.40	15.628
591.74	15.701
592.07	15.816
592.41	15.857
592.74	15.094
593.08	14.670
593.41	15.091
593.75	14.851
594.08	14.796
594.41	14.592
594.75	14.695
595.08	15.361
595.42	14.796
595.75	15.471
596.09	15.012
596.42	15.089
596.75	15.098
597.09	15.353
597.42	15.312
597.75	15.163
598.09	14.713
598.42	14.395
598.76	14.500
599.09	15.224
599.42	14.324
599.76	14.748
600.09	14.404
600.42	14.026
600.76	14.376
601.09	14.198
601.42	14.414
601.76	13.934
602.09	14.645
602.42	15.375
602.76	14.601
603.09	15.199
603.42	15.217
603.76	14.234
604.09	14.297
604.42	14.340
604.76	15.309
605.09	15.128
605.42	15.079
605.75	14.799
606.09	14.310
606.42	14.721
606.75	14.675
607.09	14.945
607.42	14.001
607.75	13.943
608.08	14.196
608.42	14.664
608.75	15.566
609.08	14.898
609.41	15.076
609.75	14.869
610.08	14.778
610.41	14.106
610.74	15.066
611.07	16.072
611.41	15.880
611.74	15.299
612.07	14.936
612.40	15.153
612.73	14.915
613.07	14.398
613.40	15.263
613.73	14.941
614.06	15.359
614.39	14.890
614.72	14.958
615.06	14.972
615.39	14.520
615.72	14.909
616.05	14.916
616.38	14.758
616.71	15.168
617.05	15.009
617.38	15.211
617.71	15.283
618.04	15.048
618.37	16.583
618.70	14.851
619.03	16.389
619.36	14.906
619.69	15.390
620.03	16.508
620.36	15.308
620.69	16.203
621.02	16.284
621.35	16.100
621.68	16.071
622.01	15.500
622.34	16.600
622.67	15.773
623.00	16.386
623.33	15.549
623.66	15.183
623.99	15.734
624.32	15.817
624.65	14.511
624.99	15.124
625.32	14.556
625.65	16.811
625.98	15.552
626.31	15.046
626.64	16.464
626.97	16.143
627.30	16.988
627.63	17.764
627.96	15.903
628.29	15.726
628.62	16.618
628.95	16.333
629.28	16.532
629.61	14.257
629.94	17.498
630.26	16.601
630.59	16.857
630.92	16.718
631.25	15.795
631.58	16.960
631.91	14.803
632.24	16.055
632.57	17.500
632.90	15.896
633.23	16.824
633.56	16.499
633.89	16.769
634.22	17.037
634.55	16.010
634.88	15.326
635.20	16.410
635.53	16.400
635.86	17.425
636.19	17.982
636.52	16.837
636.85	15.385
