SpectraSuite Data File
++++++++++++++++++++++++++++++++++++
Date: Fri May 15 20:44:10 PDT 2015
User: schluterlab
Dark Spectrum Present: Yes
Reference Spectrum Present: Yes
Number of Sampled Component Spectra: 1
Spectrometers: USB2E3373
Integration Time (usec): 3000 (USB2E3373)
Spectra Averaged: 3 (USB2E3373)
Boxcar Smoothing: 0 (USB2E3373)
Correct for Electrical Dark: No (USB2E3373)
Strobe/Lamp Enabled: No (USB2E3373)
Correct for Detector Non-linearity: No (USB2E3373)
Correct for Stray Light: No (USB2E3373)
Number of Pixels in Processed Spectrum: 2048
>>>>>Begin Processed Spectral Data<<<<<
178.53	0.000
178.91	0.000
179.29	137.500
179.67	-350.000
180.04	71.429
180.42	200.000
180.80	-900.000
181.18	-33.333
181.56	350.000
181.94	-350.000
182.31	300.000
182.69	20.000
183.07	-66.667
183.45	-80.000
183.83	133.333
184.20	-45.455
184.58	177.778
184.96	-150.000
185.34	100.000
185.72	-100.000
186.09	76.923
186.47	-500.000
186.85	166.667
187.23	44.444
187.61	-200.000
187.98	-66.667
188.36	-11.111
188.74	-433.333
189.12	5.882
189.49	5.556
189.87	0.000
190.25	7.143
190.63	100.000
191.00	33.333
191.38	-26.316
191.76	-150.000
192.14	25.000
192.51	50.000
192.89	-11.111
193.27	-57.143
193.65	200.000
194.02	136.364
194.40	10.000
194.78	-25.000
195.15	0.000
195.53	0.000
195.91	450.000
196.29	-150.000
196.66	53.846
197.04	185.714
197.42	-55.556
197.79	-300.000
198.17	-153.846
198.55	1300.000
198.92	-233.333
199.30	-300.000
199.68	-100.000
200.05	-266.667
200.43	0.000
200.81	-200.000
201.18	-166.667
201.56	1000.000
201.94	-300.000
202.31	-100.000
202.69	-260.000
203.07	75.000
203.44	500.000
203.82	0.000
204.19	50.000
204.57	-400.000
204.95	212.500
205.32	-40.000
205.70	85.714
206.08	-200.000
206.45	133.333
206.83	42.857
207.20	-142.857
207.58	1700.000
207.96	-100.000
208.33	-80.000
208.71	-125.000
209.08	-116.667
209.46	-400.000
209.84	40.000
210.21	-1100.000
210.59	-28.571
210.96	-83.333
211.34	-250.000
211.71	13.333
212.09	-71.429
212.46	-1400.000
212.84	0.000
213.22	10.000
213.59	350.000
213.97	46.154
214.34	-72.727
214.72	-66.667
215.09	250.000
215.47	-46.154
215.84	18.182
216.22	0.000
216.59	12.500
216.97	50.000
217.34	-75.000
217.72	-100.000
218.09	-12.500
218.47	50.000
218.84	600.000
219.22	-100.000
219.59	-220.000
219.97	200.000
220.34	225.000
220.72	0.000
221.09	-175.000
221.47	150.000
221.84	-300.000
222.22	-450.000
222.59	0.000
222.97	33.333
223.34	-100.000
223.72	-57.143
224.09	0.000
224.46	32.143
224.84	200.000
225.21	10.000
225.59	6.667
225.96	-450.000
226.34	375.000
226.71	-14.286
227.08	16.667
227.46	0.000
227.83	50.000
228.21	-11.111
228.58	-63.636
228.95	37.500
229.33	120.000
229.70	-12.500
230.08	-87.500
230.45	-100.000
230.82	-100.000
231.20	-46.667
231.57	57.143
231.95	14.286
232.32	-80.000
232.69	50.000
233.07	266.667
233.44	80.000
233.81	-50.000
234.19	44.444
234.56	-11.765
234.93	100.000
235.31	300.000
235.68	-460.000
236.05	30.769
236.43	-35.000
236.80	-11.765
237.17	18.750
237.55	-10.000
237.92	-14.815
238.29	-2.778
238.67	-3.333
239.04	8.824
239.41	-14.634
239.79	-16.667
240.16	14.634
240.53	-10.526
240.91	8.696
241.28	6.349
241.65	19.643
242.02	19.178
242.40	13.333
242.77	18.644
243.14	-3.030
243.51	7.500
243.89	21.839
244.26	18.391
244.63	22.619
245.00	25.773
245.38	11.340
245.75	6.742
246.12	9.483
246.49	14.876
246.87	15.385
247.24	7.563
247.61	6.140
247.98	16.260
248.36	17.500
248.73	16.447
249.10	16.234
249.47	19.620
249.84	15.033
250.22	11.765
250.59	20.915
250.96	19.718
251.33	13.372
251.70	17.647
252.08	18.274
252.45	15.347
252.82	16.080
253.19	19.816
253.56	15.888
253.94	10.360
254.31	20.435
254.68	21.930
255.05	20.866
255.42	22.707
255.79	18.919
256.16	18.288
256.54	21.269
256.91	15.970
257.28	17.472
257.65	13.483
258.02	15.248
258.39	21.549
258.76	23.810
259.14	19.601
259.51	19.417
259.88	17.526
260.25	17.320
260.62	21.528
260.99	15.593
261.36	16.438
261.73	19.937
262.10	20.973
262.47	16.564
262.85	18.182
263.22	15.385
263.59	17.757
263.96	21.118
264.33	18.182
264.70	19.643
265.07	18.750
265.44	21.246
265.81	20.056
266.18	18.579
266.55	21.337
266.92	20.466
267.29	21.149
267.66	18.159
268.03	21.466
268.40	19.843
268.77	20.588
269.14	21.103
269.51	20.051
269.88	21.696
270.25	17.602
270.62	16.098
270.99	16.368
271.36	15.892
271.73	16.197
272.10	18.735
272.47	21.986
272.84	16.584
273.21	18.329
273.58	18.072
273.95	21.510
274.32	17.090
274.69	16.968
275.06	17.187
275.43	17.234
275.80	18.985
276.17	19.310
276.54	19.058
276.91	18.860
277.28	18.996
277.65	18.388
278.02	18.085
278.39	19.475
278.76	17.191
279.13	13.485
279.50	20.378
279.87	18.359
280.23	19.355
280.60	18.908
280.97	18.586
281.34	19.423
281.71	19.713
282.08	16.769
282.45	17.613
282.82	17.181
283.19	20.116
283.56	16.570
283.92	15.560
284.29	16.731
284.66	16.667
285.03	16.306
285.40	16.446
285.77	15.993
286.14	19.134
286.51	17.712
286.87	18.464
287.24	17.311
287.61	17.460
287.98	19.649
288.35	15.945
288.72	19.790
289.08	17.188
289.45	17.750
289.82	15.909
290.19	17.747
290.56	16.810
290.93	17.340
291.29	16.025
291.66	17.953
292.03	16.268
292.40	15.645
292.77	14.992
293.13	13.636
293.50	15.326
293.87	15.115
294.24	16.074
294.60	14.903
294.97	16.667
295.34	14.264
295.71	14.605
296.08	14.350
296.44	13.087
296.81	13.889
297.18	14.783
297.55	14.228
297.91	14.795
298.28	14.248
298.65	13.297
299.02	15.633
299.38	9.439
299.75	14.069
300.12	13.089
300.48	13.307
300.85	14.956
301.22	13.766
301.59	13.947
301.95	13.797
302.32	16.991
302.69	12.687
303.05	12.748
303.42	14.446
303.79	13.551
304.15	12.545
304.52	13.317
304.89	12.281
305.25	13.196
305.62	12.019
305.99	12.398
306.35	11.792
306.72	12.486
307.09	11.631
307.45	13.203
307.82	13.657
308.19	13.705
308.55	13.195
308.92	14.706
309.29	13.073
309.65	12.702
310.02	13.751
310.38	14.160
310.75	13.005
311.12	12.917
311.48	13.892
311.85	13.717
312.22	13.080
312.58	13.694
312.95	13.020
313.31	14.286
313.68	13.927
314.05	13.673
314.41	14.742
314.78	14.227
315.14	14.800
315.51	14.182
315.87	15.266
316.24	16.785
316.61	17.618
316.97	16.667
317.34	16.211
317.70	16.635
318.07	16.058
318.43	17.647
318.80	17.235
319.16	18.457
319.53	18.044
319.89	17.913
320.26	18.117
320.62	20.461
320.99	18.372
321.35	21.583
321.72	21.495
322.08	22.961
322.45	23.452
322.81	23.183
323.18	23.062
323.54	23.745
323.91	24.635
324.27	26.172
324.64	26.592
325.00	26.916
325.37	27.640
325.73	27.561
326.10	28.610
326.46	30.224
326.83	30.534
327.19	31.473
327.56	32.407
327.92	33.451
328.29	32.679
328.65	34.340
329.01	34.559
329.38	35.392
329.74	34.183
330.11	34.940
330.47	35.529
330.84	36.731
331.20	38.308
331.56	37.593
331.93	38.447
332.29	38.405
332.66	38.009
333.02	38.755
333.38	38.130
333.75	40.385
334.11	38.496
334.48	40.888
334.84	39.469
335.20	40.897
335.57	40.798
335.93	40.741
336.29	41.068
336.66	40.872
337.02	40.056
337.38	40.093
337.75	41.091
338.11	42.200
338.47	41.515
338.84	43.346
339.20	41.956
339.56	43.578
339.93	43.330
340.29	43.853
340.65	43.280
341.02	42.199
341.38	43.097
341.74	41.343
342.11	42.808
342.47	45.196
342.83	44.377
343.20	41.725
343.56	44.609
343.92	43.756
344.28	42.869
344.65	43.523
345.01	44.080
345.37	44.575
345.73	42.762
346.10	44.694
346.46	43.818
346.82	44.108
347.19	42.477
347.55	44.612
347.91	43.447
348.27	42.684
348.63	45.230
349.00	43.970
349.36	44.638
349.72	44.693
350.08	44.590
350.45	44.773
350.81	43.937
351.17	44.055
351.53	45.633
351.89	44.096
352.26	44.320
352.62	45.726
352.98	43.373
353.34	45.169
353.70	46.521
354.07	44.355
354.43	44.756
354.79	45.912
355.15	45.397
355.51	46.756
355.87	46.440
356.24	45.024
356.60	46.241
356.96	47.222
357.32	46.086
357.68	46.364
358.04	45.638
358.40	45.659
358.77	47.448
359.13	47.158
359.49	44.992
359.85	45.632
360.21	46.013
360.57	45.601
360.93	46.899
361.29	45.468
361.66	48.276
362.02	47.273
362.38	46.154
362.74	47.161
363.10	48.081
363.46	46.850
363.82	47.333
364.18	47.601
364.54	48.015
364.90	48.387
365.26	48.180
365.62	49.489
365.98	48.827
366.35	48.725
366.71	49.076
367.07	49.419
367.43	49.317
367.79	48.198
368.15	47.954
368.51	49.964
368.87	49.318
369.23	48.014
369.59	50.146
369.95	50.000
370.31	49.639
370.67	49.925
371.03	50.336
371.39	50.255
371.75	49.597
372.11	48.074
372.47	49.852
372.83	49.965
373.19	48.716
373.55	49.458
373.91	50.108
374.27	50.248
374.63	50.251
374.99	50.426
375.35	50.696
375.71	50.769
376.07	50.421
376.42	50.408
376.78	52.148
377.14	50.846
377.50	51.195
377.86	51.874
378.22	52.265
378.58	52.756
378.94	50.410
379.30	51.341
379.66	51.285
380.02	51.870
380.38	51.856
380.74	50.329
381.09	52.822
381.45	52.661
381.81	52.684
382.17	52.475
382.53	52.155
382.89	53.296
383.25	53.018
383.61	52.622
383.97	52.000
384.32	52.408
384.68	52.941
385.04	53.002
385.40	52.769
385.76	54.214
386.12	53.881
386.48	54.662
386.83	54.724
387.19	53.053
387.55	55.082
387.91	53.545
388.27	53.175
388.62	55.003
388.98	54.144
389.34	53.529
389.70	54.444
390.06	53.241
390.42	54.404
390.77	54.545
391.13	52.144
391.49	54.657
391.85	55.166
392.20	53.798
392.56	54.863
392.92	54.492
393.28	53.538
393.64	54.414
393.99	55.361
394.35	55.851
394.71	54.917
395.07	54.494
395.42	53.552
395.78	55.179
396.14	55.044
396.50	55.675
396.85	55.119
397.21	54.950
397.57	55.423
397.92	54.044
398.28	56.149
398.64	53.434
399.00	55.023
399.35	55.418
399.71	54.107
400.07	56.288
400.42	53.917
400.78	54.562
401.14	55.717
401.49	55.509
401.85	54.357
402.21	55.000
402.57	55.437
402.92	54.517
403.28	55.514
403.63	55.801
403.99	55.293
404.35	55.590
404.70	54.226
405.06	54.465
405.42	54.568
405.77	54.794
406.13	55.471
406.49	55.181
406.84	55.562
407.20	55.268
407.55	55.055
407.91	54.479
408.27	55.577
408.62	54.585
408.98	55.453
409.34	55.576
409.69	54.457
410.05	55.234
410.40	55.494
410.76	55.911
411.11	55.312
411.47	55.490
411.83	55.053
412.18	54.891
412.54	53.995
412.89	53.695
413.25	56.438
413.60	54.907
413.96	53.804
414.31	55.244
414.67	53.496
415.03	55.260
415.38	54.439
415.74	54.202
416.09	55.519
416.45	53.612
416.80	54.395
417.16	57.182
417.51	55.896
417.87	54.563
418.22	55.894
418.58	54.849
418.93	56.614
419.29	53.585
419.64	54.893
420.00	56.171
420.35	54.687
420.71	54.557
421.06	54.880
421.42	55.769
421.77	55.202
422.12	54.200
422.48	55.116
422.83	55.394
423.19	55.643
423.54	54.968
423.90	55.713
424.25	55.454
424.61	56.671
424.96	54.355
425.31	55.979
425.67	55.692
426.02	56.773
426.38	54.853
426.73	56.416
427.09	55.253
427.44	55.059
427.79	55.804
428.15	55.825
428.50	54.573
428.85	54.607
429.21	55.518
429.56	55.795
429.92	53.878
430.27	53.935
430.62	54.156
430.98	55.202
431.33	56.414
431.68	54.945
432.04	55.282
432.39	55.676
432.74	54.299
433.10	56.494
433.45	55.496
433.80	55.717
434.16	55.069
434.51	56.398
434.86	56.039
435.22	55.412
435.57	55.583
435.92	56.287
436.28	54.800
436.63	55.048
436.98	53.013
437.34	56.322
437.69	55.516
438.04	54.986
438.39	55.712
438.75	57.923
439.10	56.027
439.45	56.908
439.81	55.229
440.16	57.067
440.51	56.358
440.86	57.644
441.22	55.260
441.57	54.801
441.92	56.821
442.27	56.652
442.63	56.049
442.98	56.462
443.33	55.593
443.68	55.756
444.03	57.278
444.39	55.239
444.74	57.302
445.09	57.238
445.44	56.182
445.79	57.040
446.15	55.947
446.50	54.298
446.85	57.439
447.20	55.839
447.55	56.083
447.91	56.232
448.26	56.858
448.61	55.901
448.96	55.709
449.31	56.705
449.66	55.691
450.02	56.303
450.37	57.084
450.72	57.388
451.07	57.722
451.42	55.119
451.77	56.540
452.12	56.459
452.47	56.085
452.83	56.655
453.18	55.471
453.53	57.775
453.88	57.438
454.23	55.931
454.58	57.242
454.93	58.054
455.28	55.492
455.63	56.231
455.98	55.622
456.34	56.769
456.69	57.560
457.04	56.207
457.39	57.290
457.74	56.348
458.09	55.680
458.44	56.290
458.79	56.134
459.14	57.037
459.49	56.955
459.84	56.120
460.19	55.825
460.54	56.907
460.89	54.943
461.24	56.832
461.59	55.463
461.94	55.535
462.29	56.152
462.64	57.475
462.99	56.601
463.34	54.659
463.69	56.306
464.04	56.840
464.39	55.003
464.74	55.890
465.09	56.644
465.44	54.991
465.79	55.045
466.14	55.872
466.49	55.779
466.84	56.336
467.19	55.006
467.54	55.364
467.89	56.349
468.24	55.900
468.59	56.317
468.94	55.111
469.29	57.049
469.64	55.571
469.99	57.533
470.34	55.973
470.68	58.837
471.03	56.263
471.38	55.920
471.73	57.633
472.08	56.852
472.43	56.980
472.78	56.546
473.13	56.259
473.48	56.482
473.83	55.978
474.17	55.181
474.52	55.392
474.87	55.818
475.22	55.278
475.57	56.014
475.92	55.184
476.27	55.821
476.61	55.671
476.96	54.880
477.31	55.111
477.66	55.169
478.01	57.103
478.36	54.357
478.70	55.954
479.05	55.879
479.40	55.750
479.75	55.005
480.10	54.173
480.45	55.500
480.79	55.186
481.14	55.123
481.49	53.498
481.84	55.164
482.19	54.724
482.53	55.540
482.88	54.654
483.23	54.367
483.58	53.868
483.92	53.485
484.27	54.284
484.62	54.146
484.97	53.607
485.31	51.156
485.66	49.624
486.01	49.283
486.36	49.641
486.70	49.766
487.05	51.240
487.40	51.215
487.75	52.507
488.09	51.854
488.44	52.510
488.79	52.596
489.13	54.006
489.48	53.399
489.83	52.870
490.17	53.393
490.52	52.933
490.87	53.818
491.22	55.205
491.56	54.317
491.91	53.250
492.26	54.594
492.60	53.695
492.95	55.189
493.30	52.711
493.64	54.666
493.99	54.155
494.34	53.689
494.68	53.381
495.03	53.431
495.37	54.171
495.72	54.972
496.07	54.244
496.41	52.877
496.76	52.879
497.11	51.793
497.45	52.554
497.80	54.036
498.14	53.005
498.49	53.276
498.84	53.593
499.18	54.066
499.53	53.323
499.87	53.356
500.22	53.314
500.56	53.001
500.91	52.108
501.26	51.656
501.60	52.927
501.95	52.353
502.29	52.930
502.64	53.330
502.98	52.886
503.33	51.153
503.67	51.470
504.02	52.053
504.36	52.103
504.71	51.162
505.06	52.038
505.40	52.132
505.75	52.423
506.09	51.597
506.44	53.593
506.78	52.653
507.13	50.569
507.47	51.749
507.82	51.389
508.16	51.770
508.51	52.361
508.85	51.858
509.19	51.623
509.54	52.172
509.88	51.294
510.23	52.932
510.57	52.806
510.92	49.574
511.26	51.991
511.61	51.760
511.95	52.219
512.30	52.605
512.64	51.586
512.98	51.993
513.33	51.091
513.67	52.132
514.02	52.059
514.36	53.200
514.70	52.389
515.05	53.878
515.39	52.361
515.74	52.994
516.08	51.524
516.42	54.417
516.77	52.253
517.11	53.175
517.46	52.663
517.80	52.324
518.14	51.745
518.49	51.022
518.83	51.337
519.17	51.607
519.52	51.273
519.86	50.720
520.20	51.944
520.55	51.282
520.89	52.760
521.23	50.475
521.58	52.681
521.92	52.308
522.26	51.139
522.61	52.403
522.95	52.781
523.29	52.351
523.64	50.953
523.98	51.912
524.32	50.902
524.66	51.985
525.01	51.623
525.35	50.616
525.69	53.401
526.04	50.529
526.38	52.140
526.72	48.725
527.06	51.816
527.41	51.319
527.75	50.938
528.09	50.498
528.43	51.114
528.78	50.099
529.12	49.613
529.46	49.838
529.80	49.272
530.15	51.485
530.49	51.044
530.83	51.984
531.17	50.034
531.51	50.479
531.86	49.558
532.20	50.104
532.54	49.353
532.88	50.171
533.22	49.798
533.57	48.624
533.91	48.564
534.25	50.326
534.59	48.364
534.93	48.081
535.27	46.701
535.62	48.607
535.96	48.076
536.30	48.021
536.64	49.070
536.98	48.362
537.32	50.284
537.66	49.088
538.01	48.951
538.35	47.434
538.69	46.804
539.03	47.847
539.37	47.779
539.71	47.239
540.05	47.115
540.39	47.992
540.73	47.978
541.07	48.619
541.42	46.976
541.76	47.419
542.10	47.626
542.44	47.741
542.78	45.630
543.12	48.214
543.46	47.218
543.80	47.398
544.14	45.527
544.48	46.302
544.82	46.275
545.16	46.926
545.50	47.063
545.84	46.601
546.18	47.447
546.52	46.936
546.86	46.801
547.20	46.066
547.54	45.795
547.88	44.905
548.22	45.168
548.56	44.591
548.90	44.811
549.24	44.904
549.58	45.557
549.92	43.960
550.26	46.081
550.60	46.691
550.94	45.930
551.28	45.827
551.62	47.538
551.96	46.541
552.30	45.102
552.64	43.794
552.98	44.796
553.32	45.078
553.66	43.179
554.00	45.766
554.34	45.938
554.68	44.690
555.02	45.461
555.36	43.904
555.69	44.029
556.03	43.112
556.37	43.060
556.71	44.332
557.05	46.309
557.39	43.048
557.73	45.277
558.07	43.891
558.41	44.334
558.75	44.505
559.08	44.838
559.42	43.254
559.76	44.355
560.10	43.807
560.44	43.857
560.78	43.147
561.12	43.230
561.45	44.132
561.79	43.137
562.13	43.861
562.47	42.374
562.81	42.795
563.15	42.736
563.48	43.211
563.82	42.965
564.16	42.061
564.50	41.824
564.84	41.633
565.17	42.254
565.51	43.033
565.85	42.661
566.19	42.042
566.52	42.359
566.86	41.967
567.20	40.411
567.54	42.032
567.88	41.828
568.21	40.894
568.55	39.674
568.89	39.887
569.23	39.528
569.56	38.879
569.90	38.408
570.24	37.030
570.57	37.455
570.91	36.703
571.25	37.060
571.59	35.846
571.92	35.052
572.26	36.443
572.60	35.814
572.93	35.551
573.27	34.922
573.61	35.292
573.95	35.008
574.28	34.958
574.62	34.325
574.96	34.056
575.29	34.023
575.63	33.221
575.97	33.830
576.30	34.552
576.64	34.358
576.98	34.337
577.31	33.989
577.65	34.679
577.98	33.474
578.32	32.847
578.66	33.462
578.99	33.435
579.33	33.475
579.67	33.460
580.00	34.177
580.34	33.955
580.67	33.086
581.01	33.646
581.35	32.860
581.68	32.769
582.02	32.538
582.35	32.683
582.69	33.074
583.02	32.771
583.36	33.594
583.70	33.904
584.03	34.306
584.37	34.924
584.70	33.764
585.04	32.902
585.37	33.170
585.71	32.436
586.04	32.879
586.38	32.942
586.72	33.544
587.05	33.940
587.39	33.436
587.72	33.926
588.06	32.992
588.39	33.381
588.73	33.913
589.06	34.344
589.40	33.598
589.73	34.611
590.07	34.441
590.40	34.559
590.73	35.008
591.07	34.606
591.40	34.996
591.74	35.566
592.07	35.343
592.41	34.231
592.74	33.732
593.08	31.925
593.41	32.619
593.75	32.254
594.08	32.612
594.41	33.042
594.75	32.939
595.08	33.258
595.42	33.309
595.75	33.571
596.09	33.698
596.42	34.312
596.75	34.103
597.09	33.804
597.42	33.333
597.75	34.219
598.09	32.503
598.42	33.755
598.76	32.561
599.09	32.492
599.42	31.830
599.76	31.828
600.09	31.448
600.42	32.108
600.76	31.947
601.09	31.794
601.42	31.414
601.76	31.957
602.09	32.880
602.42	33.656
602.76	31.834
603.09	32.350
603.42	33.737
603.76	32.016
604.09	32.240
604.42	33.164
604.76	32.621
605.09	32.907
605.42	32.460
605.75	32.487
606.09	32.314
606.42	32.152
606.75	32.251
607.09	31.253
607.42	31.280
607.75	31.350
608.08	30.952
608.42	31.613
608.75	32.241
609.08	32.735
609.41	32.487
609.75	32.812
610.08	32.551
610.41	32.850
610.74	32.326
611.07	33.075
611.41	33.524
611.74	32.783
612.07	32.227
612.40	32.713
612.73	33.220
613.07	32.058
613.40	32.057
613.73	32.792
614.06	32.832
614.39	32.544
614.72	32.157
615.06	32.402
615.39	31.659
615.72	31.808
616.05	32.682
616.38	32.194
616.71	32.783
617.05	33.786
617.38	33.187
617.71	33.270
618.04	33.524
618.37	34.048
618.70	33.927
619.03	35.069
619.36	33.502
619.69	34.268
620.03	34.259
620.36	33.047
620.69	33.191
621.02	33.028
621.35	34.025
621.68	36.650
622.01	34.083
622.34	33.919
622.67	35.252
623.00	33.614
623.33	33.537
623.66	33.134
623.99	34.115
624.32	33.156
624.65	32.331
624.99	34.989
625.32	32.600
625.65	34.957
625.98	34.166
626.31	33.749
626.64	34.835
626.97	35.428
627.30	34.501
627.63	34.922
627.96	34.861
628.29	34.598
628.62	35.202
628.95	36.874
629.28	35.685
629.61	34.397
629.94	34.604
630.26	35.375
630.59	37.357
630.92	35.487
631.25	34.769
631.58	36.123
631.91	35.088
632.24	36.239
632.57	35.227
632.90	38.078
633.23	37.412
633.56	37.909
