SpectraSuite Data File
++++++++++++++++++++++++++++++++++++
Date: Fri May 15 20:37:03 PDT 2015
User: schluterlab
Dark Spectrum Present: Yes
Reference Spectrum Present: Yes
Number of Sampled Component Spectra: 1
Spectrometers: USB2E3373
Integration Time (usec): 3000 (USB2E3373)
Spectra Averaged: 3 (USB2E3373)
Boxcar Smoothing: 0 (USB2E3373)
Correct for Electrical Dark: No (USB2E3373)
Strobe/Lamp Enabled: No (USB2E3373)
Correct for Detector Non-linearity: No (USB2E3373)
Correct for Stray Light: No (USB2E3373)
Number of Pixels in Processed Spectrum: 2048
>>>>>Begin Processed Spectral Data<<<<<
178.53	0.000
178.91	0.000
179.29	0.000
179.67	-650.000
180.04	100.000
180.42	-25.000
180.80	-500.000
181.18	33.333
181.56	300.000
181.94	-350.000
182.31	100.000
182.69	20.000
183.07	-333.333
183.45	-160.000
183.83	200.000
184.20	45.455
184.58	33.333
184.96	-0.000
185.34	100.000
185.72	-100.000
186.09	130.769
186.47	100.000
186.85	133.333
187.23	155.556
187.61	-500.000
187.98	100.000
188.36	22.222
188.74	266.667
189.12	11.765
189.49	50.000
189.87	0.000
190.25	-28.571
190.63	-600.000
191.00	-133.333
191.38	-21.053
191.76	150.000
192.14	-100.000
192.51	500.000
192.89	-77.778
193.27	-142.857
193.65	266.667
194.02	90.909
194.40	-100.000
194.78	-175.000
195.15	-33.333
195.53	-125.000
195.91	325.000
196.29	-100.000
196.66	53.846
197.04	71.429
197.42	-44.444
197.79	-333.333
198.17	-130.769
198.55	1200.000
198.92	-133.333
199.30	100.000
199.68	100.000
200.05	-400.000
200.43	0.000
200.81	0.000
201.18	-100.000
201.56	600.000
201.94	150.000
202.31	200.000
202.69	-120.000
203.07	250.000
203.44	300.000
203.82	0.000
204.19	-14.286
204.57	-166.667
204.95	137.500
205.32	-10.000
205.70	0.000
206.08	50.000
206.45	55.556
206.83	7.143
207.20	-142.857
207.58	300.000
207.96	-200.000
208.33	10.000
208.71	25.000
209.08	-200.000
209.46	-300.000
209.84	-260.000
210.21	-1400.000
210.59	14.286
210.96	66.667
211.34	-150.000
211.71	46.667
212.09	-100.000
212.46	-1500.000
212.84	0.000
213.22	20.000
213.59	100.000
213.97	69.231
214.34	45.455
214.72	83.333
215.09	200.000
215.47	23.077
215.84	-63.636
216.22	-133.333
216.59	37.500
216.97	400.000
217.34	-100.000
217.72	-80.000
218.09	37.500
218.47	237.500
218.84	-800.000
219.22	-77.778
219.59	-120.000
219.97	266.667
220.34	325.000
220.72	28.571
221.09	0.000
221.47	50.000
221.84	-850.000
222.22	-700.000
222.59	-109.091
222.97	58.333
223.34	-500.000
223.72	28.571
224.09	9.524
224.46	10.714
224.84	566.667
225.21	-70.000
225.59	33.333
225.96	-300.000
226.34	375.000
226.71	-185.714
227.08	-183.333
227.46	-50.000
227.83	-100.000
228.21	-44.444
228.58	-63.636
228.95	-175.000
229.33	110.000
229.70	-6.250
230.08	-87.500
230.45	-85.714
230.82	-28.571
231.20	-33.333
231.57	-7.143
231.95	-85.714
232.32	-120.000
232.69	-57.143
233.07	-333.333
233.44	20.000
233.81	-90.000
234.19	-44.444
234.56	64.706
234.93	250.000
235.31	-100.000
235.68	-260.000
236.05	-76.923
236.43	-90.000
236.80	5.882
237.17	15.625
237.55	-5.000
237.92	-14.815
238.29	-2.778
238.67	-13.333
239.04	-29.412
239.41	-36.585
239.79	-56.667
240.16	14.634
240.53	-2.632
240.91	-21.739
241.28	-4.762
241.65	5.357
242.02	13.699
242.40	5.000
242.77	-16.949
243.14	-4.545
243.51	-3.750
243.89	18.391
244.26	9.195
244.63	4.762
245.00	0.000
245.38	6.186
245.75	-13.483
246.12	12.931
246.49	9.091
246.87	-1.923
247.24	-3.361
247.61	-8.772
247.98	-5.691
248.36	1.250
248.73	0.658
249.10	-2.597
249.47	1.899
249.84	5.882
250.22	4.118
250.59	0.000
250.96	5.634
251.33	-2.907
251.70	1.765
252.08	-1.523
252.45	1.485
252.82	-1.005
253.19	6.452
253.56	-1.869
253.94	1.802
254.31	5.217
254.68	7.456
255.05	3.937
255.42	6.114
255.79	3.089
256.16	4.280
256.54	2.239
256.91	6.464
257.28	1.115
257.65	4.494
258.02	2.837
258.39	5.051
258.76	4.396
259.14	9.302
259.51	3.883
259.88	2.749
260.25	2.288
260.62	5.556
260.99	-2.373
261.36	-0.342
261.73	4.747
262.10	7.599
262.47	3.374
262.85	3.448
263.22	4.308
263.59	2.492
263.96	7.143
264.33	2.727
264.70	0.893
265.07	4.167
265.44	7.649
265.81	6.780
266.18	4.372
266.55	5.398
266.92	6.477
267.29	4.439
267.66	4.604
268.03	2.356
268.40	4.439
268.77	5.615
269.14	7.194
269.51	4.627
269.88	5.736
270.25	2.296
270.62	3.171
270.99	3.325
271.36	-0.244
271.73	5.164
272.10	3.406
272.47	5.437
272.84	0.990
273.21	6.497
273.58	2.410
273.95	4.119
274.32	3.695
274.69	2.262
275.06	4.911
275.43	4.762
275.80	3.311
276.17	2.299
276.54	4.711
276.91	3.728
277.28	1.747
277.65	5.165
278.02	3.404
278.39	6.127
278.76	3.564
279.13	3.527
279.50	4.832
279.87	4.320
280.23	5.376
280.60	5.653
280.97	5.657
281.34	5.192
281.71	4.312
282.08	5.112
282.45	5.284
282.82	0.579
283.19	3.675
283.56	5.780
283.92	3.605
284.29	4.231
284.66	2.132
285.03	5.501
285.40	3.781
285.77	3.163
286.14	4.332
286.51	4.613
286.87	4.570
287.24	3.131
287.61	2.998
287.98	7.018
288.35	4.679
288.72	3.678
289.08	4.167
289.45	4.218
289.82	5.245
290.19	3.242
290.56	2.401
290.93	2.694
291.29	2.465
291.66	5.827
292.03	3.828
292.40	3.065
292.77	2.871
293.13	0.812
293.50	2.731
293.87	3.817
294.24	4.637
294.60	2.086
294.97	5.655
295.34	2.301
295.71	2.981
296.08	3.288
296.44	1.707
296.81	3.333
297.18	1.739
297.55	4.201
297.91	4.932
298.28	4.881
298.65	5.020
299.02	2.156
299.38	1.505
299.75	3.172
300.12	1.571
300.48	3.689
300.85	3.676
301.22	2.727
301.59	1.842
301.95	3.418
302.32	4.021
302.69	2.861
303.05	2.104
303.42	3.611
303.79	4.322
304.15	3.943
304.52	1.902
304.89	1.404
305.25	3.632
305.62	2.567
305.99	3.041
306.35	3.468
306.72	3.825
307.09	2.395
307.45	4.822
307.82	3.356
308.19	3.600
308.55	3.381
308.92	4.466
309.29	1.788
309.65	1.399
310.02	2.860
310.38	4.720
310.75	3.279
311.12	4.090
311.48	2.333
311.85	4.398
312.22	3.586
312.58	3.185
312.95	3.202
313.31	2.795
313.68	2.618
314.05	3.163
314.41	3.608
314.78	4.227
315.14	5.139
315.51	3.830
315.87	3.689
316.24	4.348
316.61	4.823
316.97	3.869
317.34	5.078
317.70	5.736
318.07	4.712
318.43	5.490
318.80	5.019
319.16	5.859
319.53	7.028
319.89	5.807
320.26	6.984
320.62	6.319
320.99	5.846
321.35	6.886
321.72	8.204
322.08	8.056
322.45	8.426
322.81	9.627
323.18	7.458
323.54	8.880
323.91	9.348
324.27	9.766
324.64	11.610
325.00	11.770
325.37	13.131
325.73	11.967
326.10	12.171
326.46	13.722
326.83	14.348
327.19	14.647
327.56	15.986
327.92	15.581
328.29	16.607
328.65	16.132
329.01	18.382
329.38	17.880
329.74	17.658
330.11	19.092
330.47	18.924
330.84	17.885
331.20	21.103
331.56	19.444
331.93	21.826
332.29	21.723
332.66	20.271
333.02	21.561
333.38	20.715
333.75	22.802
334.11	20.949
334.48	22.937
334.84	22.344
335.20	23.239
335.57	20.671
335.93	23.126
336.29	23.204
336.66	23.706
337.02	23.606
337.38	22.222
337.75	23.909
338.11	23.895
338.47	23.266
338.84	23.198
339.20	24.314
339.56	24.037
339.93	24.709
340.29	25.138
340.65	24.552
341.02	24.291
341.38	23.982
341.74	24.028
342.11	24.090
342.47	24.288
342.83	25.952
343.20	24.477
343.56	25.304
343.92	23.649
344.28	26.217
344.65	25.475
345.01	24.719
345.37	24.643
345.73	24.435
346.10	25.108
346.46	24.895
346.82	24.223
347.19	24.356
347.55	24.728
347.91	26.456
348.27	25.222
348.63	24.191
349.00	25.349
349.36	24.356
349.72	26.036
350.08	24.590
350.45	24.102
350.81	25.332
351.17	24.267
351.53	25.061
351.89	23.947
352.26	24.480
352.62	24.919
352.98	24.177
353.34	24.557
353.70	25.566
354.07	23.710
354.43	23.859
354.79	24.112
355.15	24.524
355.51	26.661
355.87	25.324
356.24	23.817
356.60	24.252
356.96	25.317
357.32	24.840
357.68	24.316
358.04	24.394
358.40	24.357
358.77	24.721
359.13	25.220
359.49	24.884
359.85	24.961
360.21	25.279
360.57	24.943
360.93	25.946
361.29	25.453
361.66	25.549
362.02	25.076
362.38	25.514
362.74	25.435
363.10	24.530
363.46	24.537
363.82	25.094
364.18	25.018
364.54	24.265
364.90	23.943
365.26	26.055
365.62	25.912
365.98	25.367
366.35	25.492
366.71	25.499
367.07	25.544
367.43	25.090
367.79	25.583
368.15	24.695
368.51	25.637
368.87	24.049
369.23	24.404
369.59	25.292
369.95	25.367
370.31	25.506
370.67	25.448
371.03	25.467
371.39	25.675
371.75	24.689
372.11	25.535
372.47	25.444
372.83	25.621
373.19	25.678
373.55	24.838
373.91	25.342
374.27	26.081
374.63	25.341
374.99	24.326
375.35	25.836
375.71	25.874
376.07	25.632
376.42	25.782
376.78	24.966
377.14	25.931
377.50	25.697
377.86	26.171
378.22	25.526
378.58	25.385
378.94	25.331
379.30	25.203
379.66	25.455
380.02	24.954
380.38	25.502
380.74	25.673
381.09	25.337
381.45	24.954
381.81	25.170
382.17	23.794
382.53	25.609
382.89	25.549
383.25	24.580
383.61	25.854
383.97	24.444
384.32	25.078
384.68	25.882
385.04	24.877
385.40	24.642
385.76	26.352
386.12	25.550
386.48	26.437
386.83	24.413
387.19	24.847
387.55	25.659
387.91	25.550
388.27	25.397
388.62	25.551
388.98	25.169
389.34	25.547
389.70	26.476
390.06	24.355
390.42	25.065
390.77	26.095
391.13	25.095
391.49	25.679
391.85	25.666
392.20	25.298
392.56	24.984
392.92	24.956
393.28	25.354
393.64	24.444
393.99	26.270
394.35	25.364
394.71	25.096
395.07	25.896
395.42	24.226
395.78	24.886
396.14	25.347
396.50	25.048
396.85	24.984
397.21	24.248
397.57	24.702
397.92	25.285
398.28	25.172
398.64	23.434
399.00	25.282
399.35	24.266
399.71	24.756
400.07	25.272
400.42	24.725
400.78	24.556
401.14	25.469
401.49	25.313
401.85	24.619
402.21	23.916
402.57	24.312
402.92	25.157
403.28	25.627
403.63	23.707
403.99	24.107
404.35	24.172
404.70	23.512
405.06	23.737
405.42	23.493
405.77	23.126
406.13	24.447
406.49	24.748
406.84	24.878
407.20	24.744
407.55	24.340
407.91	24.332
408.27	23.709
408.62	23.754
408.98	23.290
409.34	24.287
409.69	23.773
410.05	23.461
410.40	24.136
410.76	23.462
411.11	24.437
411.47	23.932
411.83	24.043
412.18	24.067
412.54	23.283
412.89	22.845
413.25	24.248
413.60	23.851
413.96	23.558
414.31	23.171
414.67	23.412
415.03	23.502
415.38	23.825
415.74	23.648
416.09	23.775
416.45	23.903
416.80	24.124
417.16	23.273
417.51	23.384
417.87	24.446
418.22	22.668
418.58	24.147
418.93	24.075
419.29	22.279
419.64	23.461
420.00	24.118
420.35	23.881
420.71	24.058
421.06	23.266
421.42	23.678
421.77	23.064
422.12	23.212
422.48	23.173
422.83	23.376
423.19	23.476
423.54	22.105
423.90	23.027
424.25	23.938
424.61	23.745
424.96	23.345
425.31	24.610
425.67	24.413
426.02	23.498
426.38	22.981
426.73	23.184
427.09	23.165
427.44	23.118
427.79	23.394
428.15	23.240
428.50	23.077
428.85	22.174
429.21	23.260
429.56	23.774
429.92	23.061
430.27	23.258
430.62	22.478
430.98	22.930
431.33	23.449
431.68	23.129
432.04	23.141
432.39	22.590
432.74	22.369
433.10	22.874
433.45	23.297
433.80	23.622
434.16	22.382
434.51	22.796
434.86	23.055
435.22	22.939
435.57	23.082
435.92	23.054
436.28	23.196
436.63	23.103
436.98	22.480
437.34	21.839
437.69	23.673
438.04	22.051
438.39	22.236
438.75	22.708
439.10	22.354
439.45	23.737
439.81	22.630
440.16	23.515
440.51	23.463
440.86	23.746
441.22	22.229
441.57	22.461
441.92	23.033
442.27	23.614
442.63	23.394
442.98	22.918
443.33	22.593
443.68	22.175
444.03	22.752
444.39	22.577
444.74	22.965
445.09	22.494
445.44	22.963
445.79	23.363
446.15	22.963
446.50	21.963
446.85	23.007
447.20	22.419
447.55	23.382
447.91	22.843
448.26	22.823
448.61	23.143
448.96	22.662
449.31	22.370
449.66	22.706
450.02	23.046
450.37	22.584
450.72	22.222
451.07	23.291
451.42	22.347
451.77	23.207
452.12	23.086
452.47	23.503
452.83	22.674
453.18	23.150
453.53	21.997
453.88	22.101
454.23	23.110
454.58	23.426
454.93	23.067
455.28	21.714
455.63	22.257
455.98	23.271
456.34	22.861
456.69	22.872
457.04	23.566
457.39	22.418
457.74	21.644
458.09	21.895
458.44	22.118
458.79	22.465
459.14	23.055
459.49	23.403
459.84	22.899
460.19	21.723
460.54	23.044
460.89	23.409
461.24	22.795
461.59	22.743
461.94	22.264
462.29	22.859
462.64	23.123
462.99	22.478
463.34	22.462
463.69	22.008
464.04	22.579
464.39	21.468
464.74	21.718
465.09	22.770
465.44	22.216
465.79	21.712
466.14	22.292
466.49	21.564
466.84	21.713
467.19	22.340
467.54	21.967
467.89	22.363
468.24	21.472
468.59	23.238
468.94	22.794
469.29	22.164
469.64	22.146
469.99	23.266
470.34	21.843
470.68	22.819
471.03	22.647
471.38	22.397
471.73	22.619
472.08	22.524
472.43	22.282
472.78	22.344
473.13	21.633
473.48	21.629
473.83	22.229
474.17	22.474
474.52	21.634
474.87	21.879
475.22	21.415
475.57	21.231
475.92	21.229
476.27	22.002
476.61	21.991
476.96	21.528
477.31	21.958
477.66	21.517
478.01	22.010
478.36	21.133
478.70	21.968
479.05	21.593
479.40	21.940
479.75	21.324
480.10	21.659
480.45	20.650
480.79	21.853
481.14	21.977
481.49	20.887
481.84	21.670
482.19	21.094
482.53	21.823
482.88	21.957
483.23	21.065
483.58	20.849
483.92	20.474
484.27	21.331
484.62	20.753
484.97	20.108
485.31	19.834
485.66	19.103
486.01	19.191
486.36	18.745
486.70	19.297
487.05	19.522
487.40	20.165
487.75	20.479
488.09	20.303
488.44	20.392
488.79	20.359
489.13	20.713
489.48	21.077
489.83	20.807
490.17	20.315
490.52	21.016
490.87	20.453
491.22	21.681
491.56	20.161
491.91	20.315
492.26	20.953
492.60	20.873
492.95	21.545
493.30	20.567
493.64	20.334
493.99	20.676
494.34	20.243
494.68	20.095
495.03	20.243
495.37	20.118
495.72	19.788
496.07	20.488
496.41	19.953
496.76	20.175
497.11	19.655
497.45	19.809
497.80	20.333
498.14	19.672
498.49	19.959
498.84	20.509
499.18	20.432
499.53	20.387
499.87	19.650
500.22	19.139
500.56	20.020
500.91	19.629
501.26	19.575
501.60	20.020
501.95	19.360
502.29	20.242
502.64	19.932
502.98	20.622
503.33	19.068
503.67	18.988
504.02	20.332
504.36	20.485
504.71	19.444
505.06	19.829
505.40	19.391
505.75	20.206
506.09	19.260
506.44	20.329
506.78	19.643
507.13	20.062
507.47	19.217
507.82	18.750
508.16	19.493
508.51	19.832
508.85	20.042
509.19	18.946
509.54	19.410
509.88	19.094
510.23	19.311
510.57	19.669
510.92	18.497
511.26	18.822
511.61	19.747
511.95	19.342
512.30	19.789
512.64	19.811
512.98	19.652
513.33	19.306
513.67	19.443
514.02	19.794
514.36	20.571
514.70	20.455
515.05	20.153
515.39	18.654
515.74	20.479
516.08	19.307
516.42	20.141
516.77	20.187
517.11	20.059
517.46	19.210
517.80	20.262
518.14	19.535
518.49	20.072
518.83	20.049
519.17	19.709
519.52	18.769
519.86	19.808
520.20	20.109
520.55	19.387
520.89	20.514
521.23	20.329
521.58	20.252
521.92	19.615
522.26	19.258
522.61	20.195
522.95	20.927
523.29	19.822
523.64	19.886
523.98	19.831
524.32	19.008
524.66	19.846
525.01	20.000
525.35	19.767
525.69	19.461
526.04	19.312
526.38	19.844
526.72	18.640
527.06	18.807
527.41	19.591
527.75	18.834
528.09	19.003
528.43	19.851
528.78	19.076
529.12	18.516
529.46	18.778
529.80	18.366
530.15	19.076
530.49	18.451
530.83	18.126
531.17	19.342
531.51	18.741
531.86	18.627
532.20	18.163
532.54	18.788
532.88	19.507
533.22	19.086
533.57	18.676
533.91	17.755
534.25	19.401
534.59	17.896
534.93	18.502
535.27	17.576
535.62	17.498
535.96	18.134
536.30	17.876
536.64	17.850
536.98	17.491
537.32	19.203
537.66	18.513
538.01	17.552
538.35	16.990
538.69	18.642
539.03	17.225
539.37	18.035
539.71	17.382
540.05	17.108
540.39	17.936
540.73	18.550
541.07	18.163
541.42	18.616
541.76	18.445
542.10	17.550
542.44	18.833
542.78	17.619
543.12	17.033
543.46	18.081
543.80	17.765
544.14	17.223
544.48	17.122
544.82	18.045
545.16	16.598
545.50	18.158
545.84	17.210
546.18	17.589
546.52	18.457
546.86	18.404
547.20	17.597
547.54	16.537
547.88	16.712
548.22	16.568
548.56	16.425
548.90	16.981
549.24	17.424
549.58	17.137
549.92	16.440
550.26	16.996
550.60	17.100
550.94	17.774
551.28	17.002
551.62	16.692
551.96	16.767
552.30	16.886
552.64	16.925
552.98	17.159
553.32	17.903
553.66	15.747
554.00	16.058
554.34	17.282
554.68	16.519
555.02	17.634
555.36	16.230
555.69	16.044
556.03	15.917
556.37	16.655
556.71	16.895
557.05	15.362
557.39	16.580
557.73	15.967
558.07	16.817
558.41	16.003
558.75	16.758
559.08	16.154
559.42	16.508
559.76	16.974
560.10	16.131
560.44	16.232
560.78	17.692
561.12	15.092
561.45	15.882
561.79	16.667
562.13	16.537
562.47	15.971
562.81	15.850
563.15	16.784
563.48	15.417
563.82	16.404
564.16	15.947
564.50	16.622
564.84	16.131
565.17	16.030
565.51	15.984
565.85	16.118
566.19	15.385
566.52	15.885
566.86	16.710
567.20	15.068
567.54	15.085
567.88	15.583
568.21	15.837
568.55	14.185
568.89	15.144
569.23	14.251
569.56	14.536
569.90	13.804
570.24	14.179
570.57	13.782
570.91	13.280
571.25	12.331
571.59	13.547
571.92	12.978
572.26	12.832
572.60	13.674
572.93	13.241
573.27	13.041
573.61	13.216
573.95	12.862
574.28	12.950
574.62	12.560
574.96	12.890
575.29	12.696
575.63	12.438
575.97	12.713
576.30	12.735
576.64	12.636
576.98	12.561
577.31	12.460
577.65	12.500
577.98	12.553
578.32	12.179
578.66	11.928
578.99	12.494
579.33	12.366
579.67	12.566
580.00	12.684
580.34	12.562
580.67	12.290
581.01	12.128
581.35	12.188
581.68	11.927
582.02	11.819
582.35	11.866
582.69	12.037
583.02	12.006
583.36	12.326
583.70	13.110
584.03	12.649
584.37	13.072
584.70	12.500
585.04	12.332
585.37	12.334
585.71	12.145
586.04	12.305
586.38	12.323
586.72	12.195
587.05	12.363
587.39	12.217
587.72	12.657
588.06	12.261
588.39	12.219
588.73	12.668
589.06	12.948
589.40	12.617
589.73	13.180
590.07	13.369
590.40	12.539
590.73	13.427
591.07	12.977
591.40	12.600
591.74	13.122
592.07	13.219
592.41	13.251
592.74	12.585
593.08	11.911
593.41	12.191
593.75	12.300
594.08	12.530
594.41	12.482
594.75	12.405
595.08	12.221
595.42	12.183
595.75	12.843
596.09	12.353
596.42	12.774
596.75	12.655
597.09	13.075
597.42	13.144
597.75	12.643
598.09	12.494
598.42	12.365
598.76	12.227
599.09	11.819
599.42	12.012
599.76	12.378
600.09	12.481
600.42	12.472
600.76	11.664
601.09	11.794
601.42	12.338
601.76	11.751
602.09	12.541
602.42	12.848
602.76	12.564
603.09	12.583
603.42	12.751
603.76	11.532
604.09	11.503
604.42	12.394
604.76	12.817
605.09	12.020
605.42	12.912
605.75	12.128
606.09	11.932
606.42	12.636
606.75	11.991
607.09	13.055
607.42	11.741
607.75	11.901
608.08	11.815
608.42	12.837
608.75	13.012
609.08	12.706
609.41	12.386
609.75	12.651
610.08	12.381
610.41	12.512
610.74	12.384
611.07	12.868
611.41	12.455
611.74	13.273
612.07	12.099
612.40	12.746
612.73	12.316
613.07	12.148
613.40	13.129
613.73	12.087
614.06	12.966
614.39	13.198
614.72	12.773
615.06	13.017
615.39	12.336
615.72	12.325
616.05	12.514
616.38	12.194
616.71	12.355
617.05	13.218
617.38	12.696
617.71	12.642
618.04	12.698
618.37	13.052
618.70	13.135
619.03	13.750
619.36	12.735
619.69	14.026
620.03	13.002
620.36	12.375
620.69	14.133
621.02	13.303
621.35	14.772
621.68	13.265
622.01	13.917
622.34	13.887
622.67	13.644
623.00	13.936
623.33	12.729
623.66	12.191
623.99	13.464
624.32	13.384
624.65	12.556
624.99	13.093
625.32	12.585
625.65	13.904
625.98	13.457
626.31	12.884
626.64	13.518
626.97	14.485
627.30	14.623
627.63	14.038
627.96	14.645
628.29	13.506
628.62	14.061
628.95	13.627
629.28	13.911
629.61	13.061
629.94	15.640
630.26	13.735
630.59	14.048
630.92	13.949
631.25	14.359
631.58	14.427
631.91	14.364
632.24	14.335
632.57	15.114
632.90	14.235
633.23	14.235
633.56	14.106
633.89	13.070
634.22	16.173
634.55	14.231
634.88	15.326
635.20	15.128
635.53	14.667
635.86	13.394
636.19	15.912
636.52	13.648
636.85	14.144
637.18	14.088
637.51	15.849
