SpectraSuite Data File
++++++++++++++++++++++++++++++++++++
Date: Fri May 15 21:00:47 PDT 2015
User: schluterlab
Dark Spectrum Present: Yes
Reference Spectrum Present: Yes
Number of Sampled Component Spectra: 1
Spectrometers: USB2E3373
Integration Time (usec): 3000 (USB2E3373)
Spectra Averaged: 3 (USB2E3373)
Boxcar Smoothing: 0 (USB2E3373)
Correct for Electrical Dark: No (USB2E3373)
Strobe/Lamp Enabled: No (USB2E3373)
Correct for Detector Non-linearity: No (USB2E3373)
Correct for Stray Light: No (USB2E3373)
Number of Pixels in Processed Spectrum: 2048
>>>>>Begin Processed Spectral Data<<<<<
178.53	0.000
178.91	0.000
179.29	-12.500
179.67	-450.000
180.04	14.286
180.42	-125.000
180.80	-800.000
181.18	-33.333
181.56	700.000
181.94	0.000
182.31	1200.000
182.69	-140.000
183.07	-300.000
183.45	-220.000
183.83	216.667
184.20	45.455
184.58	66.667
184.96	50.000
185.34	-200.000
185.72	-100.000
186.09	92.308
186.47	-100.000
186.85	-66.667
187.23	144.444
187.61	200.000
187.98	-500.000
188.36	-55.556
188.74	-466.667
189.12	-5.882
189.49	5.556
189.87	0.000
190.25	64.286
190.63	250.000
191.00	100.000
191.38	-31.579
191.76	150.000
192.14	425.000
192.51	50.000
192.89	22.222
193.27	-42.857
193.65	200.000
194.02	136.364
194.40	-10.000
194.78	-62.500
195.15	-25.000
195.53	-87.500
195.91	450.000
196.29	-200.000
196.66	84.615
197.04	28.571
197.42	-77.778
197.79	-466.667
198.17	-115.385
198.55	1900.000
198.92	-466.667
199.30	-500.000
199.68	-220.000
200.05	-366.667
200.43	0.000
200.81	-366.667
201.18	-233.333
201.56	600.000
201.94	-750.000
202.31	66.667
202.69	-380.000
203.07	75.000
203.44	300.000
203.82	0.000
204.19	35.714
204.57	-366.667
204.95	87.500
205.32	-20.000
205.70	-128.571
206.08	-225.000
206.45	77.778
206.83	78.571
207.20	-42.857
207.58	500.000
207.96	33.333
208.33	-90.000
208.71	-175.000
209.08	-183.333
209.46	-1500.000
209.84	-200.000
210.21	-1900.000
210.59	-14.286
210.96	-166.667
211.34	50.000
211.71	6.667
212.09	-157.143
212.46	-2800.000
212.84	0.000
213.22	-70.000
213.59	700.000
213.97	38.462
214.34	27.273
214.72	-50.000
215.09	425.000
215.47	69.231
215.84	0.000
216.22	-400.000
216.59	-100.000
216.97	-450.000
217.34	-100.000
217.72	-180.000
218.09	37.500
218.47	175.000
218.84	-600.000
219.22	-177.778
219.59	-40.000
219.97	300.000
220.34	-25.000
220.72	-85.714
221.09	-300.000
221.47	-250.000
221.84	-550.000
222.22	-400.000
222.59	72.727
222.97	16.667
223.34	-366.667
223.72	-78.571
224.09	-28.571
224.46	17.857
224.84	66.667
225.21	-30.000
225.59	-20.000
225.96	-500.000
226.34	350.000
226.71	0.000
227.08	-116.667
227.46	-75.000
227.83	-500.000
228.21	55.556
228.58	-27.273
228.95	-100.000
229.33	120.000
229.70	-25.000
230.08	-125.000
230.45	-228.571
230.82	85.714
231.20	-6.667
231.57	14.286
231.95	28.571
232.32	-90.000
232.69	50.000
233.07	-166.667
233.44	-260.000
233.81	-130.000
234.19	33.333
234.56	-47.059
234.93	450.000
235.31	150.000
235.68	-320.000
236.05	-46.154
236.43	-30.000
236.80	-11.765
237.17	28.125
237.55	-10.000
237.92	11.111
238.29	27.778
238.67	13.333
239.04	17.647
239.41	-2.439
239.79	-16.667
240.16	48.780
240.53	23.684
240.91	39.130
241.28	9.524
241.65	25.000
242.02	35.616
242.40	20.000
242.77	6.780
243.14	22.727
243.51	21.250
243.89	39.080
244.26	17.241
244.63	25.000
245.00	36.082
245.38	40.206
245.75	19.101
246.12	22.414
246.49	25.620
246.87	33.654
247.24	14.286
247.61	25.439
247.98	29.268
248.36	26.250
248.73	34.211
249.10	29.221
249.47	32.911
249.84	26.797
250.22	23.529
250.59	26.797
250.96	33.803
251.33	26.744
251.70	32.353
252.08	32.487
252.45	28.218
252.82	30.653
253.19	30.876
253.56	25.701
253.94	31.982
254.31	31.739
254.68	34.649
255.05	26.772
255.42	30.568
255.79	31.660
256.16	34.241
256.54	34.328
256.91	32.700
257.28	31.970
257.65	27.341
258.02	26.950
258.39	28.283
258.76	33.700
259.14	34.884
259.51	31.715
259.88	29.553
260.25	30.392
260.62	35.764
260.99	29.153
261.36	30.479
261.73	31.013
262.10	30.091
262.47	35.583
262.85	33.856
263.22	30.154
263.59	33.956
263.96	33.851
264.33	31.212
264.70	33.333
265.07	29.167
265.44	31.728
265.81	29.379
266.18	32.787
266.55	32.134
266.92	31.347
267.29	32.115
267.66	31.202
268.03	31.414
268.40	30.287
268.77	36.631
269.14	30.216
269.51	31.105
269.88	32.170
270.25	31.122
270.62	27.561
270.99	31.969
271.36	27.628
271.73	31.690
272.10	32.360
272.47	31.678
272.84	31.436
273.21	32.715
273.58	31.084
273.95	29.748
274.32	29.561
274.69	28.959
275.06	32.813
275.43	30.839
275.80	31.567
276.17	29.425
276.54	29.550
276.91	32.237
277.28	29.694
277.65	31.198
278.02	30.638
278.39	29.322
278.76	33.124
279.13	29.046
279.50	31.513
279.87	30.022
280.23	28.602
280.60	32.164
280.97	31.515
281.34	30.385
281.71	33.470
282.08	28.221
282.45	30.333
282.82	30.309
283.19	31.528
283.56	29.480
283.92	33.207
284.29	30.577
284.66	28.682
285.03	28.880
285.40	25.709
285.77	27.065
286.14	29.242
286.51	31.550
286.87	28.336
287.24	28.729
287.61	29.101
287.98	29.649
288.35	27.556
288.72	29.947
289.08	28.472
289.45	27.944
289.82	27.797
290.19	26.280
290.56	27.273
290.93	28.114
291.29	24.807
291.66	27.559
292.03	28.868
292.40	27.742
292.77	25.678
293.13	25.649
293.50	25.038
293.87	23.511
294.24	24.730
294.60	24.590
294.97	25.446
295.34	23.926
295.71	24.292
296.08	23.617
296.44	23.186
296.81	24.167
297.18	24.928
297.55	25.068
297.91	22.055
298.28	23.747
298.65	22.117
299.02	22.102
299.38	21.614
299.75	21.655
300.12	23.298
300.48	22.530
300.85	22.814
301.22	21.948
301.59	23.421
301.95	22.658
302.32	22.438
302.69	22.637
303.05	21.906
303.42	20.299
303.79	21.379
304.15	22.939
304.52	21.522
304.89	21.053
305.25	21.065
305.62	20.187
305.99	20.702
306.35	21.040
306.72	20.585
307.09	21.209
307.45	22.158
307.82	21.759
308.19	20.325
308.55	19.302
308.92	20.806
309.29	19.441
309.65	20.883
310.02	20.902
310.38	21.844
310.75	22.404
311.12	21.529
311.48	20.997
311.85	20.419
312.22	21.519
312.58	20.488
312.95	20.704
313.31	20.704
313.68	23.351
314.05	21.837
314.41	22.268
314.78	22.268
315.14	21.891
315.51	19.772
315.87	21.516
316.24	22.447
316.61	22.146
316.97	22.917
317.34	22.754
317.70	21.319
318.07	23.269
318.43	22.451
318.80	23.011
319.16	22.949
319.53	23.647
319.89	24.114
320.26	23.988
320.62	24.774
320.99	22.234
321.35	24.563
321.72	27.207
322.08	26.687
322.45	25.888
322.81	26.130
323.18	25.810
323.54	26.158
323.91	26.290
324.27	26.562
324.64	27.247
325.00	27.281
325.37	26.446
325.73	25.657
326.10	29.609
326.46	28.341
326.83	28.521
327.19	29.555
327.56	29.453
327.92	31.690
328.29	30.089
328.65	29.434
329.01	30.147
329.38	31.336
329.74	30.595
330.11	31.233
330.47	31.818
330.84	30.577
331.20	32.795
331.56	29.815
331.93	33.425
332.29	32.356
332.66	30.860
333.02	32.528
333.38	32.447
333.75	33.883
334.11	31.513
334.48	34.089
334.84	32.509
335.20	32.571
335.57	31.460
335.93	32.791
336.29	33.794
336.66	31.789
337.02	32.900
337.38	33.519
337.75	33.182
338.11	33.454
338.47	33.120
338.84	33.826
339.20	31.993
339.56	33.761
339.93	33.303
340.29	34.771
340.65	34.050
341.02	33.156
341.38	33.717
341.74	32.244
342.11	32.149
342.47	33.541
342.83	32.526
343.20	31.707
343.56	33.652
343.92	32.152
344.28	32.707
344.65	34.197
345.01	32.152
345.37	32.717
345.73	32.218
346.10	33.477
346.46	32.801
346.82	32.897
347.19	31.006
347.55	31.495
347.91	32.443
348.27	32.660
348.63	33.560
349.00	31.583
349.36	33.333
349.72	32.919
350.08	33.197
350.45	32.562
350.81	32.724
351.17	31.678
351.53	33.061
351.89	33.196
352.26	32.560
352.62	32.419
352.98	32.048
353.34	32.287
353.70	34.142
354.07	31.855
354.43	32.906
354.79	31.379
355.15	33.175
355.51	32.437
355.87	32.120
356.24	31.566
356.60	32.336
356.96	32.937
357.32	32.109
357.68	31.822
358.04	32.795
358.40	33.441
358.77	33.094
359.13	32.106
359.49	32.203
359.85	33.697
360.21	32.456
360.57	32.747
360.93	32.678
361.29	33.157
361.66	31.661
362.02	33.182
362.38	33.054
362.74	32.248
363.10	33.409
363.46	33.877
363.82	34.485
364.18	32.177
364.54	32.206
364.90	32.473
365.26	33.552
365.62	34.380
365.98	33.211
366.35	34.887
366.71	32.964
367.07	33.672
367.43	32.638
367.79	33.004
368.15	33.884
368.51	33.867
368.87	32.663
369.23	33.357
369.59	34.184
369.95	34.311
370.31	33.743
370.67	34.627
371.03	32.786
371.39	34.792
371.75	35.311
372.11	35.093
372.47	34.911
372.83	34.564
373.19	34.379
373.55	33.791
373.91	33.765
374.27	33.593
374.63	33.238
374.99	33.901
375.35	35.097
375.71	35.175
376.07	33.778
376.42	35.306
376.78	35.302
377.14	34.191
377.50	35.989
377.86	34.471
378.22	34.588
378.58	34.872
378.94	34.657
379.30	34.623
379.66	35.549
380.02	34.948
380.38	35.423
380.74	34.949
381.09	35.644
381.45	34.801
381.81	35.904
382.17	35.279
382.53	34.791
382.89	35.530
383.25	35.905
383.61	36.037
383.97	34.984
384.32	35.897
384.68	37.090
385.04	34.988
385.40	35.968
385.76	37.107
386.12	36.740
386.48	37.101
386.83	37.096
387.19	37.057
387.55	37.390
387.91	37.897
388.27	35.958
388.62	37.697
388.98	35.789
389.34	37.601
389.70	38.658
390.06	37.256
390.42	36.852
390.77	37.868
391.13	36.885
391.49	39.069
391.85	39.051
392.20	38.104
392.56	38.144
392.92	39.107
393.28	38.384
393.64	37.958
393.99	39.373
394.35	39.279
394.71	38.697
395.07	37.775
395.42	38.980
395.78	38.893
396.14	39.596
396.50	39.569
396.85	39.923
397.21	39.223
397.57	38.558
397.92	39.724
398.28	40.690
398.64	38.795
399.00	39.786
399.35	38.770
399.71	39.575
400.07	40.931
400.42	38.923
400.78	40.723
401.14	40.593
401.49	40.858
401.85	40.524
402.21	41.566
402.57	40.437
402.92	39.837
403.28	40.727
403.63	40.858
403.99	41.008
404.35	41.911
404.70	40.476
405.06	41.069
405.42	40.273
405.77	40.209
406.13	41.909
406.49	41.149
406.84	41.504
407.20	42.324
407.55	42.241
407.91	41.778
408.27	42.575
408.62	42.215
408.98	41.651
409.34	43.680
409.69	41.344
410.05	40.764
410.40	43.395
410.76	43.185
411.11	42.250
411.47	42.801
411.83	43.566
412.18	43.822
412.54	43.383
412.89	42.303
413.25	43.983
413.60	42.671
413.96	43.374
414.31	42.683
414.67	43.297
415.03	43.142
415.38	43.342
415.74	44.756
416.09	44.742
416.45	44.024
416.80	43.886
417.16	44.959
417.51	44.237
417.87	44.003
418.22	46.697
418.58	44.214
418.93	46.207
419.29	44.494
419.64	44.653
420.00	46.662
420.35	45.254
420.71	45.383
421.06	45.120
421.42	46.334
421.77	46.185
422.12	45.516
422.48	46.616
422.83	44.664
423.19	46.163
423.54	46.208
423.90	45.936
424.25	47.072
424.61	46.634
424.96	45.412
425.31	47.776
425.67	48.063
426.02	47.114
426.38	48.341
426.73	47.579
427.09	48.797
427.44	46.588
427.79	48.615
428.15	48.119
428.50	47.850
428.85	47.543
429.21	48.613
429.56	47.871
429.92	47.252
430.27	48.421
430.62	47.047
430.98	48.301
431.33	48.318
431.68	48.561
432.04	48.127
432.39	47.804
432.74	48.948
433.10	49.713
433.45	49.104
433.80	49.623
434.16	48.089
434.51	49.409
434.86	51.220
435.22	49.579
435.57	50.218
435.92	50.778
436.28	48.837
436.63	50.713
436.98	48.725
437.34	49.123
437.69	50.566
438.04	50.826
438.39	50.214
438.75	50.820
439.10	51.387
439.45	50.943
439.81	50.214
440.16	51.485
440.51	51.582
440.86	52.447
441.22	51.301
441.57	50.552
441.92	51.994
442.27	52.993
442.63	51.981
442.98	51.350
443.33	52.031
443.68	52.308
444.03	51.813
444.39	51.058
444.74	52.843
445.09	53.007
445.44	52.023
445.79	53.894
446.15	51.322
446.50	52.080
446.85	52.497
447.20	51.877
447.55	53.460
447.91	52.735
448.26	54.183
448.61	53.598
448.96	53.471
449.31	53.353
449.66	51.800
450.02	53.109
450.37	53.764
450.72	53.036
451.07	54.557
451.42	53.496
451.77	53.285
452.12	52.871
452.47	54.411
452.83	54.240
453.18	53.637
453.53	54.109
453.88	53.613
454.23	54.333
454.58	54.471
454.93	54.446
455.28	53.397
455.63	53.441
455.98	54.480
456.34	54.534
456.69	53.304
457.04	55.388
457.39	54.010
457.74	53.990
458.09	52.796
458.44	53.540
458.79	54.454
459.14	54.519
459.49	55.343
459.84	53.582
460.19	54.248
460.54	54.645
460.89	54.943
461.24	54.658
461.59	54.276
461.94	53.270
462.29	54.765
462.64	55.150
462.99	54.232
463.34	54.729
463.69	53.475
464.04	55.751
464.39	55.064
464.74	54.110
465.09	54.523
465.44	54.587
465.79	53.628
466.14	54.333
466.49	53.594
466.84	54.967
467.19	54.756
467.54	54.151
467.89	55.464
468.24	55.049
468.59	55.238
468.94	55.238
469.29	56.525
469.64	55.707
469.99	56.412
470.34	53.720
470.68	56.227
471.03	55.909
471.38	54.636
471.73	55.392
472.08	55.088
472.43	54.497
472.78	55.380
473.13	56.803
473.48	54.723
473.83	54.795
474.17	56.153
474.52	54.946
474.87	55.091
475.22	53.813
475.57	53.190
475.92	55.897
476.27	55.006
476.61	55.382
476.96	53.318
477.31	55.598
477.66	54.494
478.01	55.587
478.36	53.486
478.70	55.411
479.05	55.549
479.40	54.743
479.75	54.536
480.10	54.327
480.45	55.100
480.79	55.388
481.14	55.943
481.49	54.138
481.84	56.274
482.19	54.490
482.53	55.252
482.88	54.033
483.23	54.942
483.58	54.387
483.92	54.308
484.27	54.877
484.62	54.774
484.97	53.358
485.31	53.540
485.66	51.639
486.01	51.954
486.36	51.794
486.70	52.919
487.05	54.210
487.40	53.981
487.75	53.549
488.09	54.543
488.44	54.505
488.79	55.286
489.13	55.329
489.48	54.126
489.83	54.709
490.17	54.607
490.52	55.012
490.87	54.095
491.22	55.587
491.56	54.554
491.91	54.063
492.26	54.983
492.60	54.846
492.95	55.780
493.30	53.884
493.64	55.403
493.99	54.734
494.34	54.369
494.68	54.810
495.03	53.869
495.37	55.692
495.72	54.821
496.07	56.244
496.41	54.481
496.76	54.629
497.11	55.100
497.45	55.847
497.80	55.903
498.14	55.042
498.49	55.561
498.84	55.190
499.18	55.974
499.53	55.903
499.87	54.329
500.22	56.083
500.56	54.463
500.91	55.371
501.26	54.325
501.60	54.845
501.95	55.604
502.29	55.206
502.64	55.164
502.98	55.057
503.33	55.524
503.67	54.361
504.02	54.985
504.36	55.270
504.71	54.293
505.06	54.706
505.40	55.127
505.75	55.928
506.09	55.347
506.44	55.595
506.78	55.867
507.13	55.843
507.47	55.144
507.82	55.075
508.16	56.049
508.51	55.771
508.85	55.259
509.19	56.094
509.54	56.086
509.88	54.908
510.23	55.836
510.57	55.906
510.92	55.490
511.26	56.683
511.61	56.271
511.95	56.164
512.30	55.931
512.64	56.594
512.98	55.250
513.33	56.631
513.67	55.145
514.02	57.494
514.36	56.914
514.70	57.459
515.05	57.521
515.39	56.730
515.74	58.263
516.08	57.083
516.42	57.833
516.77	56.992
517.11	56.617
517.46	57.032
517.80	56.913
518.14	58.175
518.49	56.190
518.83	57.412
519.17	56.155
519.52	55.417
519.86	57.143
520.20	57.230
520.55	56.410
520.89	57.591
521.23	57.631
521.58	58.423
521.92	58.590
522.26	57.450
522.61	59.156
522.95	59.272
523.29	57.942
523.64	58.450
523.98	59.754
524.32	57.152
524.66	59.027
525.01	58.701
525.35	58.263
525.69	59.731
526.04	57.738
526.38	59.014
526.72	56.377
527.06	57.328
527.41	58.575
527.75	58.981
528.09	57.807
528.43	59.892
528.78	60.000
529.12	57.419
529.46	57.310
529.80	58.265
530.15	59.604
530.49	58.182
530.83	59.302
531.17	58.764
531.51	59.302
531.86	58.872
532.20	59.221
532.54	58.339
532.88	58.522
533.22	58.333
533.57	58.847
533.91	59.073
534.25	59.049
534.59	57.152
534.93	57.017
535.27	57.487
535.62	58.393
535.96	56.817
536.30	57.850
536.64	58.787
536.98	57.909
537.32	59.175
537.66	59.958
538.01	59.231
538.35	58.530
538.69	59.121
539.03	57.553
539.37	59.556
539.71	59.237
540.05	57.502
540.39	58.310
540.73	58.996
541.07	60.359
541.42	58.804
541.76	59.463
542.10	57.811
542.44	59.555
542.78	57.949
543.12	58.104
543.46	59.388
543.80	58.987
544.14	56.742
544.48	58.028
544.82	60.902
545.16	59.768
545.50	57.944
545.84	59.844
546.18	59.362
546.52	58.904
546.86	57.944
547.20	59.943
547.54	57.597
547.88	59.579
548.22	57.857
548.56	57.454
548.90	58.693
549.24	59.642
549.58	57.546
549.92	58.256
550.26	59.267
550.60	59.703
550.94	60.344
551.28	58.887
551.62	59.308
551.96	59.398
552.30	59.503
552.64	58.815
552.98	59.353
553.32	58.702
553.66	58.781
554.00	59.343
554.34	60.192
554.68	58.333
555.02	59.673
555.36	58.040
555.69	57.656
556.03	58.387
556.37	58.149
556.71	59.422
557.05	59.359
557.39	57.323
557.73	58.171
558.07	60.860
558.41	60.184
558.75	61.029
559.08	57.998
559.42	60.794
559.76	60.929
560.10	60.092
560.44	58.153
560.78	59.301
561.12	59.309
561.45	58.819
561.79	59.244
562.13	58.907
562.47	58.921
562.81	58.934
563.15	59.661
563.48	58.628
563.82	60.604
564.16	58.914
564.50	58.986
564.84	57.564
565.17	57.679
565.51	60.314
565.85	59.259
566.19	59.085
566.52	58.780
566.86	59.769
567.20	58.468
567.54	59.002
567.88	58.934
568.21	59.672
568.55	57.228
568.89	57.957
569.23	58.065
569.56	57.531
569.90	56.963
570.24	54.820
570.57	56.218
570.91	55.490
571.25	54.850
571.59	54.780
571.92	53.630
572.26	54.287
572.60	55.101
572.93	54.252
573.27	54.984
573.61	54.445
573.95	53.332
574.28	53.893
574.62	53.877
574.96	53.802
575.29	53.306
575.63	53.045
575.97	53.131
576.30	53.725
576.64	53.245
576.98	53.874
577.31	54.067
577.65	53.968
577.98	53.508
578.32	53.243
578.66	52.439
578.99	52.901
579.33	53.385
579.67	53.091
580.00	52.734
580.34	53.806
580.67	52.794
581.01	53.386
581.35	53.101
581.68	52.903
582.02	52.762
582.35	52.869
582.69	53.954
583.02	53.664
583.36	53.986
583.70	55.556
584.03	55.685
584.37	56.324
584.70	55.192
585.04	52.668
585.37	53.808
585.71	54.061
586.04	53.480
586.38	54.388
586.72	55.552
587.05	54.766
587.39	54.403
587.72	55.467
588.06	54.940
588.39	54.999
588.73	55.922
589.06	55.969
589.40	55.721
589.73	56.334
590.07	56.307
590.40	57.043
590.73	57.990
591.07	56.573
591.40	56.233
591.74	57.466
592.07	57.236
592.41	56.228
592.74	56.033
593.08	53.999
593.41	54.662
593.75	55.054
594.08	54.308
594.41	55.495
594.75	56.069
595.08	56.300
595.42	55.870
595.75	56.177
596.09	56.450
596.42	57.627
596.75	56.972
597.09	56.401
597.42	56.820
597.75	57.902
598.09	56.360
598.42	56.543
598.76	55.255
599.09	55.729
599.42	55.021
599.76	54.515
600.09	54.977
600.42	54.701
600.76	54.495
601.09	55.916
601.42	54.837
601.76	56.054
602.09	57.467
602.42	57.709
602.76	56.876
603.09	56.395
603.42	57.316
603.76	56.573
604.09	57.149
604.42	56.768
604.76	57.410
605.09	56.993
605.42	57.065
605.75	56.261
606.09	56.306
606.42	56.172
606.75	55.931
607.09	55.956
607.42	56.269
607.75	55.950
608.08	55.750
608.42	55.779
608.75	58.217
609.08	58.146
609.41	58.376
609.75	57.208
610.08	57.364
610.41	56.618
610.74	57.094
611.07	58.760
611.41	58.485
611.74	59.062
612.07	57.173
612.40	59.354
612.73	59.266
613.07	58.155
613.40	57.385
613.73	58.198
614.06	56.873
614.39	58.432
614.72	57.143
615.06	56.872
615.39	55.186
615.72	57.051
616.05	57.430
616.38	56.752
616.71	57.982
617.05	59.605
617.38	59.208
617.71	59.686
618.04	59.683
618.37	60.340
618.70	59.934
619.03	59.931
619.36	59.696
619.69	61.334
620.03	60.847
620.36	60.443
620.69	60.385
621.02	58.945
621.35	61.909
621.68	63.010
622.01	63.250
622.34	60.255
622.67	61.199
623.00	59.877
623.33	60.290
623.66	58.863
623.99	59.607
624.32	61.141
624.65	59.850
624.99	61.475
625.32	59.287
625.65	61.822
625.98	62.127
626.31	61.347
626.64	62.478
626.97	62.565
627.30	62.609
627.63	60.139
627.96	62.444
628.29	62.165
628.62	63.717
628.95	61.523
629.28	63.206
629.61	63.609
629.94	63.930
630.26	62.154
630.59	62.747
630.92	62.974
631.25	61.949
631.58	65.308
631.91	64.035
632.24	64.220
632.57	64.886
632.90	63.938
