SpectraSuite Data File
++++++++++++++++++++++++++++++++++++
Date: Fri May 15 20:58:06 PDT 2015
User: schluterlab
Dark Spectrum Present: Yes
Reference Spectrum Present: Yes
Number of Sampled Component Spectra: 1
Spectrometers: USB2E3373
Integration Time (usec): 3000 (USB2E3373)
Spectra Averaged: 3 (USB2E3373)
Boxcar Smoothing: 0 (USB2E3373)
Correct for Electrical Dark: No (USB2E3373)
Strobe/Lamp Enabled: No (USB2E3373)
Correct for Detector Non-linearity: No (USB2E3373)
Correct for Stray Light: No (USB2E3373)
Number of Pixels in Processed Spectrum: 2048
>>>>>Begin Processed Spectral Data<<<<<
178.53	0.000
178.91	0.000
179.29	25.000
179.67	-400.000
180.04	28.571
180.42	50.000
180.80	-600.000
181.18	-100.000
181.56	600.000
181.94	-50.000
182.31	600.000
182.69	0.000
183.07	-266.667
183.45	-20.000
183.83	83.333
184.20	45.455
184.58	144.444
184.96	50.000
185.34	-100.000
185.72	-600.000
186.09	53.846
186.47	-1000.000
186.85	66.667
187.23	66.667
187.61	-0.000
187.98	-566.667
188.36	11.111
188.74	-333.333
189.12	-29.412
189.49	-11.111
189.87	0.000
190.25	14.286
190.63	450.000
191.00	-233.333
191.38	21.053
191.76	600.000
192.14	50.000
192.51	250.000
192.89	-144.444
193.27	-14.286
193.65	233.333
194.02	200.000
194.40	-10.000
194.78	-75.000
195.15	0.000
195.53	50.000
195.91	250.000
196.29	-100.000
196.66	53.846
197.04	171.429
197.42	-77.778
197.79	-333.333
198.17	-123.077
198.55	1600.000
198.92	-333.333
199.30	100.000
199.68	-200.000
200.05	100.000
200.43	0.000
200.81	-33.333
201.18	133.333
201.56	100.000
201.94	-650.000
202.31	66.667
202.69	-200.000
203.07	-25.000
203.44	200.000
203.82	0.000
204.19	-14.286
204.57	-600.000
204.95	75.000
205.32	90.000
205.70	-28.571
206.08	25.000
206.45	122.222
206.83	107.143
207.20	-142.857
207.58	-0.000
207.96	-366.667
208.33	-50.000
208.71	-100.000
209.08	-150.000
209.46	-600.000
209.84	-60.000
210.21	-100.000
210.59	-28.571
210.96	-33.333
211.34	-100.000
211.71	26.667
212.09	-85.714
212.46	-800.000
212.84	0.000
213.22	40.000
213.59	300.000
213.97	-7.692
214.34	-18.182
214.72	-66.667
215.09	350.000
215.47	-15.385
215.84	-63.636
216.22	-66.667
216.59	-125.000
216.97	0.000
217.34	-25.000
217.72	-160.000
218.09	37.500
218.47	62.500
218.84	-1800.000
219.22	-55.556
219.59	20.000
219.97	200.000
220.34	25.000
220.72	-14.286
221.09	-75.000
221.47	-500.000
221.84	-200.000
222.22	-450.000
222.59	18.182
222.97	-8.333
223.34	-100.000
223.72	-28.571
224.09	4.762
224.46	21.429
224.84	366.667
225.21	0.000
225.59	33.333
225.96	-350.000
226.34	300.000
226.71	-128.571
227.08	33.333
227.46	0.000
227.83	-200.000
228.21	100.000
228.58	-54.545
228.95	12.500
229.33	70.000
229.70	37.500
230.08	-50.000
230.45	-85.714
230.82	85.714
231.20	-33.333
231.57	57.143
231.95	42.857
232.32	-40.000
232.69	21.429
233.07	-66.667
233.44	-60.000
233.81	-60.000
234.19	-77.778
234.56	11.765
234.93	400.000
235.31	-25.000
235.68	-100.000
236.05	-53.846
236.43	-10.000
236.80	17.647
237.17	25.000
237.55	60.000
237.92	-7.407
238.29	11.111
238.67	-13.333
239.04	-2.941
239.41	2.439
239.79	-23.333
240.16	21.951
240.53	-5.263
240.91	-15.217
241.28	6.349
241.65	19.643
242.02	26.027
242.40	26.667
242.77	11.864
243.14	9.091
243.51	8.750
243.89	24.138
244.26	13.793
244.63	21.429
245.00	18.557
245.38	15.464
245.75	8.989
246.12	6.897
246.49	24.793
246.87	17.308
247.24	13.445
247.61	10.526
247.98	15.447
248.36	12.500
248.73	21.053
249.10	12.338
249.47	17.722
249.84	18.301
250.22	9.412
250.59	20.261
250.96	19.249
251.33	12.791
251.70	21.176
252.08	17.259
252.45	11.386
252.82	16.080
253.19	18.433
253.56	15.421
253.94	18.468
254.31	19.130
254.68	19.737
255.05	18.898
255.42	16.594
255.79	20.849
256.16	17.510
256.54	21.269
256.91	15.209
257.28	16.729
257.65	18.352
258.02	16.667
258.39	14.478
258.76	23.077
259.14	17.276
259.51	17.476
259.88	15.120
260.25	18.301
260.62	17.708
260.99	15.932
261.36	14.384
261.73	15.506
262.10	18.237
262.47	17.178
262.85	17.241
263.22	19.692
263.59	17.757
263.96	17.702
264.33	20.303
264.70	17.857
265.07	14.881
265.44	19.263
265.81	17.232
266.18	19.399
266.55	16.967
266.92	17.617
267.29	18.538
267.66	17.647
268.03	17.539
268.40	16.188
268.77	24.064
269.14	16.787
269.51	16.967
269.88	15.461
270.25	15.306
270.62	17.317
270.99	18.670
271.36	16.137
271.73	18.545
272.10	17.275
272.47	18.203
272.84	17.574
273.21	16.937
273.58	20.482
273.95	17.391
274.32	17.552
274.69	14.706
275.06	16.518
275.43	15.646
275.80	18.322
276.17	15.402
276.54	15.846
276.91	17.982
277.28	14.192
277.65	16.736
278.02	16.809
278.39	17.943
278.76	16.771
279.13	14.523
279.50	17.857
279.87	15.983
280.23	15.269
280.60	16.959
280.97	18.384
281.34	16.538
281.71	18.275
282.08	16.155
282.45	15.656
282.82	16.602
283.19	16.441
283.56	14.451
283.92	14.611
284.29	15.192
284.66	13.953
285.03	16.110
285.40	15.312
285.77	14.587
286.14	13.899
286.51	16.421
286.87	15.905
287.24	15.101
287.61	14.815
287.98	17.368
288.35	14.558
288.72	16.287
289.08	15.451
289.45	13.357
289.82	14.685
290.19	14.846
290.56	12.693
290.93	13.131
291.29	14.022
291.66	16.063
292.03	14.354
292.40	13.710
292.77	14.673
293.13	11.526
293.50	14.568
293.87	13.893
294.24	10.974
294.60	13.413
294.97	14.435
295.34	12.117
295.71	13.264
296.08	13.752
296.44	12.802
296.81	13.194
297.18	11.014
297.55	13.550
297.91	13.973
298.28	13.984
298.65	11.805
299.02	12.668
299.38	11.628
299.75	12.690
300.12	12.173
300.48	12.385
300.85	13.561
301.22	12.727
301.59	13.816
301.95	11.899
302.32	12.970
302.69	11.194
303.05	12.500
303.42	13.076
303.79	12.617
304.15	12.784
304.52	11.891
304.89	11.462
305.25	11.864
305.62	11.902
305.99	11.579
306.35	10.983
306.72	11.136
307.09	12.543
307.45	12.629
307.82	12.153
308.19	12.544
308.55	12.105
308.92	13.181
309.29	14.190
309.65	13.455
310.02	13.091
310.38	13.502
310.75	14.098
311.12	13.671
311.48	14.316
311.85	14.031
312.22	14.768
312.58	14.544
312.95	14.408
313.31	14.286
313.68	16.754
314.05	15.918
314.41	17.732
314.78	16.701
315.14	19.322
315.51	17.702
315.87	18.648
316.24	20.425
316.61	19.488
316.97	19.544
317.34	20.605
317.70	21.128
318.07	22.596
318.43	22.843
318.80	23.580
319.16	23.437
319.53	25.546
319.89	24.902
320.26	27.024
320.62	27.783
320.99	27.871
321.35	29.702
321.72	29.803
322.08	30.816
322.45	31.472
322.81	33.104
323.18	33.759
323.54	35.618
323.91	35.833
324.27	38.672
324.64	38.670
325.00	40.693
325.37	42.057
325.73	41.523
326.10	44.596
326.46	45.471
326.83	47.332
327.19	48.300
327.56	51.260
327.92	50.968
328.29	51.607
328.65	55.094
329.01	55.239
329.38	57.972
329.74	56.846
330.11	58.665
330.47	57.607
330.84	61.635
331.20	63.498
331.56	61.204
331.93	62.648
332.29	64.895
332.66	62.805
333.02	65.985
333.38	64.253
333.75	67.857
334.11	64.548
334.48	67.906
334.84	67.216
335.20	68.893
335.57	66.002
335.93	69.015
336.29	69.521
336.66	69.664
337.02	68.680
337.38	70.741
337.75	71.182
338.11	71.235
338.47	71.350
338.84	71.165
339.20	71.298
339.56	73.394
339.93	71.083
340.29	73.945
340.65	71.057
341.02	71.986
341.38	71.416
341.74	72.085
342.11	71.924
342.47	72.331
342.83	73.356
343.20	72.387
343.56	73.304
343.92	74.845
344.28	74.893
344.65	73.316
345.01	72.947
345.37	71.657
345.73	73.305
346.10	74.806
346.46	72.750
346.82	73.322
347.19	72.735
347.55	74.854
347.91	74.595
348.27	73.646
348.63	75.468
349.00	74.487
349.36	74.647
349.72	76.036
350.08	74.836
350.45	74.621
350.81	74.668
351.17	73.860
351.53	76.816
351.89	74.814
352.26	74.160
352.62	75.726
352.98	74.297
353.34	75.201
353.70	76.618
354.07	77.903
354.43	75.100
354.79	77.374
355.15	75.952
355.51	77.373
355.87	77.023
356.24	76.264
356.60	77.203
356.96	78.571
357.32	76.997
357.68	76.935
358.04	78.029
358.40	76.608
358.77	79.506
359.13	78.383
359.49	75.963
359.85	77.925
360.21	79.027
360.57	77.429
360.93	77.534
361.29	77.190
361.66	78.370
362.02	79.167
362.38	79.741
362.74	80.318
363.10	79.910
363.46	80.282
363.82	80.841
364.18	78.893
364.54	79.779
364.90	80.287
365.26	79.185
365.62	81.460
365.98	82.258
366.35	82.593
366.71	81.744
367.07	81.495
367.43	80.518
367.79	80.989
368.15	82.484
368.51	81.209
368.87	83.561
369.23	81.155
369.59	83.017
369.95	84.164
370.31	81.720
370.67	82.687
371.03	83.570
371.39	83.297
371.75	83.297
372.11	82.168
372.47	85.799
372.83	83.180
373.19	81.098
373.55	83.610
373.91	83.081
374.27	84.975
374.63	83.920
374.99	84.113
375.35	84.610
375.71	86.154
376.07	85.393
376.42	86.599
376.78	85.772
377.14	85.917
377.50	85.591
377.86	85.877
378.22	85.195
378.58	85.962
378.94	84.814
379.30	85.839
379.66	87.900
380.02	86.082
380.38	86.184
380.74	86.475
381.09	88.834
381.45	86.239
381.81	87.107
382.17	86.231
382.53	86.758
382.89	89.579
383.25	87.617
383.61	88.841
383.97	88.762
384.32	87.930
384.68	88.607
385.04	87.929
385.40	88.861
385.76	91.069
386.12	89.521
386.48	89.080
386.83	90.361
387.19	89.255
387.55	89.774
387.91	89.242
388.27	87.729
388.62	89.490
388.98	88.828
389.34	88.445
389.70	90.926
390.06	87.791
390.42	89.054
390.77	91.236
391.13	90.164
391.49	90.103
391.85	89.604
392.20	89.077
392.56	91.608
392.92	91.133
393.28	90.212
393.64	91.171
393.99	90.470
394.35	92.094
394.71	92.273
395.07	91.578
395.42	90.893
395.78	92.508
396.14	91.803
396.50	92.581
396.85	91.822
397.21	90.915
397.57	92.602
397.92	91.132
398.28	92.126
398.64	91.265
399.00	92.099
399.35	90.801
399.71	90.006
400.07	92.140
400.42	91.371
400.78	92.835
401.14	92.377
401.49	93.270
401.85	92.139
402.21	92.108
402.57	91.813
402.92	90.778
403.28	92.857
403.63	94.767
403.99	92.538
404.35	94.191
404.70	90.595
405.06	93.243
405.42	92.293
405.77	92.156
406.13	93.015
406.49	91.297
406.84	93.215
407.20	93.799
407.55	93.690
407.91	93.249
408.27	94.391
408.62	92.246
408.98	91.929
409.34	92.813
409.69	93.282
410.05	91.933
410.40	93.827
410.76	94.029
411.11	94.125
411.47	93.031
411.83	94.413
412.18	94.723
412.54	92.260
412.89	92.057
413.25	92.960
413.60	92.733
413.96	92.025
414.31	93.598
414.67	93.329
415.03	93.742
415.38	93.342
415.74	93.681
416.09	94.579
416.45	94.193
416.80	93.258
417.16	97.238
417.51	94.937
417.87	94.003
418.22	96.308
418.58	97.057
418.93	96.113
419.29	93.854
419.64	96.695
420.00	96.222
420.35	93.493
420.71	95.140
421.06	95.519
421.42	97.115
421.77	95.029
422.12	95.233
422.48	95.615
422.83	95.302
423.19	96.840
423.54	95.062
423.90	96.879
424.25	96.556
424.61	97.430
424.96	95.470
425.31	98.787
425.67	98.592
426.02	97.527
426.38	98.184
426.73	97.760
427.09	100.506
427.44	97.824
427.79	96.759
428.15	98.058
428.50	98.849
428.85	97.604
429.21	97.849
429.56	98.706
429.92	97.432
430.27	96.842
430.62	96.916
430.98	99.151
431.33	97.003
431.68	97.384
432.04	100.335
432.39	98.346
432.74	96.512
433.10	101.092
433.45	99.462
433.80	100.406
434.16	98.504
434.51	99.355
434.86	100.929
435.22	100.449
435.57	100.561
435.92	100.479
436.28	100.298
436.63	98.688
436.98	98.610
437.34	99.516
437.69	100.656
438.04	100.285
438.39	99.756
438.75	102.793
439.10	100.623
439.45	101.217
439.81	102.202
440.16	103.682
440.51	101.433
440.86	103.625
441.22	101.131
441.57	102.097
441.92	102.361
442.27	103.326
442.63	101.820
442.98	102.642
443.33	101.669
443.68	101.538
444.03	101.689
444.39	101.869
444.74	104.571
445.09	102.506
445.44	102.507
445.79	103.920
446.15	100.110
446.50	103.383
446.85	101.063
447.20	103.128
447.55	102.511
447.91	102.651
448.26	102.561
448.61	103.454
448.96	104.246
449.31	103.699
449.66	103.949
450.02	102.909
450.37	104.446
450.72	101.890
451.07	102.848
451.42	102.622
451.77	104.762
452.12	102.033
452.47	101.932
452.83	103.298
453.18	102.467
453.53	103.982
453.88	104.736
454.23	102.643
454.58	105.227
454.93	104.446
455.28	102.413
455.63	105.208
455.98	103.548
456.34	102.682
456.69	104.574
457.04	105.797
457.39	105.832
457.74	104.595
458.09	103.119
458.44	103.862
458.79	103.641
459.14	102.689
459.49	103.403
459.84	104.456
460.19	103.034
460.54	104.279
460.89	104.545
461.24	105.155
461.59	104.276
461.94	104.591
462.29	104.644
462.64	106.179
462.99	104.739
463.34	105.216
463.69	103.024
464.04	104.056
464.39	104.124
464.74	103.865
465.09	103.618
465.44	103.520
465.79	100.907
466.14	103.421
466.49	103.163
466.84	103.926
467.19	103.630
467.54	102.874
467.89	105.243
468.24	104.319
468.59	105.905
468.94	104.571
469.29	105.902
469.64	103.759
469.99	109.110
470.34	105.324
470.68	108.054
471.03	106.016
471.38	105.635
471.73	107.143
472.08	103.867
472.43	106.577
472.78	104.318
473.13	105.986
473.48	104.821
473.83	104.608
474.17	105.052
474.52	104.531
474.87	105.576
475.22	104.820
475.57	104.235
475.92	104.663
476.27	104.016
476.61	106.366
476.96	101.450
477.31	105.516
477.66	103.933
478.01	105.952
478.36	103.867
478.70	106.036
479.05	105.000
479.40	105.882
479.75	103.024
480.10	103.533
480.45	104.550
480.79	105.740
481.14	105.994
481.49	105.222
481.84	105.164
482.19	103.321
482.53	104.844
482.88	102.530
483.23	103.359
483.58	103.632
483.92	103.582
484.27	103.601
484.62	103.810
484.97	102.197
485.31	101.048
485.66	95.782
486.01	95.914
486.36	95.326
486.70	96.739
487.05	98.079
487.40	98.888
487.75	99.380
488.09	98.640
488.44	100.309
488.79	101.718
489.13	101.683
489.48	102.394
489.83	103.004
490.17	103.146
490.52	104.896
490.87	102.730
491.22	102.865
491.56	102.941
491.91	102.151
492.26	103.938
492.60	103.887
492.95	104.624
493.30	103.810
493.64	105.108
493.99	104.589
494.34	103.495
494.68	103.000
495.03	103.747
495.37	104.563
495.72	103.483
496.07	105.220
496.41	101.934
496.76	103.869
497.11	102.469
497.45	102.912
497.80	104.743
498.14	102.633
498.49	104.926
498.84	103.343
499.18	104.518
499.53	103.671
499.87	102.967
500.22	104.303
500.56	105.547
500.91	102.510
501.26	102.818
501.60	102.804
501.95	102.863
502.29	103.438
502.64	103.282
502.98	104.095
503.33	102.161
503.67	102.313
504.02	102.884
504.36	101.385
504.71	101.465
505.06	103.825
505.40	103.198
505.75	104.227
506.09	102.179
506.44	103.491
506.78	103.265
507.13	104.033
507.47	101.932
507.82	104.327
508.16	104.385
508.51	104.565
508.85	103.506
509.19	104.524
509.54	104.879
509.88	105.178
510.23	105.379
510.57	103.688
510.92	102.505
511.26	105.128
511.61	105.226
511.95	105.589
512.30	104.989
512.64	102.949
512.98	104.604
513.33	105.540
513.67	104.662
514.02	106.636
514.36	106.286
514.70	107.051
515.05	107.814
515.39	105.136
515.74	107.305
516.08	107.591
516.42	106.302
516.77	107.022
517.11	109.436
517.46	108.618
517.80	106.138
518.14	107.042
518.49	105.889
518.83	106.683
519.17	106.610
519.52	106.394
519.86	106.182
520.20	107.290
520.55	109.131
520.89	108.720
521.23	107.790
521.58	107.823
521.92	108.974
522.26	108.068
522.61	109.286
522.95	109.007
523.29	107.306
523.64	108.704
523.98	109.138
524.32	106.765
524.66	107.746
525.01	108.961
525.35	107.971
525.69	108.215
526.04	107.209
526.38	108.042
526.72	107.521
527.06	106.809
527.41	108.179
527.75	107.574
528.09	107.774
528.43	108.845
528.78	107.459
529.12	106.323
529.46	108.512
529.80	104.877
530.15	108.977
530.49	107.205
530.83	108.413
531.17	107.052
531.51	108.618
531.86	107.206
532.20	108.003
532.54	107.965
532.88	106.639
533.22	106.989
533.57	105.767
533.91	106.789
534.25	105.794
534.59	104.554
534.93	105.412
535.27	102.665
535.62	105.250
535.96	106.393
536.30	103.430
536.64	107.030
536.98	105.714
537.32	107.895
537.66	106.802
538.01	106.713
538.35	104.161
538.69	104.261
539.03	103.896
539.37	105.384
539.71	104.840
540.05	104.752
540.39	104.501
540.73	106.416
541.07	103.867
541.42	102.218
541.76	106.194
542.10	104.542
542.44	105.490
542.78	103.923
543.12	105.288
543.46	104.451
543.80	106.246
544.14	101.736
544.48	102.065
544.82	104.990
545.16	104.577
545.50	100.601
545.84	104.887
546.18	105.177
546.52	105.407
546.86	103.019
547.20	103.505
547.54	102.544
547.88	102.038
548.22	100.526
548.56	100.923
548.90	102.763
549.24	101.309
549.58	104.161
549.92	102.287
550.26	104.249
550.60	104.684
550.94	104.481
551.28	103.632
551.62	105.846
551.96	105.038
552.30	103.947
552.64	102.045
552.98	103.376
553.32	102.924
553.66	101.742
554.00	103.650
554.34	104.727
554.68	103.392
555.02	106.250
555.36	102.917
555.69	104.322
556.03	101.356
556.37	102.278
556.71	104.260
557.05	104.474
557.39	103.123
557.73	105.172
558.07	105.430
558.41	104.824
558.75	105.378
559.08	105.201
559.42	107.619
559.76	105.845
560.10	104.817
560.44	103.202
560.78	101.189
561.12	103.244
561.45	102.881
561.79	103.501
562.13	103.052
562.47	103.885
562.81	102.305
563.15	101.834
563.48	102.546
563.82	102.128
564.16	104.039
564.50	100.946
564.84	101.406
565.17	99.463
565.51	104.440
565.85	104.321
566.19	100.729
566.52	101.475
566.86	100.771
567.20	100.560
567.54	101.764
567.88	100.996
568.21	99.321
568.55	97.772
568.89	98.357
569.23	96.919
569.56	94.877
569.90	95.087
570.24	92.445
570.57	94.436
570.91	92.750
571.25	90.464
571.59	89.193
571.92	87.763
572.26	89.130
572.60	88.992
572.93	88.641
573.27	88.339
573.61	88.842
573.95	88.039
574.28	87.023
574.62	85.990
574.96	86.562
575.29	85.058
575.63	84.970
575.97	86.256
576.30	86.815
576.64	85.536
576.98	86.847
577.31	86.459
577.65	86.766
577.98	85.228
578.32	84.505
578.66	83.409
578.99	85.283
579.33	84.886
579.67	84.481
580.00	85.949
580.34	85.522
580.67	85.485
581.01	86.071
581.35	83.958
581.68	83.153
582.02	83.024
582.35	83.658
582.69	84.807
583.02	83.978
583.36	84.954
583.70	86.241
584.03	87.406
584.37	86.815
584.70	86.044
585.04	84.041
585.37	84.275
585.71	84.868
586.04	84.493
586.38	84.929
586.72	86.227
587.05	86.944
587.39	87.028
587.72	87.671
588.06	87.157
588.39	85.958
588.73	86.142
589.06	87.671
589.40	88.213
589.73	89.084
590.07	88.218
590.40	88.971
590.73	90.692
591.07	89.186
591.40	89.849
591.74	90.633
592.07	90.538
592.41	91.431
592.74	88.690
593.08	87.111
593.41	86.853
593.75	86.425
594.08	86.062
594.41	86.900
594.75	87.710
595.08	86.606
595.42	87.376
595.75	88.772
596.09	88.976
596.42	88.880
596.75	89.165
597.09	89.567
597.42	89.657
597.75	89.968
598.09	89.045
598.42	88.493
598.76	88.374
599.09	87.981
599.42	85.601
599.76	85.929
600.09	86.802
600.42	86.240
600.76	85.067
601.09	85.878
601.42	86.095
601.76	87.971
602.09	88.366
602.42	89.638
602.76	88.625
603.09	88.621
603.42	90.008
603.76	88.105
604.09	87.282
604.42	88.409
604.76	89.364
605.09	88.894
605.42	87.856
605.75	88.310
606.09	88.153
606.42	87.031
606.75	87.749
607.09	86.989
607.42	86.708
607.75	86.501
608.08	86.972
608.42	86.158
608.75	89.735
609.08	89.487
609.41	89.645
609.75	90.020
610.08	90.464
610.41	88.986
610.74	87.567
611.07	90.543
611.41	89.517
611.74	89.819
612.07	90.203
612.40	91.575
612.73	93.333
613.07	90.720
613.40	90.427
613.73	91.662
614.06	89.761
614.39	92.160
614.72	89.524
615.06	89.609
615.39	87.555
615.72	89.128
616.05	89.777
616.38	87.521
616.71	91.437
617.05	92.217
617.38	92.206
617.71	92.704
618.04	93.143
618.37	94.073
618.70	93.399
619.03	93.750
619.36	93.994
619.69	97.801
620.03	96.348
620.36	94.278
620.69	93.862
621.02	96.101
621.35	99.336
621.68	99.575
622.01	99.417
622.34	96.089
622.67	95.820
623.00	93.721
623.33	93.979
623.66	95.064
623.99	94.629
624.32	95.437
624.65	95.038
624.99	95.485
625.32	93.632
