SpectraSuite Data File
++++++++++++++++++++++++++++++++++++
Date: Fri May 15 20:45:04 PDT 2015
User: schluterlab
Dark Spectrum Present: Yes
Reference Spectrum Present: Yes
Number of Sampled Component Spectra: 1
Spectrometers: USB2E3373
Integration Time (usec): 3000 (USB2E3373)
Spectra Averaged: 3 (USB2E3373)
Boxcar Smoothing: 0 (USB2E3373)
Correct for Electrical Dark: No (USB2E3373)
Strobe/Lamp Enabled: No (USB2E3373)
Correct for Detector Non-linearity: No (USB2E3373)
Correct for Stray Light: No (USB2E3373)
Number of Pixels in Processed Spectrum: 2048
>>>>>Begin Processed Spectral Data<<<<<
178.53	0.000
178.91	0.000
179.29	25.000
179.67	-400.000
180.04	14.286
180.42	175.000
180.80	-1400.000
181.18	166.667
181.56	750.000
181.94	-200.000
182.31	-300.000
182.69	-160.000
183.07	-66.667
183.45	-140.000
183.83	133.333
184.20	-36.364
184.58	88.889
184.96	300.000
185.34	-200.000
185.72	-250.000
186.09	84.615
186.47	-100.000
186.85	83.333
187.23	88.889
187.61	-100.000
187.98	-166.667
188.36	-55.556
188.74	-500.000
189.12	23.529
189.49	5.556
189.87	0.000
190.25	78.571
190.63	100.000
191.00	-100.000
191.38	-21.053
191.76	-50.000
192.14	275.000
192.51	-50.000
192.89	11.111
193.27	-85.714
193.65	266.667
194.02	154.545
194.40	-40.000
194.78	-125.000
195.15	-8.333
195.53	-112.500
195.91	150.000
196.29	75.000
196.66	84.615
197.04	100.000
197.42	-66.667
197.79	-500.000
198.17	-61.538
198.55	1000.000
198.92	-333.333
199.30	400.000
199.68	40.000
200.05	-233.333
200.43	0.000
200.81	-400.000
201.18	-33.333
201.56	700.000
201.94	-550.000
202.31	-66.667
202.69	-60.000
203.07	100.000
203.44	700.000
203.82	0.000
204.19	21.429
204.57	-466.667
204.95	125.000
205.32	-40.000
205.70	-14.286
206.08	-50.000
206.45	277.778
206.83	57.143
207.20	-14.286
207.58	-100.000
207.96	-266.667
208.33	-100.000
208.71	25.000
209.08	-33.333
209.46	-600.000
209.84	-140.000
210.21	-1300.000
210.59	-14.286
210.96	-50.000
211.34	-275.000
211.71	-33.333
212.09	-214.286
212.46	-2700.000
212.84	0.000
213.22	30.000
213.59	400.000
213.97	-23.077
214.34	136.364
214.72	-50.000
215.09	500.000
215.47	-23.077
215.84	-27.273
216.22	-466.667
216.59	0.000
216.97	-250.000
217.34	-275.000
217.72	-260.000
218.09	-12.500
218.47	37.500
218.84	-700.000
219.22	-111.111
219.59	-100.000
219.97	300.000
220.34	300.000
220.72	28.571
221.09	-100.000
221.47	100.000
221.84	-150.000
222.22	-550.000
222.59	-9.091
222.97	50.000
223.34	-200.000
223.72	-35.714
224.09	-9.524
224.46	14.286
224.84	400.000
225.21	-40.000
225.59	26.667
225.96	-300.000
226.34	375.000
226.71	-85.714
227.08	-16.667
227.46	-62.500
227.83	-450.000
228.21	88.889
228.58	54.545
228.95	25.000
229.33	70.000
229.70	18.750
230.08	-62.500
230.45	-42.857
230.82	0.000
231.20	-20.000
231.57	28.571
231.95	-157.143
232.32	-50.000
232.69	0.000
233.07	433.333
233.44	120.000
233.81	-40.000
234.19	-55.556
234.56	64.706
234.93	-0.000
235.31	-200.000
235.68	-220.000
236.05	-69.231
236.43	60.000
236.80	35.294
237.17	40.625
237.55	15.000
237.92	37.037
238.29	22.222
238.67	56.667
239.04	32.353
239.41	26.829
239.79	86.667
240.16	34.146
240.53	26.316
240.91	26.087
241.28	47.619
241.65	55.357
242.02	65.753
242.40	60.000
242.77	55.932
243.14	39.394
243.51	42.500
243.89	56.322
244.26	44.828
244.63	53.571
245.00	41.237
245.38	57.732
245.75	34.831
246.12	47.414
246.49	49.587
246.87	63.462
247.24	36.975
247.61	41.228
247.98	69.919
248.36	42.500
248.73	53.947
249.10	51.299
249.47	61.392
249.84	50.980
250.22	52.353
250.59	53.595
250.96	53.521
251.33	61.047
251.70	50.588
252.08	54.315
252.45	52.970
252.82	63.317
253.19	51.152
253.56	54.673
253.94	55.856
254.31	53.913
254.68	56.579
255.05	51.969
255.42	51.528
255.79	56.757
256.16	50.973
256.54	57.836
256.91	55.513
257.28	50.558
257.65	54.682
258.02	51.418
258.39	51.852
258.76	55.678
259.14	58.804
259.51	49.838
259.88	51.203
260.25	54.248
260.62	61.458
260.99	55.593
261.36	53.425
261.73	53.481
262.10	54.103
262.47	57.055
262.85	55.486
263.22	52.308
263.59	54.517
263.96	56.522
264.33	57.879
264.70	52.381
265.07	58.631
265.44	60.340
265.81	56.780
266.18	60.109
266.55	54.242
266.92	55.699
267.29	58.225
267.66	53.708
268.03	55.759
268.40	56.658
268.77	56.952
269.14	54.436
269.51	53.985
269.88	51.621
270.25	55.357
270.62	53.902
270.99	56.522
271.36	53.790
271.73	54.460
272.10	54.015
272.47	57.683
272.84	50.990
273.21	55.220
273.58	54.940
273.95	51.945
274.32	55.196
274.69	52.036
275.06	59.375
275.43	52.381
275.80	55.629
276.17	55.172
276.54	51.606
276.91	52.851
277.28	51.310
277.65	54.132
278.02	53.404
278.39	55.799
278.76	55.975
279.13	50.415
279.50	55.252
279.87	53.564
280.23	52.258
280.60	49.903
280.97	53.131
281.34	51.731
281.71	51.745
282.08	51.125
282.45	52.838
282.82	50.000
283.19	49.710
283.56	53.757
283.92	51.044
284.29	51.346
284.66	50.581
285.03	51.081
285.40	51.985
285.77	50.615
286.14	50.722
286.51	52.399
286.87	46.801
287.24	50.645
287.61	50.265
287.98	47.895
288.35	47.487
288.72	50.788
289.08	48.438
289.45	50.264
289.82	46.853
290.19	46.416
290.56	48.027
290.93	47.980
291.29	42.373
291.66	43.622
292.03	44.817
292.40	45.000
292.77	42.743
293.13	41.721
293.50	42.185
293.87	41.221
294.24	42.504
294.60	41.729
294.97	42.708
295.34	44.172
295.71	40.537
296.08	40.957
296.44	37.127
296.81	40.694
297.18	39.420
297.55	40.379
297.91	38.767
298.28	40.501
298.65	37.856
299.02	37.601
299.38	37.483
299.75	37.517
300.12	37.173
300.48	36.891
300.85	35.615
301.22	37.013
301.59	37.105
301.95	38.354
302.32	38.651
302.69	37.438
303.05	36.634
303.42	36.364
303.79	36.565
304.15	36.918
304.52	35.434
304.89	36.257
305.25	35.351
305.62	34.072
305.99	35.322
306.35	36.185
306.72	33.408
307.09	36.716
307.45	34.902
307.82	35.069
308.19	36.237
308.55	31.843
308.92	36.492
309.29	34.190
309.65	34.446
310.02	33.443
310.38	32.931
310.75	37.158
311.12	33.907
311.48	35.101
311.85	32.356
312.22	34.283
312.58	35.563
312.95	31.910
313.31	33.540
313.68	32.251
314.05	33.571
314.41	32.784
314.78	33.918
315.14	34.841
315.51	33.230
315.87	34.016
316.24	34.884
316.61	33.858
316.97	33.929
317.34	32.715
317.70	33.461
318.07	32.212
318.43	32.647
318.80	33.239
319.16	34.766
319.53	33.618
319.89	33.465
320.26	34.008
320.62	33.601
320.99	31.733
321.35	31.449
321.72	33.333
322.08	34.542
322.45	34.213
322.81	33.202
323.18	33.955
323.54	33.205
323.91	33.301
324.27	34.766
324.64	32.397
325.00	32.847
325.37	33.425
325.73	30.916
326.10	31.244
326.46	32.556
326.83	32.283
327.19	32.694
327.56	33.536
327.92	33.363
328.29	32.589
328.65	33.302
329.01	32.813
329.38	33.088
329.74	32.483
330.11	32.994
330.47	31.169
330.84	32.404
331.20	34.125
331.56	32.407
331.93	32.055
332.29	31.347
332.66	31.222
333.02	32.249
333.38	30.431
333.75	31.777
334.11	31.603
334.48	32.276
334.84	32.784
335.20	31.290
335.57	31.732
335.93	31.165
336.29	30.847
336.66	31.880
337.02	31.413
337.38	30.463
337.75	32.000
338.11	31.740
338.47	32.299
338.84	31.885
339.20	31.444
339.56	31.193
339.93	31.513
340.29	31.927
340.65	32.527
341.02	31.117
341.38	30.265
341.74	30.742
342.11	29.463
342.47	30.160
342.83	31.315
343.20	30.401
343.56	29.913
343.92	30.381
344.28	30.999
344.65	29.706
345.01	30.683
345.37	30.782
345.73	31.967
346.10	30.889
346.46	30.530
346.82	30.933
347.19	29.426
347.55	30.827
347.91	30.178
348.27	30.477
348.63	31.942
349.00	28.958
349.36	28.928
349.72	30.514
350.08	29.426
350.45	29.769
350.81	28.821
351.17	29.316
351.53	31.265
351.89	29.149
352.26	30.320
352.62	29.516
352.98	28.835
353.34	28.341
353.70	30.178
354.07	28.226
354.43	28.183
354.79	29.893
355.15	31.111
355.51	29.509
355.87	30.340
356.24	27.896
356.60	27.890
356.96	28.492
357.32	28.355
357.68	29.242
358.04	27.787
358.40	29.582
358.77	28.708
359.13	28.743
359.49	28.043
359.85	28.237
360.21	28.070
360.57	27.621
360.93	28.669
361.29	27.341
361.66	28.683
362.02	28.485
362.38	27.342
362.74	28.236
363.10	29.270
363.46	27.650
363.82	29.376
364.18	27.897
364.54	26.985
364.90	27.742
365.26	26.346
365.62	28.248
365.98	28.372
366.35	29.643
366.71	28.160
367.07	28.157
367.43	26.887
367.79	27.845
368.15	28.571
368.51	27.895
368.87	27.064
369.23	28.231
369.59	28.061
369.95	27.859
370.31	28.107
370.67	28.134
371.03	26.662
371.39	27.206
371.75	27.179
372.11	27.461
372.47	27.145
372.83	28.105
373.19	28.531
373.55	26.426
373.91	27.286
374.27	28.207
374.63	27.782
374.99	27.163
375.35	27.646
375.71	27.343
376.07	26.966
376.42	26.599
376.78	28.121
377.14	27.420
377.50	28.021
377.86	27.711
378.22	27.313
378.58	28.526
378.94	27.473
379.30	26.263
379.66	27.273
380.02	26.487
380.38	26.598
380.74	26.810
381.09	27.791
381.45	26.972
381.81	26.342
382.17	26.713
382.53	26.858
382.89	26.428
383.25	27.256
383.61	26.524
383.97	25.905
384.32	27.017
384.68	26.625
385.04	25.245
385.40	25.949
385.76	27.044
386.12	27.555
386.48	26.948
386.83	25.872
387.19	26.129
387.55	27.164
387.91	26.284
388.27	26.313
388.62	27.124
388.98	25.967
389.34	25.859
389.70	25.855
390.06	25.739
390.42	25.777
390.77	26.619
391.13	26.293
391.49	26.067
391.85	25.471
392.20	26.240
392.56	27.146
392.92	26.718
393.28	26.297
393.64	26.607
393.99	26.583
394.35	25.870
394.71	26.309
395.07	25.770
395.42	25.926
395.78	26.254
396.14	26.482
396.50	26.316
396.85	26.143
397.21	26.504
397.57	26.332
397.92	25.404
398.28	25.920
398.64	25.241
399.00	26.411
399.35	25.621
399.71	25.215
400.07	26.602
400.42	25.704
400.78	25.536
401.14	25.832
401.49	26.563
401.85	26.264
402.21	26.145
402.57	26.375
402.92	25.408
403.28	27.005
403.63	26.734
403.99	25.383
404.35	26.171
404.70	25.417
405.06	25.499
405.42	25.730
405.77	24.811
406.13	26.542
406.49	25.281
406.84	25.244
407.20	25.888
407.55	25.113
407.91	25.869
408.27	24.474
408.62	26.277
408.98	25.940
409.34	25.589
409.69	25.581
410.05	25.862
410.40	25.494
410.76	26.478
411.11	26.125
411.47	26.824
411.83	25.800
412.18	26.577
412.54	25.718
412.89	24.507
413.25	26.173
413.60	24.969
413.96	25.767
414.31	25.671
414.67	25.850
415.03	25.366
415.38	26.305
415.74	26.710
416.09	25.539
416.45	25.928
416.80	25.446
417.16	26.381
417.51	26.782
417.87	26.662
418.22	26.554
418.58	25.953
418.93	27.335
419.29	25.608
419.64	26.053
420.00	26.448
420.35	25.851
420.71	26.185
421.06	25.905
421.42	26.142
421.77	25.780
422.12	25.085
422.48	25.988
422.83	25.870
423.19	25.621
423.54	25.279
423.90	25.795
424.25	26.751
424.61	26.255
424.96	25.842
425.31	26.690
425.67	26.819
426.02	27.032
426.38	25.798
426.73	26.695
427.09	27.152
427.44	26.647
427.79	25.987
428.15	27.124
428.50	26.711
428.85	25.553
429.21	26.033
429.56	26.146
429.92	27.016
430.27	25.915
430.62	24.935
430.98	26.486
431.33	26.709
431.68	26.845
432.04	26.831
432.39	25.214
432.74	26.037
433.10	26.839
433.45	26.404
433.80	26.291
434.16	25.042
434.51	27.043
434.86	26.190
435.22	26.080
435.57	25.889
435.92	26.048
436.28	26.058
436.63	27.210
436.98	26.188
437.34	26.013
437.69	27.191
438.04	26.154
438.39	25.962
438.75	27.140
439.10	27.278
439.45	26.841
439.81	26.972
440.16	26.603
440.51	26.985
440.86	28.097
441.22	25.962
441.57	26.545
441.92	27.020
442.27	27.051
442.63	27.677
442.98	26.307
443.33	26.322
443.68	25.782
444.03	27.173
444.39	26.562
444.74	27.592
445.09	27.060
445.44	26.553
445.79	27.385
446.15	26.762
446.50	26.179
446.85	26.621
447.20	27.059
447.55	27.232
447.91	27.411
448.26	27.376
448.61	26.828
448.96	27.596
449.31	26.416
449.66	27.236
450.02	27.382
450.37	27.149
450.72	27.721
451.07	27.975
451.42	26.467
451.77	27.125
452.12	26.376
452.47	26.336
452.83	26.620
453.18	27.135
453.53	27.686
453.88	27.565
454.23	28.150
454.58	27.708
454.93	27.706
455.28	26.222
455.63	26.968
455.98	27.962
456.34	27.395
456.69	27.001
457.04	27.977
457.39	26.549
457.74	27.993
458.09	26.604
458.44	27.501
458.79	27.283
459.14	27.746
459.49	27.821
459.84	27.186
460.19	27.913
460.54	27.751
460.89	27.330
461.24	28.261
461.59	27.316
461.94	28.050
462.29	28.830
462.64	28.306
462.99	28.097
463.34	26.843
463.69	26.255
464.04	28.269
464.39	27.289
464.74	28.221
465.09	27.573
465.44	27.986
465.79	28.005
466.14	27.936
466.49	27.372
466.84	27.067
467.19	27.847
467.54	27.905
467.89	27.543
468.24	26.460
468.59	28.063
468.94	28.190
469.29	27.869
469.64	27.956
469.99	28.521
470.34	27.986
470.68	27.964
471.03	28.096
471.38	29.244
471.73	29.972
472.08	27.476
472.43	28.859
472.78	29.061
473.13	27.755
473.48	29.381
473.83	28.207
474.17	28.303
474.52	29.355
474.87	28.121
475.22	28.371
475.57	28.176
475.92	28.963
476.27	28.580
476.61	28.819
476.96	27.273
477.31	29.151
477.66	28.315
478.01	29.085
478.36	28.922
478.70	28.657
479.05	29.451
479.40	29.253
479.75	27.842
480.10	28.111
480.45	27.800
480.79	29.104
481.14	28.637
481.49	27.833
481.84	29.537
482.19	27.502
482.53	29.065
482.88	28.687
483.23	27.687
483.58	29.151
483.92	28.412
484.27	28.897
484.62	28.642
484.97	28.234
485.31	27.854
485.66	26.411
486.01	26.714
486.36	26.206
486.70	26.649
487.05	27.496
487.40	27.327
487.75	28.254
488.09	28.368
488.44	28.198
488.79	28.502
489.13	28.766
489.48	28.431
489.83	28.700
490.17	29.258
490.52	29.238
490.87	28.598
491.22	29.179
491.56	28.463
491.91	28.059
492.26	29.849
492.60	28.311
492.95	30.251
493.30	29.800
493.64	29.371
493.99	29.614
494.34	28.689
494.68	29.048
495.03	29.002
495.37	29.342
495.72	29.531
496.07	30.049
496.41	28.821
496.76	29.710
497.11	29.530
497.45	30.263
497.80	30.676
498.14	29.260
498.49	29.101
498.84	29.641
499.18	30.321
499.53	29.812
499.87	28.551
500.22	28.882
500.56	29.501
500.91	29.819
501.26	29.857
501.60	29.267
501.95	29.452
502.29	30.266
502.64	30.116
502.98	29.206
503.33	28.770
503.67	29.060
504.02	30.059
504.36	30.480
504.71	29.596
505.06	29.240
505.40	29.898
505.75	30.103
506.09	29.042
506.44	29.979
506.78	30.714
507.13	30.300
507.47	29.713
507.82	29.220
508.16	30.269
508.51	30.168
508.85	31.136
509.19	29.963
509.54	30.295
509.88	29.720
510.23	30.554
510.57	30.144
510.92	29.691
511.26	30.005
511.61	30.253
511.95	31.068
512.30	30.155
512.64	30.495
512.98	30.657
513.33	31.449
513.67	30.756
514.02	31.064
514.36	32.686
514.70	31.469
515.05	31.434
515.39	30.992
515.74	32.275
516.08	32.277
516.42	31.920
516.77	31.597
517.11	31.632
517.46	31.358
517.80	31.824
518.14	31.231
518.49	31.370
518.83	31.652
519.17	30.685
519.52	31.202
519.86	31.032
520.20	31.835
520.55	30.832
520.89	32.936
521.23	32.426
521.58	31.987
521.92	32.692
522.26	32.075
522.61	32.013
522.95	32.914
523.29	31.893
523.64	32.846
523.98	32.728
524.32	31.637
524.66	32.971
525.01	32.338
525.35	32.469
525.69	32.121
526.04	32.209
526.38	33.398
526.72	32.374
527.06	31.582
527.41	32.718
527.75	32.239
528.09	31.429
528.43	33.896
528.78	31.815
529.12	32.194
529.46	31.904
529.80	32.109
530.15	32.937
530.49	32.458
530.83	31.737
531.17	32.236
531.51	32.969
531.86	32.291
532.20	32.707
532.54	32.743
532.88	32.307
533.22	33.065
533.57	33.814
533.91	31.070
534.25	31.510
534.59	32.457
534.93	30.522
535.27	31.091
535.62	31.497
535.96	33.594
536.30	33.641
536.64	32.598
536.98	32.822
537.32	33.001
537.66	34.502
538.01	33.357
538.35	31.692
538.69	31.957
539.03	31.647
539.37	32.840
539.71	31.561
540.05	32.451
540.39	33.726
540.73	32.915
541.07	33.080
541.42	32.728
541.76	33.035
542.10	32.829
542.44	33.565
542.78	31.452
543.12	31.456
543.46	33.171
543.80	32.408
544.14	31.575
544.48	32.179
544.82	32.673
545.16	32.787
545.50	32.510
545.84	33.215
546.18	34.113
546.52	33.814
546.86	32.566
547.20	33.262
547.54	31.731
547.88	32.473
548.22	30.835
548.56	32.256
548.90	32.278
549.24	32.576
549.58	33.145
549.92	32.952
550.26	32.674
550.60	31.970
550.94	33.234
551.28	33.539
551.62	34.154
551.96	33.308
552.30	33.918
552.64	32.299
552.98	31.857
553.32	32.382
553.66	33.019
554.00	32.263
554.34	33.235
554.68	32.743
555.02	34.226
555.36	33.059
555.69	32.601
556.03	31.906
556.37	33.096
556.71	32.563
557.05	33.035
557.39	32.937
557.73	33.733
558.07	33.409
558.41	32.542
558.75	34.217
559.08	32.782
559.42	33.571
559.76	34.668
560.10	33.563
560.44	31.794
560.78	31.399
561.12	32.722
561.45	32.818
561.79	34.034
562.13	32.150
562.47	32.518
562.81	32.709
563.15	32.934
563.48	33.168
563.82	33.288
564.16	32.591
564.50	31.892
564.84	32.999
565.17	31.657
565.51	33.538
565.85	32.647
566.19	32.825
566.52	33.177
566.86	32.648
567.20	32.130
567.54	31.630
567.88	33.040
568.21	31.674
568.55	31.630
568.89	32.290
569.23	32.210
569.56	29.729
569.90	31.100
570.24	29.996
570.57	30.291
570.91	30.115
571.25	28.741
571.59	28.496
571.92	28.948
572.26	29.016
572.60	29.364
572.93	29.150
573.27	28.621
573.61	29.475
573.95	29.110
574.28	28.602
574.62	28.223
574.96	27.948
575.29	28.496
575.63	27.857
575.97	27.948
576.30	28.816
576.64	27.762
576.98	28.571
577.31	28.459
577.65	27.821
577.98	28.487
578.32	27.570
578.66	27.488
578.99	27.656
579.33	28.129
579.67	27.908
580.00	28.228
580.34	28.109
580.67	28.066
581.01	28.314
581.35	27.907
581.68	27.160
582.02	27.234
582.35	27.985
582.69	27.892
583.02	28.135
583.36	28.815
583.70	29.647
584.03	29.358
584.37	29.588
584.70	28.626
585.04	27.850
585.37	27.592
585.71	27.820
586.04	28.240
586.38	28.007
586.72	29.154
587.05	28.827
587.39	28.711
587.72	28.814
588.06	29.089
588.39	28.567
588.73	29.121
589.06	29.028
589.40	29.070
589.73	29.390
590.07	29.569
590.40	29.760
590.73	30.478
591.07	30.450
591.40	30.098
591.74	29.638
592.07	30.380
592.41	29.859
592.74	28.753
593.08	29.095
593.41	28.369
593.75	28.067
594.08	28.012
594.41	29.039
594.75	29.008
595.08	29.512
595.42	29.555
595.75	30.079
596.09	28.968
596.42	29.930
596.75	29.263
597.09	29.476
597.42	29.494
597.75	29.776
598.09	29.470
598.42	29.919
598.76	28.915
599.09	29.127
599.42	29.026
599.76	28.819
600.09	28.431
600.42	28.582
600.76	28.789
601.09	28.435
601.42	29.064
601.76	29.297
602.09	29.579
602.42	29.612
602.76	29.924
603.09	29.236
603.42	30.142
603.76	28.952
604.09	28.919
604.42	29.949
604.76	29.907
605.09	29.799
605.42	29.165
605.75	28.984
606.09	29.597
606.42	29.149
606.75	28.745
607.09	29.802
607.42	28.533
607.75	28.996
608.08	29.021
608.42	29.100
608.75	29.783
609.08	29.696
609.41	30.102
609.75	29.990
610.08	29.805
610.41	28.406
610.74	29.742
611.07	30.646
611.41	29.787
611.74	30.437
612.07	29.818
612.40	30.635
612.73	30.226
613.07	29.921
613.40	29.705
613.73	29.547
614.06	31.052
614.39	30.852
614.72	29.524
615.06	29.665
615.39	29.039
615.72	29.817
616.05	30.279
616.38	29.231
616.71	30.031
617.05	31.069
617.38	31.364
617.71	30.692
618.04	30.476
618.37	30.769
618.70	31.221
619.03	31.250
619.36	31.259
619.69	32.676
620.03	31.921
620.36	30.258
620.69	31.121
621.02	32.263
621.35	31.701
621.68	32.993
622.01	33.167
622.34	32.163
622.67	32.256
623.00	31.853
623.33	30.945
623.66	31.638
623.99	31.241
624.32	32.167
624.65	31.278
624.99	32.355
625.32	30.705
625.65	33.229
625.98	31.507
626.31	31.089
626.64	32.062
626.97	33.246
627.30	32.750
627.63	33.536
627.96	33.423
628.29	32.470
628.62	33.825
628.95	34.068
629.28	34.173
629.61	32.602
629.94	34.409
630.26	34.091
630.59	34.027
630.92	34.256
631.25	33.128
631.58	34.251
631.91	33.662
632.24	35.206
632.57	35.114
632.90	34.401
633.23	34.353
