SpectraSuite Data File
++++++++++++++++++++++++++++++++++++
Date: Fri May 15 20:29:57 PDT 2015
User: schluterlab
Dark Spectrum Present: Yes
Reference Spectrum Present: Yes
Number of Sampled Component Spectra: 1
Spectrometers: USB2E3373
Integration Time (usec): 3000 (USB2E3373)
Spectra Averaged: 3 (USB2E3373)
Boxcar Smoothing: 0 (USB2E3373)
Correct for Electrical Dark: No (USB2E3373)
Strobe/Lamp Enabled: No (USB2E3373)
Correct for Detector Non-linearity: No (USB2E3373)
Correct for Stray Light: No (USB2E3373)
Number of Pixels in Processed Spectrum: 2048
>>>>>Begin Processed Spectral Data<<<<<
178.53	0.000
178.91	0.000
179.29	100.000
179.67	-550.000
180.04	57.143
180.42	50.000
180.80	100.000
181.18	200.000
181.56	550.000
181.94	-50.000
182.31	200.000
182.69	-140.000
183.07	-233.333
183.45	-120.000
183.83	183.333
184.20	-36.364
184.58	77.778
184.96	-75.000
185.34	-66.667
185.72	-200.000
186.09	76.923
186.47	-1200.000
186.85	83.333
187.23	100.000
187.61	600.000
187.98	0.000
188.36	-11.111
188.74	-400.000
189.12	0.000
189.49	-5.556
189.87	0.000
190.25	71.429
190.63	250.000
191.00	-200.000
191.38	-10.526
191.76	0.000
192.14	75.000
192.51	300.000
192.89	-77.778
193.27	-57.143
193.65	50.000
194.02	109.091
194.40	40.000
194.78	-87.500
195.15	-91.667
195.53	-100.000
195.91	150.000
196.29	-150.000
196.66	61.538
197.04	200.000
197.42	-88.889
197.79	-333.333
198.17	-84.615
198.55	1700.000
198.92	-166.667
199.30	-100.000
199.68	-140.000
200.05	-400.000
200.43	0.000
200.81	100.000
201.18	0.000
201.56	2000.000
201.94	100.000
202.31	-166.667
202.69	-80.000
203.07	125.000
203.44	-200.000
203.82	0.000
204.19	42.857
204.57	-133.333
204.95	62.500
205.32	0.000
205.70	57.143
206.08	25.000
206.45	111.111
206.83	50.000
207.20	-114.286
207.58	100.000
207.96	-433.333
208.33	-10.000
208.71	-50.000
209.08	-250.000
209.46	-1300.000
209.84	-20.000
210.21	-900.000
210.59	-14.286
210.96	33.333
211.34	-175.000
211.71	40.000
212.09	-171.429
212.46	-1200.000
212.84	0.000
213.22	80.000
213.59	400.000
213.97	100.000
214.34	45.455
214.72	-233.333
215.09	650.000
215.47	-69.231
215.84	-18.182
216.22	-233.333
216.59	-75.000
216.97	150.000
217.34	-75.000
217.72	-200.000
218.09	37.500
218.47	75.000
218.84	-400.000
219.22	-11.111
219.59	-160.000
219.97	433.333
220.34	225.000
220.72	28.571
221.09	-50.000
221.47	-400.000
221.84	-500.000
222.22	-500.000
222.59	0.000
222.97	83.333
223.34	-166.667
223.72	35.714
224.09	9.524
224.46	17.857
224.84	533.333
225.21	-80.000
225.59	26.667
225.96	-300.000
226.34	475.000
226.71	-142.857
227.08	-116.667
227.46	-62.500
227.83	-400.000
228.21	0.000
228.58	-63.636
228.95	-50.000
229.33	80.000
229.70	37.500
230.08	-87.500
230.45	-157.143
230.82	171.429
231.20	-73.333
231.57	28.571
231.95	0.000
232.32	-50.000
232.69	-14.286
233.07	100.000
233.44	-140.000
233.81	-10.000
234.19	-22.222
234.56	-58.824
234.93	300.000
235.31	-50.000
235.68	-320.000
236.05	0.000
236.43	-35.000
236.80	-23.529
237.17	21.875
237.55	-35.000
237.92	-55.556
238.29	0.000
238.67	10.000
239.04	-8.824
239.41	-29.268
239.79	-30.000
240.16	12.195
240.53	-31.579
240.91	-34.783
241.28	3.175
241.65	7.143
242.02	13.699
242.40	-8.333
242.77	-1.695
243.14	-9.091
243.51	2.500
243.89	13.793
244.26	-6.897
244.63	-1.190
245.00	-3.093
245.38	1.031
245.75	-22.472
246.12	-14.655
246.49	4.959
246.87	10.577
247.24	0.840
247.61	-1.754
247.98	-5.691
248.36	1.875
248.73	-3.947
249.10	0.649
249.47	-4.430
249.84	-1.961
250.22	4.118
250.59	-1.961
250.96	9.390
251.33	-2.326
251.70	2.353
252.08	0.000
252.45	-5.941
252.82	2.513
253.19	0.922
253.56	-7.477
253.94	-4.505
254.31	-1.304
254.68	6.579
255.05	-0.787
255.42	2.620
255.79	0.772
256.16	-0.778
256.54	1.493
256.91	0.760
257.28	-1.487
257.65	0.000
258.02	-1.773
258.39	2.694
258.76	-0.733
259.14	0.997
259.51	1.618
259.88	0.687
260.25	-0.327
260.62	1.389
260.99	0.000
261.36	0.685
261.73	0.949
262.10	2.128
262.47	0.307
262.85	1.881
263.22	2.154
263.59	1.869
263.96	0.000
264.33	-3.030
264.70	-4.762
265.07	-1.488
265.44	2.266
265.81	0.282
266.18	0.820
266.55	3.856
266.92	-3.627
267.29	2.611
267.66	0.512
268.03	-0.785
268.40	1.305
268.77	5.080
269.14	3.597
269.51	1.799
269.88	0.499
270.25	-1.786
270.62	-0.732
270.99	-0.256
271.36	0.733
271.73	0.704
272.10	-1.217
272.47	1.182
272.84	0.248
273.21	3.248
273.58	1.687
273.95	2.288
274.32	0.000
274.69	-0.226
275.06	2.902
275.43	-1.587
275.80	-1.104
276.17	-0.690
276.54	1.285
276.91	1.754
277.28	0.437
277.65	1.860
278.02	0.638
278.39	-0.219
278.76	0.000
279.13	-0.830
279.50	1.050
279.87	2.160
280.23	-1.075
280.60	1.559
280.97	0.404
281.34	0.000
281.71	3.080
282.08	0.818
282.45	0.978
282.82	-1.737
283.19	-0.193
283.56	2.697
283.92	0.949
284.29	0.000
284.66	0.194
285.03	0.786
285.40	1.890
285.77	0.176
286.14	-0.722
286.51	3.321
286.87	0.731
287.24	0.368
287.61	0.529
287.98	2.281
288.35	1.733
288.72	1.751
289.08	-0.868
289.45	1.757
289.82	0.350
290.19	0.853
290.56	0.515
290.93	0.168
291.29	0.770
291.66	2.677
292.03	1.116
292.40	1.935
292.77	0.478
293.13	-1.461
293.50	0.303
293.87	1.069
294.24	1.236
294.60	1.341
294.97	1.935
295.34	-0.920
295.71	0.745
296.08	1.196
296.44	-1.138
296.81	0.833
297.18	0.870
297.55	2.439
297.91	2.329
298.28	2.902
298.65	0.950
299.02	-0.539
299.38	-0.137
299.75	0.276
300.12	1.178
300.48	0.395
300.85	1.014
301.22	1.429
301.59	0.000
301.95	3.544
302.32	1.556
302.69	2.114
303.05	0.866
303.42	1.370
303.79	1.519
304.15	1.553
304.52	0.357
304.89	2.339
305.25	0.969
305.62	0.467
305.99	0.351
306.35	-1.272
306.72	0.112
307.09	1.596
307.45	2.067
307.82	-0.116
308.19	1.858
308.55	0.763
308.92	1.307
309.29	-0.223
309.65	0.538
310.02	0.770
310.38	1.207
310.75	1.967
311.12	1.615
311.48	1.485
311.85	1.466
312.22	1.899
312.58	1.168
312.95	0.961
313.31	1.760
313.68	2.094
314.05	3.163
314.41	2.577
314.78	2.784
315.14	4.111
315.51	3.934
315.87	2.664
316.24	5.561
316.61	3.937
316.97	4.762
317.34	4.785
317.70	4.493
318.07	4.423
318.43	5.392
318.80	5.303
319.16	6.055
319.53	7.692
319.89	5.709
320.26	7.692
320.62	8.726
320.99	7.203
321.35	9.044
321.72	10.592
322.08	10.473
322.45	9.645
322.81	10.413
323.18	9.912
323.54	11.873
323.91	12.074
324.27	13.086
324.64	13.951
325.00	14.964
325.37	16.713
325.73	15.684
326.10	16.440
326.46	18.386
326.83	18.635
327.19	19.180
327.56	19.548
327.92	19.718
328.29	21.696
328.65	20.849
329.01	21.232
329.38	23.318
329.74	21.813
330.11	23.726
330.47	22.356
330.84	24.135
331.20	26.806
331.56	25.278
331.93	27.763
332.29	26.489
332.66	26.606
333.02	27.416
333.38	26.856
333.75	28.388
334.11	26.768
334.48	29.556
334.84	28.571
335.20	28.637
335.57	27.924
335.93	29.359
336.29	30.203
336.66	30.154
337.02	29.368
337.38	29.352
337.75	31.091
338.11	31.560
338.47	31.022
338.84	30.961
339.20	30.622
339.56	30.917
339.93	31.871
340.29	31.560
340.65	30.466
341.02	32.270
341.38	31.239
341.74	31.625
342.11	30.329
342.47	32.384
342.83	31.747
343.20	31.794
343.56	32.696
343.92	32.861
344.28	33.732
344.65	32.642
345.01	31.979
345.37	32.632
345.73	33.138
346.10	33.650
346.46	32.044
346.82	33.306
347.19	32.003
347.55	33.500
347.91	33.738
348.27	33.630
348.63	33.986
349.00	34.126
349.36	33.167
349.72	33.582
350.08	34.426
350.45	33.440
350.81	32.309
351.17	32.166
351.53	34.449
351.89	33.361
352.26	33.680
352.62	34.839
352.98	33.815
353.34	33.977
353.70	34.304
354.07	34.032
354.43	33.627
354.79	34.847
355.15	35.159
355.51	33.703
355.87	34.385
356.24	33.279
356.60	33.953
356.96	34.365
357.32	34.265
357.68	33.229
358.04	34.976
358.40	34.405
358.77	34.928
359.13	35.388
359.49	35.593
359.85	34.945
360.21	35.167
360.57	35.272
360.93	33.585
361.29	35.045
361.66	35.658
362.02	34.318
362.38	36.786
362.74	35.276
363.10	36.343
363.46	35.508
363.82	37.040
364.18	35.424
364.54	35.074
364.90	35.699
365.26	35.444
365.62	37.153
365.98	36.217
366.35	36.125
366.71	37.620
367.07	37.736
367.43	35.586
367.79	36.961
368.15	37.114
368.51	37.072
368.87	36.253
369.23	36.462
369.59	36.443
369.95	36.584
370.31	37.861
370.67	37.090
371.03	36.968
371.39	37.199
371.75	38.095
372.11	36.805
372.47	38.314
372.83	38.254
373.19	37.874
373.55	38.700
373.91	36.645
374.27	37.420
374.63	37.760
374.99	37.801
375.35	37.465
375.71	40.140
376.07	37.640
376.42	37.823
376.78	38.859
377.14	36.831
377.50	38.048
377.86	39.224
378.22	38.354
378.58	38.782
378.94	37.366
379.30	38.116
379.66	39.624
380.02	37.339
380.38	37.858
380.74	38.360
381.09	38.957
381.45	37.859
381.81	38.495
382.17	39.721
382.53	38.226
382.89	39.736
383.25	39.515
383.61	39.878
383.97	39.810
384.32	39.212
384.68	40.000
385.04	39.461
385.40	39.203
385.76	40.440
386.12	40.621
386.48	40.358
386.83	40.203
387.19	39.927
387.55	41.405
387.91	40.526
388.27	39.988
388.62	40.654
388.98	39.963
389.34	40.037
389.70	40.709
390.06	40.277
390.42	40.350
390.77	40.615
391.13	40.542
391.49	40.039
391.85	40.741
392.20	40.176
392.56	40.305
392.92	40.575
393.28	40.271
393.64	38.979
393.99	42.508
394.35	41.429
394.71	41.507
395.07	40.415
395.42	40.498
395.78	41.694
396.14	40.164
396.50	41.154
396.85	40.889
397.21	40.915
397.57	40.125
397.92	40.983
398.28	40.517
398.64	39.157
399.00	41.874
399.35	40.350
399.71	40.781
400.07	40.992
400.42	40.024
400.78	41.641
401.14	40.472
401.49	40.917
401.85	39.427
402.21	40.904
402.57	39.938
402.92	39.837
403.28	41.228
403.63	40.794
403.99	39.541
404.35	40.162
404.70	38.690
405.06	39.542
405.42	40.087
405.77	39.919
406.13	40.163
406.49	39.313
406.84	40.403
407.20	40.458
407.55	39.987
407.91	39.840
408.27	40.599
408.62	40.431
408.98	39.803
409.34	39.963
409.69	39.147
410.05	39.163
410.40	38.395
410.76	38.782
411.11	39.688
411.47	39.250
411.83	38.669
412.18	39.575
412.54	38.826
412.89	38.177
413.25	40.132
413.60	39.441
413.96	39.509
414.31	39.573
414.67	38.230
415.03	39.148
415.38	39.164
415.74	39.739
416.09	39.517
416.45	39.500
416.80	38.863
417.16	39.227
417.51	40.173
417.87	38.005
418.22	39.573
418.58	39.130
418.93	39.373
419.29	37.004
419.64	38.043
420.00	38.224
420.35	38.448
420.71	38.092
421.06	37.446
421.42	39.002
421.77	37.919
422.12	37.344
422.48	37.791
422.83	37.935
423.19	38.318
423.54	37.978
423.90	37.220
424.25	39.093
424.61	39.168
424.96	38.966
425.31	39.168
425.67	38.204
426.02	39.223
426.38	38.447
426.73	39.044
427.09	38.354
427.44	38.529
427.79	37.360
428.15	39.078
428.50	39.310
428.85	37.285
429.21	38.257
429.56	38.922
429.92	37.031
430.27	36.441
430.62	36.801
430.98	36.837
431.33	37.277
431.68	36.944
432.04	37.507
432.39	37.707
432.74	36.921
433.10	38.391
433.45	37.395
433.80	37.609
434.16	36.953
434.51	37.581
434.86	37.631
435.22	36.904
435.57	37.617
435.92	38.982
436.28	36.136
436.63	36.338
436.98	37.659
437.34	36.842
437.69	37.984
438.04	36.923
438.39	37.752
438.75	38.009
439.10	37.295
439.45	37.675
439.81	36.942
440.16	37.470
440.51	38.328
440.86	38.671
441.22	37.274
441.57	37.914
441.92	37.880
442.27	38.359
442.63	38.116
442.98	38.024
443.33	36.672
443.68	37.560
444.03	37.158
444.39	36.744
444.74	39.242
445.09	37.862
445.44	37.208
445.79	38.164
446.15	36.399
446.50	37.604
446.85	37.885
447.20	37.643
447.55	37.444
447.91	37.733
448.26	38.589
448.61	38.054
448.96	38.095
449.31	37.572
449.66	38.095
450.02	38.562
450.37	37.700
450.72	38.545
451.07	37.278
451.42	37.266
451.77	37.432
452.12	37.560
452.47	37.540
452.83	37.397
453.18	37.318
453.53	37.231
453.88	37.644
454.23	37.615
454.58	37.028
454.93	38.466
455.28	36.063
455.63	36.950
455.98	37.703
456.34	37.739
456.69	37.929
457.04	37.492
457.39	37.060
457.74	37.001
458.09	36.727
458.44	35.752
458.79	36.919
459.14	37.185
459.49	37.134
459.84	36.999
460.19	37.075
460.54	37.103
460.89	37.102
461.24	37.205
461.59	36.580
461.94	36.038
462.29	37.937
462.64	37.409
462.99	37.576
463.34	36.648
463.69	37.066
464.04	38.015
464.39	37.720
464.74	36.871
465.09	36.744
465.44	36.815
465.79	35.544
466.14	35.348
466.49	35.710
466.84	36.347
467.19	36.546
467.54	36.462
467.89	37.018
468.24	35.645
468.59	37.524
468.94	35.556
469.29	36.984
469.64	36.364
469.99	37.001
470.34	36.314
470.68	36.764
471.03	36.235
471.38	37.233
471.73	36.485
472.08	36.567
472.43	36.242
472.78	36.189
473.13	35.238
473.48	36.091
473.83	35.118
474.17	35.816
474.52	35.865
474.87	35.818
475.22	35.021
475.57	34.670
475.92	35.985
476.27	35.681
476.61	36.111
476.96	35.025
477.31	34.721
477.66	35.169
478.01	35.710
478.36	34.749
478.70	35.182
479.05	35.549
479.40	36.036
479.75	34.359
480.10	34.869
480.45	35.350
480.79	35.297
481.14	36.014
481.49	34.433
481.84	35.376
482.19	34.471
482.53	35.588
482.88	33.938
483.23	34.501
483.58	34.764
483.92	34.124
484.27	33.820
484.62	33.797
484.97	33.665
485.31	32.514
485.66	30.951
486.01	30.996
486.36	30.579
486.70	31.514
487.05	32.164
487.40	32.394
487.75	32.563
488.09	32.046
488.44	33.012
488.79	33.097
489.13	34.175
489.48	33.305
489.83	33.767
490.17	33.258
490.52	33.072
490.87	33.688
491.22	34.002
491.56	33.824
491.91	33.843
492.26	33.155
492.60	33.397
492.95	33.989
493.30	33.415
493.64	34.086
493.99	34.300
494.34	33.786
494.68	33.667
495.03	33.285
495.37	33.660
495.72	33.115
496.07	33.415
496.41	32.642
496.76	32.934
497.11	32.371
497.45	33.556
497.80	33.502
498.14	32.489
498.49	32.656
498.84	33.283
499.18	31.777
499.53	32.887
499.87	32.928
500.22	32.344
500.56	33.031
500.91	32.681
501.26	31.933
501.60	33.448
501.95	33.139
502.29	31.864
502.64	32.819
502.98	31.968
503.33	32.421
503.67	32.530
504.02	33.187
504.36	32.855
504.71	31.162
505.06	31.857
505.40	31.777
505.75	31.959
506.09	31.576
506.44	33.060
506.78	31.939
507.13	31.437
507.47	30.966
507.82	32.692
508.16	31.854
508.51	33.054
508.85	31.711
509.19	31.134
509.54	31.689
509.88	31.985
510.23	32.491
510.57	31.694
510.92	30.064
511.26	31.424
511.61	31.628
511.95	32.055
512.30	31.763
512.64	32.109
512.98	31.611
513.33	32.345
513.67	31.438
514.02	31.407
514.36	32.571
514.70	32.867
515.05	32.726
515.39	31.287
515.74	33.353
516.08	32.158
516.42	32.332
516.77	32.183
517.11	31.632
517.46	32.855
517.80	31.764
518.14	31.170
518.49	32.272
518.83	31.652
519.17	30.625
519.52	31.320
519.86	30.672
520.20	32.503
520.55	30.832
520.89	31.619
521.23	31.539
521.58	33.186
521.92	31.346
522.26	31.815
522.61	32.143
522.95	32.450
523.29	31.830
523.64	31.957
523.98	31.756
524.32	30.348
524.66	31.178
525.01	31.169
525.35	31.303
525.69	31.717
526.04	30.688
526.38	31.971
526.72	30.216
527.06	30.156
527.41	30.079
527.75	30.161
528.09	30.432
528.43	31.668
528.78	30.363
529.12	30.839
529.46	30.604
529.80	30.146
530.15	31.023
530.49	30.976
530.83	31.395
531.17	29.886
531.51	30.438
531.86	29.436
532.20	29.993
532.54	30.633
532.88	30.664
533.22	30.847
533.57	28.899
533.91	29.504
534.25	30.990
534.59	28.801
534.93	28.949
535.27	29.124
535.62	28.970
535.96	29.941
536.30	29.090
536.64	29.841
536.98	29.826
537.32	30.228
537.66	30.154
538.01	29.161
538.35	29.820
538.69	29.161
539.03	28.161
539.37	29.139
539.71	28.630
540.05	28.853
540.39	28.878
540.73	28.382
541.07	29.696
541.42	28.427
541.76	28.493
542.10	29.319
542.44	28.423
542.78	27.598
543.12	27.885
543.46	28.373
543.80	28.591
544.14	26.836
544.48	28.248
544.82	28.503
545.16	29.645
545.50	28.438
545.84	29.603
546.18	28.014
546.52	28.623
546.86	28.181
547.20	28.469
547.54	27.067
547.88	28.125
548.22	26.824
548.56	28.100
548.90	28.100
549.24	27.066
549.58	27.715
549.92	27.019
550.26	27.985
550.60	27.509
550.94	27.707
551.28	28.362
551.62	28.692
551.96	27.970
552.30	26.608
552.64	27.645
552.98	27.356
553.32	26.391
553.66	26.197
554.00	27.153
554.34	27.622
554.68	26.622
555.02	27.827
555.36	27.150
555.69	25.934
556.03	26.338
556.37	26.690
556.71	26.498
557.05	27.144
557.39	27.212
557.73	26.912
558.07	26.395
558.41	27.182
558.75	27.358
559.08	27.738
559.42	27.857
559.76	27.782
560.10	26.223
560.44	26.284
560.78	25.734
561.12	26.516
561.45	25.931
561.79	25.840
562.13	26.473
562.47	25.468
562.81	25.720
563.15	25.882
563.48	25.955
563.82	26.218
564.16	24.861
564.50	25.203
564.84	25.033
565.17	26.224
565.51	26.571
565.85	26.132
566.19	25.000
566.52	25.268
566.86	26.093
567.20	24.222
567.54	25.669
567.88	25.132
568.21	24.604
568.55	24.239
568.89	24.333
569.23	23.929
569.56	23.511
569.90	23.183
570.24	22.516
570.57	22.327
570.91	22.795
571.25	22.098
571.59	22.298
571.92	21.896
572.26	21.165
572.60	22.109
572.93	21.901
573.27	21.317
573.61	21.331
573.95	21.928
574.28	20.789
574.62	21.002
574.96	21.491
575.29	21.252
575.63	20.472
575.97	21.008
576.30	21.001
576.64	20.821
576.98	20.412
577.31	20.668
577.65	21.032
577.98	20.245
578.32	20.250
578.66	19.772
578.99	20.192
579.33	19.910
579.67	20.565
580.00	20.633
580.34	20.871
580.67	20.153
581.01	20.197
581.35	20.026
581.68	19.976
582.02	19.600
582.35	19.759
582.69	19.575
583.02	19.782
583.36	20.322
583.70	20.742
584.03	20.545
584.37	20.836
584.70	20.082
585.04	20.000
585.37	19.877
585.71	19.329
586.04	19.390
586.38	19.312
586.72	20.029
587.05	20.133
587.39	20.157
587.72	20.366
588.06	20.316
588.39	20.222
588.73	20.085
589.06	20.515
589.40	20.221
589.73	20.591
590.07	21.110
590.40	20.937
590.73	20.634
591.07	20.102
591.40	20.793
591.74	20.588
592.07	21.289
592.41	20.716
592.74	20.231
593.08	20.119
593.41	19.506
593.75	19.464
594.08	19.876
594.41	20.051
594.75	19.733
595.08	19.864
595.42	20.132
595.75	20.203
596.09	19.977
596.42	19.471
596.75	20.560
597.09	20.774
597.42	19.648
597.75	19.927
598.09	20.100
598.42	19.765
598.76	19.605
599.09	19.351
599.42	18.871
599.76	19.263
600.09	19.118
600.42	18.992
600.76	19.205
601.09	18.779
601.42	19.311
601.76	18.777
602.09	19.266
602.42	19.671
602.76	19.440
603.09	19.352
603.42	20.025
603.76	19.435
604.09	19.158
604.42	19.628
604.76	20.160
605.09	19.744
605.42	19.368
605.75	19.308
606.09	19.108
606.42	19.141
606.75	19.004
607.09	19.516
607.42	19.008
607.75	18.606
608.08	18.823
608.42	19.278
608.75	18.699
609.08	19.283
609.41	19.188
609.75	18.649
610.08	19.221
610.41	18.937
610.74	19.210
611.07	19.276
611.41	19.927
611.74	19.776
612.07	19.218
612.40	19.147
612.73	19.605
613.07	19.010
613.40	20.022
613.73	19.250
614.06	19.588
614.39	19.346
614.72	18.543
615.06	18.603
615.39	18.723
615.72	18.192
616.05	18.492
616.38	18.063
616.71	18.716
617.05	19.395
617.38	20.490
617.71	18.931
618.04	19.492
618.37	19.672
618.70	20.132
619.03	20.694
619.36	17.728
619.69	20.167
620.03	19.795
620.36	19.742
620.69	19.557
621.02	19.343
621.35	21.245
621.68	19.813
622.01	19.833
622.34	19.792
622.67	20.110
623.00	20.368
623.33	19.512
623.66	18.250
623.99	19.667
624.32	20.532
624.65	18.571
624.99	19.564
625.32	18.954
625.65	19.010
625.98	19.662
626.31	18.537
626.64	21.144
626.97	20.942
627.30	20.140
627.63	20.017
627.96	19.946
628.29	20.814
628.62	20.551
628.95	20.842
629.28	20.665
629.61	19.940
629.94	20.430
630.26	19.368
630.59	21.644
630.92	20.410
631.25	20.513
631.58	19.714
631.91	20.395
632.24	20.757
632.57	21.477
632.90	21.471
633.23	21.647
633.56	20.781
633.89	20.222
634.22	20.000
634.55	20.712
634.88	20.817
635.20	20.769
635.53	21.067
635.86	20.026
636.19	20.699
636.52	20.918
636.85	18.983
