SpectraSuite Data File
++++++++++++++++++++++++++++++++++++
Date: Fri May 15 20:58:16 PDT 2015
User: schluterlab
Dark Spectrum Present: Yes
Reference Spectrum Present: Yes
Number of Sampled Component Spectra: 1
Spectrometers: USB2E3373
Integration Time (usec): 3000 (USB2E3373)
Spectra Averaged: 3 (USB2E3373)
Boxcar Smoothing: 0 (USB2E3373)
Correct for Electrical Dark: No (USB2E3373)
Strobe/Lamp Enabled: No (USB2E3373)
Correct for Detector Non-linearity: No (USB2E3373)
Correct for Stray Light: No (USB2E3373)
Number of Pixels in Processed Spectrum: 2048
>>>>>Begin Processed Spectral Data<<<<<
178.53	0.000
178.91	0.000
179.29	-87.500
179.67	-450.000
180.04	28.571
180.42	125.000
180.80	-200.000
181.18	-133.333
181.56	300.000
181.94	100.000
182.31	700.000
182.69	-80.000
183.07	-333.333
183.45	60.000
183.83	250.000
184.20	63.636
184.58	166.667
184.96	-200.000
185.34	133.333
185.72	-350.000
186.09	146.154
186.47	-1400.000
186.85	216.667
187.23	144.444
187.61	600.000
187.98	-300.000
188.36	-11.111
188.74	-133.333
189.12	-5.882
189.49	-16.667
189.87	0.000
190.25	57.143
190.63	100.000
191.00	-466.667
191.38	-31.579
191.76	-150.000
192.14	75.000
192.51	450.000
192.89	-11.111
193.27	-171.429
193.65	183.333
194.02	145.455
194.40	-70.000
194.78	-100.000
195.15	-33.333
195.53	-62.500
195.91	275.000
196.29	-175.000
196.66	123.077
197.04	100.000
197.42	-33.333
197.79	-266.667
198.17	-161.538
198.55	1800.000
198.92	-300.000
199.30	-100.000
199.68	-320.000
200.05	-433.333
200.43	0.000
200.81	-233.333
201.18	-233.333
201.56	1300.000
201.94	-400.000
202.31	-100.000
202.69	-80.000
203.07	325.000
203.44	-300.000
203.82	0.000
204.19	14.286
204.57	-533.333
204.95	37.500
205.32	30.000
205.70	42.857
206.08	-175.000
206.45	133.333
206.83	71.429
207.20	-42.857
207.58	-0.000
207.96	-166.667
208.33	-110.000
208.71	-175.000
209.08	-200.000
209.46	900.000
209.84	-100.000
210.21	-1300.000
210.59	114.286
210.96	16.667
211.34	-100.000
211.71	0.000
212.09	-114.286
212.46	-1200.000
212.84	0.000
213.22	10.000
213.59	550.000
213.97	69.231
214.34	27.273
214.72	-200.000
215.09	300.000
215.47	-46.154
215.84	-18.182
216.22	166.667
216.59	-87.500
216.97	-250.000
217.34	-25.000
217.72	-300.000
218.09	100.000
218.47	162.500
218.84	-800.000
219.22	-11.111
219.59	0.000
219.97	366.667
220.34	400.000
220.72	-14.286
221.09	-125.000
221.47	-400.000
221.84	-600.000
222.22	-450.000
222.59	54.545
222.97	16.667
223.34	-33.333
223.72	-14.286
224.09	38.095
224.46	25.000
224.84	566.667
225.21	-30.000
225.59	6.667
225.96	-700.000
226.34	425.000
226.71	-85.714
227.08	-83.333
227.46	0.000
227.83	-600.000
228.21	55.556
228.58	9.091
228.95	-12.500
229.33	70.000
229.70	0.000
230.08	-112.500
230.45	-157.143
230.82	128.571
231.20	-73.333
231.57	0.000
231.95	-214.286
232.32	-20.000
232.69	-7.143
233.07	0.000
233.44	0.000
233.81	-50.000
234.19	100.000
234.56	-47.059
234.93	500.000
235.31	-75.000
235.68	-180.000
236.05	-46.154
236.43	-45.000
236.80	-17.647
237.17	25.000
237.55	-60.000
237.92	-40.741
238.29	-5.556
238.67	10.000
239.04	23.529
239.41	-41.463
239.79	-30.000
240.16	-12.195
240.53	0.000
240.91	-28.261
241.28	-15.873
241.65	-10.714
242.02	6.849
242.40	-11.667
242.77	-18.644
243.14	4.545
243.51	-15.000
243.89	9.195
244.26	-12.644
244.63	-13.095
245.00	-1.031
245.38	-4.124
245.75	-14.607
246.12	-3.448
246.49	4.959
246.87	4.808
247.24	-10.924
247.61	-16.667
247.98	-4.878
248.36	1.875
248.73	3.947
249.10	-0.649
249.47	-8.228
249.84	-6.536
250.22	-4.706
250.59	-10.458
250.96	3.756
251.33	-9.884
251.70	-4.706
252.08	-3.046
252.45	-2.970
252.82	3.015
253.19	6.912
253.56	-7.944
253.94	-2.703
254.31	1.739
254.68	3.509
255.05	-0.787
255.42	-0.437
255.79	-1.544
256.16	-0.389
256.54	1.493
256.91	-1.521
257.28	-0.743
257.65	-0.749
258.02	-1.773
258.39	0.337
258.76	1.832
259.14	1.329
259.51	-1.294
259.88	0.344
260.25	0.327
260.62	-2.083
260.99	-5.424
261.36	-3.082
261.73	-5.380
262.10	-0.912
262.47	-1.534
262.85	-3.135
263.22	-3.385
263.59	-2.181
263.96	-0.932
264.33	1.212
264.70	-1.488
265.07	-2.083
265.44	3.116
265.81	-2.542
266.18	0.000
266.55	0.514
266.92	-3.627
267.29	0.000
267.66	-0.256
268.03	1.047
268.40	-1.828
268.77	1.337
269.14	2.398
269.51	-2.314
269.88	-2.743
270.25	-2.041
270.62	-1.707
270.99	-1.790
271.36	0.000
271.73	2.582
272.10	0.730
272.47	1.655
272.84	-1.485
273.21	1.856
273.58	1.205
273.95	-1.831
274.32	-1.386
274.69	-1.810
275.06	-0.670
275.43	-1.587
275.80	-0.221
276.17	0.460
276.54	1.499
276.91	-1.535
277.28	-2.402
277.65	0.413
278.02	-0.851
278.39	-1.751
278.76	-1.258
279.13	-2.490
279.50	0.210
279.87	-1.080
280.23	-3.441
280.60	1.365
280.97	-1.818
281.34	-1.154
281.71	0.821
282.08	0.409
282.45	-1.174
282.82	-2.703
283.19	2.128
283.56	-0.963
283.92	-4.364
284.29	-2.115
284.66	-0.388
285.03	-1.179
285.40	0.378
285.77	-0.879
286.14	-0.903
286.51	1.107
286.87	-1.280
287.24	1.105
287.61	-0.353
287.98	1.053
288.35	-1.733
288.72	0.000
289.08	-0.174
289.45	-0.703
289.82	0.175
290.19	1.195
290.56	-2.230
290.93	-1.347
291.29	-1.079
291.66	0.000
292.03	-1.116
292.40	-0.161
292.77	-1.276
293.13	-3.084
293.50	-0.303
293.87	0.763
294.24	0.618
294.60	0.596
294.97	0.595
295.34	-2.147
295.71	-0.745
296.08	-1.644
296.44	-1.565
296.81	-0.556
297.18	-1.159
297.55	1.084
297.91	0.685
298.28	2.770
298.65	0.000
299.02	0.674
299.38	-1.642
299.75	-0.690
300.12	-0.393
300.48	-1.449
300.85	1.267
301.22	-0.909
301.59	-0.395
301.95	1.519
302.32	0.908
302.69	0.498
303.05	0.371
303.42	-0.623
303.79	0.701
304.15	0.717
304.52	-1.308
304.89	0.234
305.25	0.121
305.62	-0.467
305.99	0.585
306.35	-1.272
306.72	-1.012
307.09	-0.228
307.45	-0.230
307.82	0.694
308.19	-0.813
308.55	-0.981
308.92	0.763
309.29	-0.335
309.65	-0.108
310.02	0.110
310.38	0.549
310.75	0.765
311.12	0.538
311.48	-0.530
311.85	1.466
312.22	0.211
312.58	0.106
312.95	-0.107
313.31	0.414
313.68	0.628
314.05	-0.204
314.41	1.340
314.78	0.722
315.14	2.569
315.51	1.863
315.87	1.230
316.24	3.438
316.61	3.740
316.97	3.175
317.34	2.148
317.70	3.442
318.07	3.269
318.43	4.412
318.80	3.883
319.16	5.078
319.53	6.078
319.89	5.217
320.26	6.073
320.62	6.620
320.99	6.785
321.35	6.578
321.72	9.346
322.08	8.761
322.45	8.528
322.81	10.511
323.18	10.991
323.54	11.197
323.91	12.366
324.27	13.770
324.64	15.356
325.00	15.785
325.37	19.100
325.73	17.860
326.10	17.984
326.46	20.897
326.83	21.697
327.19	21.447
327.56	22.937
327.92	23.856
328.29	24.643
328.65	26.321
329.01	27.482
329.38	26.083
329.74	26.534
330.11	27.525
330.47	28.479
330.84	28.558
331.20	32.795
331.56	29.630
331.93	31.050
332.29	34.097
332.66	31.403
333.02	33.086
333.38	33.272
333.75	34.432
334.11	33.303
334.48	34.089
334.84	35.989
335.20	35.316
335.57	33.636
335.93	35.682
336.29	37.293
336.66	36.512
337.02	35.130
337.38	35.370
337.75	37.909
338.11	36.610
338.47	36.953
338.84	38.447
339.20	37.843
339.56	38.716
339.93	38.854
340.29	38.624
340.65	37.993
341.02	37.677
341.38	38.496
341.74	38.163
342.11	38.128
342.47	39.591
342.83	38.495
343.20	38.676
343.56	39.913
343.92	38.884
344.28	39.795
344.65	39.637
345.01	39.239
345.37	39.108
345.73	39.749
346.10	39.689
346.46	39.361
346.82	38.543
347.19	38.820
347.55	39.850
347.91	40.049
348.27	38.561
348.63	38.842
349.00	39.130
349.36	40.482
349.72	40.299
350.08	39.918
350.45	38.468
350.81	40.282
351.17	38.111
351.53	40.082
351.89	38.976
352.26	38.560
352.62	39.032
352.98	38.635
353.34	37.118
353.70	39.320
354.07	38.871
354.43	38.431
354.79	38.150
355.15	40.000
355.51	38.291
355.87	38.511
356.24	38.418
356.60	38.399
356.96	39.286
357.32	38.498
357.68	37.295
358.04	37.964
358.40	38.344
358.77	38.995
359.13	37.550
359.49	38.059
359.85	37.910
360.21	38.596
360.57	38.179
360.93	37.216
361.29	36.556
361.66	38.480
362.02	38.106
362.38	37.776
362.74	38.607
363.10	39.353
363.46	38.102
363.82	37.415
364.18	38.376
364.54	36.691
364.90	37.276
365.26	37.627
365.62	38.832
365.98	37.610
366.35	37.800
366.71	39.616
367.07	38.897
367.43	37.239
367.79	37.597
368.15	37.401
368.51	38.602
368.87	37.688
369.23	35.740
369.59	36.589
369.95	37.390
370.31	36.633
370.67	36.567
371.03	35.922
371.39	37.418
371.75	38.168
372.11	36.805
372.47	36.317
372.83	37.189
373.19	36.305
373.55	36.173
373.91	36.573
374.27	36.924
374.63	37.114
374.99	35.106
375.35	36.281
375.71	36.993
376.07	36.025
376.42	36.259
376.78	36.376
377.14	35.477
377.50	35.724
377.86	35.207
378.22	36.311
378.58	35.192
378.94	35.224
379.30	35.558
379.66	35.423
380.02	35.316
380.38	35.606
380.74	34.231
381.09	34.663
381.45	34.190
381.81	35.040
382.17	34.010
382.53	34.166
382.89	34.840
383.25	35.159
383.61	34.634
383.97	34.667
384.32	34.271
384.68	34.180
385.04	33.578
385.40	34.536
385.76	34.025
386.12	35.317
386.48	33.972
386.83	32.720
387.19	33.211
387.55	34.504
387.91	33.252
388.27	33.333
388.62	34.110
388.98	33.272
389.34	33.542
389.70	33.499
390.06	32.536
390.42	32.642
390.77	32.767
391.13	31.021
391.49	32.536
391.85	32.164
392.20	32.078
392.56	32.104
392.92	31.944
393.28	31.132
393.64	30.991
393.99	32.226
394.35	31.120
394.71	31.992
395.07	31.867
395.42	30.723
395.78	31.205
396.14	30.328
396.50	31.516
396.85	30.522
397.21	29.825
397.57	29.467
397.92	29.658
398.28	30.460
398.64	28.976
399.00	30.530
399.35	29.458
399.71	30.040
400.07	28.900
400.42	28.641
400.78	30.067
401.14	28.494
401.49	29.601
401.85	28.154
402.21	28.976
402.57	27.812
402.92	27.792
403.28	29.449
403.63	29.067
403.99	27.997
404.35	28.107
404.70	27.857
405.06	28.026
405.42	27.284
405.77	26.961
406.13	27.648
406.49	26.939
406.84	27.506
407.20	27.333
407.55	26.529
407.91	26.671
408.27	26.195
408.62	26.954
408.98	26.679
409.34	26.704
409.69	25.969
410.05	25.062
410.40	26.420
410.76	26.538
411.11	25.687
411.47	26.036
411.83	24.922
412.18	25.933
412.54	25.593
412.89	24.815
413.25	24.789
413.60	25.155
413.96	24.724
414.31	25.000
414.67	25.208
415.03	24.900
415.38	23.042
415.74	24.495
416.09	24.494
416.45	24.375
416.80	23.926
417.16	24.931
417.51	24.051
417.87	23.533
418.22	24.223
418.58	23.077
418.93	23.950
419.29	22.215
419.64	23.461
420.00	24.055
420.35	22.149
420.71	22.479
421.06	22.959
421.42	23.197
421.77	22.023
422.12	22.077
422.48	22.415
422.83	22.274
423.19	21.783
423.54	21.046
423.90	21.614
424.25	22.216
424.61	22.154
424.96	21.893
425.31	22.992
425.67	22.124
426.02	21.967
426.38	21.540
426.73	22.155
427.09	21.709
427.44	21.529
427.79	21.037
428.15	21.845
428.50	20.896
428.85	20.762
429.21	21.053
429.56	21.402
429.92	21.469
430.27	20.852
430.62	20.857
430.98	20.488
431.33	20.400
431.68	20.199
432.04	21.073
432.39	20.764
432.74	20.265
433.10	20.632
433.45	20.191
433.80	20.952
434.16	19.335
434.51	20.591
434.86	20.209
435.22	20.976
435.57	19.838
435.92	20.419
436.28	19.320
436.63	19.852
436.98	19.699
437.34	19.419
437.69	20.155
438.04	19.658
438.39	18.265
438.75	20.219
439.10	19.015
439.45	20.024
439.81	19.021
440.16	19.774
440.51	19.821
440.86	21.329
441.22	19.061
441.57	18.985
441.92	19.727
442.27	19.290
442.63	19.540
442.98	19.184
443.33	19.421
443.68	19.098
444.03	18.679
444.39	18.987
444.74	19.565
445.09	18.931
445.44	19.145
445.79	19.907
446.15	19.108
446.50	17.415
446.85	18.916
447.20	18.457
447.55	18.638
447.91	18.895
448.26	18.896
448.61	18.998
448.96	18.531
449.31	18.960
449.66	18.873
450.02	18.654
450.37	19.324
450.72	18.557
451.07	19.177
451.42	18.851
451.77	18.143
452.12	17.644
452.47	18.545
452.83	17.845
453.18	18.975
453.53	17.699
453.88	19.004
454.23	17.640
454.58	18.577
454.93	18.879
455.28	17.079
455.63	18.599
455.98	19.543
456.34	18.391
456.69	17.980
457.04	18.336
457.39	16.829
457.74	17.533
458.09	16.775
458.44	18.081
458.79	17.479
459.14	18.135
459.49	18.328
459.84	18.105
460.19	17.536
460.54	17.726
460.89	18.239
461.24	18.509
461.59	18.230
461.94	17.107
462.29	17.310
462.64	18.472
462.99	18.213
463.34	17.385
463.69	16.152
464.04	17.494
464.39	17.041
464.74	17.362
465.09	16.781
465.44	17.138
465.79	17.234
466.14	16.762
466.49	17.539
466.84	17.668
467.19	17.272
467.54	17.369
467.89	16.930
468.24	16.606
468.59	17.143
468.94	16.825
469.29	16.721
469.64	17.157
469.99	17.870
470.34	16.041
470.68	17.673
471.03	17.622
471.38	17.261
471.73	16.317
472.08	16.757
472.43	16.846
472.78	15.833
473.13	16.327
473.48	16.156
473.83	16.501
474.17	17.098
474.52	16.911
474.87	16.121
475.22	15.741
475.57	17.053
475.92	16.347
476.27	17.637
476.61	16.088
476.96	15.728
477.31	16.387
477.66	15.899
478.01	15.778
478.36	16.340
478.70	16.422
479.05	16.319
479.40	16.428
479.75	15.693
480.10	16.795
480.45	15.650
480.79	16.113
481.14	16.137
481.49	15.419
481.84	16.168
482.19	15.248
482.53	15.731
482.88	15.943
483.23	15.451
483.58	15.896
483.92	15.537
484.27	15.588
484.62	15.509
484.97	15.340
485.31	14.993
485.66	14.078
486.01	15.066
486.36	14.438
486.70	14.811
487.05	14.943
487.40	14.736
487.75	14.563
488.09	14.555
488.44	14.684
488.79	14.531
489.13	15.184
489.48	15.049
489.83	15.247
490.17	14.787
490.52	15.196
490.87	15.039
491.22	15.234
491.56	14.991
491.91	14.675
492.26	15.654
492.60	15.211
492.95	16.134
493.30	14.656
493.64	15.226
493.99	15.362
494.34	14.466
494.68	14.143
495.03	14.404
495.37	15.505
495.72	14.639
496.07	14.976
496.41	14.151
496.76	14.694
497.11	14.299
497.45	14.988
497.80	14.733
498.14	14.655
498.49	14.576
498.84	14.721
499.18	14.408
499.53	14.633
499.87	14.591
500.22	14.688
500.56	14.776
500.91	14.558
501.26	14.928
501.60	14.314
501.95	14.799
502.29	14.237
502.64	13.948
502.98	14.406
503.33	14.361
503.67	15.036
504.02	14.663
504.36	14.795
504.71	14.091
505.06	14.041
505.40	13.909
505.75	14.124
506.09	14.040
506.44	15.503
506.78	14.490
507.13	14.633
507.47	13.786
507.82	14.103
508.16	14.052
508.51	14.848
508.85	13.658
509.19	13.571
509.54	14.531
509.88	13.754
510.23	14.363
510.57	14.164
510.92	13.273
511.26	13.693
511.61	14.301
511.95	14.082
512.30	13.193
512.64	14.357
512.98	13.139
513.33	14.550
513.67	13.019
514.02	14.931
514.36	15.029
514.70	15.326
515.05	14.806
515.39	13.813
515.74	15.389
516.08	14.405
516.42	14.429
516.77	15.097
517.11	13.887
517.46	14.004
517.80	15.375
518.14	14.636
518.49	14.363
518.83	13.791
519.17	13.463
519.52	14.032
519.86	13.505
520.20	14.945
520.55	13.634
520.89	14.868
521.23	13.680
521.58	14.953
521.92	14.872
522.26	14.509
522.61	14.805
522.95	14.570
523.29	14.358
523.64	13.659
523.98	14.582
524.32	14.497
524.66	15.109
525.01	13.766
525.35	14.258
525.69	13.805
526.04	14.550
526.38	15.045
526.72	13.604
527.06	14.267
527.41	13.654
527.75	14.075
528.09	13.090
528.43	15.260
528.78	13.333
529.12	13.355
529.46	13.190
529.80	14.313
530.15	14.587
530.49	12.862
530.83	13.611
531.17	13.902
531.51	14.637
531.86	13.936
532.20	13.083
532.54	14.432
532.88	14.100
533.22	13.642
533.57	13.565
533.91	13.120
534.25	13.867
534.59	13.791
534.93	13.153
535.27	13.452
535.62	13.156
535.96	13.438
536.30	13.786
536.64	14.128
536.98	13.101
537.32	13.514
537.66	14.797
538.01	14.266
538.35	12.760
538.69	13.648
539.03	13.192
539.37	13.324
539.71	13.020
540.05	12.627
540.39	13.850
540.73	12.831
541.07	13.743
541.42	14.113
541.76	13.558
542.10	13.833
542.44	12.995
542.78	12.939
543.12	13.393
543.46	13.282
543.80	13.185
544.14	12.750
544.48	13.458
544.82	12.782
545.16	13.388
545.50	13.485
545.84	13.456
546.18	13.759
546.52	13.050
546.86	12.581
547.20	13.376
547.54	11.873
547.88	12.908
548.22	12.229
548.56	12.731
548.90	12.871
549.24	13.085
549.58	13.188
549.92	13.295
550.26	12.308
550.60	12.714
550.94	13.891
551.28	13.215
551.62	13.462
551.96	13.008
552.30	12.646
552.64	12.764
552.98	12.588
553.32	12.268
553.66	11.393
554.00	12.190
554.34	12.851
554.68	12.463
555.02	13.318
555.36	12.715
555.69	12.674
556.03	12.634
556.37	12.740
556.71	12.347
557.05	12.826
557.39	12.714
557.73	12.819
558.07	13.047
558.41	12.787
558.75	13.172
559.08	12.451
559.42	12.063
559.76	12.410
560.10	12.462
560.44	12.882
560.78	13.007
561.12	12.482
561.45	12.930
561.79	12.955
562.13	12.562
562.47	13.022
562.81	12.104
563.15	13.329
563.48	13.083
563.82	12.560
564.16	12.465
564.50	12.838
564.84	11.580
565.17	12.072
565.51	12.227
565.85	12.003
566.19	13.395
566.52	12.466
566.86	13.046
567.20	11.706
567.54	12.105
567.88	12.302
568.21	11.991
568.55	12.065
568.89	12.012
569.23	12.229
569.56	11.252
569.90	12.099
570.24	11.946
570.57	11.636
570.91	11.851
571.25	10.753
571.59	11.492
571.92	10.993
572.26	10.900
572.60	10.946
572.93	11.076
573.27	10.846
573.61	10.829
573.95	11.278
574.28	10.514
574.62	10.730
574.96	10.970
575.29	10.651
575.63	10.728
575.97	10.518
576.30	10.430
576.64	10.411
576.98	11.120
577.31	10.838
577.65	10.803
577.98	10.714
578.32	10.448
578.66	10.595
578.99	10.388
579.33	10.417
579.67	10.977
580.00	10.304
580.34	10.473
580.67	10.559
581.01	10.639
581.35	10.444
581.68	10.903
582.02	10.534
582.35	10.511
582.69	10.654
583.02	10.446
583.36	10.882
583.70	11.007
584.03	10.620
584.37	11.039
584.70	10.604
585.04	10.622
585.37	10.639
585.71	10.590
586.04	10.439
586.38	10.376
586.72	11.047
587.05	10.803
587.39	10.651
587.72	11.728
588.06	10.601
588.39	10.880
588.73	10.836
589.06	11.155
589.40	11.165
589.73	11.866
590.07	10.914
590.40	10.797
590.73	11.573
591.07	11.069
591.40	11.175
591.74	10.362
592.07	11.271
592.41	10.512
592.74	11.031
593.08	10.583
593.41	10.939
593.75	11.057
594.08	10.779
594.41	10.735
594.75	10.954
595.08	11.010
595.42	10.674
595.75	10.928
596.09	10.711
596.42	10.666
596.75	11.323
597.09	11.298
597.42	11.337
597.75	10.169
598.09	10.502
598.42	10.379
598.76	10.124
599.09	10.857
599.42	10.231
599.76	10.384
600.09	10.747
600.42	10.993
600.76	10.773
601.09	10.496
601.42	10.537
601.76	10.719
602.09	10.231
602.42	11.415
602.76	10.696
603.09	10.922
603.42	10.786
603.76	10.444
604.09	10.288
604.42	10.364
604.76	11.170
605.09	11.335
605.42	10.835
605.75	10.552
606.09	9.979
606.42	10.676
606.75	10.563
607.09	11.253
607.42	10.855
607.75	10.657
608.08	10.422
608.42	10.964
608.75	11.373
609.08	10.513
609.41	10.558
609.75	10.887
610.08	10.834
610.41	10.725
610.74	11.068
611.07	11.163
611.41	11.209
611.74	11.301
612.07	11.242
612.40	11.324
612.73	11.299
613.07	11.024
613.40	11.488
613.73	11.080
614.06	11.408
614.39	11.450
614.72	10.812
615.06	10.670
615.39	10.808
615.72	10.872
616.05	11.173
616.38	10.085
616.71	11.193
617.05	11.118
617.38	10.999
617.71	10.943
618.04	10.603
618.37	10.971
618.70	11.155
619.03	11.667
619.36	10.058
619.69	10.690
620.03	11.395
620.36	11.373
620.69	10.207
621.02	10.627
621.35	11.535
621.68	11.990
622.01	12.000
622.34	11.732
622.67	11.672
623.00	11.409
623.33	11.204
623.66	11.967
623.99	10.514
624.32	11.407
624.65	9.699
624.99	11.437
625.32	10.538
625.65	11.783
625.98	11.926
626.31	10.640
626.64	11.352
626.97	11.955
627.30	11.296
627.63	11.785
627.96	11.770
628.29	10.546
628.62	11.799
628.95	12.525
629.28	12.097
629.61	11.167
629.94	12.805
630.26	11.265
630.59	11.550
630.92	11.179
631.25	12.205
631.58	11.344
631.91	10.855
632.24	10.550
632.57	11.364
632.90	11.388
633.23	13.059
633.56	12.846
633.89	11.467
634.22	12.840
634.55	9.530
634.88	10.728
