SpectraSuite Data File
++++++++++++++++++++++++++++++++++++
Date: Fri May 15 20:29:49 PDT 2015
User: schluterlab
Dark Spectrum Present: Yes
Reference Spectrum Present: Yes
Number of Sampled Component Spectra: 1
Spectrometers: USB2E3373
Integration Time (usec): 3000 (USB2E3373)
Spectra Averaged: 3 (USB2E3373)
Boxcar Smoothing: 0 (USB2E3373)
Correct for Electrical Dark: No (USB2E3373)
Strobe/Lamp Enabled: No (USB2E3373)
Correct for Detector Non-linearity: No (USB2E3373)
Correct for Stray Light: No (USB2E3373)
Number of Pixels in Processed Spectrum: 2048
>>>>>Begin Processed Spectral Data<<<<<
178.53	0.000
178.91	0.000
179.29	0.000
179.67	-250.000
180.04	-14.286
180.42	-50.000
180.80	-500.000
181.18	400.000
181.56	250.000
181.94	-300.000
182.31	400.000
182.69	120.000
183.07	-133.333
183.45	0.000
183.83	100.000
184.20	18.182
184.58	55.556
184.96	-175.000
185.34	-166.667
185.72	-100.000
186.09	123.077
186.47	-1200.000
186.85	166.667
187.23	100.000
187.61	500.000
187.98	-233.333
188.36	-11.111
188.74	-200.000
189.12	29.412
189.49	61.111
189.87	0.000
190.25	121.429
190.63	100.000
191.00	-133.333
191.38	31.579
191.76	150.000
192.14	150.000
192.51	-100.000
192.89	-77.778
193.27	-128.571
193.65	183.333
194.02	90.909
194.40	-10.000
194.78	-125.000
195.15	-116.667
195.53	-112.500
195.91	175.000
196.29	75.000
196.66	84.615
197.04	85.714
197.42	-55.556
197.79	-266.667
198.17	-92.308
198.55	1500.000
198.92	-33.333
199.30	200.000
199.68	-220.000
200.05	-100.000
200.43	0.000
200.81	100.000
201.18	-266.667
201.56	200.000
201.94	-150.000
202.31	100.000
202.69	-60.000
203.07	275.000
203.44	900.000
203.82	0.000
204.19	7.143
204.57	-300.000
204.95	87.500
205.32	-50.000
205.70	-14.286
206.08	-75.000
206.45	100.000
206.83	-14.286
207.20	-85.714
207.58	1100.000
207.96	-66.667
208.33	-170.000
208.71	-175.000
209.08	-133.333
209.46	-900.000
209.84	0.000
210.21	-600.000
210.59	100.000
210.96	83.333
211.34	-125.000
211.71	13.333
212.09	-171.429
212.46	-900.000
212.84	0.000
213.22	60.000
213.59	350.000
213.97	53.846
214.34	54.545
214.72	-33.333
215.09	400.000
215.47	-53.846
215.84	0.000
216.22	-33.333
216.59	-37.500
216.97	-300.000
217.34	-50.000
217.72	-240.000
218.09	12.500
218.47	200.000
218.84	-800.000
219.22	22.222
219.59	0.000
219.97	400.000
220.34	225.000
220.72	14.286
221.09	-50.000
221.47	-400.000
221.84	-50.000
222.22	-550.000
222.59	-27.273
222.97	-16.667
223.34	-200.000
223.72	-21.429
224.09	-4.762
224.46	21.429
224.84	666.667
225.21	20.000
225.59	66.667
225.96	250.000
226.34	225.000
226.71	-100.000
227.08	-66.667
227.46	0.000
227.83	-300.000
228.21	22.222
228.58	-45.455
228.95	37.500
229.33	110.000
229.70	31.250
230.08	-137.500
230.45	-71.429
230.82	185.714
231.20	-40.000
231.57	78.571
231.95	14.286
232.32	-30.000
232.69	42.857
233.07	100.000
233.44	-40.000
233.81	-90.000
234.19	-44.444
234.56	35.294
234.93	500.000
235.31	175.000
235.68	-180.000
236.05	0.000
236.43	-10.000
236.80	58.824
237.17	12.500
237.55	-10.000
237.92	44.444
238.29	8.333
238.67	16.667
239.04	23.529
239.41	9.756
239.79	-10.000
240.16	46.341
240.53	18.421
240.91	23.913
241.28	23.810
241.65	32.143
242.02	38.356
242.40	43.333
242.77	11.864
243.14	15.152
243.51	23.750
243.89	35.632
244.26	12.644
244.63	26.190
245.00	22.680
245.38	28.866
245.75	12.360
246.12	14.655
246.49	30.579
246.87	25.962
247.24	21.008
247.61	13.158
247.98	30.081
248.36	21.875
248.73	26.974
249.10	29.870
249.47	28.481
249.84	26.797
250.22	25.294
250.59	24.183
250.96	33.803
251.33	24.419
251.70	23.529
252.08	31.980
252.45	28.713
252.82	24.623
253.19	28.111
253.56	23.832
253.94	31.532
254.31	27.826
254.68	27.193
255.05	27.559
255.42	25.328
255.79	25.869
256.16	26.459
256.54	29.478
256.91	27.757
257.28	27.509
257.65	26.592
258.02	28.369
258.39	26.599
258.76	28.571
259.14	31.229
259.51	25.890
259.88	30.241
260.25	23.856
260.62	29.514
260.99	27.119
261.36	26.712
261.73	26.582
262.10	29.179
262.47	29.755
262.85	25.392
263.22	27.692
263.59	27.414
263.96	30.435
264.33	30.303
264.70	28.571
265.07	30.655
265.44	32.295
265.81	30.226
266.18	28.142
266.55	28.278
266.92	26.684
267.29	29.243
267.66	27.110
268.03	29.319
268.40	29.765
268.77	31.283
269.14	25.420
269.51	30.848
269.88	30.175
270.25	23.980
270.62	26.585
270.99	28.389
271.36	25.183
271.73	30.282
272.10	28.954
272.47	32.388
272.84	27.475
273.21	27.842
273.58	30.843
273.95	28.146
274.32	25.635
274.69	27.828
275.06	28.348
275.43	27.438
275.80	26.932
276.17	28.736
276.54	27.623
276.91	31.360
277.28	25.328
277.65	28.512
278.02	23.830
278.39	28.228
278.76	27.883
279.13	26.763
279.50	28.992
279.87	26.782
280.23	27.742
280.60	27.096
280.97	27.475
281.34	28.462
281.71	27.310
282.08	27.403
282.45	25.636
282.82	26.255
283.19	29.207
283.56	27.360
283.92	24.478
284.29	25.192
284.66	27.713
285.03	26.719
285.40	27.032
285.77	26.362
286.14	24.007
286.51	26.199
286.87	23.766
287.24	26.888
287.61	23.810
287.98	26.491
288.35	25.823
288.72	26.270
289.08	24.479
289.45	26.538
289.82	25.874
290.19	22.355
290.56	23.671
290.93	23.401
291.29	22.496
291.66	25.197
292.03	24.880
292.40	23.710
292.77	22.648
293.13	20.779
293.50	22.155
293.87	21.985
294.24	23.493
294.60	21.759
294.97	24.107
295.34	22.853
295.71	21.461
296.08	21.375
296.44	18.777
296.81	22.917
297.18	21.014
297.55	22.764
297.91	20.959
298.28	21.636
298.65	19.810
299.02	21.024
299.38	19.015
299.75	21.241
300.12	20.419
300.48	20.422
300.85	20.152
301.22	20.390
301.59	21.447
301.95	20.886
302.32	21.012
302.69	18.657
303.05	19.678
303.42	19.676
303.79	20.561
304.15	19.833
304.52	17.479
304.89	19.532
305.25	19.370
305.62	17.503
305.99	18.947
306.35	18.035
306.72	18.448
307.09	20.296
307.45	17.681
307.82	18.403
308.19	19.396
308.55	18.975
308.92	20.044
309.29	18.436
309.65	17.869
310.02	18.042
310.38	18.661
310.75	18.798
311.12	18.407
311.48	18.558
311.85	17.696
312.22	18.460
312.58	19.321
312.95	18.783
313.31	18.012
313.68	17.801
314.05	16.939
314.41	19.485
314.78	18.557
315.14	19.630
315.51	19.565
315.87	18.750
316.24	19.110
316.61	19.094
316.97	18.849
317.34	18.555
317.70	19.025
318.07	18.942
318.43	18.627
318.80	18.277
319.16	19.531
319.53	19.563
319.89	18.996
320.26	19.231
320.62	20.261
320.99	19.624
321.35	18.911
321.72	19.418
322.08	19.839
322.45	20.102
322.81	20.039
323.18	19.627
323.54	19.595
323.91	20.156
324.27	20.508
324.64	20.787
325.00	21.715
325.37	21.488
325.73	21.034
326.10	21.163
326.46	21.973
326.83	21.872
327.19	21.883
327.56	23.284
327.92	22.183
328.29	22.679
328.65	23.113
329.01	23.713
329.38	23.779
329.74	22.568
330.11	24.467
330.47	22.542
330.84	22.692
331.20	25.570
331.56	23.241
331.93	24.566
332.29	25.115
332.66	23.348
333.02	24.535
333.38	23.465
333.75	26.282
334.11	24.530
334.48	26.020
334.84	25.733
335.20	24.062
335.57	24.569
335.93	24.661
336.29	26.243
336.66	25.522
337.02	24.628
337.38	25.833
337.75	25.364
338.11	24.617
338.47	26.460
338.84	26.433
339.20	24.863
339.56	26.697
339.93	26.141
340.29	26.881
340.65	26.075
341.02	25.975
341.38	25.841
341.74	25.177
342.11	24.870
342.47	25.445
342.83	26.903
343.20	25.261
343.56	25.478
343.92	26.572
344.28	26.132
344.65	25.130
345.01	26.016
345.37	25.652
345.73	26.360
346.10	26.920
346.46	26.493
346.82	25.532
347.19	25.187
347.55	27.068
347.91	26.456
348.27	26.112
348.63	26.150
349.00	25.677
349.36	26.933
349.72	26.617
350.08	25.820
350.45	25.219
350.81	25.914
351.17	24.511
351.53	25.714
351.89	25.681
352.26	26.000
352.62	26.210
352.98	25.542
353.34	24.879
353.70	26.294
354.07	25.887
354.43	26.101
354.79	25.268
355.15	26.111
355.51	26.028
355.87	24.191
356.24	26.264
356.60	26.273
356.96	26.429
357.32	26.677
357.68	26.114
358.04	25.929
358.40	25.563
358.77	26.396
359.13	26.421
359.49	25.501
359.85	26.989
360.21	26.715
360.57	26.014
360.93	26.097
361.29	24.924
361.66	25.784
362.02	26.061
362.38	26.504
362.74	26.419
363.10	27.314
363.46	25.723
363.82	27.423
364.18	25.314
364.54	26.324
364.90	25.806
365.26	26.565
365.62	26.131
365.98	26.100
366.35	27.312
366.71	26.608
367.07	27.068
367.43	26.743
367.79	25.936
368.15	25.844
368.51	26.293
368.87	26.777
369.23	27.076
369.59	26.093
369.95	27.493
370.31	27.746
370.67	27.388
371.03	25.840
371.39	25.894
371.75	27.619
372.11	26.177
372.47	26.331
372.83	26.686
373.19	26.890
373.55	26.715
373.91	26.566
374.27	28.349
374.63	27.782
374.99	25.390
375.35	26.532
375.71	28.042
376.07	26.756
376.42	27.143
376.78	27.047
377.14	27.420
377.50	27.689
377.86	27.175
378.22	26.867
378.58	27.692
378.94	26.843
379.30	27.573
379.66	27.649
380.02	27.161
380.38	27.328
380.74	27.768
381.09	28.896
381.45	27.645
381.81	27.699
382.17	27.475
382.53	27.733
382.89	28.688
383.25	27.878
383.61	28.415
383.97	27.619
384.32	27.892
384.68	27.864
385.04	26.961
385.40	27.442
385.76	28.931
386.12	29.301
386.48	29.119
386.83	27.521
387.19	28.571
387.55	28.545
387.91	28.240
388.27	28.083
388.62	29.641
388.98	28.422
389.34	29.044
389.70	30.081
390.06	28.383
390.42	28.627
390.77	28.842
391.13	27.301
391.49	28.784
391.85	28.590
392.20	29.253
392.56	28.798
392.92	28.890
393.28	28.125
393.64	28.228
393.99	29.592
394.35	28.210
394.71	28.608
395.07	28.661
395.42	29.022
395.78	28.795
396.14	28.815
396.50	29.613
396.85	29.234
397.21	29.073
397.57	29.655
397.92	28.760
398.28	29.713
398.64	28.675
399.00	29.628
399.35	28.781
399.71	29.179
400.07	29.867
400.42	29.559
400.78	29.639
401.14	29.704
401.49	29.124
401.85	28.641
402.21	29.759
402.57	29.813
402.92	28.607
403.28	30.138
403.63	29.382
403.99	28.763
404.35	29.044
404.70	28.631
405.06	28.613
405.42	28.776
405.77	28.239
406.13	29.220
406.49	29.011
406.84	30.012
407.20	29.380
407.55	29.556
407.91	29.078
408.27	28.999
408.62	30.092
408.98	29.636
409.34	29.678
409.69	28.747
410.05	29.310
410.40	30.556
410.76	29.614
411.11	29.500
411.47	29.783
411.83	28.562
412.18	29.151
412.54	29.650
412.89	29.187
413.25	29.483
413.60	29.006
413.96	28.098
414.31	30.122
414.67	30.340
415.03	29.161
415.38	29.112
415.74	30.554
416.09	30.568
416.45	30.047
416.80	29.213
417.16	30.870
417.51	30.180
417.87	28.879
418.22	29.404
418.58	29.565
418.93	30.408
419.29	28.809
419.64	28.970
420.00	30.542
420.35	29.433
420.71	30.073
421.06	29.405
421.42	28.486
421.77	30.116
422.12	29.342
422.48	28.912
422.83	29.292
423.19	29.402
423.54	29.336
423.90	29.446
424.25	30.253
424.61	30.661
424.96	28.804
425.31	30.387
425.67	30.282
426.02	30.389
426.38	30.119
426.73	30.387
427.09	30.759
427.44	29.941
427.79	30.348
428.15	30.279
428.50	29.921
428.85	29.423
429.21	29.089
429.56	29.811
429.92	29.224
430.27	28.972
430.62	29.064
430.98	29.565
431.33	29.338
431.68	29.984
432.04	29.570
432.39	30.006
432.74	29.284
433.10	30.115
433.45	28.853
433.80	30.180
434.16	29.086
434.51	30.806
434.86	30.081
435.22	28.940
435.57	30.568
435.92	29.641
436.28	30.113
436.63	29.949
436.98	29.374
437.34	29.885
437.69	30.233
438.04	29.801
438.39	29.688
438.75	29.994
439.10	29.428
439.45	30.736
439.81	29.725
440.16	30.344
440.51	30.448
440.86	31.541
441.22	29.751
441.57	30.353
441.92	31.060
442.27	30.266
442.63	30.567
442.98	30.040
443.33	30.106
443.68	30.027
444.03	30.204
444.39	31.185
444.74	31.104
445.09	31.180
445.44	31.396
445.79	31.305
446.15	29.626
446.50	29.728
446.85	30.818
447.20	30.083
447.55	30.915
447.91	30.231
448.26	30.450
448.61	31.031
448.96	30.694
449.31	30.405
449.66	31.127
450.02	30.462
450.37	30.824
450.72	30.412
451.07	30.506
451.42	30.087
451.77	30.802
452.12	29.844
452.47	29.878
452.83	30.624
453.18	30.614
453.53	30.721
453.88	31.390
454.23	30.486
454.58	32.620
454.93	32.088
455.28	29.524
455.63	31.060
455.98	31.630
456.34	30.651
456.69	31.385
457.04	31.002
457.39	30.923
457.74	31.137
458.09	30.371
458.44	31.363
458.79	30.924
459.14	32.151
459.49	31.403
459.84	30.795
460.19	31.371
460.54	30.623
460.89	30.682
461.24	30.994
461.59	31.710
461.94	30.566
462.29	30.941
462.64	32.558
462.99	32.160
463.34	31.363
463.69	30.116
464.04	31.780
464.39	30.382
464.74	30.552
465.09	30.630
465.44	31.679
465.79	31.179
466.14	30.958
466.49	30.362
466.84	31.707
467.19	32.040
467.54	31.418
467.89	32.344
468.24	31.934
468.59	33.460
468.94	31.746
469.29	31.738
469.64	31.921
469.99	33.357
470.34	31.536
470.68	33.110
471.03	32.555
471.38	32.168
471.73	31.303
472.08	31.343
472.43	32.416
472.78	31.803
473.13	32.925
473.48	32.899
473.83	31.445
474.17	32.383
474.52	32.419
474.87	32.364
475.22	32.032
475.57	31.846
475.92	32.419
476.27	32.887
476.61	32.350
476.96	31.902
477.31	32.017
477.66	32.865
478.01	33.464
478.36	32.081
478.70	33.061
479.05	32.802
479.40	32.485
479.75	32.273
480.10	31.490
480.45	32.700
480.79	33.233
481.14	32.889
481.49	31.823
481.84	32.481
482.19	32.273
482.53	32.470
482.88	32.554
483.23	31.574
483.58	32.123
483.92	32.091
484.27	30.811
484.62	32.183
484.97	31.592
485.31	31.756
485.66	30.253
486.01	29.562
486.36	29.628
486.70	30.811
487.05	31.070
487.40	30.843
487.75	31.549
488.09	31.829
488.44	32.497
488.79	32.275
489.13	32.532
489.48	32.835
489.83	33.318
490.17	31.596
490.52	32.656
490.87	33.179
491.22	33.333
491.56	32.163
491.91	32.266
492.26	32.134
492.60	32.198
492.95	33.448
493.30	32.487
493.64	33.644
493.99	33.430
494.34	32.282
494.68	33.048
495.03	32.457
495.37	33.415
495.72	33.670
496.07	33.122
496.41	32.594
496.76	31.829
497.11	33.023
497.45	33.174
497.80	34.309
498.14	33.433
498.49	33.773
498.84	33.832
499.18	33.785
499.53	33.780
499.87	32.977
500.22	33.828
500.56	33.989
500.91	33.534
501.26	33.959
501.60	33.694
501.95	34.546
502.29	34.237
502.64	35.232
502.98	33.892
503.33	33.477
503.67	33.831
504.02	34.115
504.36	34.884
504.71	34.141
505.06	33.820
505.40	33.858
505.75	35.515
506.09	34.617
506.44	35.472
506.78	34.592
507.13	34.798
507.47	34.569
507.82	35.310
508.16	34.390
508.51	34.732
508.85	34.537
509.19	35.391
509.54	35.710
509.88	35.814
510.23	36.310
510.57	35.917
510.92	34.861
511.26	35.734
511.61	37.404
511.95	36.329
512.30	36.364
512.64	36.116
512.98	37.619
513.33	37.157
513.67	37.180
514.02	38.158
514.36	37.657
514.70	37.762
515.05	38.602
515.39	37.839
515.74	38.323
516.08	38.553
516.42	38.457
516.77	38.327
517.11	38.457
517.46	38.600
517.80	37.306
518.14	38.641
518.49	38.041
518.83	38.639
519.17	37.477
519.52	38.366
519.86	38.535
520.20	39.672
520.55	38.086
520.89	38.331
521.23	39.202
521.58	39.117
521.92	38.654
522.26	39.493
522.61	40.065
522.95	40.530
523.29	39.835
523.64	40.788
523.98	40.959
524.32	40.077
524.66	40.525
525.01	40.325
525.35	40.117
525.69	40.202
526.04	39.286
526.38	40.208
526.72	39.699
527.06	39.300
527.41	40.633
527.75	39.276
528.09	40.864
528.43	41.256
528.78	39.802
529.12	38.581
529.46	40.026
529.80	39.392
530.15	42.244
530.49	41.010
530.83	41.655
531.17	39.758
531.51	40.903
531.86	39.021
532.20	40.362
532.54	41.048
532.88	41.752
533.22	40.793
533.57	40.367
533.91	40.862
534.25	41.406
534.59	40.603
534.93	39.962
535.27	38.959
535.62	40.052
535.96	40.313
536.30	41.623
536.64	41.144
536.98	40.697
537.32	41.536
537.66	41.024
538.01	41.119
538.35	40.985
538.69	40.213
539.03	39.986
539.37	39.771
539.71	40.627
540.05	39.986
540.39	41.620
540.73	40.167
541.07	41.367
541.42	41.263
541.76	40.950
542.10	40.950
542.44	39.958
542.78	40.674
543.12	39.560
543.46	40.264
543.80	40.736
544.14	39.186
544.48	40.973
544.82	41.490
545.16	40.574
545.50	40.721
545.84	41.643
546.18	41.560
546.52	41.384
546.86	41.121
547.20	40.129
547.54	39.647
547.88	41.372
548.22	39.382
548.56	40.501
548.90	41.509
549.24	40.220
549.58	41.255
549.92	39.457
550.26	41.978
550.60	41.784
550.94	41.374
551.28	41.267
551.62	42.000
551.96	41.053
552.30	40.716
552.64	40.409
552.98	40.858
553.32	40.728
553.66	42.235
554.00	40.292
554.34	41.654
554.68	40.560
555.02	41.592
555.36	40.464
555.69	41.538
556.03	39.686
556.37	41.281
556.71	40.433
557.05	40.716
557.39	39.554
557.73	41.229
558.07	42.534
558.41	41.348
558.75	42.089
559.08	42.868
559.42	42.063
559.76	42.114
560.10	41.437
560.44	40.357
560.78	41.329
561.12	39.845
561.45	42.446
561.79	40.406
562.13	41.448
562.47	41.655
562.81	40.562
563.15	41.044
563.48	41.655
563.82	41.043
564.16	40.460
564.50	40.811
564.84	40.495
565.17	40.644
565.51	41.257
565.85	42.044
566.19	40.252
566.52	40.416
566.86	39.717
567.20	39.913
567.54	40.389
567.88	40.832
568.21	39.989
568.55	38.696
568.89	38.963
569.23	38.613
569.56	38.354
569.90	38.571
570.24	37.737
570.57	38.509
570.91	37.644
571.25	36.501
571.59	36.095
571.92	35.822
572.26	36.322
572.60	35.783
572.93	36.743
573.27	36.364
573.61	36.187
573.95	36.974
574.28	36.388
574.62	35.215
574.96	35.527
575.29	35.664
575.63	34.957
575.97	35.375
576.30	35.760
576.64	35.020
576.98	36.396
577.31	35.316
577.65	36.032
577.98	35.630
578.32	34.786
578.66	34.601
578.99	35.330
579.33	36.123
579.67	35.806
580.00	35.620
580.34	35.522
580.67	35.089
581.01	35.711
581.35	35.724
581.68	34.855
582.02	34.685
582.35	35.153
582.69	35.002
583.02	35.655
583.36	35.746
583.70	36.760
584.03	36.558
584.37	36.589
584.70	36.154
585.04	35.259
585.37	34.570
585.71	35.028
586.04	34.846
586.38	35.023
586.72	35.524
587.05	36.135
587.39	35.421
587.72	36.413
588.06	36.230
588.39	35.773
588.73	35.531
589.06	36.954
589.40	36.709
589.73	36.327
590.07	37.424
590.40	37.423
590.73	37.850
591.07	37.150
591.40	37.756
591.74	38.100
592.07	37.941
592.41	37.323
592.74	36.161
593.08	35.348
593.41	35.980
593.75	35.918
594.08	34.844
594.41	35.153
594.75	35.534
595.08	36.171
595.42	35.885
595.75	36.575
596.09	37.021
596.42	36.461
596.75	37.655
597.09	36.082
597.42	36.721
597.75	36.693
598.09	36.215
598.42	36.597
598.76	36.036
599.09	35.617
599.42	34.937
599.76	35.290
600.09	35.483
600.42	35.936
600.76	34.584
601.09	35.420
601.42	34.978
601.76	36.324
602.09	35.602
602.42	37.363
602.76	36.333
603.09	36.047
603.42	36.664
603.76	36.371
604.09	35.682
604.42	36.506
604.76	36.716
605.09	37.203
605.42	35.666
605.75	35.902
606.09	36.008
606.42	35.988
606.75	34.935
607.09	36.440
607.42	35.179
607.75	35.568
608.08	35.669
608.42	35.176
608.75	36.723
609.08	36.721
609.41	36.294
609.75	36.542
610.08	36.146
610.41	34.976
610.74	36.568
611.07	36.124
611.41	36.066
611.74	37.047
612.07	36.456
612.40	37.090
612.73	36.045
613.07	36.220
613.40	36.597
613.73	36.206
614.06	36.505
614.39	35.589
614.72	35.350
615.06	37.486
615.39	35.917
615.72	35.576
616.05	37.486
616.38	35.100
616.71	36.881
617.05	36.195
617.38	37.964
617.71	36.226
618.04	37.587
618.37	37.074
618.70	37.822
619.03	37.639
619.36	36.975
619.69	38.817
620.03	37.400
620.36	36.981
620.69	37.116
621.02	37.768
621.35	37.593
621.68	40.221
622.01	38.667
622.34	38.388
622.67	37.855
623.00	36.907
623.33	38.034
623.66	37.248
623.99	37.216
624.32	36.654
624.65	35.789
624.99	36.870
625.32	36.619
625.65	38.413
625.98	39.081
626.31	37.988
626.64	39.168
626.97	40.750
627.30	38.792
627.63	38.302
627.96	38.275
628.29	38.760
628.62	39.135
628.95	39.579
629.28	38.710
629.61	40.179
629.94	41.153
630.26	37.055
630.59	40.687
630.92	40.205
631.25	38.359
631.58	39.427
631.91	40.022
632.24	40.482
632.57	41.705
632.90	39.502
633.23	41.529
