SpectraSuite Data File
++++++++++++++++++++++++++++++++++++
Date: Fri May 15 20:55:10 PDT 2015
User: schluterlab
Dark Spectrum Present: Yes
Reference Spectrum Present: Yes
Number of Sampled Component Spectra: 1
Spectrometers: USB2E3373
Integration Time (usec): 3000 (USB2E3373)
Spectra Averaged: 3 (USB2E3373)
Boxcar Smoothing: 0 (USB2E3373)
Correct for Electrical Dark: No (USB2E3373)
Strobe/Lamp Enabled: No (USB2E3373)
Correct for Detector Non-linearity: No (USB2E3373)
Correct for Stray Light: No (USB2E3373)
Number of Pixels in Processed Spectrum: 2048
>>>>>Begin Processed Spectral Data<<<<<
178.53	0.000
178.91	0.000
179.29	112.500
179.67	-200.000
180.04	-0.000
180.42	0.000
180.80	-100.000
181.18	-166.667
181.56	150.000
181.94	-100.000
182.31	-200.000
182.69	80.000
183.07	-166.667
183.45	-40.000
183.83	116.667
184.20	45.455
184.58	111.111
184.96	-100.000
185.34	66.667
185.72	100.000
186.09	76.923
186.47	0.000
186.85	133.333
187.23	133.333
187.61	500.000
187.98	166.667
188.36	33.333
188.74	100.000
189.12	35.294
189.49	16.667
189.87	0.000
190.25	92.857
190.63	350.000
191.00	-200.000
191.38	57.895
191.76	50.000
192.14	25.000
192.51	250.000
192.89	-100.000
193.27	-157.143
193.65	50.000
194.02	200.000
194.40	-40.000
194.78	-125.000
195.15	0.000
195.53	-137.500
195.91	125.000
196.29	100.000
196.66	100.000
197.04	-100.000
197.42	11.111
197.79	-400.000
198.17	-115.385
198.55	300.000
198.92	-400.000
199.30	-400.000
199.68	0.000
200.05	-166.667
200.43	0.000
200.81	233.333
201.18	0.000
201.56	400.000
201.94	-200.000
202.31	333.333
202.69	-160.000
203.07	225.000
203.44	100.000
203.82	0.000
204.19	14.286
204.57	-133.333
204.95	137.500
205.32	30.000
205.70	-14.286
206.08	0.000
206.45	200.000
206.83	92.857
207.20	42.857
207.58	1500.000
207.96	-333.333
208.33	-80.000
208.71	25.000
209.08	-100.000
209.46	-1100.000
209.84	40.000
210.21	-800.000
210.59	100.000
210.96	33.333
211.34	-50.000
211.71	80.000
212.09	28.571
212.46	-1400.000
212.84	0.000
213.22	10.000
213.59	400.000
213.97	76.923
214.34	9.091
214.72	16.667
215.09	225.000
215.47	38.462
215.84	18.182
216.22	133.333
216.59	-62.500
216.97	-50.000
217.34	-25.000
217.72	-120.000
218.09	-12.500
218.47	50.000
218.84	1200.000
219.22	-66.667
219.59	-60.000
219.97	300.000
220.34	175.000
220.72	-14.286
221.09	-50.000
221.47	-100.000
221.84	-650.000
222.22	-500.000
222.59	27.273
222.97	41.667
223.34	-100.000
223.72	28.571
224.09	19.048
224.46	17.857
224.84	233.333
225.21	30.000
225.59	66.667
225.96	-50.000
226.34	225.000
226.71	-57.143
227.08	-83.333
227.46	-12.500
227.83	-300.000
228.21	-22.222
228.58	-27.273
228.95	-50.000
229.33	90.000
229.70	31.250
230.08	-125.000
230.45	-85.714
230.82	-57.143
231.20	-40.000
231.57	78.571
231.95	0.000
232.32	-150.000
232.69	-28.571
233.07	66.667
233.44	120.000
233.81	-50.000
234.19	-33.333
234.56	-35.294
234.93	600.000
235.31	-50.000
235.68	-120.000
236.05	-7.692
236.43	-25.000
236.80	5.882
237.17	15.625
237.55	-50.000
237.92	-11.111
238.29	8.333
238.67	13.333
239.04	20.588
239.41	-17.073
239.79	-10.000
240.16	36.585
240.53	-2.632
240.91	-2.174
241.28	7.937
241.65	19.643
242.02	20.548
242.40	0.000
242.77	6.780
243.14	10.606
243.51	13.750
243.89	27.586
244.26	12.644
244.63	22.619
245.00	14.433
245.38	17.526
245.75	11.236
246.12	3.448
246.49	9.917
246.87	16.346
247.24	16.807
247.61	5.263
247.98	4.878
248.36	13.125
248.73	14.474
249.10	11.688
249.47	16.456
249.84	12.418
250.22	20.588
250.59	16.993
250.96	14.554
251.33	13.372
251.70	21.765
252.08	11.168
252.45	17.327
252.82	10.050
253.19	17.051
253.56	10.748
253.94	16.667
254.31	18.696
254.68	13.596
255.05	7.087
255.42	15.284
255.79	11.197
256.16	15.953
256.54	15.299
256.91	15.970
257.28	20.818
257.65	13.858
258.02	10.638
258.39	15.152
258.76	17.216
259.14	20.930
259.51	13.916
259.88	17.182
260.25	14.052
260.62	17.361
260.99	16.610
261.36	14.726
261.73	16.139
262.10	17.629
262.47	15.337
262.85	16.614
263.22	11.692
263.59	17.445
263.96	20.186
264.33	18.182
264.70	13.988
265.07	15.476
265.44	19.547
265.81	16.384
266.18	20.219
266.55	17.481
266.92	18.912
267.29	19.060
267.66	14.322
268.03	15.183
268.40	13.577
268.77	17.112
269.14	16.787
269.51	15.167
269.88	15.212
270.25	17.092
270.62	13.415
270.99	16.880
271.36	16.626
271.73	18.075
272.10	15.572
272.47	17.967
272.84	15.099
273.21	16.241
273.58	15.904
273.95	13.730
274.32	16.166
274.69	13.348
275.06	14.732
275.43	16.780
275.80	16.777
276.17	13.103
276.54	18.415
276.91	17.763
277.28	13.974
277.65	14.876
278.02	14.681
278.39	15.536
278.76	15.723
279.13	14.108
279.50	18.908
279.87	15.119
280.23	13.763
280.60	17.349
280.97	14.747
281.34	14.615
281.71	17.454
282.08	12.474
282.45	13.699
282.82	15.830
283.19	15.280
283.56	15.607
283.92	13.472
284.29	14.231
284.66	14.147
285.03	14.145
285.40	13.611
285.77	14.236
286.14	15.704
286.51	16.974
286.87	13.711
287.24	14.365
287.61	13.757
287.98	14.912
288.35	15.425
288.72	14.711
289.08	14.583
289.45	14.411
289.82	13.811
290.19	14.334
290.56	12.350
290.93	12.626
291.29	11.556
291.66	13.701
292.03	12.121
292.40	15.323
292.77	12.440
293.13	12.013
293.50	11.836
293.87	14.351
294.24	13.138
294.60	11.624
294.97	13.839
295.34	12.883
295.71	12.221
296.08	13.004
296.44	10.526
296.81	12.639
297.18	14.493
297.55	13.821
297.91	12.740
298.28	14.908
298.65	11.669
299.02	12.668
299.38	11.491
299.75	13.517
300.12	11.387
300.48	11.067
300.85	12.548
301.22	11.948
301.59	12.500
301.95	13.038
302.32	13.878
302.69	12.189
303.05	12.995
303.42	12.827
303.79	13.084
304.15	12.784
304.52	12.604
304.89	12.749
305.25	12.107
305.62	11.785
305.99	12.632
306.35	11.098
306.72	13.161
307.09	13.569
307.45	14.007
307.82	13.889
308.19	14.286
308.55	13.522
308.92	15.033
309.29	13.631
309.65	14.855
310.02	14.631
310.38	15.697
310.75	14.208
311.12	14.101
311.48	14.528
311.85	14.241
312.22	14.346
312.58	13.694
312.95	15.155
313.31	16.149
313.68	15.183
314.05	15.408
314.41	17.423
314.78	15.361
315.14	17.883
315.51	17.495
315.87	17.008
316.24	18.908
316.61	18.406
316.97	18.353
317.34	18.262
317.70	18.069
318.07	19.038
318.43	17.549
318.80	19.129
319.16	20.605
319.53	20.703
319.89	19.488
320.26	20.951
320.62	21.464
320.99	19.729
321.35	19.938
321.72	23.988
322.08	23.364
322.45	24.467
322.81	22.986
323.18	24.338
323.54	24.710
323.91	25.511
324.27	26.758
324.64	26.030
325.00	27.737
325.37	29.109
325.73	28.015
326.10	30.518
326.46	29.417
326.83	31.759
327.19	31.037
327.56	32.667
327.92	33.715
328.29	32.679
328.65	33.868
329.01	34.007
329.38	34.378
329.74	33.994
330.11	34.662
330.47	36.920
330.84	36.731
331.20	38.973
331.56	36.111
331.93	37.169
332.29	37.764
332.66	37.919
333.02	38.104
333.38	37.672
333.75	40.476
334.11	37.243
334.48	38.894
334.84	38.645
335.20	38.518
335.57	38.441
335.93	40.470
336.29	38.490
336.66	39.510
337.02	40.335
337.38	38.796
337.75	39.000
338.11	41.118
338.47	41.332
338.84	40.018
339.20	40.494
339.56	41.743
339.93	40.107
340.29	40.275
340.65	41.577
341.02	40.603
341.38	41.062
341.74	38.958
342.11	39.861
342.47	41.103
342.83	41.869
343.20	40.418
343.56	41.739
343.92	41.098
344.28	41.247
344.65	41.105
345.01	40.795
345.37	40.454
345.73	42.594
346.10	41.933
346.46	42.473
346.82	42.308
347.19	40.233
347.55	40.852
347.91	41.667
348.27	41.714
348.63	42.334
349.00	41.181
349.36	42.394
349.72	43.367
350.08	42.787
350.45	41.500
350.81	41.611
351.17	40.961
351.53	42.204
351.89	42.609
352.26	42.400
352.62	43.468
352.98	41.365
353.34	41.143
353.70	43.204
354.07	42.903
354.43	43.074
354.79	43.600
355.15	43.254
355.51	43.513
355.87	43.528
356.24	42.007
356.60	42.765
356.96	42.143
357.32	43.291
357.68	42.064
358.04	42.730
358.40	42.283
358.77	43.381
359.13	43.155
359.49	41.988
359.85	42.590
360.21	43.620
360.57	42.770
360.93	43.268
361.29	41.465
361.66	44.357
362.02	43.258
362.38	44.021
362.74	43.301
363.10	44.394
363.46	44.403
363.82	43.501
364.18	44.428
364.54	43.529
364.90	43.297
365.26	43.959
365.62	45.109
365.98	43.915
366.35	43.700
366.71	45.455
367.07	44.267
367.43	44.716
367.79	43.180
368.15	43.790
368.51	44.865
368.87	44.508
369.23	44.043
369.59	45.991
369.95	45.015
370.31	44.870
370.67	45.522
371.03	44.212
371.39	45.150
371.75	45.788
372.11	44.151
372.47	46.006
372.83	44.784
373.19	46.148
373.55	43.827
373.91	44.996
374.27	45.571
374.63	45.657
374.99	43.972
375.35	46.866
375.71	47.762
376.07	45.506
376.42	44.830
376.78	46.980
377.14	45.633
377.50	47.012
377.86	45.582
378.22	45.629
378.58	46.987
378.94	45.558
379.30	46.413
379.66	46.395
380.02	46.291
380.38	45.405
380.74	45.721
381.09	46.748
381.45	45.382
381.81	46.268
382.17	45.431
382.53	46.096
382.89	46.642
383.25	46.920
383.61	47.012
383.97	44.762
384.32	46.779
384.68	46.625
385.04	45.650
385.40	46.484
385.76	48.113
386.12	47.348
386.48	47.318
386.83	46.481
387.19	45.971
387.55	47.114
387.91	46.271
388.27	46.093
388.62	47.703
388.98	45.918
389.34	46.096
389.70	47.296
390.06	44.808
390.42	46.179
390.77	47.547
391.13	46.217
391.49	47.219
391.85	47.953
392.20	46.579
392.56	46.154
392.92	47.211
393.28	45.578
393.64	45.766
393.99	47.335
394.35	46.363
394.71	45.977
395.07	45.757
395.42	45.841
395.78	45.993
396.14	46.784
396.50	47.051
396.85	46.941
397.21	46.429
397.57	46.144
397.92	45.416
398.28	45.747
398.64	45.542
399.00	45.711
399.35	45.260
399.71	45.089
400.07	46.735
400.42	46.267
400.78	45.560
401.14	45.554
401.49	46.456
401.85	44.485
402.21	46.205
402.57	46.812
402.92	44.166
403.28	45.990
403.63	46.847
403.99	45.344
404.35	46.159
404.70	44.643
405.06	44.125
405.42	45.121
405.77	44.567
406.13	44.994
406.49	44.287
406.84	45.844
407.20	44.551
407.55	44.237
407.91	45.388
408.27	45.061
408.62	45.231
408.98	43.993
409.34	44.362
409.69	43.669
410.05	44.150
410.40	44.136
410.76	44.994
411.11	44.312
411.47	44.970
411.83	42.938
412.18	44.144
412.54	43.633
412.89	43.719
413.25	45.006
413.60	43.851
413.96	42.699
414.31	43.598
414.67	44.195
415.03	44.341
415.38	44.386
415.74	44.560
416.09	44.873
416.45	43.619
416.80	43.688
417.16	44.475
417.51	44.237
417.87	43.807
418.22	44.754
418.58	45.017
418.93	43.386
419.29	44.174
419.64	44.264
420.00	45.025
420.35	43.642
420.71	45.200
421.06	44.076
421.42	43.089
421.77	44.220
422.12	43.587
422.48	43.530
422.83	44.084
423.19	44.808
423.54	44.268
423.90	42.815
424.25	44.604
424.61	46.022
424.96	43.728
425.31	45.118
425.67	44.953
426.02	44.935
426.38	46.525
426.73	46.308
427.09	46.076
427.44	46.118
427.79	45.669
428.15	45.631
428.50	45.185
428.85	44.717
429.21	45.954
429.56	45.283
429.92	45.352
430.27	44.612
430.62	43.858
430.98	45.329
431.33	45.110
431.68	44.741
432.04	46.115
432.39	45.408
432.74	43.055
433.10	47.184
433.45	45.699
433.80	46.953
434.16	45.596
434.51	45.914
434.86	46.574
435.22	47.448
435.57	46.226
435.92	47.485
436.28	45.915
436.63	46.149
436.98	46.582
437.34	46.763
437.69	47.585
438.04	48.091
438.39	47.037
438.75	49.180
439.10	47.425
439.45	49.300
439.81	48.135
440.16	48.931
440.51	48.299
440.86	49.245
441.22	48.586
441.57	48.013
441.92	49.948
442.27	48.947
442.63	49.839
442.98	48.708
443.33	48.191
443.68	49.072
444.03	50.472
444.39	48.893
444.74	51.059
445.09	50.000
445.44	50.598
445.79	50.490
446.15	50.606
446.50	49.861
446.85	50.744
447.20	51.043
447.55	51.339
447.91	51.495
448.26	51.167
448.61	51.238
448.96	51.348
449.31	51.214
449.66	50.697
450.02	51.169
450.37	51.986
450.72	51.947
451.07	51.139
451.42	52.060
451.77	53.044
452.12	50.718
452.47	51.900
452.83	52.120
453.18	53.194
453.53	53.603
453.88	54.402
454.23	51.936
454.58	54.345
454.93	53.351
455.28	51.429
455.63	52.883
455.98	52.135
456.34	53.321
456.69	54.130
457.04	53.497
457.39	52.734
457.74	53.990
458.09	52.089
458.44	53.482
458.79	52.437
459.14	52.346
459.49	53.672
459.84	52.679
460.19	52.852
460.54	52.017
460.89	53.807
461.24	53.416
461.59	53.147
461.94	51.447
462.29	53.016
462.64	53.754
462.99	53.758
463.34	53.268
463.69	53.282
464.04	54.116
464.39	52.941
464.74	52.331
465.09	54.148
465.44	52.683
465.79	53.005
466.14	52.052
466.49	53.939
466.84	52.945
467.19	53.379
467.54	54.215
467.89	53.190
468.24	52.433
468.59	54.857
468.94	52.063
469.29	54.295
469.64	53.725
469.99	54.940
470.34	52.969
470.68	56.227
471.03	55.343
471.38	54.636
471.73	55.462
472.08	53.867
472.43	55.436
472.78	54.215
473.13	55.170
473.48	54.593
473.83	54.483
474.17	54.339
474.52	53.478
474.87	55.152
475.22	54.423
475.57	54.037
475.92	54.471
476.27	55.530
476.61	54.803
476.96	53.486
477.31	53.651
477.66	53.427
478.01	54.857
478.36	53.431
478.70	54.812
479.05	54.560
479.40	55.061
479.75	53.128
480.10	54.685
480.45	54.150
480.79	55.086
481.14	54.764
481.49	53.005
481.84	54.006
482.19	53.789
482.53	55.252
482.88	53.986
483.23	53.695
483.58	53.491
483.92	54.163
484.27	53.099
484.62	53.743
484.97	53.441
485.31	51.084
485.66	49.812
486.01	49.656
486.36	49.825
486.70	49.784
487.05	49.989
487.40	50.776
487.75	50.845
488.09	51.112
488.44	52.201
488.79	53.194
489.13	53.606
489.48	53.655
489.83	53.408
490.17	52.899
490.52	53.580
490.87	53.725
491.22	55.253
491.56	54.507
491.91	54.302
492.26	55.275
492.60	53.455
492.95	55.386
493.30	54.226
493.64	55.354
493.99	54.783
494.34	53.204
494.68	54.143
495.03	54.161
495.37	54.073
495.72	55.679
496.07	54.049
496.41	53.255
496.76	54.169
497.11	52.911
497.45	54.749
497.80	55.096
498.14	54.148
498.49	55.155
498.84	52.994
499.18	55.773
499.53	54.415
499.87	53.696
500.22	54.105
500.56	54.362
500.91	54.468
501.26	53.089
501.60	53.812
501.95	53.954
502.29	54.334
502.64	54.971
502.98	55.402
503.33	53.698
503.67	52.867
504.02	54.545
504.36	53.934
504.71	53.737
505.06	54.706
505.40	53.909
505.75	54.588
506.09	54.486
506.44	54.261
506.78	55.051
507.13	54.292
507.47	54.935
507.82	53.472
508.16	54.464
508.51	54.774
508.85	55.730
509.19	55.349
509.54	55.657
509.88	55.124
510.23	55.299
510.57	55.265
510.92	52.665
511.26	54.283
511.61	56.381
511.95	55.452
512.30	54.656
512.64	54.257
512.98	55.531
513.33	55.512
513.67	55.429
514.02	56.121
514.36	55.314
514.70	56.410
515.05	55.875
515.39	55.785
515.74	56.467
516.08	55.888
516.42	56.066
516.77	55.530
517.11	56.142
517.46	55.595
517.80	55.781
518.14	57.073
518.49	56.130
518.83	55.468
519.17	55.246
519.52	55.358
519.86	54.982
520.20	57.108
520.55	55.285
520.89	57.340
521.23	56.428
521.58	56.467
521.92	56.410
522.26	55.237
522.61	57.078
522.95	58.146
523.29	56.480
523.64	56.480
523.98	57.161
524.32	56.637
524.66	56.978
525.01	56.039
525.35	56.513
525.69	56.364
526.04	55.688
526.38	57.263
526.72	55.265
527.06	55.058
527.41	55.607
527.75	56.836
528.09	55.548
528.43	58.001
528.78	55.908
529.12	55.806
529.46	56.400
529.80	54.528
530.15	56.898
530.49	55.421
530.83	56.361
531.17	54.466
531.51	55.677
531.86	55.812
532.20	54.767
532.54	54.935
532.88	56.537
533.22	54.637
533.57	56.225
533.91	53.460
534.25	55.013
534.59	54.330
534.93	53.870
535.27	52.348
535.62	53.662
535.96	54.403
536.30	54.090
536.64	55.824
536.98	54.634
537.32	56.117
537.66	55.961
538.01	55.105
538.35	54.022
538.69	53.129
539.03	53.725
539.37	54.374
539.71	53.647
540.05	52.478
540.39	54.986
540.73	53.766
541.07	55.732
541.42	52.823
541.76	54.233
542.10	54.164
542.44	53.857
542.78	50.791
543.12	53.709
543.46	53.338
543.80	54.962
544.14	51.802
544.48	52.432
544.82	53.589
545.16	52.459
545.50	52.537
545.84	54.249
546.18	53.262
546.52	54.650
546.86	52.912
547.20	54.149
547.54	52.297
547.88	51.970
548.22	51.611
548.56	51.715
548.90	52.358
549.24	51.309
549.58	52.186
549.92	50.822
550.26	52.015
550.60	53.160
550.94	53.846
551.28	53.246
551.62	53.231
551.96	53.985
552.30	52.120
552.64	50.987
552.98	53.235
553.32	51.498
553.66	51.742
554.00	52.190
554.34	52.290
554.68	52.802
555.02	52.753
555.36	53.104
555.69	52.381
556.03	51.178
556.37	51.317
556.71	51.769
557.05	52.498
557.39	51.970
557.73	52.549
558.07	51.659
558.41	53.063
558.75	53.157
559.08	52.955
559.42	53.810
559.76	54.524
560.10	52.829
560.44	51.452
560.78	51.958
561.12	52.327
561.45	51.862
561.79	51.120
562.13	51.668
562.47	52.014
562.81	50.793
563.15	50.917
563.48	50.424
563.82	50.927
564.16	51.671
564.50	49.662
564.84	50.134
565.17	50.570
565.51	50.683
565.85	51.029
566.19	51.194
566.52	52.480
566.86	50.386
567.20	49.875
567.54	49.635
567.88	49.443
568.21	49.265
568.55	48.533
568.89	47.947
569.23	46.750
569.56	46.848
569.90	46.935
570.24	44.399
570.57	44.982
570.91	45.382
571.25	44.064
571.59	43.538
571.92	43.526
572.26	42.603
572.60	43.225
572.93	43.709
573.27	42.571
573.61	42.900
573.95	43.583
574.28	42.108
574.62	41.622
574.96	41.486
575.29	42.251
575.63	40.166
575.97	41.258
576.30	41.608
576.64	41.748
576.98	42.008
577.31	41.165
577.65	41.468
577.98	40.723
578.32	40.792
578.66	39.867
578.99	40.945
579.33	40.819
579.67	40.222
580.00	40.785
580.34	40.846
580.67	40.851
581.01	40.562
581.35	39.772
581.68	40.110
582.02	39.567
582.35	40.130
582.69	40.612
583.02	40.333
583.36	40.620
583.70	41.147
584.03	42.285
584.37	42.772
584.70	41.593
585.04	39.974
585.37	40.319
585.71	40.286
586.04	40.822
586.38	40.624
586.72	41.176
587.05	41.392
587.39	41.683
587.72	41.225
588.06	41.517
588.39	40.929
588.73	41.606
589.06	42.433
589.40	42.032
589.73	43.008
590.07	42.560
590.40	42.376
590.73	42.957
591.07	43.003
591.40	42.876
591.74	43.937
592.07	43.135
592.41	44.214
592.74	41.896
593.08	41.250
593.41	41.647
593.75	40.857
594.08	41.092
594.41	41.776
594.75	41.412
595.08	41.960
595.42	41.958
595.75	41.645
596.09	41.673
596.42	41.918
596.75	43.339
597.09	42.870
597.42	42.547
597.75	42.831
598.09	42.372
598.42	42.735
598.76	42.171
599.09	41.026
599.42	41.076
599.76	41.196
600.09	40.799
600.42	41.016
600.76	41.048
601.09	40.649
601.42	40.266
601.76	41.286
602.09	41.625
602.42	42.081
602.76	42.360
603.09	42.525
603.42	41.973
603.76	41.411
604.09	41.960
604.42	41.878
604.76	42.991
605.09	41.865
605.42	41.896
605.75	40.981
606.09	40.764
606.42	40.742
606.75	41.558
607.09	42.022
607.42	40.629
607.75	40.986
608.08	40.925
608.42	41.023
608.75	41.831
609.08	42.402
609.41	42.284
609.75	42.288
610.08	42.436
610.41	40.918
610.74	42.613
611.07	42.119
611.41	42.553
611.74	43.337
612.07	42.934
612.40	43.381
612.73	43.446
613.07	41.676
613.40	43.545
613.73	42.977
614.06	43.795
614.39	42.470
614.72	41.849
615.06	43.296
615.39	40.830
615.72	41.335
616.05	41.341
616.38	41.425
616.71	42.202
617.05	41.939
617.38	43.118
617.71	42.704
618.04	43.556
618.37	44.073
618.70	44.224
619.03	45.069
619.36	44.428
619.69	46.247
620.03	45.362
620.36	44.993
620.69	43.469
621.02	44.190
621.35	46.058
621.68	46.939
622.01	46.833
622.34	45.730
622.67	46.215
623.00	44.334
623.33	43.445
623.66	43.680
623.99	44.402
624.32	45.019
624.65	43.835
624.99	45.297
625.32	42.456
625.65	45.797
625.98	45.608
626.31	44.722
626.64	46.187
626.97	46.510
627.30	45.972
627.63	45.667
627.96	46.181
628.29	46.623
628.62	47.001
628.95	46.092
629.28	47.984
629.61	45.962
629.94	46.921
630.26	47.826
630.59	50.156
630.92	48.205
631.25	46.872
631.58	48.348
631.91	46.382
632.24	49.771
632.57	48.977
632.90	49.585
633.23	49.647
633.56	50.378
633.89	50.555
