SpectraSuite Data File
++++++++++++++++++++++++++++++++++++
Date: Fri May 15 21:11:03 PDT 2015
User: schluterlab
Dark Spectrum Present: Yes
Reference Spectrum Present: Yes
Number of Sampled Component Spectra: 1
Spectrometers: USB2E3373
Integration Time (usec): 3000 (USB2E3373)
Spectra Averaged: 3 (USB2E3373)
Boxcar Smoothing: 0 (USB2E3373)
Correct for Electrical Dark: No (USB2E3373)
Strobe/Lamp Enabled: No (USB2E3373)
Correct for Detector Non-linearity: No (USB2E3373)
Correct for Stray Light: No (USB2E3373)
Number of Pixels in Processed Spectrum: 2048
>>>>>Begin Processed Spectral Data<<<<<
178.53	0.000
178.91	0.000
179.29	-12.500
179.67	-150.000
180.04	-57.143
180.42	250.000
180.80	-600.000
181.18	200.000
181.56	650.000
181.94	-200.000
182.31	2100.000
182.69	0.000
183.07	-300.000
183.45	100.000
183.83	100.000
184.20	-100.000
184.58	188.889
184.96	300.000
185.34	-0.000
185.72	-1050.000
186.09	15.385
186.47	200.000
186.85	300.000
187.23	77.778
187.61	800.000
187.98	-33.333
188.36	44.444
188.74	0.000
189.12	-23.529
189.49	44.444
189.87	0.000
190.25	85.714
190.63	200.000
191.00	-200.000
191.38	10.526
191.76	200.000
192.14	50.000
192.51	-150.000
192.89	-44.444
193.27	-228.571
193.65	350.000
194.02	181.818
194.40	40.000
194.78	-75.000
195.15	-25.000
195.53	-200.000
195.91	400.000
196.29	-150.000
196.66	15.385
197.04	-71.429
197.42	-11.111
197.79	-166.667
198.17	-76.923
198.55	1100.000
198.92	-100.000
199.30	-900.000
199.68	-140.000
200.05	-100.000
200.43	0.000
200.81	233.333
201.18	-33.333
201.56	1000.000
201.94	-450.000
202.31	100.000
202.69	-260.000
203.07	125.000
203.44	-700.000
203.82	0.000
204.19	21.429
204.57	-266.667
204.95	137.500
205.32	-30.000
205.70	42.857
206.08	-175.000
206.45	233.333
206.83	14.286
207.20	-100.000
207.58	-0.000
207.96	-266.667
208.33	-110.000
208.71	200.000
209.08	66.667
209.46	-900.000
209.84	60.000
210.21	-700.000
210.59	-28.571
210.96	-83.333
211.34	0.000
211.71	86.667
212.09	-142.857
212.46	-1900.000
212.84	0.000
213.22	70.000
213.59	500.000
213.97	-23.077
214.34	-9.091
214.72	-16.667
215.09	175.000
215.47	-69.231
215.84	-100.000
216.22	-333.333
216.59	-12.500
216.97	-200.000
217.34	-125.000
217.72	60.000
218.09	0.000
218.47	87.500
218.84	300.000
219.22	-33.333
219.59	-160.000
219.97	400.000
220.34	-0.000
220.72	42.857
221.09	-175.000
221.47	150.000
221.84	-1100.000
222.22	-550.000
222.59	-18.182
222.97	66.667
223.34	-166.667
223.72	-35.714
224.09	23.810
224.46	39.286
224.84	466.667
225.21	100.000
225.59	0.000
225.96	-450.000
226.34	175.000
226.71	-28.571
227.08	-183.333
227.46	-12.500
227.83	-500.000
228.21	44.444
228.58	45.455
228.95	-62.500
229.33	110.000
229.70	0.000
230.08	-50.000
230.45	-85.714
230.82	28.571
231.20	-33.333
231.57	28.571
231.95	-57.143
232.32	-10.000
232.69	35.714
233.07	-100.000
233.44	-120.000
233.81	0.000
234.19	22.222
234.56	-11.765
234.93	650.000
235.31	-275.000
235.68	-340.000
236.05	-23.077
236.43	-10.000
236.80	29.412
237.17	40.625
237.55	15.000
237.92	22.222
238.29	52.778
238.67	60.000
239.04	11.765
239.41	-9.756
239.79	-10.000
240.16	34.146
240.53	-7.895
240.91	0.000
241.28	23.810
241.65	14.286
242.02	20.548
242.40	28.333
242.77	23.729
243.14	27.273
243.51	28.750
243.89	21.839
244.26	25.287
244.63	25.000
245.00	25.773
245.38	27.835
245.75	21.348
246.12	24.138
246.49	27.273
246.87	24.038
247.24	21.008
247.61	22.807
247.98	16.260
248.36	28.125
248.73	21.711
249.10	26.623
249.47	29.747
249.84	26.144
250.22	23.529
250.59	22.222
250.96	25.822
251.33	26.163
251.70	37.059
252.08	25.888
252.45	24.752
252.82	25.628
253.19	29.032
253.56	23.364
253.94	27.027
254.31	27.826
254.68	31.579
255.05	25.984
255.42	27.074
255.79	28.571
256.16	26.459
256.54	30.224
256.91	26.996
257.28	29.740
257.65	27.341
258.02	25.177
258.39	24.579
258.76	31.502
259.14	28.571
259.51	25.890
259.88	26.117
260.25	26.471
260.62	28.819
260.99	23.390
261.36	22.260
261.73	26.266
262.10	30.699
262.47	27.301
262.85	25.392
263.22	26.462
263.59	31.776
263.96	29.193
264.33	30.000
264.70	26.190
265.07	25.595
265.44	28.612
265.81	25.706
266.18	26.230
266.55	30.077
266.92	27.461
267.29	29.243
267.66	23.274
268.03	25.131
268.40	25.849
268.77	29.947
269.14	27.818
269.51	28.021
269.88	26.434
270.25	24.745
270.62	26.341
270.99	26.343
271.36	25.428
271.73	26.526
272.10	26.764
272.47	29.551
272.84	24.257
273.21	29.002
273.58	25.301
273.95	27.231
274.32	24.711
274.69	23.077
275.06	27.455
275.43	22.902
275.80	26.711
276.17	26.667
276.54	25.910
276.91	25.877
277.28	23.362
277.65	25.620
278.02	24.894
278.39	26.258
278.76	26.205
279.13	22.407
279.50	25.840
279.87	26.350
280.23	24.946
280.60	25.146
280.97	25.859
281.34	23.269
281.71	28.747
282.08	24.335
282.45	25.440
282.82	27.606
283.19	24.178
283.56	25.048
283.92	22.960
284.29	23.077
284.66	22.674
285.03	23.969
285.40	23.819
285.77	25.308
286.14	25.090
286.51	27.860
286.87	21.755
287.24	24.309
287.61	22.575
287.98	24.386
288.35	23.224
288.72	25.394
289.08	24.826
289.45	23.023
289.82	24.825
290.19	22.184
290.56	22.813
290.93	22.391
291.29	21.418
291.66	22.520
292.03	24.561
292.40	21.935
292.77	20.415
293.13	18.994
293.50	22.003
293.87	21.832
294.24	22.411
294.60	22.504
294.97	22.024
295.34	21.166
295.71	20.119
296.08	21.076
296.44	20.057
296.81	20.278
297.18	21.594
297.55	23.984
297.91	20.822
298.28	22.164
298.65	20.217
299.02	19.407
299.38	20.109
299.75	19.448
300.12	21.728
300.48	19.631
300.85	21.166
301.22	20.649
301.59	20.526
301.95	22.278
302.32	21.271
302.69	21.393
303.05	20.297
303.42	21.295
303.79	21.262
304.15	21.386
304.52	20.333
304.89	19.415
305.25	22.155
305.62	20.420
305.99	20.117
306.35	20.231
306.72	21.485
307.09	22.007
307.45	22.273
307.82	21.759
308.19	23.461
308.55	21.810
308.92	22.440
309.29	22.235
309.65	22.282
310.02	23.322
310.38	23.930
310.75	24.044
311.12	24.327
311.48	24.284
311.85	23.560
312.22	24.367
312.58	25.053
312.95	24.653
313.31	25.362
313.68	26.387
314.05	26.837
314.41	27.835
314.78	27.423
315.14	28.571
315.51	29.503
315.87	29.918
316.24	30.233
316.61	31.890
316.97	31.151
317.34	31.445
317.70	32.218
318.07	32.596
318.43	33.725
318.80	33.523
319.16	35.156
319.53	35.613
319.89	35.039
320.26	37.753
320.62	37.412
320.99	36.848
321.35	38.746
321.72	40.395
322.08	40.584
322.45	41.624
322.81	42.436
323.18	42.002
323.54	42.181
323.91	43.817
324.27	46.582
324.64	47.753
325.00	47.810
325.37	49.862
325.73	49.411
326.10	50.772
326.46	51.390
326.83	53.718
327.19	55.536
327.56	56.125
327.92	58.715
328.29	57.679
328.65	60.660
329.01	59.375
329.38	61.567
329.74	60.340
330.11	62.929
330.47	62.709
330.84	63.750
331.20	68.821
331.56	65.370
331.93	67.580
332.29	66.636
332.66	67.873
333.02	66.450
333.38	69.111
333.75	67.766
334.11	67.413
334.48	70.263
334.84	68.407
335.20	69.899
335.57	70.172
335.93	71.816
336.29	71.455
336.66	72.480
337.02	72.770
337.38	71.944
337.75	72.000
338.11	73.760
338.47	73.996
338.84	74.492
339.20	72.212
339.56	74.312
339.93	73.142
340.29	75.780
340.65	74.104
341.02	76.596
341.38	74.513
341.74	74.912
342.11	73.570
342.47	75.178
342.83	74.567
343.20	76.132
343.56	76.087
343.92	77.414
344.28	75.833
344.65	77.547
345.01	75.972
345.37	76.787
345.73	75.983
346.10	77.481
346.46	74.432
346.82	77.005
347.19	74.730
347.55	77.193
347.91	75.809
348.27	75.586
348.63	78.535
349.00	76.046
349.36	78.554
349.72	80.514
350.08	78.770
350.45	77.015
350.81	78.571
351.17	77.850
351.53	77.306
351.89	77.126
352.26	77.520
352.62	78.145
352.98	76.627
353.34	76.892
353.70	79.288
354.07	76.774
354.43	76.621
354.79	79.521
355.15	78.095
355.51	80.301
355.87	80.583
356.24	78.956
356.60	80.113
356.96	80.397
357.32	79.233
357.68	79.281
358.04	79.564
358.40	79.180
358.77	80.781
359.13	80.064
359.49	78.968
359.85	79.875
360.21	80.144
360.57	79.112
360.93	79.274
361.29	79.079
361.66	82.132
362.02	81.818
362.38	82.331
362.74	81.832
363.10	81.941
363.46	81.913
363.82	80.240
364.18	80.000
364.54	81.618
364.90	81.290
365.26	80.640
365.62	81.752
365.98	80.572
366.35	82.520
366.71	82.409
367.07	81.785
367.43	79.583
367.79	80.565
368.15	79.469
368.51	82.083
368.87	81.910
369.23	79.856
369.59	82.070
369.95	81.452
370.31	80.491
370.67	82.090
371.03	81.105
371.39	80.379
371.75	81.685
372.11	80.243
372.47	82.101
372.83	82.896
373.19	80.884
373.55	80.144
373.91	81.281
374.27	81.999
374.63	81.335
374.99	82.128
375.35	81.546
375.71	81.538
376.07	82.022
376.42	81.224
376.78	82.081
377.14	82.194
377.50	81.740
377.86	82.396
378.22	83.089
378.58	82.564
378.94	81.790
379.30	81.472
379.66	82.257
380.02	82.833
380.38	81.376
380.74	81.628
381.09	81.779
381.45	82.875
381.81	82.665
382.17	80.203
382.53	80.262
382.89	84.432
383.25	82.825
383.61	81.585
383.97	82.159
384.32	80.863
384.68	82.972
385.04	81.127
385.40	81.332
385.76	85.660
386.12	83.506
386.48	82.567
386.83	81.991
387.19	82.479
387.55	81.556
387.91	82.396
388.27	81.746
388.62	83.197
388.98	81.829
389.34	81.512
389.70	84.400
390.06	81.938
390.42	82.642
390.77	82.995
391.13	81.274
391.49	83.571
391.85	82.326
392.20	81.419
392.56	82.390
392.92	81.621
393.28	82.901
393.64	81.141
393.99	83.135
394.35	83.555
394.71	82.184
395.07	80.515
395.42	79.660
395.78	82.541
396.14	81.084
396.50	82.181
396.85	82.357
397.21	81.078
397.57	82.069
397.92	80.467
398.28	80.632
398.64	79.036
399.00	80.418
399.35	78.612
399.71	79.667
400.07	79.988
400.42	80.661
400.78	82.731
401.14	81.065
401.49	82.192
401.85	79.951
402.21	79.639
402.57	82.125
402.92	81.368
403.28	81.140
403.63	82.724
403.99	80.038
404.35	80.325
404.70	79.524
405.06	79.788
405.42	79.180
405.77	78.443
406.13	80.268
406.49	79.218
406.84	81.418
407.20	81.156
407.55	79.459
407.91	79.746
408.27	80.816
408.62	79.262
408.98	78.805
409.34	79.616
409.69	78.101
410.05	77.956
410.40	77.901
410.76	80.519
411.11	79.062
411.47	80.342
411.83	78.719
412.18	79.408
412.54	80.087
412.89	78.387
413.25	79.723
413.60	77.888
413.96	77.669
414.31	78.598
414.67	79.346
415.03	77.763
415.38	78.198
415.74	78.241
416.09	78.380
416.45	78.933
416.80	77.726
417.16	80.594
417.51	78.081
417.87	78.357
418.22	79.210
418.58	80.870
418.93	78.809
419.29	77.401
419.64	78.354
420.00	79.660
420.35	77.731
420.71	80.073
421.06	78.576
421.42	78.425
421.77	77.861
422.12	77.582
422.48	78.885
422.83	77.262
423.19	77.991
423.54	77.778
423.90	78.445
424.25	78.243
424.61	79.437
424.96	78.049
425.31	80.012
425.67	81.162
426.02	79.388
426.38	79.399
426.73	79.843
427.09	80.253
427.44	79.765
427.79	79.965
428.15	78.883
428.50	79.588
428.85	78.317
429.21	78.155
429.56	80.485
429.92	77.452
430.27	76.892
430.62	78.463
430.98	78.025
431.33	77.865
431.68	77.760
432.04	79.486
432.39	77.239
432.74	78.172
433.10	80.632
433.45	80.108
433.80	78.642
434.16	79.612
434.51	78.280
434.86	79.559
435.22	80.258
435.57	81.659
435.92	80.000
436.28	77.937
436.63	79.007
436.98	78.621
437.34	78.100
437.69	79.010
438.04	78.177
438.39	79.780
438.75	79.660
439.10	78.834
439.45	79.976
439.81	78.593
440.16	80.998
440.51	80.179
440.86	81.027
441.22	77.715
441.57	79.415
441.92	78.541
442.27	78.603
442.63	78.747
442.98	79.495
443.33	78.242
443.68	78.515
444.03	78.838
444.39	78.849
444.74	82.107
445.09	79.232
445.44	80.399
445.79	79.165
446.15	78.084
446.50	78.536
446.85	80.234
447.20	78.884
447.55	79.408
447.91	79.526
448.26	79.567
448.61	80.081
448.96	80.264
449.31	80.058
449.66	78.513
450.02	79.578
450.37	80.439
450.72	79.152
451.07	81.772
451.42	79.213
451.77	78.481
452.12	77.392
452.47	78.751
452.83	79.329
453.18	78.937
453.53	78.698
453.88	80.510
454.23	78.918
454.58	80.730
454.93	83.119
455.28	78.730
455.63	79.913
455.98	79.615
456.34	79.374
456.69	79.288
457.04	81.853
457.39	79.040
457.74	81.016
458.09	78.517
458.44	78.467
458.79	78.655
459.14	79.462
459.49	79.701
459.84	78.511
460.19	78.216
460.54	79.584
460.89	79.318
461.24	78.509
461.59	78.919
461.94	79.057
462.29	80.277
462.64	80.399
462.99	79.079
463.34	79.764
463.69	79.730
464.04	78.935
464.39	79.745
464.74	78.834
465.09	78.415
465.44	78.534
465.79	76.531
466.14	78.620
466.49	77.573
466.84	76.740
467.19	79.287
467.54	78.736
467.89	80.543
468.24	78.589
468.59	80.508
468.94	79.048
469.29	79.803
469.64	79.973
469.99	79.888
470.34	81.024
470.68	82.252
471.03	79.122
471.38	81.312
471.73	79.832
472.08	79.240
472.43	79.597
472.78	78.821
473.13	80.612
473.48	80.000
473.83	78.829
474.17	79.534
474.52	80.153
474.87	79.394
475.22	80.842
475.57	78.938
475.92	80.143
476.27	80.384
476.61	80.324
476.96	77.579
477.31	80.746
477.66	80.225
478.01	81.359
478.36	78.431
478.70	80.859
479.05	80.714
479.40	79.915
479.75	78.936
480.10	78.802
480.45	79.050
480.79	81.772
481.14	79.457
481.49	78.670
481.84	80.068
482.19	78.718
482.53	80.192
482.88	78.950
483.23	79.750
483.58	79.151
483.92	77.735
484.27	78.943
484.62	79.785
484.97	78.275
485.31	76.409
485.66	73.321
486.01	71.676
486.36	71.607
486.70	72.775
487.05	75.542
487.40	75.388
487.75	75.352
488.09	76.360
488.44	77.029
488.79	78.521
489.13	78.486
489.48	79.222
489.83	80.090
490.17	78.382
490.52	79.677
490.87	79.223
491.22	80.850
491.56	81.641
491.91	80.497
492.26	82.110
492.60	79.750
492.95	80.767
493.30	79.922
493.64	81.336
493.99	80.725
494.34	80.388
494.68	80.190
495.03	80.973
495.37	80.815
495.72	80.969
496.07	81.659
496.41	80.802
496.76	79.503
497.11	78.249
497.45	80.668
497.80	82.442
498.14	79.384
498.49	81.412
498.84	80.339
499.18	81.627
499.53	80.903
499.87	80.837
500.22	81.701
500.56	81.341
500.91	80.622
501.26	80.277
501.60	80.423
501.95	79.622
502.29	80.630
502.64	80.985
502.98	81.056
503.33	79.347
503.67	80.048
504.02	80.352
504.36	80.802
504.71	80.606
505.06	80.523
505.40	80.254
505.75	81.907
506.09	79.321
506.44	81.160
506.78	81.378
507.13	80.920
507.47	80.157
507.82	81.944
508.16	82.145
508.51	81.637
508.85	81.423
509.19	82.544
509.54	82.574
509.88	81.607
510.23	82.679
510.57	80.919
510.92	80.330
511.26	81.506
511.61	83.333
511.95	81.699
512.30	82.816
512.64	82.304
512.98	81.190
513.33	81.981
513.67	82.547
514.02	84.096
514.36	82.857
514.70	83.858
515.05	84.959
515.39	84.120
515.74	85.988
516.08	84.519
516.42	84.217
516.77	85.489
517.11	85.341
517.46	84.381
517.80	83.909
518.14	84.323
518.49	84.315
518.83	85.055
519.17	82.535
519.52	83.541
519.86	83.914
520.20	85.298
520.55	84.615
520.89	85.194
521.23	85.054
521.58	85.426
521.92	85.513
522.26	86.727
522.61	85.844
522.95	88.013
523.29	84.879
523.64	87.039
523.98	86.714
524.32	85.180
524.66	85.915
525.01	87.338
525.35	86.585
525.69	88.148
526.04	85.913
526.38	86.381
526.72	85.677
527.06	85.149
527.41	87.467
527.75	86.126
528.09	84.784
528.43	86.901
528.78	86.139
529.12	85.871
529.46	85.770
529.80	83.851
530.15	87.855
530.49	86.801
530.83	88.782
531.17	86.165
531.51	87.483
531.86	87.016
532.20	86.500
532.54	87.270
532.88	87.474
533.22	85.618
533.57	85.845
533.91	85.705
534.25	86.198
534.59	84.862
534.93	83.134
535.27	83.883
535.62	84.835
535.96	84.149
536.30	84.763
536.64	85.665
536.98	85.436
537.32	88.193
537.66	86.886
538.01	85.455
538.35	85.784
538.69	83.489
539.03	84.142
539.37	83.849
539.71	84.458
540.05	84.386
540.39	86.150
540.73	85.007
541.07	85.912
541.42	83.804
541.76	85.685
542.10	84.308
542.44	83.878
542.78	83.138
543.12	84.890
543.46	84.701
543.80	85.357
544.14	82.777
544.48	83.278
544.82	84.484
545.16	85.451
545.50	83.044
545.84	86.048
546.18	86.454
546.52	84.859
546.86	83.321
547.20	86.624
547.54	83.746
547.88	84.647
548.22	82.117
548.56	82.916
548.90	83.154
549.24	83.264
549.58	82.440
549.92	83.989
550.26	85.128
550.60	86.171
550.94	86.781
551.28	86.244
551.62	86.154
551.96	84.962
552.30	83.480
552.64	82.228
552.98	83.052
553.32	84.593
553.66	84.180
554.00	86.496
554.34	85.377
554.68	82.080
555.02	85.119
555.36	83.695
555.69	84.249
556.03	82.441
556.37	84.413
556.71	84.404
557.05	85.831
557.39	85.130
557.73	84.708
558.07	88.084
558.41	85.528
558.75	86.048
559.08	86.052
559.42	85.635
559.76	89.191
560.10	84.098
560.44	83.246
560.78	81.748
561.12	84.697
561.45	84.891
561.79	82.283
562.13	84.599
562.47	83.094
562.81	83.357
563.15	82.511
563.48	83.593
563.82	83.391
564.16	83.496
564.50	80.676
564.84	82.463
565.17	82.696
565.51	84.153
565.85	84.225
566.19	82.692
566.52	83.110
566.86	82.712
567.20	79.763
567.54	82.603
567.88	81.898
568.21	79.808
568.55	79.402
568.89	78.234
569.23	76.697
569.56	76.138
569.90	75.721
570.24	73.316
570.57	74.036
570.91	73.266
571.25	71.523
571.59	71.411
571.92	69.867
572.26	71.135
572.60	70.171
572.93	70.035
573.27	70.752
573.61	70.674
573.95	69.416
574.28	68.406
574.62	68.421
574.96	67.415
575.29	67.895
575.63	67.116
575.97	67.715
576.30	68.850
576.64	67.417
576.98	68.185
577.31	68.985
577.65	67.729
577.98	67.287
578.32	66.736
578.66	66.086
578.99	66.635
579.33	66.475
579.67	66.818
580.00	67.722
580.34	68.109
580.67	66.617
581.01	67.099
581.35	67.076
581.68	65.558
582.02	65.847
582.35	65.571
582.69	65.738
583.02	65.969
583.36	67.211
583.70	68.432
584.03	69.641
584.37	69.113
584.70	68.379
585.04	66.917
585.37	66.880
585.71	66.922
586.04	66.742
586.38	67.698
586.72	67.862
587.05	67.995
587.39	67.822
587.72	68.917
588.06	68.641
588.39	67.730
588.73	68.132
589.06	69.145
589.40	69.409
589.73	69.843
590.07	70.431
590.40	70.627
590.73	71.746
591.07	71.671
591.40	70.926
591.74	71.493
592.07	71.939
592.41	71.687
592.74	70.131
593.08	68.075
593.41	68.468
593.75	68.270
594.08	66.873
594.41	67.940
594.75	70.038
595.08	69.315
595.42	69.488
595.75	71.836
596.09	70.602
596.42	69.698
596.75	71.625
597.09	71.481
597.42	71.048
597.75	71.553
598.09	69.805
598.42	70.262
598.76	69.369
599.09	68.470
599.42	68.435
599.76	67.193
600.09	67.647
600.42	68.575
600.76	66.493
601.09	67.290
601.42	67.098
601.76	68.162
602.09	69.348
602.42	70.345
602.76	69.228
603.09	69.643
603.42	71.154
603.76	69.194
604.09	68.773
604.42	69.501
604.76	70.717
605.09	70.293
605.42	70.203
605.75	69.133
606.09	68.450
606.42	68.098
606.75	68.615
607.09	68.615
607.42	68.587
607.75	67.895
608.08	68.733
608.42	68.707
608.75	71.133
609.08	71.201
609.41	71.218
609.75	70.565
610.08	70.794
610.41	68.551
610.74	70.551
611.07	71.163
611.41	70.680
611.74	70.629
612.07	71.306
612.40	71.937
612.73	71.808
613.07	71.204
613.40	70.460
613.73	72.524
614.06	69.282
614.39	70.389
614.72	71.204
615.06	70.670
615.39	69.760
615.72	68.299
616.05	71.061
616.38	69.231
616.71	72.355
617.05	71.649
617.38	71.779
617.71	71.258
618.04	74.349
618.37	74.086
618.70	73.267
619.03	74.931
619.36	73.951
619.69	75.739
620.03	75.310
620.36	73.605
620.69	73.947
621.02	73.853
621.35	77.676
621.68	78.316
622.01	77.500
622.34	76.137
622.67	74.054
623.00	74.349
623.33	75.381
623.66	73.448
623.99	74.281
624.32	75.285
624.65	74.662
624.99	74.944
625.32	72.782
625.65	75.884
625.98	76.148
626.31	76.060
626.64	76.776
626.97	77.225
627.30	77.933
627.63	75.563
627.96	78.077
628.29	79.741
628.62	79.941
628.95	80.862
629.28	82.460
629.61	79.661
629.94	80.547
630.26	77.668
630.59	81.894
630.92	80.821
631.25	79.897
631.58	81.167
631.91	80.044
632.24	82.569
632.57	82.955
632.90	85.528
633.23	83.882
