SpectraSuite Data File
++++++++++++++++++++++++++++++++++++
Date: Fri May 15 21:09:33 PDT 2015
User: schluterlab
Dark Spectrum Present: Yes
Reference Spectrum Present: Yes
Number of Sampled Component Spectra: 1
Spectrometers: USB2E3373
Integration Time (usec): 3000 (USB2E3373)
Spectra Averaged: 3 (USB2E3373)
Boxcar Smoothing: 0 (USB2E3373)
Correct for Electrical Dark: No (USB2E3373)
Strobe/Lamp Enabled: No (USB2E3373)
Correct for Detector Non-linearity: No (USB2E3373)
Correct for Stray Light: No (USB2E3373)
Number of Pixels in Processed Spectrum: 2048
>>>>>Begin Processed Spectral Data<<<<<
178.53	0.000
178.91	0.000
179.29	100.000
179.67	-500.000
180.04	14.286
180.42	200.000
180.80	-300.000
181.18	-100.000
181.56	200.000
181.94	-150.000
182.31	200.000
182.69	140.000
183.07	-333.333
183.45	-20.000
183.83	133.333
184.20	-18.182
184.58	222.222
184.96	200.000
185.34	-466.667
185.72	-350.000
186.09	107.692
186.47	-600.000
186.85	100.000
187.23	188.889
187.61	800.000
187.98	-33.333
188.36	0.000
188.74	-166.667
189.12	-11.765
189.49	11.111
189.87	0.000
190.25	57.143
190.63	50.000
191.00	-533.333
191.38	21.053
191.76	150.000
192.14	150.000
192.51	-150.000
192.89	-44.444
193.27	-114.286
193.65	300.000
194.02	172.727
194.40	-100.000
194.78	-162.500
195.15	-91.667
195.53	-125.000
195.91	400.000
196.29	25.000
196.66	7.692
197.04	100.000
197.42	-22.222
197.79	100.000
198.17	-69.231
198.55	1100.000
198.92	100.000
199.30	-100.000
199.68	-200.000
200.05	-266.667
200.43	0.000
200.81	-33.333
201.18	-200.000
201.56	1600.000
201.94	-550.000
202.31	-100.000
202.69	-140.000
203.07	275.000
203.44	100.000
203.82	0.000
204.19	50.000
204.57	-200.000
204.95	225.000
205.32	-20.000
205.70	42.857
206.08	-25.000
206.45	188.889
206.83	50.000
207.20	-157.143
207.58	200.000
207.96	33.333
208.33	-80.000
208.71	-275.000
209.08	-183.333
209.46	-400.000
209.84	-80.000
210.21	-1700.000
210.59	14.286
210.96	-50.000
211.34	50.000
211.71	6.667
212.09	-228.571
212.46	-1700.000
212.84	0.000
213.22	50.000
213.59	400.000
213.97	69.231
214.34	90.909
214.72	33.333
215.09	300.000
215.47	-15.385
215.84	-90.909
216.22	-33.333
216.59	-112.500
216.97	250.000
217.34	-225.000
217.72	-340.000
218.09	-62.500
218.47	100.000
218.84	-700.000
219.22	-66.667
219.59	-20.000
219.97	266.667
220.34	275.000
220.72	-28.571
221.09	-250.000
221.47	150.000
221.84	-750.000
222.22	-850.000
222.59	-18.182
222.97	33.333
223.34	-100.000
223.72	14.286
224.09	38.095
224.46	7.143
224.84	466.667
225.21	-20.000
225.59	-13.333
225.96	50.000
226.34	300.000
226.71	-114.286
227.08	-16.667
227.46	-75.000
227.83	-550.000
228.21	-55.556
228.58	45.455
228.95	25.000
229.33	30.000
229.70	-31.250
230.08	-125.000
230.45	-100.000
230.82	14.286
231.20	-53.333
231.57	64.286
231.95	-57.143
232.32	20.000
232.69	7.143
233.07	100.000
233.44	-160.000
233.81	-110.000
234.19	55.556
234.56	-5.882
234.93	600.000
235.31	100.000
235.68	-140.000
236.05	-53.846
236.43	0.000
236.80	5.882
237.17	-28.125
237.55	-40.000
237.92	-22.222
238.29	8.333
238.67	0.000
239.04	-11.765
239.41	-26.829
239.79	6.667
240.16	4.878
240.53	-23.684
240.91	-15.217
241.28	6.349
241.65	17.857
242.02	16.438
242.40	10.000
242.77	3.390
243.14	1.515
243.51	7.500
243.89	13.793
244.26	3.448
244.63	5.952
245.00	6.186
245.38	9.278
245.75	2.247
246.12	5.172
246.49	13.223
246.87	21.154
247.24	3.361
247.61	-7.018
247.98	13.008
248.36	7.500
248.73	7.895
249.10	1.948
249.47	2.532
249.84	3.268
250.22	7.059
250.59	10.458
250.96	10.798
251.33	0.581
251.70	9.412
252.08	8.629
252.45	8.911
252.82	5.025
253.19	9.217
253.56	10.280
253.94	9.910
254.31	12.609
254.68	11.404
255.05	10.630
255.42	6.114
255.79	12.741
256.16	9.728
256.54	13.060
256.91	8.745
257.28	7.807
257.65	5.993
258.02	7.092
258.39	11.785
258.76	11.722
259.14	10.299
259.51	8.414
259.88	5.842
260.25	7.843
260.62	10.417
260.99	6.102
261.36	7.534
261.73	9.494
262.10	13.374
262.47	8.282
262.85	9.718
263.22	11.692
263.59	12.461
263.96	13.043
264.33	9.697
264.70	12.798
265.07	11.012
265.44	11.615
265.81	9.887
266.18	9.836
266.55	11.568
266.92	13.990
267.29	11.749
267.66	10.486
268.03	9.686
268.40	10.183
268.77	13.369
269.14	10.072
269.51	10.283
269.88	8.479
270.25	7.908
270.62	8.537
270.99	7.673
271.36	6.846
271.73	10.798
272.10	9.976
272.47	9.929
272.84	9.158
273.21	13.689
273.58	11.084
273.95	11.442
274.32	9.469
274.69	9.729
275.06	12.946
275.43	10.204
275.80	7.947
276.17	8.276
276.54	9.636
276.91	8.772
277.28	9.607
277.65	10.124
278.02	10.000
278.39	10.066
278.76	9.853
279.13	8.299
279.50	8.403
279.87	9.935
280.23	11.613
280.60	13.450
280.97	11.515
281.34	10.192
281.71	12.115
282.08	8.998
282.45	7.436
282.82	9.266
283.19	11.799
283.56	11.368
283.92	10.436
284.29	9.038
284.66	8.140
285.03	11.591
285.40	8.129
285.77	9.490
286.14	9.928
286.51	11.070
286.87	10.238
287.24	8.103
287.61	8.818
287.98	8.596
288.35	9.705
288.72	9.107
289.08	9.028
289.45	9.842
289.82	9.441
290.19	9.215
290.56	9.091
290.93	9.764
291.29	7.858
291.66	9.449
292.03	6.858
292.40	8.710
292.77	7.656
293.13	5.195
293.50	8.346
293.87	8.702
294.24	8.037
294.60	9.240
294.97	7.738
295.34	8.896
295.71	8.197
296.08	7.175
296.44	5.974
296.81	8.333
297.18	8.986
297.55	10.705
297.91	6.986
298.28	10.290
298.65	7.598
299.02	8.221
299.38	4.925
299.75	7.172
300.12	7.461
300.48	6.324
300.85	8.365
301.22	7.922
301.59	7.237
301.95	8.734
302.32	8.301
302.69	6.841
303.05	8.045
303.42	7.846
303.79	7.360
304.15	7.885
304.52	7.610
304.89	6.550
305.25	5.327
305.62	6.651
305.99	7.018
306.35	6.243
306.72	7.199
307.09	6.499
307.45	6.315
307.82	6.366
308.19	7.317
308.55	7.088
308.92	8.824
309.29	8.715
309.65	6.889
310.02	7.811
310.38	8.672
310.75	8.306
311.12	7.535
311.48	6.999
311.85	8.168
312.22	8.017
312.58	8.068
312.95	7.577
313.31	8.282
313.68	8.377
314.05	9.388
314.41	9.175
314.78	9.072
315.14	10.791
315.51	10.766
315.87	8.914
316.24	11.325
316.61	11.220
316.97	11.012
317.34	11.230
317.70	12.237
318.07	11.538
318.43	12.059
318.80	13.542
319.16	12.598
319.53	14.720
319.89	13.780
320.26	14.170
320.62	15.145
320.99	14.092
321.35	16.650
321.72	18.069
322.08	16.818
322.45	17.868
322.81	18.369
323.18	18.548
323.54	19.884
323.91	19.766
324.27	20.898
324.64	21.629
325.00	22.993
325.37	24.977
325.73	23.572
326.10	25.068
326.46	25.650
326.83	26.859
327.19	27.724
327.56	28.236
327.92	28.521
328.29	28.750
328.65	31.226
329.01	30.423
329.38	31.152
329.74	32.578
330.11	31.233
330.47	31.354
330.84	32.885
331.20	35.266
331.56	32.685
331.93	33.699
332.29	33.914
332.66	34.208
333.02	35.502
333.38	34.189
333.75	36.172
334.11	34.288
334.48	36.355
334.84	36.264
335.20	37.237
335.57	35.539
335.93	35.953
336.29	36.648
336.66	36.694
337.02	36.059
337.38	35.556
337.75	37.636
338.11	36.880
338.47	37.591
338.84	36.322
339.20	37.660
339.56	37.798
339.93	37.601
340.29	38.624
340.65	39.068
341.02	38.741
341.38	37.434
341.74	36.926
342.11	36.308
342.47	39.680
342.83	38.754
343.20	38.937
343.56	40.348
343.92	38.353
344.28	38.514
344.65	38.169
345.01	39.153
345.37	37.847
345.73	38.745
346.10	37.446
346.46	38.940
346.82	39.034
347.19	38.570
347.55	39.432
347.91	38.673
348.27	39.450
348.63	39.608
349.00	39.459
349.36	39.734
349.72	41.045
350.08	40.656
350.45	38.547
350.81	38.621
351.17	38.844
351.53	37.959
351.89	39.802
352.26	39.440
352.62	39.919
352.98	38.635
353.34	39.533
353.70	39.968
354.07	40.726
354.43	39.632
354.79	39.967
355.15	40.556
355.51	40.744
355.87	39.401
356.24	39.560
356.60	39.127
356.96	39.444
357.32	39.776
357.68	39.719
358.04	40.388
358.40	40.193
358.77	41.946
359.13	41.313
359.49	39.522
359.85	40.172
360.21	41.547
360.57	40.474
360.93	40.015
361.29	41.088
361.66	40.752
362.02	42.576
362.38	40.975
362.74	41.559
363.10	42.137
363.46	42.476
363.82	40.947
364.18	41.181
364.54	41.765
364.90	41.147
365.26	41.921
365.62	43.212
365.98	42.082
366.35	43.263
366.71	42.942
367.07	42.816
367.43	43.781
367.79	43.110
368.15	42.283
368.51	43.336
368.87	41.996
369.23	41.372
369.59	43.732
369.95	43.988
370.31	43.858
370.67	42.985
371.03	43.615
371.39	43.180
371.75	43.956
372.11	43.581
372.47	44.083
372.83	45.138
373.19	43.866
373.55	43.899
373.91	42.693
374.27	45.358
374.63	44.293
374.99	43.901
375.35	43.872
375.71	45.175
376.07	44.593
376.42	44.694
376.78	45.570
377.14	45.295
377.50	44.157
377.86	45.448
378.22	45.501
378.58	46.731
378.94	44.991
379.30	44.916
379.66	44.890
380.02	44.819
380.38	45.709
380.74	46.140
381.09	46.012
381.45	45.810
381.81	46.144
382.17	45.685
382.53	45.597
382.89	46.955
383.25	46.982
383.61	46.951
383.97	46.857
384.32	47.280
384.68	46.563
385.04	46.078
385.40	45.924
385.76	47.358
386.12	47.607
386.48	47.318
386.83	46.988
387.19	47.192
387.55	47.679
387.91	46.883
388.27	46.947
388.62	48.081
388.98	47.944
389.34	47.970
389.70	47.918
390.06	46.822
390.42	47.345
390.77	48.267
391.13	47.289
391.49	47.413
391.85	48.278
392.20	46.767
392.56	48.188
392.92	48.326
393.28	47.465
393.64	47.027
393.99	49.906
394.35	47.944
394.71	49.042
395.07	47.832
395.42	47.602
395.78	48.469
396.14	47.919
396.50	48.320
396.85	49.131
397.21	48.810
397.57	48.213
397.92	48.951
398.28	48.678
398.64	46.446
399.00	48.928
399.35	48.815
399.71	48.018
400.07	50.121
400.42	49.021
400.78	49.235
401.14	48.881
401.49	48.005
401.85	48.446
402.21	49.699
402.57	49.312
402.92	47.553
403.28	49.749
403.63	49.811
403.99	50.128
404.35	49.656
404.70	47.560
405.06	48.296
405.42	47.669
405.77	48.867
406.13	48.370
406.49	49.082
406.84	49.694
407.20	49.428
407.55	49.324
407.91	49.465
408.27	49.586
408.62	48.738
408.98	48.059
409.34	49.071
409.69	47.416
410.05	48.768
410.40	48.951
410.76	49.638
411.11	50.250
411.47	49.901
411.83	48.713
412.18	50.450
412.54	48.814
412.89	48.399
413.25	50.000
413.60	49.255
413.96	47.975
414.31	48.537
414.67	49.519
415.03	49.401
415.38	48.499
415.74	50.489
416.09	49.314
416.45	50.506
416.80	50.297
417.16	50.829
417.51	49.767
417.87	49.218
418.22	50.583
418.58	51.304
418.93	50.784
419.29	49.040
419.64	50.032
420.00	52.204
420.35	50.567
420.71	50.851
421.06	49.847
421.42	49.880
421.77	49.711
422.12	50.000
422.48	49.811
422.83	50.580
423.19	50.790
423.54	49.735
423.90	50.942
424.25	50.459
424.61	51.591
424.96	49.652
425.31	51.242
425.67	50.587
426.02	51.355
426.38	53.475
426.73	52.845
427.09	51.456
427.44	51.235
427.79	50.442
428.15	51.214
428.50	51.181
428.85	51.044
429.21	50.877
429.56	50.997
429.92	50.642
430.27	50.677
430.62	50.653
430.98	51.168
431.33	51.945
431.68	50.706
432.04	51.649
432.39	51.797
432.74	50.692
433.10	52.529
433.45	51.493
433.80	51.132
434.16	50.305
434.51	51.720
434.86	51.858
435.22	51.823
435.57	53.400
435.92	52.335
436.28	53.369
436.63	51.455
436.98	51.622
437.34	52.390
437.69	52.415
438.04	52.593
438.39	52.474
438.75	53.855
439.10	53.650
439.45	52.161
439.81	52.171
440.16	53.029
440.51	53.134
440.86	54.320
441.22	52.489
441.57	52.704
441.92	52.361
442.27	52.494
442.63	52.677
442.98	52.269
443.33	50.974
443.68	52.202
444.03	53.453
444.39	52.336
444.74	53.344
445.09	52.784
445.44	52.707
445.79	52.759
446.15	52.313
446.50	52.579
446.85	53.241
447.20	52.450
447.55	53.237
447.91	53.525
448.26	53.443
448.61	52.504
448.96	53.815
449.31	53.468
449.66	52.323
450.02	52.596
450.37	52.460
450.72	54.066
451.07	54.114
451.42	52.747
451.77	52.321
452.12	52.512
452.47	53.123
452.83	53.828
453.18	53.953
453.53	54.046
453.88	53.734
454.23	54.210
454.58	54.849
454.93	54.188
455.28	52.952
455.63	53.255
455.98	54.841
456.34	53.384
456.69	53.875
457.04	54.883
457.39	53.645
457.74	53.325
458.09	52.207
458.44	54.359
458.79	53.782
459.14	54.519
459.49	52.776
459.84	53.469
460.19	53.034
460.54	54.829
460.89	52.670
461.24	54.099
461.59	53.860
461.94	52.516
462.29	55.127
462.64	55.017
462.99	55.450
463.34	53.477
463.69	53.925
464.04	53.450
464.39	54.215
464.74	52.270
465.09	53.587
465.44	53.606
465.79	51.757
466.14	53.250
466.49	53.134
466.84	53.064
467.19	54.130
467.54	53.895
467.89	54.706
468.24	54.075
468.59	54.857
468.94	53.206
469.29	55.803
469.64	55.092
469.99	55.571
470.34	55.085
470.68	55.705
471.03	56.900
471.38	54.993
471.73	55.882
472.08	54.410
472.43	55.235
472.78	54.010
473.13	54.490
473.48	54.332
473.83	53.549
474.17	55.052
474.52	53.287
474.87	55.394
475.22	54.790
475.57	53.529
475.92	53.319
476.27	54.598
476.61	54.225
476.96	53.151
477.31	54.624
477.66	54.775
478.01	54.464
478.36	54.248
478.70	55.302
479.05	54.066
479.40	54.054
479.75	52.555
480.10	54.275
480.45	53.700
480.79	55.186
481.14	53.689
481.49	53.399
481.84	53.523
482.19	53.601
482.53	54.484
482.88	53.508
483.23	54.367
483.58	54.481
483.92	53.340
484.27	53.099
484.62	52.712
484.97	51.907
485.31	51.517
485.66	48.092
486.01	47.535
486.36	47.054
486.70	48.541
487.05	49.587
487.40	50.103
487.75	50.507
488.09	51.391
488.44	51.960
488.79	53.306
489.13	53.686
489.48	54.126
489.83	53.094
490.17	54.112
490.52	53.903
490.87	53.910
491.22	55.205
491.56	54.554
491.91	53.776
492.26	54.205
492.60	54.894
492.95	55.140
493.30	53.884
493.64	55.747
493.99	54.976
494.34	54.515
494.68	54.429
495.03	54.063
495.37	54.809
495.72	55.275
496.07	54.634
496.41	53.868
496.76	53.616
497.11	53.237
497.45	54.033
497.80	55.247
498.14	54.049
498.49	54.799
498.84	54.441
499.18	55.873
499.53	54.018
499.87	55.010
500.22	54.896
500.56	55.371
500.91	54.920
501.26	54.622
501.60	55.386
501.95	52.887
502.29	54.528
502.64	54.875
502.98	54.366
503.33	53.170
503.67	53.928
504.02	54.448
504.36	56.358
504.71	53.535
505.06	53.800
505.40	54.721
505.75	55.670
506.09	54.790
506.44	54.928
506.78	55.102
507.13	54.809
507.47	55.352
507.82	54.861
508.16	56.154
508.51	55.876
508.85	54.579
509.19	55.934
509.54	55.228
509.88	55.825
510.23	55.836
510.57	55.799
510.92	54.424
511.26	55.592
511.61	55.831
511.95	55.507
512.30	57.206
512.64	55.871
512.98	56.036
513.33	55.456
513.67	55.372
514.02	58.696
514.36	57.600
514.70	58.042
515.05	58.872
515.39	56.730
515.74	58.862
516.08	58.039
516.42	57.833
516.77	57.812
517.11	56.914
517.46	58.887
517.80	56.973
518.14	57.746
518.49	57.332
518.83	57.047
519.17	58.217
519.52	55.773
519.86	57.443
520.20	58.627
520.55	57.286
520.89	58.720
521.23	58.201
521.58	58.486
521.92	59.551
522.26	59.011
522.61	58.896
522.95	59.536
523.29	58.767
523.64	59.149
523.98	59.754
524.32	57.990
524.66	59.283
525.01	59.740
525.35	59.494
525.69	60.539
526.04	57.540
526.38	60.182
526.72	58.143
527.06	59.468
527.41	58.707
527.75	58.713
528.09	59.136
528.43	59.892
528.78	58.746
529.12	58.774
529.46	58.090
529.80	57.441
530.15	59.406
530.49	58.721
530.83	59.439
531.17	57.958
531.51	58.892
531.86	59.483
532.20	57.203
532.54	58.816
532.88	59.206
533.22	58.266
533.57	58.388
533.91	57.963
534.25	58.073
534.59	57.729
534.93	54.751
535.27	55.520
535.62	57.550
535.96	57.404
536.30	56.266
536.64	58.856
536.98	59.164
537.32	58.250
537.66	59.046
538.01	58.252
538.35	56.588
538.69	55.393
539.03	56.733
539.37	56.797
539.71	57.055
540.05	57.230
540.39	57.410
540.73	57.183
541.07	56.630
541.42	56.519
541.76	58.500
542.10	57.330
542.44	57.331
542.78	55.403
543.12	56.250
543.46	56.606
543.80	56.766
544.14	54.339
544.48	55.363
544.82	55.229
545.16	57.172
545.50	55.941
545.84	58.286
546.18	57.943
546.52	56.957
546.86	57.441
547.20	56.938
547.54	56.184
547.88	55.774
548.22	53.912
548.56	55.145
548.90	56.132
549.24	55.579
549.58	54.725
549.92	55.897
550.26	56.117
550.60	58.216
550.94	58.178
551.28	57.264
551.62	57.846
551.96	56.917
552.30	57.310
552.64	55.712
552.98	55.134
553.32	56.491
553.66	55.298
554.00	56.277
554.34	57.238
554.68	54.794
555.02	56.696
555.36	56.844
555.69	55.751
556.03	54.461
556.37	54.235
556.71	56.029
557.05	56.749
557.39	55.242
557.73	56.747
558.07	57.164
558.41	57.351
558.75	57.521
559.08	57.210
559.42	57.381
559.76	59.247
560.10	56.116
560.44	55.324
560.78	54.336
561.12	55.642
561.45	54.603
561.79	55.672
562.13	54.720
562.47	54.460
562.81	55.692
563.15	54.302
563.48	54.597
563.82	56.074
564.16	54.596
564.50	53.581
564.84	55.422
565.17	52.918
565.51	54.372
565.85	54.938
566.19	54.244
566.52	55.295
566.86	53.985
567.20	52.740
567.54	52.129
567.88	52.138
568.21	51.867
568.55	50.000
568.89	51.540
569.23	49.735
569.56	48.818
569.90	47.341
570.24	46.334
570.57	47.091
570.91	45.870
571.25	44.887
571.59	44.815
571.92	44.089
572.26	44.112
572.60	43.535
572.93	43.364
573.27	43.605
573.61	43.586
573.95	43.665
574.28	43.326
574.62	42.156
574.96	42.508
575.29	42.024
575.63	41.617
575.97	42.179
576.30	43.295
576.64	41.748
576.98	42.625
577.31	42.787
577.65	42.202
577.98	41.801
578.32	41.502
578.66	40.791
578.99	41.671
579.33	42.043
579.67	41.231
580.00	41.873
580.34	41.592
580.67	42.038
581.01	41.691
581.35	40.762
581.68	40.386
582.02	40.338
582.35	40.316
582.69	40.845
583.02	41.017
583.36	41.826
583.70	43.276
584.03	43.592
584.37	43.789
584.70	42.088
585.04	41.788
585.37	40.516
585.71	41.521
586.04	41.150
586.38	41.398
586.72	42.209
587.05	42.779
587.39	42.130
587.72	42.318
588.06	41.877
588.39	42.438
588.73	43.071
589.06	43.575
589.40	43.899
589.73	44.396
590.07	44.562
590.40	44.969
590.73	45.675
591.07	45.759
591.40	45.859
591.74	46.018
592.07	46.289
592.41	44.920
592.74	44.245
593.08	42.159
593.41	42.834
593.75	42.395
594.08	42.225
594.41	43.122
594.75	42.786
595.08	43.284
595.42	42.768
595.75	43.673
596.09	43.628
596.42	45.349
596.75	45.426
597.09	44.692
597.42	45.303
597.75	44.984
598.09	43.821
598.42	44.088
598.76	43.544
599.09	42.268
599.42	42.706
599.76	42.852
600.09	41.176
600.42	42.646
600.76	42.273
601.09	42.977
601.42	42.773
601.76	43.271
602.09	43.606
602.42	43.724
602.76	43.548
603.09	42.940
603.42	44.231
603.76	43.468
604.09	42.973
604.42	43.190
604.76	43.881
605.09	44.150
605.42	43.476
605.75	43.695
606.09	43.270
606.42	42.661
606.75	42.814
607.09	42.857
607.42	42.756
607.75	42.940
608.08	41.959
608.42	43.125
608.75	44.241
609.08	43.946
609.41	45.127
609.75	44.657
610.08	45.881
610.41	43.961
610.74	43.784
611.07	45.581
611.41	45.355
611.74	45.789
612.07	44.379
612.40	45.405
612.73	46.158
613.07	45.388
613.40	44.967
613.73	44.600
614.06	46.800
614.39	45.290
614.72	44.874
615.06	44.916
615.39	44.050
615.72	44.726
616.05	44.302
616.38	43.248
616.71	45.321
617.05	46.634
617.38	45.632
617.71	46.038
618.04	46.667
618.37	46.974
618.70	47.789
619.03	47.639
619.36	48.191
619.69	48.825
620.03	49.379
620.36	47.425
620.69	47.609
621.02	49.006
621.35	49.710
621.68	51.616
622.01	49.250
622.34	49.800
622.67	49.054
623.00	48.086
623.33	48.704
623.66	47.569
623.99	47.504
624.32	48.289
624.65	47.594
624.99	48.608
625.32	46.854
625.65	49.882
625.98	50.201
626.31	49.626
626.64	50.867
626.97	50.262
627.30	50.701
627.63	49.913
627.96	51.842
628.29	51.434
628.62	53.294
628.95	51.102
629.28	53.528
629.61	52.941
629.94	52.786
630.26	52.470
630.59	54.943
630.92	53.949
631.25	52.103
631.58	53.194
631.91	53.838
632.24	55.505
632.57	55.000
632.90	55.160
633.23	55.882
633.56	56.675
633.89	55.980
634.22	57.654
634.55	56.544
634.88	55.556
635.20	55.769
635.53	58.000
635.86	56.697
636.19	57.439
