SpectraSuite Data File
++++++++++++++++++++++++++++++++++++
Date: Fri May 15 21:10:50 PDT 2015
User: schluterlab
Dark Spectrum Present: Yes
Reference Spectrum Present: Yes
Number of Sampled Component Spectra: 1
Spectrometers: USB2E3373
Integration Time (usec): 3000 (USB2E3373)
Spectra Averaged: 3 (USB2E3373)
Boxcar Smoothing: 0 (USB2E3373)
Correct for Electrical Dark: No (USB2E3373)
Strobe/Lamp Enabled: No (USB2E3373)
Correct for Detector Non-linearity: No (USB2E3373)
Correct for Stray Light: No (USB2E3373)
Number of Pixels in Processed Spectrum: 2048
>>>>>Begin Processed Spectral Data<<<<<
178.53	0.000
178.91	0.000
179.29	62.500
179.67	-250.000
180.04	214.286
180.42	-25.000
180.80	-100.000
181.18	266.667
181.56	350.000
181.94	-500.000
182.31	600.000
182.69	-200.000
183.07	-33.333
183.45	-180.000
183.83	183.333
184.20	45.455
184.58	22.222
184.96	-125.000
185.34	66.667
185.72	-550.000
186.09	107.692
186.47	-600.000
186.85	150.000
187.23	111.111
187.61	400.000
187.98	-266.667
188.36	-77.778
188.74	-266.667
189.12	11.765
189.49	5.556
189.87	0.000
190.25	-35.714
190.63	350.000
191.00	-333.333
191.38	0.000
191.76	-100.000
192.14	75.000
192.51	400.000
192.89	-111.111
193.27	-42.857
193.65	233.333
194.02	227.273
194.40	30.000
194.78	-87.500
195.15	-50.000
195.53	-150.000
195.91	225.000
196.29	50.000
196.66	130.769
197.04	171.429
197.42	-111.111
197.79	-433.333
198.17	-115.385
198.55	1500.000
198.92	-366.667
199.30	-600.000
199.68	-80.000
200.05	-300.000
200.43	0.000
200.81	-166.667
201.18	0.000
201.56	800.000
201.94	-500.000
202.31	-0.000
202.69	-100.000
203.07	25.000
203.44	100.000
203.82	0.000
204.19	-28.571
204.57	-366.667
204.95	62.500
205.32	50.000
205.70	-42.857
206.08	-225.000
206.45	44.444
206.83	92.857
207.20	-157.143
207.58	1000.000
207.96	-200.000
208.33	-170.000
208.71	-75.000
209.08	-233.333
209.46	0.000
209.84	-160.000
210.21	-1400.000
210.59	14.286
210.96	-66.667
211.34	25.000
211.71	-33.333
212.09	-100.000
212.46	-1600.000
212.84	0.000
213.22	70.000
213.59	600.000
213.97	69.231
214.34	0.000
214.72	-166.667
215.09	400.000
215.47	-84.615
215.84	0.000
216.22	-300.000
216.59	-200.000
216.97	-400.000
217.34	-125.000
217.72	-320.000
218.09	-37.500
218.47	37.500
218.84	-500.000
219.22	-66.667
219.59	-60.000
219.97	233.333
220.34	325.000
220.72	-128.571
221.09	-275.000
221.47	-400.000
221.84	-750.000
222.22	-550.000
222.59	9.091
222.97	33.333
223.34	-500.000
223.72	-7.143
224.09	-9.524
224.46	7.143
224.84	400.000
225.21	-90.000
225.59	-6.667
225.96	-100.000
226.34	375.000
226.71	-157.143
227.08	-100.000
227.46	-50.000
227.83	-700.000
228.21	0.000
228.58	90.909
228.95	-25.000
229.33	140.000
229.70	18.750
230.08	-112.500
230.45	0.000
230.82	28.571
231.20	-40.000
231.57	-7.143
231.95	-42.857
232.32	-140.000
232.69	14.286
233.07	-400.000
233.44	-80.000
233.81	-170.000
234.19	-44.444
234.56	-5.882
234.93	300.000
235.31	-125.000
235.68	-200.000
236.05	-115.385
236.43	-10.000
236.80	11.765
237.17	-3.125
237.55	-70.000
237.92	-37.037
238.29	-22.222
238.67	-16.667
239.04	-32.353
239.41	-34.146
239.79	-30.000
240.16	7.317
240.53	-10.526
240.91	-28.261
241.28	-9.524
241.65	-10.714
242.02	4.110
242.40	8.333
242.77	6.780
243.14	-13.636
243.51	8.750
243.89	5.747
244.26	-13.793
244.63	-17.857
245.00	-7.216
245.38	-1.031
245.75	-17.978
246.12	-6.897
246.49	4.132
246.87	-2.885
247.24	-8.403
247.61	-13.158
247.98	-8.943
248.36	-6.250
248.73	-9.211
249.10	-3.896
249.47	0.633
249.84	-3.922
250.22	-4.706
250.59	-5.229
250.96	6.103
251.33	-1.744
251.70	0.588
252.08	0.508
252.45	-0.990
252.82	-5.528
253.19	-2.304
253.56	-3.738
253.94	-0.901
254.31	-2.609
254.68	0.877
255.05	-1.575
255.42	-0.437
255.79	-0.772
256.16	-2.724
256.54	0.000
256.91	-0.760
257.28	-1.487
257.65	-4.494
258.02	-0.709
258.39	2.357
258.76	-2.564
259.14	1.993
259.51	0.647
259.88	-1.031
260.25	0.327
260.62	-0.694
260.99	-2.373
261.36	-4.452
261.73	-1.266
262.10	-0.608
262.47	-1.534
262.85	-3.448
263.22	-1.538
263.59	0.312
263.96	-1.242
264.33	-1.212
264.70	-6.250
265.07	-4.762
265.44	0.000
265.81	-1.412
266.18	-0.273
266.55	0.514
266.92	0.518
267.29	1.305
267.66	0.512
268.03	0.000
268.40	-1.305
268.77	-2.139
269.14	2.158
269.51	0.514
269.88	-1.247
270.25	-3.827
270.62	-0.976
270.99	-1.279
271.36	0.244
271.73	-1.174
272.10	0.730
272.47	-1.891
272.84	-2.475
273.21	3.016
273.58	1.205
273.95	-0.686
274.32	-1.617
274.69	-2.715
275.06	0.223
275.43	-1.814
275.80	-0.883
276.17	0.000
276.54	0.214
276.91	-0.658
277.28	-1.310
277.65	-0.620
278.02	0.851
278.39	-1.313
278.76	0.629
279.13	-2.075
279.50	-0.840
279.87	-0.432
280.23	-0.430
280.60	1.365
280.97	0.000
281.34	-1.538
281.71	2.053
282.08	-0.613
282.45	0.978
282.82	-2.317
283.19	0.580
283.56	-0.385
283.92	-3.795
284.29	-0.385
284.66	0.194
285.03	-0.589
285.40	-0.945
285.77	-1.406
286.14	-0.181
286.51	1.476
286.87	-3.108
287.24	-0.921
287.61	-0.882
287.98	2.807
288.35	-0.693
288.72	0.000
289.08	-0.694
289.45	1.757
289.82	0.175
290.19	-0.683
290.56	-1.887
290.93	-0.505
291.29	-0.616
291.66	0.945
292.03	0.797
292.40	-0.806
292.77	-0.957
293.13	-1.299
293.50	-2.124
293.87	0.000
294.24	-1.391
294.60	0.894
294.97	0.298
295.34	-1.687
295.71	-0.745
296.08	-1.196
296.44	-0.996
296.81	-0.556
297.18	-1.159
297.55	0.678
297.91	-1.096
298.28	1.055
298.65	0.000
299.02	-0.674
299.38	-2.462
299.75	-0.966
300.12	0.131
300.48	0.000
300.85	-0.127
301.22	-2.078
301.59	-0.921
301.95	-1.013
302.32	2.594
302.69	0.249
303.05	0.000
303.42	1.370
303.79	-0.701
304.15	0.836
304.52	-1.427
304.89	-0.234
305.25	-0.363
305.62	-0.583
305.99	0.702
306.35	-0.462
306.72	-1.800
307.09	0.456
307.45	0.000
307.82	-0.347
308.19	0.116
308.55	-0.218
308.92	1.307
309.29	-0.559
309.65	0.108
310.02	0.660
310.38	1.317
310.75	0.656
311.12	0.861
311.48	-0.106
311.85	-0.105
312.22	-0.949
312.58	0.637
312.95	-0.107
313.31	0.104
313.68	-0.105
314.05	0.000
314.41	-0.309
314.78	-0.412
315.14	0.206
315.51	0.621
315.87	0.102
316.24	1.314
316.61	0.689
316.97	0.298
317.34	0.684
317.70	0.478
318.07	0.385
318.43	0.196
318.80	-0.095
319.16	0.000
319.53	1.804
319.89	-0.394
320.26	0.506
320.62	1.204
320.99	-0.835
321.35	1.233
321.72	0.208
322.08	0.906
322.45	0.609
322.81	0.295
323.18	0.000
323.54	-0.290
323.91	0.876
324.27	1.270
324.64	0.655
325.00	0.639
325.37	1.837
325.73	0.635
326.10	0.454
326.46	0.897
326.83	0.962
327.19	0.697
327.56	1.738
327.92	1.585
328.29	1.429
328.65	0.377
329.01	1.287
329.38	1.290
329.74	0.661
330.11	1.668
330.47	-0.093
330.84	-0.865
331.20	1.141
331.56	0.463
331.93	0.913
332.29	1.467
332.66	0.995
333.02	0.836
333.38	0.550
333.75	0.824
334.11	0.090
334.48	0.635
334.84	1.557
335.20	1.281
335.57	-0.091
335.93	1.355
336.29	1.105
336.66	0.363
337.02	0.279
337.38	-0.093
337.75	0.909
338.11	0.812
338.47	0.730
338.84	1.571
339.20	1.097
339.56	1.101
339.93	0.895
340.29	0.367
340.65	1.703
341.02	0.532
341.38	0.708
341.74	0.265
342.11	-1.040
342.47	0.890
342.83	1.298
343.20	0.784
343.56	0.696
343.92	0.354
344.28	0.854
344.65	0.518
345.01	0.346
345.37	1.009
345.73	1.674
346.10	1.381
346.46	1.598
346.82	0.818
347.19	-0.333
347.55	0.084
347.91	0.809
348.27	0.728
348.63	0.596
349.00	0.902
349.36	0.582
349.72	1.990
350.08	2.131
350.45	1.038
350.81	0.498
351.17	0.163
351.53	0.898
351.89	0.495
352.26	0.480
352.62	0.645
352.98	1.446
353.34	0.644
353.70	0.728
354.07	0.645
354.43	0.641
354.79	0.165
355.15	1.270
355.51	1.661
355.87	1.133
356.24	0.000
356.60	0.808
356.96	1.270
357.32	0.799
357.68	0.235
358.04	0.000
358.40	0.563
358.77	0.957
359.13	0.881
359.49	0.308
359.85	1.248
360.21	0.558
360.57	0.459
360.93	1.437
361.29	0.378
361.66	1.332
362.02	1.591
362.38	1.142
362.74	-0.303
363.10	1.354
363.46	0.371
363.82	1.878
364.18	0.738
364.54	0.882
364.90	0.573
365.26	0.509
365.62	1.679
365.98	1.906
366.35	1.529
366.71	0.887
367.07	1.016
367.43	0.144
367.79	1.201
368.15	0.790
368.51	1.602
368.87	-0.144
369.23	0.433
369.59	0.219
369.95	0.953
370.31	0.867
370.67	0.970
371.03	0.747
371.39	1.021
371.75	0.733
372.11	1.355
372.47	0.592
372.83	1.065
373.19	1.355
373.55	0.361
373.91	1.152
374.27	1.276
374.63	1.866
374.99	0.355
375.35	0.975
375.71	1.329
376.07	1.334
376.42	0.884
376.78	0.403
377.14	1.016
377.50	0.797
377.86	0.402
378.22	1.085
378.58	0.513
378.94	0.000
379.30	1.185
379.66	0.878
380.02	0.736
380.38	0.548
380.74	1.137
381.09	1.288
381.45	0.673
381.81	0.555
382.17	0.952
382.53	0.812
382.89	0.251
383.25	1.245
383.61	1.707
383.97	0.571
384.32	1.313
384.68	0.743
385.04	0.368
385.40	0.311
385.76	1.384
386.12	0.776
386.48	1.022
386.83	0.571
387.19	1.404
387.55	1.129
387.91	0.672
388.27	1.160
388.62	1.070
388.98	0.737
389.34	1.437
389.70	1.119
390.06	1.007
390.42	0.518
390.77	-0.065
391.13	0.252
391.49	0.259
391.85	0.585
392.20	0.942
392.56	0.318
392.92	1.351
393.28	1.061
393.64	0.480
393.99	1.505
394.35	-0.443
394.71	0.575
395.07	1.194
395.42	0.546
395.78	0.717
396.14	1.261
396.50	1.776
396.85	1.223
397.21	1.190
397.57	0.627
397.92	1.198
398.28	0.920
398.64	0.542
399.00	1.580
399.35	0.169
399.71	0.862
400.07	0.967
400.42	1.102
400.78	0.980
401.14	1.633
401.49	1.072
401.85	0.609
402.21	1.084
402.57	0.875
402.92	-0.125
403.28	1.128
403.63	0.441
403.99	0.383
404.35	1.124
404.70	0.952
405.06	1.234
405.42	0.622
405.77	-0.291
406.13	-0.175
406.49	0.770
406.84	0.306
407.20	0.662
407.55	0.386
407.91	0.602
408.27	0.892
408.62	1.415
408.98	0.739
409.34	1.177
409.69	0.323
410.05	0.554
410.40	1.173
410.76	0.784
411.11	0.938
411.47	0.592
411.83	0.188
412.18	0.901
412.54	0.375
412.89	0.924
413.25	0.301
413.60	0.435
413.96	0.675
414.31	1.463
414.67	1.155
415.03	0.666
415.38	0.326
415.74	1.889
416.09	1.372
416.45	0.878
416.80	1.058
417.16	0.552
417.51	0.666
417.87	0.522
418.22	0.907
418.58	0.067
418.93	0.940
419.29	0.384
419.64	0.389
420.00	1.448
420.35	0.537
420.71	1.519
421.06	0.982
421.42	0.661
421.77	0.694
422.12	0.284
422.48	0.758
422.83	1.044
423.19	0.959
423.54	0.705
423.90	0.648
424.25	0.631
424.61	1.040
424.96	0.639
425.31	1.271
425.67	1.585
426.02	1.413
426.38	-0.250
426.73	1.574
427.09	1.519
427.44	1.118
427.79	0.412
428.15	1.517
428.50	0.727
428.85	0.737
429.21	1.245
429.56	0.377
429.92	1.387
430.27	1.153
430.62	0.575
430.98	0.584
431.33	1.209
431.68	1.099
432.04	0.671
432.39	0.913
432.74	0.301
433.10	0.977
433.45	0.777
433.80	0.174
434.16	0.388
434.51	0.753
434.86	0.755
435.22	0.449
435.57	0.187
435.92	0.659
436.28	0.477
436.63	0.742
436.98	0.579
437.34	1.089
437.69	0.656
438.04	0.399
438.39	0.305
438.75	0.061
439.10	0.396
439.45	0.730
439.81	0.367
440.16	0.534
440.51	1.433
440.86	1.269
441.22	1.244
441.57	0.717
441.92	1.154
442.27	0.610
442.63	1.552
442.98	0.804
443.33	0.334
443.68	1.273
444.03	1.391
444.39	1.181
444.74	1.115
445.09	1.559
445.44	0.798
445.79	1.289
446.15	0.991
446.50	0.998
446.85	0.850
447.20	1.043
447.55	1.339
447.91	1.184
448.26	0.968
448.61	0.921
448.96	0.803
449.31	0.867
449.66	0.523
450.02	0.742
450.37	1.067
450.72	0.229
451.07	1.076
451.42	1.498
451.77	1.085
452.12	0.538
452.47	0.322
452.83	1.119
453.18	0.633
453.53	1.201
453.88	1.032
454.23	1.045
454.58	0.819
454.93	1.675
455.28	0.635
455.63	1.302
455.98	1.323
456.34	0.958
456.69	1.398
457.04	1.449
457.39	1.094
457.74	0.423
458.09	1.354
458.44	0.644
458.79	1.232
459.14	1.316
459.49	1.970
459.84	1.410
460.19	0.667
460.54	1.161
460.89	1.080
461.24	0.497
461.59	1.960
461.94	0.818
462.29	1.749
462.64	1.927
462.99	1.625
463.34	0.556
463.69	0.965
464.04	1.513
464.39	1.213
464.74	1.288
465.09	1.123
465.44	1.385
465.79	0.850
466.14	0.969
466.49	1.265
466.84	1.785
467.19	1.877
467.54	1.533
467.89	1.200
468.24	0.852
468.59	2.095
468.94	1.333
469.29	2.098
469.64	1.299
469.99	1.191
470.34	0.205
470.68	1.864
471.03	1.911
471.38	1.141
471.73	0.560
472.08	1.153
472.43	1.074
472.78	1.097
473.13	1.769
473.48	1.042
473.83	0.872
474.17	1.619
474.52	1.340
474.87	1.879
475.22	1.403
475.57	1.016
475.92	1.646
476.27	1.921
476.61	1.678
476.96	1.004
477.31	2.217
477.66	0.674
478.01	0.786
478.36	1.144
478.70	1.359
479.05	1.758
479.40	1.590
479.75	1.303
480.10	0.922
480.45	0.900
480.79	1.410
481.14	1.178
481.49	1.281
481.84	1.207
482.19	0.935
482.53	0.959
482.88	1.671
483.23	1.104
483.58	1.415
483.92	1.210
484.27	1.595
484.62	1.748
484.97	1.285
485.31	1.373
485.66	1.639
486.01	1.630
486.36	1.652
486.70	1.910
487.05	1.564
487.40	1.163
487.75	1.296
488.09	1.329
488.44	1.341
488.79	1.083
489.13	1.442
489.48	1.197
489.83	1.390
490.17	1.124
490.52	0.739
490.87	1.388
491.22	1.433
491.56	1.186
491.91	0.908
492.26	1.215
492.60	1.056
492.95	1.968
493.30	1.270
493.64	0.835
493.99	1.739
494.34	0.825
494.68	1.333
495.03	0.925
495.37	1.325
495.72	1.514
496.07	1.171
496.41	1.415
496.76	1.013
497.11	0.838
497.45	2.005
497.80	1.816
498.14	1.639
498.49	0.813
498.84	1.148
499.18	1.104
499.53	1.835
499.87	1.556
500.22	1.632
500.56	1.412
500.91	0.954
501.26	1.335
501.60	0.935
501.95	1.262
502.29	1.501
502.64	1.496
502.98	1.283
503.33	1.345
503.67	1.639
504.02	1.760
504.36	1.732
504.71	0.657
505.06	1.409
505.40	1.421
505.75	1.186
506.09	1.216
506.44	1.745
506.78	1.582
507.13	1.706
507.47	1.410
507.82	0.748
508.16	1.321
508.51	1.364
508.85	1.361
509.19	0.852
509.54	1.555
509.88	0.863
510.23	0.914
510.57	1.443
510.92	0.586
511.26	0.709
511.61	1.595
511.95	1.479
512.30	1.053
512.64	1.725
512.98	0.955
513.33	1.623
513.67	0.910
514.02	1.602
514.36	1.200
514.70	1.399
515.05	1.586
515.39	1.181
515.74	2.096
516.08	0.717
516.42	1.943
516.77	1.697
517.11	1.246
517.46	1.735
517.80	1.549
518.14	1.408
518.49	0.781
518.83	0.486
519.17	1.152
519.52	1.184
519.86	0.840
520.20	1.337
520.55	1.126
520.89	1.694
521.23	1.520
521.58	1.956
521.92	2.051
522.26	0.846
522.61	0.844
522.95	1.126
523.29	1.842
523.64	2.033
523.98	1.944
524.32	0.644
524.66	1.152
525.01	1.494
525.35	2.463
525.69	1.279
526.04	0.926
526.38	1.621
526.72	0.392
527.06	1.686
527.41	1.319
527.75	0.670
528.09	1.462
528.43	1.823
528.78	0.990
529.12	1.032
529.46	1.300
529.80	1.457
530.15	1.452
530.49	1.212
530.83	1.163
531.17	1.478
531.51	1.642
531.86	1.224
532.20	0.696
532.54	1.838
532.88	1.232
533.22	1.277
533.57	1.442
533.91	0.783
534.25	1.562
534.59	0.834
534.93	0.755
535.27	1.015
535.62	1.296
535.96	1.305
536.30	1.847
536.64	2.068
536.98	1.742
537.32	1.565
537.66	1.893
538.01	0.979
538.35	1.040
538.69	2.064
539.03	1.299
539.37	1.750
539.71	1.909
540.05	1.629
540.39	1.593
540.73	1.743
541.07	1.312
541.42	2.285
541.76	2.134
542.10	1.858
542.44	1.320
542.78	0.275
543.12	2.060
543.46	1.391
543.80	1.319
544.14	0.801
544.48	1.599
544.82	0.889
545.16	2.186
545.50	2.603
545.84	1.346
546.18	2.270
546.52	1.081
546.86	0.935
547.20	1.502
547.54	0.989
547.88	1.630
548.22	1.249
548.56	1.715
548.90	2.358
549.24	0.895
549.58	2.045
549.92	1.430
550.26	1.099
550.60	1.636
550.94	0.822
551.28	0.927
551.62	1.538
551.96	2.331
552.30	1.901
552.64	1.834
552.98	1.477
553.32	1.926
553.66	1.161
554.00	1.679
554.34	0.960
554.68	1.254
555.02	2.009
555.36	0.449
555.69	1.172
556.03	0.642
556.37	1.637
556.71	0.939
557.05	0.522
557.39	0.669
557.73	1.349
558.07	1.282
558.41	0.613
558.75	1.325
559.08	0.473
559.42	1.587
559.76	0.641
560.10	0.841
560.44	1.340
560.78	1.748
561.12	1.904
561.45	1.335
561.79	0.840
562.13	1.987
562.47	1.223
562.81	1.081
563.15	2.186
563.48	1.768
563.82	1.716
564.16	1.114
564.50	1.149
564.84	2.544
565.17	0.939
565.51	1.639
565.85	1.440
566.19	1.658
566.52	1.408
566.86	1.799
567.20	1.121
567.54	0.852
567.88	1.582
568.21	1.131
568.55	0.978
568.89	2.156
569.23	1.878
569.56	1.226
569.90	1.949
570.24	1.824
570.57	1.673
570.91	1.778
571.25	1.348
571.59	1.713
571.92	1.867
572.26	1.329
572.60	1.767
572.93	1.443
573.27	1.944
573.61	1.521
573.95	1.830
574.28	1.668
574.62	1.576
574.96	1.845
575.29	1.666
575.63	1.918
575.97	1.654
576.30	1.462
576.64	1.404
576.98	1.750
577.31	1.671
577.65	1.697
577.98	1.944
578.32	1.689
578.66	1.633
578.99	1.825
579.33	1.549
579.67	1.766
580.00	1.848
580.34	1.915
580.67	1.583
581.01	1.729
581.35	1.723
581.68	1.929
582.02	1.505
582.35	1.523
582.69	1.889
583.02	1.645
583.36	2.082
583.70	1.765
584.03	1.974
584.37	1.948
584.70	1.703
585.04	1.606
585.37	1.523
585.71	1.210
586.04	1.639
586.38	1.174
586.72	1.951
587.05	2.051
587.39	1.929
587.72	1.695
588.06	1.688
588.39	2.165
588.73	1.709
589.06	2.185
589.40	2.143
589.73	2.337
590.07	1.813
590.40	1.548
590.73	2.018
591.07	1.993
591.40	1.736
591.74	1.900
592.07	2.505
592.41	2.208
592.74	2.190
593.08	1.432
593.41	1.911
593.75	1.865
594.08	1.476
594.41	1.565
594.75	1.450
595.08	2.119
595.42	1.509
595.75	1.352
596.09	1.329
596.42	1.364
596.75	1.465
597.09	2.141
597.42	1.581
597.75	1.787
598.09	1.947
598.42	1.579
598.76	1.630
599.09	2.003
599.42	2.008
599.76	1.843
600.09	1.772
600.42	1.933
600.76	1.709
601.09	1.679
601.42	2.115
601.76	1.786
602.09	1.650
602.42	2.106
602.76	1.698
603.09	2.035
603.42	1.881
603.76	1.048
604.09	1.013
604.42	1.692
604.76	1.825
605.09	2.239
605.42	1.716
605.75	1.489
606.09	1.656
606.42	1.793
606.75	1.861
607.09	2.330
607.42	1.684
607.75	1.554
608.08	1.303
608.42	1.964
608.75	1.783
609.08	1.395
609.41	2.030
609.75	1.915
610.08	1.947
610.41	1.643
610.74	1.560
611.07	1.550
611.41	1.868
611.74	2.239
612.07	1.445
612.40	2.133
612.73	1.186
613.07	1.575
613.40	2.298
613.73	1.119
614.06	2.671
614.39	1.861
614.72	1.793
615.06	1.620
615.39	1.528
615.72	1.453
616.05	2.011
616.38	1.254
616.71	1.223
617.05	1.915
617.38	2.074
617.71	0.818
618.04	1.587
618.37	2.396
618.70	1.914
619.03	1.667
619.36	1.158
619.69	2.199
620.03	1.680
620.36	1.431
620.69	1.856
621.02	1.300
621.35	1.743
621.68	1.361
622.01	1.917
622.34	1.516
622.67	2.997
623.00	2.221
623.33	1.143
623.66	1.496
623.99	2.042
624.32	2.357
624.65	1.053
624.99	1.956
625.32	0.910
625.65	2.200
625.98	1.531
626.31	1.330
626.64	3.640
626.97	3.054
627.30	1.576
627.63	2.080
627.96	1.707
628.29	1.573
628.62	1.573
628.95	2.004
629.28	2.117
629.61	0.598
629.94	2.542
630.26	1.383
630.59	1.665
630.92	1.333
631.25	2.154
631.58	0.441
631.91	1.316
632.24	0.917
632.57	1.705
632.90	0.474
633.23	1.529
633.56	0.378
633.89	1.603
634.22	1.728
634.55	0.381
634.88	1.022
635.20	0.641
635.53	1.333
635.86	-0.390
636.19	1.552
636.52	1.148
636.85	1.117
637.18	0.881
637.51	2.013
637.83	1.183
638.16	2.729
638.49	1.907
638.82	1.974
639.15	1.357
639.48	1.651
639.81	0.418
640.13	-1.010
640.46	0.000
640.79	-0.295
641.12	1.329
641.45	1.802
641.77	1.481
642.10	1.738
642.43	-0.161
642.76	1.485
643.09	0.323
643.41	0.809
643.74	0.329
644.07	0.985
644.40	0.845
644.73	1.051
645.05	1.510
645.38	0.529
645.71	-0.887
646.04	1.795
646.36	0.709
646.69	3.237
647.02	2.457
647.35	0.560
647.67	2.377
648.00	2.425
648.33	4.096
648.66	1.017
648.98	-1.843
649.31	0.000
649.64	0.785
649.96	0.810
650.29	2.385
650.62	1.538
650.94	0.741
651.27	-1.117
651.60	0.000
651.92	0.874
652.25	-1.243
652.58	2.833
652.90	4.117
653.23	0.672
653.56	1.861
653.88	0.515
654.21	0.876
654.54	2.547
654.86	3.905
655.19	1.608
