SpectraSuite Data File
++++++++++++++++++++++++++++++++++++
Date: Fri May 15 20:41:30 PDT 2015
User: schluterlab
Dark Spectrum Present: Yes
Reference Spectrum Present: Yes
Number of Sampled Component Spectra: 1
Spectrometers: USB2E3373
Integration Time (usec): 3000 (USB2E3373)
Spectra Averaged: 3 (USB2E3373)
Boxcar Smoothing: 0 (USB2E3373)
Correct for Electrical Dark: No (USB2E3373)
Strobe/Lamp Enabled: No (USB2E3373)
Correct for Detector Non-linearity: No (USB2E3373)
Correct for Stray Light: No (USB2E3373)
Number of Pixels in Processed Spectrum: 2048
>>>>>Begin Processed Spectral Data<<<<<
178.53	0.000
178.91	0.000
179.29	100.000
179.67	-450.000
180.04	271.429
180.42	125.000
180.80	-900.000
181.18	100.000
181.56	800.000
181.94	350.000
182.31	800.000
182.69	80.000
183.07	-133.333
183.45	-160.000
183.83	133.333
184.20	45.455
184.58	122.222
184.96	25.000
185.34	-33.333
185.72	-250.000
186.09	46.154
186.47	800.000
186.85	183.333
187.23	111.111
187.61	200.000
187.98	-233.333
188.36	55.556
188.74	-166.667
189.12	0.000
189.49	55.556
189.87	0.000
190.25	-14.286
190.63	100.000
191.00	-400.000
191.38	-36.842
191.76	-100.000
192.14	-25.000
192.51	300.000
192.89	-88.889
193.27	-85.714
193.65	133.333
194.02	172.727
194.40	0.000
194.78	-150.000
195.15	16.667
195.53	-100.000
195.91	175.000
196.29	-275.000
196.66	107.692
197.04	142.857
197.42	-55.556
197.79	-700.000
198.17	-115.385
198.55	1700.000
198.92	-200.000
199.30	400.000
199.68	-40.000
200.05	-533.333
200.43	0.000
200.81	66.667
201.18	-133.333
201.56	600.000
201.94	-50.000
202.31	-0.000
202.69	-360.000
203.07	225.000
203.44	0.000
203.82	0.000
204.19	42.857
204.57	-533.333
204.95	150.000
205.32	40.000
205.70	128.571
206.08	-225.000
206.45	200.000
206.83	64.286
207.20	-85.714
207.58	600.000
207.96	-133.333
208.33	-100.000
208.71	25.000
209.08	-183.333
209.46	-200.000
209.84	-140.000
210.21	-300.000
210.59	-71.429
210.96	50.000
211.34	-50.000
211.71	0.000
212.09	-128.571
212.46	-1100.000
212.84	0.000
213.22	80.000
213.59	400.000
213.97	15.385
214.34	45.455
214.72	-33.333
215.09	350.000
215.47	0.000
215.84	45.455
216.22	-33.333
216.59	-162.500
216.97	0.000
217.34	-250.000
217.72	-240.000
218.09	12.500
218.47	75.000
218.84	0.000
219.22	-155.556
219.59	-60.000
219.97	200.000
220.34	175.000
220.72	0.000
221.09	0.000
221.47	100.000
221.84	-700.000
222.22	-650.000
222.59	-81.818
222.97	83.333
223.34	-133.333
223.72	50.000
224.09	-33.333
224.46	17.857
224.84	233.333
225.21	-20.000
225.59	6.667
225.96	-350.000
226.34	350.000
226.71	-28.571
227.08	50.000
227.46	50.000
227.83	-400.000
228.21	22.222
228.58	-9.091
228.95	-12.500
229.33	100.000
229.70	25.000
230.08	-112.500
230.45	-42.857
230.82	100.000
231.20	-13.333
231.57	78.571
231.95	-42.857
232.32	10.000
232.69	71.429
233.07	200.000
233.44	-120.000
233.81	-100.000
234.19	-11.111
234.56	23.529
234.93	400.000
235.31	-25.000
235.68	-240.000
236.05	-100.000
236.43	-55.000
236.80	-11.765
237.17	3.125
237.55	-10.000
237.92	-25.926
238.29	-16.667
238.67	13.333
239.04	-2.941
239.41	-12.195
239.79	-26.667
240.16	4.878
240.53	-18.421
240.91	-23.913
241.28	-3.175
241.65	1.786
242.02	9.589
242.40	3.333
242.77	11.864
243.14	3.030
243.51	-6.250
243.89	0.000
244.26	-2.299
244.63	4.762
245.00	9.278
245.38	4.124
245.75	-1.124
246.12	0.000
246.49	8.264
246.87	4.808
247.24	-4.202
247.61	-0.877
247.98	2.439
248.36	2.500
248.73	5.263
249.10	1.948
249.47	6.962
249.84	1.307
250.22	8.824
250.59	5.882
250.96	8.451
251.33	5.233
251.70	5.294
252.08	2.030
252.45	8.416
252.82	3.015
253.19	5.991
253.56	3.738
253.94	3.153
254.31	7.826
254.68	7.895
255.05	3.150
255.42	7.424
255.79	3.089
256.16	5.058
256.54	7.836
256.91	6.844
257.28	5.204
257.65	2.622
258.02	2.837
258.39	7.407
258.76	7.326
259.14	7.973
259.51	9.061
259.88	2.405
260.25	4.248
260.62	4.861
260.99	-1.695
261.36	0.342
261.73	8.861
262.10	4.559
262.47	4.601
262.85	1.881
263.22	2.154
263.59	6.854
263.96	6.522
264.33	2.727
264.70	3.274
265.07	0.298
265.44	4.816
265.81	5.085
266.18	6.011
266.55	6.684
266.92	6.218
267.29	8.877
267.66	5.115
268.03	2.618
268.40	4.961
268.77	9.626
269.14	6.235
269.51	3.856
269.88	4.489
270.25	0.765
270.62	5.366
270.99	3.325
271.36	5.379
271.73	4.225
272.10	2.920
272.47	4.965
272.84	5.693
273.21	7.425
273.58	6.024
273.95	5.034
274.32	2.540
274.69	1.584
275.06	4.688
275.43	5.442
275.80	6.623
276.17	4.828
276.54	4.711
276.91	4.167
277.28	5.677
277.65	6.198
278.02	5.957
278.39	3.720
278.76	4.822
279.13	2.905
279.50	6.723
279.87	5.400
280.23	2.796
280.60	4.094
280.97	6.667
281.34	5.385
281.71	6.982
282.08	5.112
282.45	4.501
282.82	4.054
283.19	4.062
283.56	3.083
283.92	3.795
284.29	2.885
284.66	4.070
285.03	4.715
285.40	3.970
285.77	4.921
286.14	5.415
286.51	5.351
286.87	2.742
287.24	4.236
287.61	4.586
287.98	6.140
288.35	5.719
288.72	5.079
289.08	2.604
289.45	5.975
289.82	5.944
290.19	4.096
290.56	4.117
290.93	3.535
291.29	4.468
291.66	5.512
292.03	5.423
292.40	4.677
292.77	3.509
293.13	0.974
293.50	2.580
293.87	5.344
294.24	4.637
294.60	3.428
294.97	4.762
295.34	4.755
295.71	3.279
296.08	3.288
296.44	2.560
296.81	4.306
297.18	3.043
297.55	5.149
297.91	5.068
298.28	5.409
298.65	3.799
299.02	2.156
299.38	2.326
299.75	3.586
300.12	3.665
300.48	2.108
300.85	4.689
301.22	4.545
301.59	3.816
301.95	6.329
302.32	4.150
302.69	3.980
303.05	4.455
303.42	4.110
303.79	4.907
304.15	4.062
304.52	1.784
304.89	3.977
305.25	2.663
305.62	5.484
305.99	3.743
306.35	4.740
306.72	2.587
307.09	5.701
307.45	4.592
307.82	3.704
308.19	4.878
308.55	5.234
308.92	4.902
309.29	3.240
309.65	4.413
310.02	4.730
310.38	5.159
310.75	5.464
311.12	4.952
311.48	4.878
311.85	5.445
312.22	4.958
312.58	5.626
312.95	5.123
313.31	4.244
313.68	5.654
314.05	4.898
314.41	5.876
314.78	4.845
315.14	5.858
315.51	7.660
315.87	6.967
316.24	8.089
316.61	8.563
316.97	8.532
317.34	8.496
317.70	8.987
318.07	8.558
318.43	9.510
318.80	9.659
319.16	9.961
319.53	11.111
319.89	11.122
320.26	11.741
320.62	11.234
320.99	11.795
321.35	13.669
321.72	14.330
322.08	13.696
322.45	15.736
322.81	14.931
323.18	13.837
323.54	16.409
323.91	18.111
324.27	17.676
324.64	20.599
325.00	19.252
325.37	22.130
325.73	20.580
326.10	20.981
326.46	23.677
326.83	23.710
327.19	24.324
327.56	25.109
327.92	26.937
328.29	26.964
328.65	27.642
329.01	27.206
329.38	28.571
329.74	28.612
330.11	30.213
330.47	30.334
330.84	28.654
331.20	33.080
331.56	30.370
331.93	32.055
332.29	32.447
332.66	31.946
333.02	32.435
333.38	31.989
333.75	34.615
334.11	32.856
334.48	33.636
334.84	33.700
335.20	34.401
335.57	34.089
335.93	35.050
336.29	34.162
336.66	35.695
337.02	34.480
337.38	34.722
337.75	35.727
338.11	35.618
338.47	36.861
338.84	35.397
339.20	35.923
339.56	37.339
339.93	37.153
340.29	36.972
340.65	38.620
341.02	36.436
341.38	36.018
341.74	37.014
342.11	35.182
342.47	37.633
342.83	37.976
343.20	36.498
343.56	37.130
343.92	35.607
344.28	37.319
344.65	38.342
345.01	37.079
345.37	36.501
345.73	37.573
346.10	37.360
346.46	37.847
346.82	36.989
347.19	37.739
347.55	38.931
347.91	38.026
348.27	37.995
348.63	38.586
349.00	38.228
349.36	39.485
349.72	40.299
350.08	39.016
350.45	37.590
350.81	38.372
351.17	37.215
351.53	38.939
351.89	37.655
352.26	38.080
352.62	39.274
352.98	38.474
353.34	38.486
353.70	39.482
354.07	38.790
354.43	38.911
354.79	38.315
355.15	39.048
355.51	40.190
355.87	39.482
356.24	39.070
356.60	38.884
356.96	40.079
357.32	39.696
357.68	38.389
358.04	39.095
358.40	38.023
358.77	39.633
359.13	39.792
359.49	37.596
359.85	39.470
360.21	39.234
360.57	37.337
360.93	38.956
361.29	38.973
361.66	39.342
362.02	39.773
362.38	38.614
362.74	38.153
363.10	40.105
363.46	39.437
363.82	40.270
364.18	39.262
364.54	39.191
364.90	39.785
365.26	38.937
365.62	41.533
365.98	38.490
366.35	39.840
366.71	40.207
367.07	39.332
367.43	40.403
367.79	40.000
368.15	39.124
368.51	39.913
368.87	39.052
369.23	38.339
369.59	39.577
369.95	38.563
370.31	39.451
370.67	40.672
371.03	40.179
371.39	38.074
371.75	39.853
372.11	38.944
372.47	39.275
372.83	39.603
373.19	39.800
373.55	39.206
373.91	38.805
374.27	40.255
374.63	39.340
374.99	39.433
375.35	40.738
375.71	40.629
376.07	38.624
376.42	40.408
376.78	40.067
377.14	40.555
377.50	39.309
377.86	39.826
378.22	38.992
378.58	38.846
378.94	39.130
379.30	38.740
379.66	40.752
380.02	39.178
380.38	39.440
380.74	39.856
381.09	39.202
381.45	39.388
381.81	40.531
382.17	38.325
382.53	39.538
382.89	40.239
383.25	39.577
383.61	39.817
383.97	38.667
384.32	38.774
384.68	39.567
385.04	39.706
385.40	38.332
385.76	40.189
386.12	40.362
386.48	39.336
386.83	39.379
387.19	39.927
387.55	39.962
387.91	39.487
388.27	39.683
388.62	39.711
388.98	39.227
389.34	39.413
389.70	39.714
390.06	38.704
390.42	39.832
390.77	38.784
391.13	37.894
391.49	38.810
391.85	39.636
392.20	37.476
392.56	38.144
392.92	38.344
393.28	38.443
393.64	37.417
393.99	38.683
394.35	37.445
394.71	38.570
395.07	37.524
395.42	37.766
395.78	38.306
396.14	38.398
396.50	37.666
396.85	38.506
397.21	37.845
397.57	37.618
397.92	37.448
398.28	37.471
398.64	37.108
399.00	37.754
399.35	36.964
399.71	36.990
400.07	37.545
400.42	36.108
400.78	37.661
401.14	37.689
401.49	37.820
401.85	37.538
402.21	36.386
402.57	35.812
402.92	35.634
403.28	37.469
403.63	37.327
403.99	36.161
404.35	37.039
404.70	35.655
405.06	36.134
405.42	35.239
405.77	35.793
406.13	36.612
406.49	35.761
406.84	35.941
407.20	36.544
407.55	36.510
407.91	36.698
408.27	34.544
408.62	36.862
408.98	35.736
409.34	35.440
409.69	35.271
410.05	35.345
410.40	35.556
410.76	36.248
411.11	35.438
411.47	35.174
411.83	35.468
412.18	36.873
412.54	34.332
412.89	33.990
413.25	35.560
413.60	33.913
413.96	34.294
414.31	36.768
414.67	34.445
415.03	34.953
415.38	34.269
415.74	35.440
416.09	35.140
416.45	34.234
416.80	35.096
417.16	34.945
417.51	34.444
417.87	34.811
418.22	34.650
418.58	34.247
418.93	34.295
419.29	33.227
419.64	33.377
420.00	35.264
420.35	34.328
420.71	33.961
421.06	33.702
421.42	34.675
421.77	33.642
422.12	33.428
422.48	32.972
422.83	33.237
423.19	33.860
423.54	32.569
423.90	32.803
424.25	33.180
424.61	33.048
424.96	33.391
425.31	33.449
425.67	33.568
426.02	34.570
426.38	33.312
426.73	33.354
427.09	34.494
427.44	33.941
427.79	33.294
428.15	33.677
428.50	33.071
428.85	32.310
429.21	33.390
429.56	33.423
429.92	32.922
430.27	31.679
430.62	32.462
430.98	33.015
431.33	32.965
431.68	32.444
432.04	33.203
432.39	32.459
432.74	31.990
433.10	33.448
433.45	32.437
433.80	32.095
434.16	31.080
434.51	32.742
434.86	33.159
435.22	32.249
435.57	31.878
435.92	32.934
436.28	32.797
436.63	32.059
436.98	31.170
437.34	31.942
437.69	31.664
438.04	31.909
438.39	31.827
438.75	31.512
439.10	32.371
439.45	31.649
439.81	31.682
440.16	32.245
440.51	32.119
440.86	33.897
441.22	32.183
441.57	31.457
441.92	31.847
442.27	32.095
442.63	32.013
442.98	32.510
443.33	30.885
443.68	31.034
444.03	31.595
444.39	31.038
444.74	31.104
445.09	31.347
445.44	31.567
445.79	32.543
446.15	31.553
446.50	31.891
446.85	31.934
447.20	30.918
447.55	32.254
447.91	30.852
448.26	31.588
448.61	31.146
448.96	32.243
449.31	32.370
449.66	31.010
450.02	31.090
450.37	31.298
450.72	31.271
451.07	31.519
451.42	31.648
451.77	30.741
452.12	31.160
452.47	31.745
452.83	30.035
453.18	30.424
453.53	31.479
453.88	31.330
454.23	30.240
454.58	31.738
454.93	31.314
455.28	30.413
455.63	31.246
455.98	30.607
456.34	31.034
456.69	31.067
457.04	31.191
457.39	30.802
457.74	30.472
458.09	29.723
458.44	30.544
458.79	30.140
459.14	30.892
459.49	31.284
459.84	29.949
460.19	30.765
460.54	30.379
460.89	30.455
461.24	29.752
461.59	29.513
461.94	28.553
462.29	30.338
462.64	30.698
462.99	30.738
463.34	29.485
463.69	29.408
464.04	29.661
464.39	29.594
464.74	30.000
465.09	29.570
465.44	29.544
465.79	29.535
466.14	28.905
466.49	29.212
466.84	29.328
467.19	29.287
467.54	29.502
467.89	29.311
468.24	29.136
468.59	29.524
468.94	29.587
469.29	30.361
469.64	30.144
469.99	29.573
470.34	28.737
470.68	31.171
471.03	30.786
471.38	28.887
471.73	29.552
472.08	28.901
472.43	30.067
472.78	28.992
473.13	28.367
473.48	28.990
473.83	28.518
474.17	28.627
474.52	28.845
474.87	28.303
475.22	28.310
475.57	28.233
475.92	28.031
476.27	27.881
476.61	28.646
476.96	27.942
477.31	28.448
477.66	28.146
478.01	27.906
478.36	27.451
478.70	28.820
479.05	28.681
479.40	28.776
479.75	26.747
480.10	27.803
480.45	27.500
480.79	28.701
481.14	28.893
481.49	27.980
481.84	27.944
482.19	27.081
482.53	27.962
482.88	26.969
483.23	27.543
483.58	26.745
483.92	28.074
484.27	26.892
484.62	26.759
484.97	26.658
485.31	25.939
485.66	24.664
486.01	24.317
486.36	24.153
486.70	24.198
487.05	24.950
487.40	24.845
487.75	25.493
488.09	25.958
488.44	25.550
488.79	26.074
489.13	26.122
489.48	25.737
489.83	26.278
490.17	26.157
490.52	26.467
490.87	26.608
491.22	27.221
491.56	26.565
491.91	26.147
492.26	26.155
492.60	25.960
492.95	26.857
493.30	26.234
493.64	26.572
493.99	26.232
494.34	25.437
494.68	26.667
495.03	25.693
495.37	25.810
495.72	26.906
496.07	25.902
496.41	25.708
496.76	25.795
497.11	25.524
497.45	27.208
497.80	25.732
498.14	25.832
498.49	25.851
498.84	25.798
499.18	25.853
499.53	25.397
499.87	26.167
500.22	25.124
500.56	25.567
500.91	25.050
501.26	24.864
501.60	25.480
501.95	25.133
502.29	25.133
502.64	25.434
502.98	24.963
503.33	24.640
503.67	24.723
504.02	25.024
504.36	25.383
504.71	24.646
505.06	23.654
505.40	24.569
505.75	25.515
506.09	24.430
506.44	24.897
506.78	25.255
507.13	24.974
507.47	24.491
507.82	24.092
508.16	24.406
508.51	25.079
508.85	25.065
509.19	24.428
509.54	24.665
509.88	24.434
510.23	24.529
510.57	24.586
510.92	23.294
511.26	24.604
511.61	24.752
511.95	25.041
512.30	24.557
512.64	24.485
512.98	24.368
513.33	23.951
513.67	24.048
514.02	24.886
514.36	24.229
514.70	24.592
515.05	24.559
515.39	23.200
515.74	25.808
516.08	26.001
516.42	25.501
516.77	25.044
517.11	25.341
517.46	24.237
517.80	23.600
518.14	24.617
518.49	24.940
518.83	24.301
519.17	23.893
519.52	23.268
519.86	24.310
520.20	24.727
520.55	24.703
520.89	24.090
521.23	24.003
521.58	25.237
521.92	24.487
522.26	24.073
522.61	24.026
522.95	23.775
523.29	23.189
523.64	24.651
523.98	23.655
524.32	23.711
524.66	24.136
525.01	25.325
525.35	24.303
525.69	23.434
526.04	23.677
526.38	24.384
526.72	24.003
527.06	22.827
527.41	23.681
527.75	24.062
528.09	23.056
528.43	24.443
528.78	23.696
529.12	23.355
529.46	22.937
529.80	23.369
530.15	24.884
530.49	24.175
530.83	23.529
531.17	22.633
531.51	23.666
531.86	22.978
532.20	23.382
532.54	23.145
532.88	23.614
533.22	22.715
533.57	23.460
533.91	22.258
534.25	23.242
534.59	21.745
534.93	22.026
535.27	22.208
535.62	21.581
535.96	22.701
536.30	23.153
536.64	22.743
536.98	22.021
537.32	22.617
537.66	23.282
538.01	22.657
538.35	23.509
538.69	23.369
539.03	21.805
539.37	22.948
539.71	22.290
540.05	21.928
540.39	22.022
540.73	22.245
541.07	22.307
541.42	22.513
541.76	21.679
542.10	21.610
542.44	22.933
542.78	20.440
543.12	21.703
543.46	22.253
543.80	21.652
544.14	20.494
544.48	21.919
544.82	21.463
545.16	22.131
545.50	22.163
545.84	22.875
546.18	22.766
546.52	21.629
546.86	21.495
547.20	21.459
547.54	21.060
547.88	21.739
548.22	20.710
548.56	21.240
548.90	20.957
549.24	19.766
549.58	20.874
549.92	20.443
550.26	20.659
550.60	20.520
550.94	20.986
551.28	20.943
551.62	20.462
551.96	21.353
552.30	21.053
552.64	21.368
552.98	20.745
553.32	20.613
553.66	20.537
554.00	21.679
554.34	20.458
554.68	20.354
555.02	20.982
555.36	20.868
555.69	20.073
556.03	19.914
556.37	20.000
556.71	20.433
557.05	20.060
557.39	19.554
557.73	20.690
558.07	20.739
558.41	20.827
558.75	20.577
559.08	20.331
559.42	20.079
559.76	20.977
560.10	19.572
560.44	19.434
560.78	20.420
561.12	19.676
561.45	21.082
561.79	19.888
562.13	20.085
562.47	19.928
562.81	20.029
563.15	21.227
563.48	20.580
563.82	19.492
564.16	20.195
564.50	18.716
564.84	19.679
565.17	19.517
565.51	19.399
565.85	19.410
566.19	20.159
566.52	19.236
566.86	19.087
567.20	17.746
567.54	18.856
567.88	17.926
568.21	18.722
568.55	17.283
568.89	18.326
569.23	17.814
569.56	16.988
569.90	17.377
570.24	17.082
570.57	17.200
570.91	16.696
571.25	16.014
571.59	16.194
571.92	16.119
572.26	16.123
572.60	16.062
572.93	16.222
573.27	15.611
573.61	15.632
573.95	16.029
574.28	15.599
574.62	15.103
574.96	15.283
575.29	14.841
575.63	14.434
575.97	15.316
576.30	15.406
576.64	14.861
576.98	15.264
577.31	15.557
577.65	14.610
577.98	15.258
578.32	14.995
578.66	14.593
578.99	14.693
579.33	14.564
579.67	15.064
580.00	15.215
580.34	15.100
580.67	15.529
581.01	15.250
581.35	14.621
581.68	14.289
582.02	14.461
582.35	14.076
582.69	14.531
583.02	14.548
583.36	14.975
583.70	14.979
584.03	15.096
584.37	15.556
584.70	15.440
585.04	14.404
585.37	14.398
585.71	14.564
586.04	14.776
586.38	14.617
586.72	15.036
587.05	14.934
587.39	14.873
587.72	14.926
588.06	14.891
588.39	14.383
588.73	14.652
589.06	14.840
589.40	15.140
589.73	15.955
590.07	15.785
590.40	15.596
590.73	15.651
591.07	15.734
591.40	15.583
591.74	16.154
592.07	16.280
592.41	15.504
592.74	15.571
593.08	14.460
593.41	14.827
593.75	14.786
594.08	14.727
594.41	14.811
594.75	14.542
595.08	15.361
595.42	14.649
595.75	14.382
596.09	15.324
596.42	14.758
596.75	15.764
597.09	15.763
597.42	15.447
597.75	15.300
598.09	14.894
598.42	15.704
598.76	15.015
599.09	14.744
599.42	14.134
599.76	14.259
600.09	14.781
600.42	14.746
600.76	13.856
601.09	14.122
601.42	14.767
601.76	14.768
602.09	14.398
602.42	15.164
602.76	14.261
603.09	14.535
603.42	14.716
603.76	14.839
604.09	14.581
604.42	14.594
604.76	15.621
605.09	14.899
605.42	15.214
605.75	14.098
606.09	14.352
606.42	14.262
606.75	14.545
607.09	14.901
607.42	14.311
607.75	14.654
608.08	14.196
608.42	15.349
608.75	15.518
609.08	14.699
609.41	14.975
609.75	15.121
610.08	14.428
610.41	14.589
610.74	14.627
611.07	15.039
611.41	14.997
611.74	15.192
612.07	14.829
612.40	15.646
612.73	15.480
613.07	15.298
613.40	15.317
613.73	14.326
614.06	15.192
614.39	15.623
614.72	15.014
615.06	15.028
615.39	14.356
615.72	14.532
616.05	15.140
616.38	14.416
616.71	14.924
617.05	15.071
617.38	14.771
617.71	14.906
618.04	16.000
618.37	16.267
618.70	14.917
619.03	16.667
619.36	15.340
619.69	15.845
620.03	16.728
620.36	14.807
620.69	15.917
621.02	15.673
621.35	17.676
621.68	16.582
622.01	16.667
622.34	16.042
622.67	16.483
623.00	16.156
623.33	15.015
623.66	14.361
623.99	15.809
624.32	16.046
624.65	16.466
624.99	15.576
625.32	14.632
625.65	17.518
625.98	16.035
626.31	15.212
626.64	16.898
626.97	17.365
627.30	17.075
627.63	16.984
627.96	17.610
628.29	16.836
628.62	16.912
628.95	15.531
629.28	17.641
629.61	16.152
629.94	17.107
630.26	17.490
630.59	19.147
630.92	17.026
631.25	16.615
631.58	16.740
631.91	16.009
632.24	15.138
632.57	18.409
632.90	16.370
633.23	19.294
633.56	17.254
633.89	18.126
634.22	18.395
634.55	16.900
634.88	18.519
635.20	17.308
635.53	16.933
635.86	16.645
636.19	17.335
636.52	16.709
636.85	16.253
637.18	17.610
637.51	18.491
637.83	18.791
