SpectraSuite Data File
++++++++++++++++++++++++++++++++++++
Date: Fri May 15 20:46:39 PDT 2015
User: schluterlab
Dark Spectrum Present: Yes
Reference Spectrum Present: Yes
Number of Sampled Component Spectra: 1
Spectrometers: USB2E3373
Integration Time (usec): 3000 (USB2E3373)
Spectra Averaged: 3 (USB2E3373)
Boxcar Smoothing: 0 (USB2E3373)
Correct for Electrical Dark: No (USB2E3373)
Strobe/Lamp Enabled: No (USB2E3373)
Correct for Detector Non-linearity: No (USB2E3373)
Correct for Stray Light: No (USB2E3373)
Number of Pixels in Processed Spectrum: 2048
>>>>>Begin Processed Spectral Data<<<<<
178.53	0.000
178.91	0.000
179.29	0.000
179.67	-400.000
180.04	71.429
180.42	-200.000
180.80	-900.000
181.18	-0.000
181.56	350.000
181.94	100.000
182.31	1300.000
182.69	-40.000
183.07	-66.667
183.45	-180.000
183.83	133.333
184.20	-9.091
184.58	200.000
184.96	-0.000
185.34	166.667
185.72	-250.000
186.09	23.077
186.47	-1400.000
186.85	250.000
187.23	188.889
187.61	800.000
187.98	-300.000
188.36	11.111
188.74	-233.333
189.12	0.000
189.49	-16.667
189.87	0.000
190.25	28.571
190.63	-200.000
191.00	-133.333
191.38	-42.105
191.76	400.000
192.14	-50.000
192.51	-300.000
192.89	-166.667
193.27	-128.571
193.65	283.333
194.02	154.545
194.40	-80.000
194.78	-162.500
195.15	-41.667
195.53	-87.500
195.91	375.000
196.29	-375.000
196.66	130.769
197.04	214.286
197.42	-44.444
197.79	-600.000
198.17	-153.846
198.55	1400.000
198.92	-466.667
199.30	-400.000
199.68	-240.000
200.05	-266.667
200.43	0.000
200.81	-233.333
201.18	0.000
201.56	900.000
201.94	-100.000
202.31	366.667
202.69	-240.000
203.07	350.000
203.44	-500.000
203.82	0.000
204.19	-50.000
204.57	-600.000
204.95	150.000
205.32	-30.000
205.70	-42.857
206.08	-275.000
206.45	122.222
206.83	42.857
207.20	14.286
207.58	1200.000
207.96	-266.667
208.33	-210.000
208.71	-175.000
209.08	-116.667
209.46	200.000
209.84	-200.000
210.21	-500.000
210.59	-114.286
210.96	66.667
211.34	75.000
211.71	33.333
212.09	-114.286
212.46	-800.000
212.84	0.000
213.22	50.000
213.59	750.000
213.97	38.462
214.34	9.091
214.72	-16.667
215.09	475.000
215.47	-7.692
215.84	-54.545
216.22	-433.333
216.59	-237.500
216.97	200.000
217.34	-450.000
217.72	-240.000
218.09	-87.500
218.47	200.000
218.84	-900.000
219.22	-155.556
219.59	-280.000
219.97	366.667
220.34	350.000
220.72	14.286
221.09	-400.000
221.47	-200.000
221.84	-600.000
222.22	-1350.000
222.59	-27.273
222.97	91.667
223.34	-366.667
223.72	-35.714
224.09	19.048
224.46	21.429
224.84	400.000
225.21	-60.000
225.59	0.000
225.96	-550.000
226.34	225.000
226.71	-185.714
227.08	-133.333
227.46	-75.000
227.83	-850.000
228.21	22.222
228.58	-63.636
228.95	-75.000
229.33	200.000
229.70	18.750
230.08	-150.000
230.45	-100.000
230.82	-200.000
231.20	-53.333
231.57	28.571
231.95	-185.714
232.32	-90.000
232.69	7.143
233.07	-200.000
233.44	100.000
233.81	-140.000
234.19	-122.222
234.56	5.882
234.93	400.000
235.31	-25.000
235.68	-300.000
236.05	-92.308
236.43	-70.000
236.80	-70.588
237.17	-9.375
237.55	-45.000
237.92	-29.630
238.29	-5.556
238.67	-3.333
239.04	-14.706
239.41	-24.390
239.79	-20.000
240.16	-19.512
240.53	-21.053
240.91	-21.739
241.28	17.460
241.65	1.786
242.02	10.959
242.40	-21.667
242.77	-1.695
243.14	-18.182
243.51	11.250
243.89	0.000
244.26	-1.149
244.63	-7.143
245.00	-7.216
245.38	0.000
245.75	-17.978
246.12	-12.069
246.49	-6.612
246.87	2.885
247.24	-9.244
247.61	-12.281
247.98	-11.382
248.36	-0.625
248.73	-9.211
249.10	-3.896
249.47	-3.797
249.84	-1.961
250.22	0.588
250.59	-7.190
250.96	3.756
251.33	-4.070
251.70	-4.706
252.08	1.015
252.45	0.990
252.82	-0.503
253.19	-1.843
253.56	-7.009
253.94	1.351
254.31	0.870
254.68	1.316
255.05	-0.394
255.42	-0.873
255.79	1.544
256.16	-2.335
256.54	0.373
256.91	-1.141
257.28	-3.717
257.65	-3.371
258.02	-0.709
258.39	1.684
258.76	1.465
259.14	1.329
259.51	0.000
259.88	-4.467
260.25	3.595
260.62	-3.472
260.99	-5.424
261.36	-5.137
261.73	-2.532
262.10	-3.951
262.47	-1.227
262.85	-6.270
263.22	-0.615
263.59	-0.623
263.96	-1.863
264.33	-0.606
264.70	-1.190
265.07	-4.762
265.44	0.000
265.81	0.847
266.18	-2.186
266.55	1.799
266.92	0.000
267.29	0.783
267.66	-1.535
268.03	3.403
268.40	-1.828
268.77	2.139
269.14	-0.240
269.51	1.542
269.88	-1.247
270.25	-1.786
270.62	-1.463
270.99	-0.767
271.36	2.200
271.73	0.939
272.10	1.217
272.47	-0.709
272.84	-1.485
273.21	2.088
273.58	-0.723
273.95	-1.144
274.32	-3.464
274.69	-1.131
275.06	1.786
275.43	1.134
275.80	-1.325
276.17	-0.460
276.54	-0.642
276.91	-0.219
277.28	-1.965
277.65	0.413
278.02	-3.830
278.39	0.000
278.76	0.839
279.13	-2.075
279.50	0.210
279.87	-0.432
280.23	-1.290
280.60	0.585
280.97	0.404
281.34	-1.154
281.71	-0.205
282.08	-1.022
282.45	-1.370
282.82	-1.737
283.19	-2.515
283.56	0.193
283.92	-2.657
284.29	-1.923
284.66	-1.938
285.03	-0.196
285.40	0.378
285.77	-1.406
286.14	-0.542
286.51	0.000
286.87	0.914
287.24	-0.921
287.61	-1.764
287.98	0.877
288.35	-0.867
288.72	1.051
289.08	0.000
289.45	0.527
289.82	0.175
290.19	-1.024
290.56	-0.686
290.93	-1.852
291.29	-0.924
291.66	0.157
292.03	-0.478
292.40	-0.806
292.77	-1.116
293.13	-2.760
293.50	-2.124
293.87	-1.679
294.24	-1.082
294.60	0.447
294.97	0.595
295.34	-1.074
295.71	0.447
296.08	0.598
296.44	-0.853
296.81	0.278
297.18	0.435
297.55	1.220
297.91	0.959
298.28	1.979
298.65	0.271
299.02	0.674
299.38	-2.052
299.75	-1.103
300.12	-2.225
300.48	1.054
300.85	0.380
301.22	-0.649
301.59	-0.395
301.95	1.519
302.32	1.297
302.69	0.000
303.05	-0.371
303.42	1.370
303.79	1.402
304.15	1.314
304.52	-1.189
304.89	-0.234
305.25	-0.363
305.62	0.000
305.99	-0.585
306.35	-1.965
306.72	0.562
307.09	0.342
307.45	0.230
307.82	-0.116
308.19	1.510
308.55	0.545
308.92	1.416
309.29	-0.670
309.65	-0.431
310.02	-0.220
310.38	1.098
310.75	0.000
311.12	-0.108
311.48	0.106
311.85	1.047
312.22	0.949
312.58	0.318
312.95	-0.107
313.31	-0.932
313.68	0.524
314.05	-0.408
314.41	1.959
314.78	0.928
315.14	1.747
315.51	2.588
315.87	0.307
316.24	3.033
316.61	2.264
316.97	3.869
317.34	1.953
317.70	2.008
318.07	1.154
318.43	2.255
318.80	2.273
319.16	4.102
319.53	5.033
319.89	3.642
320.26	3.036
320.62	3.611
320.99	3.653
321.35	3.803
321.72	5.400
322.08	5.942
322.45	5.076
322.81	5.796
323.18	4.907
323.54	4.730
323.91	4.966
324.27	6.152
324.64	6.648
325.00	7.847
325.37	7.989
325.73	7.434
326.10	6.358
326.46	8.072
326.83	8.661
327.19	8.980
327.56	8.862
327.92	8.803
328.29	8.929
328.65	10.094
329.01	9.743
329.38	9.124
329.74	8.876
330.11	10.658
330.47	8.720
330.84	10.000
331.20	11.882
331.56	10.741
331.93	10.502
332.29	11.366
332.66	11.131
333.02	12.268
333.38	10.999
333.75	11.447
334.11	11.459
334.48	10.607
334.84	11.813
335.20	12.534
335.57	11.242
335.93	12.014
336.29	11.326
336.66	10.990
337.02	10.502
337.38	11.389
337.75	11.545
338.11	12.353
338.47	10.858
338.84	13.494
339.20	12.523
339.56	12.294
339.93	12.534
340.29	12.569
340.65	12.545
341.02	12.145
341.38	11.681
341.74	11.572
342.11	11.438
342.47	11.477
342.83	12.284
343.20	11.760
343.56	11.739
343.92	11.780
344.28	13.407
344.65	12.003
345.01	11.236
345.37	11.522
345.73	12.803
346.10	12.252
346.46	11.186
346.82	12.357
347.19	10.723
347.55	12.782
347.91	12.945
348.27	12.126
348.63	12.521
349.00	11.403
349.36	11.471
349.72	12.521
350.08	12.213
350.45	12.450
350.81	11.462
351.17	12.378
351.53	12.980
351.89	11.148
352.26	10.720
352.62	11.855
352.98	12.048
353.34	10.870
353.70	12.864
354.07	10.887
354.43	10.969
354.79	11.478
355.15	11.746
355.51	11.313
355.87	11.246
356.24	10.848
356.60	11.722
356.96	11.984
357.32	11.342
357.68	10.790
358.04	11.147
358.40	11.576
358.77	12.121
359.13	10.649
359.49	10.015
359.85	11.076
360.21	9.968
360.57	11.553
360.93	11.422
361.29	8.988
361.66	11.520
362.02	12.273
362.38	11.120
362.74	11.355
363.10	11.211
363.46	10.749
363.82	11.044
364.18	11.218
364.54	10.368
364.90	11.326
365.26	10.917
365.62	11.314
365.98	11.290
366.35	10.852
366.71	11.086
367.07	10.595
367.43	10.424
367.79	11.025
368.15	10.409
368.51	10.779
368.87	9.261
369.23	10.397
369.59	10.933
369.95	10.704
370.31	10.766
370.67	10.448
371.03	9.858
371.39	9.993
371.75	10.476
372.11	11.198
372.47	10.133
372.83	10.646
373.19	10.699
373.55	9.819
373.91	10.655
374.27	10.985
374.63	10.266
374.99	9.291
375.35	10.376
375.71	11.259
376.07	9.340
376.42	10.204
376.78	10.403
377.14	10.088
377.50	10.956
377.86	9.839
378.22	10.466
378.58	10.833
378.94	9.263
379.30	9.794
379.66	9.530
380.02	9.626
380.38	9.617
380.74	9.515
381.09	9.816
381.45	9.052
381.81	9.809
382.17	10.470
382.53	10.119
382.89	10.169
383.25	10.081
383.61	9.939
383.97	8.635
384.32	9.318
384.68	9.598
385.04	9.559
385.40	9.583
385.76	9.811
386.12	9.573
386.48	9.706
386.83	9.068
387.19	9.463
387.55	9.724
387.91	9.291
388.27	9.463
388.62	9.251
388.98	9.269
389.34	9.369
389.70	10.379
390.06	8.370
390.42	9.326
390.77	9.222
391.13	8.197
391.49	9.120
391.85	9.617
392.20	9.416
392.56	8.900
392.92	9.806
393.28	9.080
393.64	8.709
393.99	9.906
394.35	8.412
394.71	9.195
395.07	8.799
395.42	8.015
395.78	8.208
396.14	9.142
396.50	8.878
396.85	8.435
397.21	7.832
397.57	8.903
397.92	8.209
398.28	8.908
398.64	7.952
399.00	8.747
399.35	7.901
399.71	7.926
400.07	8.646
400.42	8.752
400.78	8.328
401.14	8.651
401.49	8.636
401.85	8.410
402.21	8.373
402.57	7.750
402.92	7.089
403.28	7.895
403.63	7.629
403.99	7.717
404.35	8.557
404.70	7.202
405.06	7.521
405.42	7.707
405.77	7.147
406.13	7.509
406.49	8.111
406.84	7.090
407.20	7.104
407.55	6.182
407.91	7.086
408.27	7.202
408.62	7.754
408.98	7.086
409.34	7.683
409.69	6.718
410.05	7.204
410.40	7.160
410.76	7.117
411.11	7.563
411.47	7.298
411.83	6.403
412.18	6.885
412.54	7.303
412.89	6.404
413.25	6.318
413.60	7.081
413.96	6.503
414.31	7.866
414.67	6.286
415.03	6.791
415.38	7.115
415.74	7.036
416.09	7.120
416.45	7.698
416.80	6.609
417.16	6.837
417.51	6.995
417.87	6.845
418.22	6.023
418.58	6.488
418.93	7.586
419.29	5.634
419.64	6.157
420.00	7.431
420.35	7.045
420.71	6.865
421.06	6.384
421.42	7.151
421.77	6.416
422.12	6.016
422.48	6.389
422.83	6.381
423.19	6.433
423.54	5.820
423.90	5.771
424.25	6.429
424.61	6.120
424.96	6.156
425.31	6.470
425.67	6.397
426.02	6.419
426.38	6.074
426.73	6.356
427.09	6.519
427.44	6.353
427.79	6.364
428.15	6.553
428.50	5.996
428.85	5.774
429.21	6.678
429.56	6.146
429.92	6.985
430.27	6.416
430.62	5.802
430.98	5.998
431.33	6.730
431.68	5.965
432.04	5.478
432.39	5.590
432.74	5.171
433.10	6.494
433.45	5.496
433.80	6.036
434.16	5.485
434.51	6.075
434.86	6.098
435.22	5.721
435.57	5.989
435.92	5.868
436.28	5.725
436.63	5.819
436.98	5.446
437.34	5.808
437.69	5.128
438.04	5.983
438.39	5.925
438.75	5.404
439.10	6.565
439.45	6.208
439.81	5.321
440.16	5.166
440.51	6.030
440.86	7.190
441.22	6.052
441.57	5.740
441.92	6.348
442.27	5.543
442.63	6.585
442.98	6.146
443.33	6.455
443.68	5.623
444.03	6.359
444.39	6.050
444.74	6.355
445.09	5.457
445.44	6.496
445.79	6.137
446.15	5.892
446.50	5.824
446.85	5.845
447.20	5.631
447.55	6.194
447.91	5.753
448.26	6.887
448.61	5.412
448.96	6.139
449.31	5.607
449.66	6.214
450.02	6.332
450.37	6.046
450.72	5.727
451.07	6.013
451.42	5.993
451.77	5.666
452.12	5.861
452.47	5.731
452.83	5.713
453.18	5.313
453.53	5.752
453.88	5.464
454.23	5.778
454.58	6.549
454.93	6.379
455.28	5.270
455.63	6.944
455.98	6.494
456.34	7.024
456.69	7.052
457.04	5.797
457.39	6.744
457.74	5.623
458.09	5.180
458.44	5.383
458.79	5.546
459.14	6.808
459.49	6.388
459.84	6.599
460.19	5.886
460.54	6.418
460.89	5.852
461.24	5.963
461.59	6.116
461.94	4.969
462.29	6.936
462.64	6.179
462.99	6.297
463.34	5.633
463.69	5.341
464.04	6.053
464.39	6.246
464.74	5.706
465.09	5.864
465.44	6.578
465.79	5.612
466.14	5.986
466.49	5.348
466.84	6.187
467.19	5.507
467.54	5.428
467.89	5.559
468.24	5.414
468.59	6.603
468.94	5.016
469.29	5.639
469.64	6.288
469.99	6.447
470.34	4.778
470.68	6.040
471.03	6.157
471.38	5.991
471.73	5.812
472.08	5.970
472.43	4.564
472.78	4.935
473.13	6.190
473.48	6.384
473.83	5.915
474.17	5.959
474.52	5.488
474.87	6.242
475.22	5.247
475.57	5.477
475.92	5.485
476.27	5.995
476.61	5.903
476.96	5.689
477.31	6.490
477.66	6.011
478.01	6.064
478.36	5.664
478.70	6.036
479.05	5.989
479.40	6.518
479.75	5.839
480.10	6.298
480.45	5.500
480.79	5.740
481.14	5.943
481.49	5.025
481.84	5.598
482.19	5.519
482.53	5.947
482.88	5.776
483.23	5.278
483.58	5.849
483.92	5.276
484.27	5.378
484.62	5.961
484.97	5.307
485.31	5.636
485.66	5.078
486.01	5.402
486.36	5.492
486.70	5.640
487.05	5.785
487.40	5.533
487.75	5.803
488.09	5.284
488.44	5.261
488.79	5.566
489.13	5.970
489.48	5.601
489.83	5.830
490.17	5.258
490.52	5.543
490.87	5.692
491.22	5.396
491.56	5.028
491.91	5.545
492.26	5.980
492.60	5.614
492.95	6.247
493.30	4.836
493.64	5.255
493.99	5.942
494.34	4.903
494.68	5.238
495.03	4.964
495.37	5.790
495.72	5.300
496.07	5.122
496.41	5.425
496.76	5.573
497.11	5.170
497.45	5.346
497.80	5.550
498.14	5.415
498.49	5.130
498.84	5.589
499.18	5.422
499.53	5.655
499.87	5.302
500.22	5.143
500.56	5.245
500.91	5.020
501.26	5.289
501.60	4.722
501.95	5.434
502.29	5.666
502.64	5.598
502.98	5.032
503.33	4.995
503.67	5.060
504.02	5.279
504.36	5.740
504.71	4.747
505.06	5.083
505.40	5.025
505.75	5.567
506.09	5.474
506.44	5.185
506.78	6.020
507.13	5.429
507.47	4.230
507.82	4.380
508.16	4.913
508.51	4.984
508.85	5.181
509.19	4.311
509.54	5.147
509.88	4.854
510.23	5.110
510.57	5.184
510.92	4.051
511.26	4.746
511.61	4.730
511.95	5.918
512.30	4.490
512.64	5.732
512.98	4.773
513.33	5.876
513.67	4.605
514.02	5.263
514.36	5.314
514.70	5.478
515.05	4.642
515.39	4.545
515.74	5.090
516.08	4.901
516.42	5.183
516.77	4.915
517.11	4.570
517.46	4.309
517.80	5.304
518.14	5.205
518.49	4.567
518.83	4.557
519.17	4.063
519.52	4.618
519.86	4.202
520.20	5.225
520.55	4.065
520.89	5.332
521.23	4.750
521.58	5.741
521.92	5.385
522.26	5.465
522.61	4.610
522.95	5.166
523.29	4.828
523.64	5.464
523.98	5.120
524.32	3.866
524.66	4.930
525.01	5.325
525.35	5.509
525.69	4.242
526.04	4.894
526.38	5.253
526.72	4.709
527.06	5.058
527.41	4.749
527.75	4.357
528.09	3.854
528.43	5.537
528.78	3.762
529.12	5.161
529.46	4.029
529.80	4.750
530.15	5.083
530.49	4.242
530.83	4.651
531.17	4.500
531.51	4.788
531.86	4.351
532.20	3.967
532.54	4.084
532.88	5.270
533.22	4.503
533.57	5.046
533.91	4.047
534.25	4.557
534.59	4.682
534.93	4.531
535.27	4.442
535.62	4.342
535.96	4.892
536.30	5.013
536.64	3.790
536.98	4.460
537.32	4.410
537.66	5.400
538.01	4.476
538.35	4.508
538.69	5.792
539.03	3.623
539.37	5.114
539.71	4.158
540.05	4.005
540.39	4.986
540.73	4.393
541.07	5.041
541.42	5.780
541.76	5.368
542.10	4.749
542.44	4.239
542.78	4.129
543.12	4.258
543.46	4.590
543.80	4.997
544.14	4.406
544.48	5.063
544.82	5.126
545.16	3.893
545.50	4.473
545.84	4.178
546.18	4.255
546.52	4.975
546.86	5.032
547.20	3.863
547.54	3.534
547.88	4.620
548.22	5.128
548.56	3.760
548.90	4.784
549.24	3.512
549.58	4.090
549.92	3.645
550.26	4.029
550.60	4.164
550.94	4.556
551.28	3.555
551.62	4.308
551.96	3.910
552.30	4.020
552.64	3.456
552.98	3.024
553.32	4.280
553.66	3.628
554.00	4.526
554.34	3.767
554.68	4.056
555.02	5.134
555.36	3.964
555.69	3.736
556.03	3.426
556.37	3.345
556.71	3.538
557.05	4.773
557.39	3.569
557.73	4.273
558.07	3.922
558.41	4.671
558.75	3.429
559.08	4.886
559.42	2.778
559.76	2.962
560.10	4.893
560.44	3.202
560.78	4.196
561.12	3.808
561.45	3.373
561.79	3.361
562.13	4.400
562.47	3.165
562.81	4.323
563.15	3.808
563.48	3.678
563.82	4.804
564.16	4.248
564.50	3.851
564.84	4.083
565.17	3.756
565.51	4.167
565.85	3.361
566.19	4.244
566.52	3.686
566.86	4.049
567.20	3.611
567.54	4.075
567.88	4.101
568.21	5.430
568.55	3.587
568.89	3.645
569.23	3.852
569.56	3.459
569.90	3.938
570.24	4.205
570.57	4.109
570.91	4.008
571.25	4.143
571.59	3.893
571.92	4.000
572.26	3.653
572.60	3.752
572.93	4.142
573.27	4.044
573.61	3.550
573.95	3.987
574.28	3.655
574.62	3.458
574.96	3.989
575.29	3.862
575.63	3.680
575.97	3.551
576.30	3.486
576.64	3.470
576.98	3.938
577.31	3.957
577.65	3.876
577.98	3.952
578.32	3.545
578.66	3.718
578.99	3.580
579.33	3.797
579.67	3.962
580.00	4.127
580.34	3.731
580.67	3.882
581.01	3.890
581.35	3.747
581.68	3.956
582.02	3.652
582.35	3.528
582.69	3.720
583.02	3.354
583.36	3.809
583.70	3.842
584.03	3.753
584.37	4.263
584.70	3.544
585.04	3.886
585.37	3.514
585.71	3.653
586.04	3.555
586.38	3.708
586.72	3.587
587.05	3.957
587.39	3.970
587.72	3.445
588.06	3.598
588.39	3.446
588.73	3.846
589.06	4.044
589.40	3.664
589.73	3.834
590.07	4.003
590.40	3.560
590.73	3.871
591.07	3.605
591.40	3.695
591.74	3.620
592.07	3.942
592.41	4.417
592.74	3.584
593.08	3.807
593.41	3.657
593.75	3.729
594.08	3.673
594.41	3.967
594.75	3.092
595.08	3.519
595.42	3.828
595.75	3.229
596.09	3.362
596.42	3.555
596.75	3.464
597.09	3.554
597.42	3.568
597.75	3.481
598.09	3.622
598.42	3.926
598.76	3.432
599.09	3.325
599.42	3.410
599.76	3.311
600.09	3.507
600.42	3.563
600.76	3.232
601.09	3.702
601.42	3.760
601.76	3.771
602.09	3.259
602.42	4.254
602.76	3.947
603.09	3.322
603.42	3.846
603.76	2.823
604.09	3.281
604.42	3.342
604.76	4.450
605.09	3.748
605.42	3.567
605.75	3.284
606.09	3.779
606.42	3.586
606.75	3.680
607.09	4.220
607.42	3.589
607.75	3.552
608.08	3.369
608.42	4.386
608.75	4.289
609.08	3.239
609.41	4.112
609.75	3.528
610.08	3.894
610.41	2.850
610.74	3.315
611.07	3.359
611.41	3.840
611.74	3.785
612.07	3.319
612.40	3.884
612.73	3.277
613.07	3.375
613.40	4.267
613.73	3.302
614.06	3.840
614.39	3.779
614.72	3.081
615.06	3.687
615.39	3.275
615.72	3.767
616.05	3.911
616.38	3.362
616.71	2.630
617.05	3.459
617.38	3.520
617.71	2.893
618.04	4.063
618.37	3.783
618.70	3.366
619.03	4.514
619.36	2.460
619.69	3.260
620.03	4.310
620.36	3.362
620.69	3.783
621.02	3.211
621.35	2.656
621.68	3.401
622.01	2.500
622.34	3.751
622.67	3.549
623.00	3.292
623.33	3.887
623.66	3.067
623.99	3.555
624.32	3.878
624.65	2.707
624.99	3.461
625.32	2.654
625.65	4.163
625.98	3.546
626.31	2.494
626.64	3.813
626.97	4.538
627.30	2.627
627.63	4.159
627.96	3.414
628.29	2.775
628.62	3.245
628.95	3.707
629.28	3.125
629.61	3.190
629.94	4.203
630.26	3.261
630.59	3.642
630.92	3.590
631.25	1.846
631.58	3.194
631.91	2.193
632.24	2.867
632.57	3.750
632.90	1.423
633.23	3.176
633.56	1.889
633.89	2.466
634.22	3.457
634.55	2.160
634.88	2.810
635.20	3.462
635.53	2.933
635.86	2.471
636.19	4.398
636.52	2.679
636.85	0.868
637.18	2.138
637.51	2.642
637.83	3.417
638.16	3.274
638.49	2.725
638.82	5.132
639.15	2.714
639.48	2.063
639.81	2.371
640.13	2.020
640.46	2.770
640.79	2.946
641.12	2.068
641.45	3.153
641.77	3.111
642.10	3.002
642.43	1.929
642.76	3.630
643.09	3.231
643.41	3.074
643.74	2.965
644.07	3.612
644.40	4.561
644.73	1.751
645.05	3.691
645.38	3.704
645.71	1.773
646.04	5.027
646.36	2.660
646.69	4.317
647.02	3.214
647.35	1.493
647.67	2.559
648.00	3.172
648.33	3.925
648.66	3.559
648.98	3.015
649.31	1.488
649.64	3.140
649.96	0.810
650.29	3.748
650.62	3.248
650.94	4.444
651.27	0.745
651.60	3.243
651.92	4.720
652.25	1.066
652.58	3.667
