SpectraSuite Data File
++++++++++++++++++++++++++++++++++++
Date: Fri May 15 20:29:29 PDT 2015
User: schluterlab
Dark Spectrum Present: Yes
Reference Spectrum Present: Yes
Number of Sampled Component Spectra: 1
Spectrometers: USB2E3373
Integration Time (usec): 3000 (USB2E3373)
Spectra Averaged: 3 (USB2E3373)
Boxcar Smoothing: 0 (USB2E3373)
Correct for Electrical Dark: No (USB2E3373)
Strobe/Lamp Enabled: No (USB2E3373)
Correct for Detector Non-linearity: No (USB2E3373)
Correct for Stray Light: No (USB2E3373)
Number of Pixels in Processed Spectrum: 2048
>>>>>Begin Processed Spectral Data<<<<<
178.53	0.000
178.91	0.000
179.29	50.000
179.67	-500.000
180.04	57.143
180.42	50.000
180.80	700.000
181.18	-0.000
181.56	450.000
181.94	-50.000
182.31	1200.000
182.69	40.000
183.07	-233.333
183.45	-180.000
183.83	-0.000
184.20	-54.545
184.58	44.444
184.96	-125.000
185.34	233.333
185.72	-450.000
186.09	69.231
186.47	-700.000
186.85	250.000
187.23	122.222
187.61	200.000
187.98	-200.000
188.36	0.000
188.74	66.667
189.12	0.000
189.49	72.222
189.87	0.000
190.25	14.286
190.63	250.000
191.00	-233.333
191.38	-36.842
191.76	100.000
192.14	200.000
192.51	-100.000
192.89	-77.778
193.27	-71.429
193.65	133.333
194.02	145.455
194.40	10.000
194.78	-12.500
195.15	-33.333
195.53	-62.500
195.91	375.000
196.29	-275.000
196.66	115.385
197.04	100.000
197.42	-55.556
197.79	-466.667
198.17	-115.385
198.55	1200.000
198.92	-500.000
199.30	-300.000
199.68	-40.000
200.05	-100.000
200.43	0.000
200.81	-100.000
201.18	300.000
201.56	1000.000
201.94	-400.000
202.31	-100.000
202.69	-220.000
203.07	125.000
203.44	300.000
203.82	0.000
204.19	14.286
204.57	-100.000
204.95	62.500
205.32	-60.000
205.70	42.857
206.08	-250.000
206.45	211.111
206.83	35.714
207.20	-285.714
207.58	-0.000
207.96	-300.000
208.33	-80.000
208.71	50.000
209.08	-200.000
209.46	-600.000
209.84	-60.000
210.21	-100.000
210.59	0.000
210.96	33.333
211.34	75.000
211.71	113.333
212.09	-71.429
212.46	-2300.000
212.84	0.000
213.22	80.000
213.59	500.000
213.97	53.846
214.34	-18.182
214.72	-50.000
215.09	225.000
215.47	-38.462
215.84	-100.000
216.22	-366.667
216.59	-100.000
216.97	-50.000
217.34	100.000
217.72	-260.000
218.09	25.000
218.47	200.000
218.84	-800.000
219.22	-122.222
219.59	60.000
219.97	233.333
220.34	250.000
220.72	-157.143
221.09	-275.000
221.47	0.000
221.84	-650.000
222.22	-750.000
222.59	-27.273
222.97	-58.333
223.34	-200.000
223.72	-64.286
224.09	66.667
224.46	32.143
224.84	566.667
225.21	-40.000
225.59	40.000
225.96	-100.000
226.34	175.000
226.71	0.000
227.08	-150.000
227.46	-50.000
227.83	-350.000
228.21	-11.111
228.58	-63.636
228.95	-137.500
229.33	130.000
229.70	31.250
230.08	-175.000
230.45	-128.571
230.82	-128.571
231.20	13.333
231.57	0.000
231.95	14.286
232.32	-130.000
232.69	-14.286
233.07	-466.667
233.44	-120.000
233.81	-100.000
234.19	-122.222
234.56	-17.647
234.93	500.000
235.31	-175.000
235.68	-360.000
236.05	-84.615
236.43	-25.000
236.80	35.294
237.17	-3.125
237.55	10.000
237.92	-44.444
238.29	36.111
238.67	23.333
239.04	0.000
239.41	-31.707
239.79	-6.667
240.16	-4.878
240.53	-23.684
240.91	19.565
241.28	0.000
241.65	21.429
242.02	12.329
242.40	18.333
242.77	16.949
243.14	0.000
243.51	10.000
243.89	20.690
244.26	2.299
244.63	1.190
245.00	10.309
245.38	6.186
245.75	-3.371
246.12	-1.724
246.49	12.397
246.87	2.885
247.24	-1.681
247.61	0.877
247.98	0.000
248.36	7.500
248.73	3.947
249.10	8.442
249.47	3.797
249.84	5.882
250.22	8.235
250.59	7.843
250.96	10.798
251.33	0.581
251.70	4.118
252.08	10.660
252.45	5.446
252.82	5.528
253.19	8.756
253.56	3.738
253.94	9.009
254.31	6.522
254.68	6.579
255.05	7.874
255.42	4.803
255.79	10.425
256.16	9.339
256.54	8.209
256.91	9.886
257.28	9.294
257.65	5.243
258.02	5.319
258.39	4.714
258.76	8.059
259.14	6.645
259.51	10.680
259.88	8.247
260.25	7.843
260.62	10.069
260.99	5.424
261.36	3.082
261.73	12.342
262.10	9.422
262.47	8.282
262.85	4.389
263.22	8.615
263.59	8.100
263.96	11.491
264.33	11.212
264.70	5.655
265.07	4.464
265.44	8.215
265.81	7.062
266.18	10.109
266.55	9.769
266.92	11.917
267.29	7.833
267.66	8.951
268.03	7.330
268.40	8.877
268.77	12.032
269.14	9.113
269.51	8.997
269.88	10.224
270.25	5.867
270.62	5.854
270.99	6.394
271.36	5.379
271.73	9.859
272.10	8.029
272.47	8.511
272.84	9.653
273.21	8.353
273.58	9.398
273.95	6.178
274.32	3.926
274.69	6.335
275.06	6.920
275.43	8.617
275.80	9.492
276.17	8.046
276.54	7.066
276.91	7.895
277.28	4.367
277.65	8.058
278.02	8.936
278.39	6.783
278.76	8.595
279.13	4.357
279.50	9.034
279.87	8.207
280.23	8.172
280.60	11.111
280.97	7.273
281.34	8.269
281.71	7.803
282.08	6.748
282.45	5.479
282.82	7.722
283.19	6.963
283.56	5.395
283.92	7.211
284.29	5.769
284.66	7.171
285.03	7.269
285.40	6.616
285.77	7.909
286.14	6.137
286.51	9.963
286.87	7.678
287.24	8.656
287.61	5.820
287.98	9.649
288.35	6.239
288.72	8.406
289.08	7.986
289.45	8.787
289.82	6.643
290.19	6.826
290.56	7.204
290.93	6.229
291.29	5.547
291.66	8.189
292.03	6.699
292.40	6.935
292.77	6.858
293.13	6.331
293.50	6.525
293.87	8.092
294.24	7.573
294.60	6.855
294.97	6.994
295.34	5.061
295.71	7.601
296.08	5.830
296.44	4.694
296.81	6.667
297.18	4.783
297.55	7.317
297.91	6.712
298.28	7.916
298.65	6.377
299.02	5.660
299.38	3.967
299.75	7.172
300.12	5.497
300.48	4.348
300.85	6.210
301.22	6.364
301.59	5.395
301.95	7.722
302.32	6.874
302.69	5.846
303.05	5.817
303.42	6.476
303.79	6.308
304.15	5.974
304.52	4.518
304.89	4.912
305.25	4.116
305.62	3.501
305.99	6.082
306.35	4.624
306.72	4.162
307.09	5.131
307.45	5.626
307.82	5.671
308.19	6.272
308.55	5.671
308.92	7.298
309.29	5.028
309.65	3.767
310.02	4.070
310.38	5.708
310.75	5.355
311.12	4.952
311.48	5.196
311.85	5.340
312.22	3.797
312.58	6.051
312.95	5.229
313.31	4.969
313.68	5.236
314.05	4.796
314.41	5.361
314.78	4.330
315.14	6.578
315.51	6.004
315.87	5.328
316.24	6.775
316.61	5.610
316.97	5.456
317.34	5.859
317.70	5.354
318.07	4.904
318.43	6.373
318.80	5.019
319.16	5.566
319.53	6.648
319.89	4.921
320.26	5.263
320.62	5.717
320.99	4.071
321.35	4.933
321.72	5.815
322.08	5.841
322.45	5.178
322.81	6.385
323.18	4.612
323.54	4.054
323.91	5.258
324.27	5.273
324.64	6.929
325.00	6.752
325.37	5.877
325.73	4.986
326.10	5.268
326.46	5.740
326.83	6.474
327.19	6.364
327.56	6.429
327.92	6.338
328.29	5.268
328.65	5.377
329.01	6.893
329.38	6.728
329.74	4.721
330.11	6.858
330.47	5.009
330.84	5.000
331.20	6.844
331.56	5.093
331.93	6.119
332.29	6.049
332.66	5.430
333.02	4.647
333.38	3.850
333.75	5.586
334.11	5.282
334.48	6.074
334.84	5.220
335.20	5.855
335.57	5.349
335.93	5.962
336.29	5.617
336.66	5.995
337.02	4.461
337.38	5.000
337.75	5.909
338.11	5.591
338.47	6.204
338.84	5.823
339.20	6.490
339.56	6.055
339.93	5.640
340.29	6.239
340.65	5.824
341.02	5.053
341.38	6.195
341.74	5.654
342.11	4.766
342.47	5.427
342.83	6.574
343.20	6.098
343.56	6.000
343.92	5.580
344.28	6.490
344.65	4.750
345.01	6.137
345.37	5.551
345.73	5.858
346.10	6.126
346.46	6.056
346.82	5.646
347.19	4.572
347.55	6.182
347.91	6.634
348.27	5.255
348.63	6.303
349.00	5.086
349.36	5.569
349.72	5.804
350.08	5.984
350.45	7.023
350.81	4.070
351.17	5.945
351.53	6.694
351.89	4.707
352.26	6.400
352.62	5.726
352.98	4.980
353.34	5.958
353.70	5.987
354.07	5.323
354.43	5.364
354.79	4.707
355.15	5.397
355.51	7.041
355.87	6.068
356.24	4.976
356.60	4.608
356.96	6.190
357.32	5.751
357.68	6.020
358.04	5.735
358.40	5.466
358.77	5.502
359.13	5.604
359.49	5.393
359.85	5.070
360.21	4.785
360.57	5.968
360.93	6.430
361.29	5.136
361.66	5.878
362.02	5.076
362.38	5.560
362.74	4.693
363.10	5.794
363.46	4.967
363.82	6.837
364.18	5.978
364.54	4.779
364.90	5.233
365.26	4.876
365.62	5.693
365.98	4.472
366.35	5.754
366.71	5.543
367.07	6.531
367.43	4.673
367.79	6.007
368.15	5.671
368.51	4.443
368.87	4.738
369.23	5.199
369.59	5.758
369.95	4.985
370.31	5.347
370.67	5.448
371.03	4.481
371.39	4.668
371.75	4.469
372.11	5.350
372.47	4.882
372.83	4.897
373.19	5.777
373.55	5.126
373.91	4.824
374.27	5.386
374.63	4.882
374.99	4.965
375.35	4.875
375.71	5.664
376.07	5.197
376.42	5.306
376.78	5.839
377.14	4.536
377.50	4.515
377.86	5.823
378.22	5.488
378.58	4.808
378.94	4.726
379.30	5.303
379.66	6.207
380.02	4.844
380.38	4.747
380.74	5.206
381.09	6.012
381.45	4.648
381.81	5.305
382.17	5.013
382.53	5.434
382.89	5.336
383.25	5.912
383.61	5.793
383.97	4.571
384.32	5.316
384.68	5.077
385.04	4.718
385.40	4.169
385.76	5.220
386.12	5.692
386.48	5.683
386.83	5.263
387.19	5.861
387.55	4.831
387.91	4.279
388.27	4.762
388.62	5.035
388.98	4.359
389.34	5.059
389.70	5.656
390.06	4.909
390.42	4.987
390.77	4.186
391.13	4.224
391.49	4.204
391.85	5.198
392.20	5.273
392.56	4.005
392.92	5.167
393.28	4.835
393.64	4.505
393.99	5.768
394.35	4.744
394.71	5.364
395.07	4.463
395.42	4.857
395.78	4.495
396.14	5.233
396.50	5.200
396.85	4.958
397.21	5.013
397.57	4.828
397.92	5.153
398.28	4.598
398.64	4.398
399.00	5.023
399.35	4.684
399.71	4.940
400.07	5.320
400.42	5.263
400.78	5.573
401.14	4.961
401.49	5.003
401.85	4.875
402.21	5.422
402.57	5.313
402.92	4.956
403.28	5.326
403.63	5.044
403.99	3.699
404.35	5.434
404.70	5.119
405.06	5.053
405.42	4.848
405.77	4.242
406.13	4.598
406.49	4.973
406.84	4.768
407.20	5.358
407.55	4.507
407.91	5.147
408.27	4.971
408.62	6.154
408.98	4.683
409.34	5.514
409.69	5.103
410.05	4.926
410.40	5.000
410.76	5.006
411.11	4.750
411.47	5.588
411.83	4.708
412.18	5.598
412.54	5.306
412.89	4.495
413.25	5.776
413.60	4.224
413.96	4.969
414.31	5.915
414.67	5.131
415.03	4.927
415.38	5.157
415.74	5.342
416.09	5.617
416.45	4.862
416.80	5.288
417.16	5.732
417.51	5.197
417.87	4.237
418.22	4.987
418.58	5.351
418.93	6.019
419.29	3.777
419.64	4.861
420.00	6.297
420.35	5.134
420.71	5.286
421.06	4.972
421.42	5.409
421.77	5.376
422.12	5.221
422.48	5.306
422.83	4.640
423.19	5.813
423.54	4.350
423.90	4.417
424.25	5.281
424.61	4.957
424.96	5.459
425.31	5.315
425.67	4.695
426.02	5.948
426.38	4.884
426.73	5.206
427.09	5.253
427.44	5.118
427.79	5.068
428.15	6.129
428.50	5.088
428.85	4.791
429.21	5.829
429.56	5.445
429.92	5.650
430.27	5.313
430.62	5.071
430.98	4.140
431.33	5.836
431.68	4.762
432.04	5.366
432.39	4.450
432.74	5.232
433.10	6.207
433.45	5.376
433.80	5.049
434.16	5.042
434.51	5.215
434.86	5.401
435.22	5.552
435.57	5.677
435.92	5.269
436.28	4.890
436.63	5.362
436.98	4.809
437.34	5.263
437.69	5.784
438.04	5.014
438.39	4.704
438.75	4.068
439.10	5.207
439.45	5.600
439.81	4.465
440.16	5.582
440.51	6.090
440.86	6.042
441.22	5.204
441.57	5.519
441.92	6.243
442.27	5.377
442.63	5.353
442.98	4.767
443.33	5.064
443.68	4.987
444.03	5.912
444.39	5.804
444.74	5.741
445.09	5.011
445.44	5.128
445.79	5.312
446.15	5.562
446.50	5.103
446.85	5.685
447.20	5.422
447.55	5.636
447.91	5.471
448.26	5.919
448.61	6.160
448.96	5.795
449.31	5.260
449.66	5.226
450.02	5.419
450.37	5.039
450.72	5.269
451.07	6.203
451.42	5.493
451.77	5.304
452.12	5.144
452.47	4.572
452.83	5.124
453.18	5.440
453.53	5.183
453.88	5.100
454.23	5.532
454.58	6.297
454.93	6.765
455.28	4.825
455.63	5.890
455.98	6.675
456.34	6.066
456.69	5.591
457.04	5.797
457.39	5.589
457.74	5.200
458.09	5.650
458.44	5.032
458.79	5.770
459.14	6.121
459.49	6.209
459.84	5.866
460.19	5.340
460.54	5.501
460.89	5.682
461.24	5.155
461.59	5.701
461.94	4.969
462.29	6.936
462.64	5.714
462.99	6.229
463.34	4.659
463.69	5.405
464.04	5.751
464.39	5.700
464.74	6.442
465.09	5.677
465.44	6.347
465.79	6.122
466.14	5.986
466.49	5.348
466.84	6.246
467.19	6.008
467.54	6.003
467.89	5.622
468.24	5.779
468.59	6.032
468.94	5.397
469.29	6.689
469.64	6.835
469.99	5.606
470.34	4.778
470.68	6.115
471.03	6.157
471.38	6.562
471.73	5.392
472.08	6.038
472.43	5.570
472.78	5.552
473.13	6.190
473.48	6.450
473.83	5.417
474.17	6.088
474.52	5.999
474.87	6.182
475.22	6.101
475.57	5.985
475.92	6.253
476.27	5.937
476.61	6.250
476.96	6.302
477.31	6.544
477.66	5.955
478.01	5.896
478.36	6.209
478.70	6.199
479.05	6.319
479.40	6.359
479.75	5.996
480.10	5.530
480.45	6.200
480.79	6.143
481.14	5.891
481.49	5.222
481.84	5.985
482.19	5.285
482.53	5.851
482.88	5.967
483.23	5.758
483.58	5.660
483.92	5.905
484.27	6.108
484.62	6.186
484.97	5.846
485.31	6.142
485.66	5.830
486.01	5.912
486.36	5.675
486.70	5.964
487.05	5.763
487.40	5.714
487.75	5.887
488.09	5.686
488.44	5.640
488.79	5.715
489.13	5.970
489.48	6.456
489.83	5.874
490.17	5.618
490.52	6.143
490.87	6.155
491.22	6.160
491.56	6.167
491.91	6.358
492.26	5.882
492.60	6.430
492.95	6.886
493.30	5.569
493.64	5.648
493.99	6.763
494.34	5.097
494.68	6.476
495.03	5.791
495.37	6.232
495.72	5.805
496.07	6.146
496.41	5.755
496.76	6.403
497.11	6.055
497.45	6.969
497.80	6.710
498.14	6.706
498.49	5.587
498.84	6.038
499.18	5.773
499.53	6.101
499.87	6.080
500.22	5.786
500.56	5.749
500.91	6.024
501.26	5.981
501.60	6.149
501.95	6.211
502.29	6.150
502.64	6.564
502.98	5.476
503.33	5.860
503.67	6.506
504.02	6.452
504.36	6.235
504.71	7.172
505.06	6.241
505.40	6.447
505.75	6.237
506.09	6.488
506.44	7.238
506.78	6.786
507.13	6.360
507.47	5.796
507.82	5.662
508.16	6.128
508.51	6.401
508.85	6.227
509.19	6.173
509.54	6.327
509.88	5.987
510.23	7.316
510.57	6.307
510.92	5.917
511.26	6.656
511.61	5.996
511.95	7.342
512.30	6.652
512.64	6.900
512.98	6.513
513.33	6.491
513.67	6.424
514.02	7.494
514.36	7.200
514.70	7.284
515.05	7.109
515.39	6.198
515.74	7.066
516.08	6.874
516.42	7.597
516.77	7.022
517.11	6.884
517.46	7.062
517.80	7.509
518.14	6.859
518.49	7.272
518.83	6.622
519.17	7.338
519.52	6.868
519.86	6.363
520.20	7.169
520.55	6.379
520.89	7.277
521.23	6.776
521.58	6.814
521.92	6.859
522.26	7.287
522.61	7.403
522.95	7.219
523.29	8.005
523.64	7.433
523.98	7.971
524.32	6.314
524.66	7.362
525.01	7.013
525.35	7.777
525.69	5.993
526.04	6.878
526.38	7.782
526.72	6.344
527.06	7.782
527.41	7.652
527.75	6.568
528.09	7.641
528.43	8.238
528.78	7.525
529.12	8.258
529.46	6.693
529.80	7.980
530.15	7.657
530.49	6.667
530.83	7.456
531.17	6.447
531.51	7.592
531.86	6.118
532.20	6.472
532.54	7.692
532.88	7.598
533.22	7.527
533.57	7.405
533.91	6.201
534.25	7.943
534.59	7.505
534.93	7.048
535.27	6.472
535.62	7.194
535.96	7.828
536.30	7.718
536.64	7.236
536.98	7.247
537.32	7.326
537.66	7.854
538.01	7.133
538.35	7.351
538.69	8.322
539.03	6.835
539.37	7.806
539.71	7.294
540.05	6.857
540.39	8.172
540.73	8.438
541.07	6.837
541.42	8.468
541.76	7.639
542.10	7.295
542.44	7.505
542.78	7.226
543.12	7.143
543.46	8.484
543.80	7.425
544.14	6.876
544.48	7.861
544.82	7.177
545.16	8.197
545.50	8.011
545.84	7.295
546.18	8.227
546.52	7.282
546.86	7.045
547.20	8.083
547.54	7.138
547.88	8.220
548.22	6.838
548.56	7.784
548.90	7.951
549.24	7.507
549.58	7.757
549.92	6.862
550.26	7.766
550.60	7.955
550.94	8.215
551.28	8.037
551.62	7.615
551.96	7.669
552.30	7.237
552.64	7.334
552.98	8.228
553.32	7.917
553.66	6.894
554.00	7.372
554.34	7.238
554.68	7.891
555.02	8.036
555.36	7.330
555.69	7.326
556.03	6.995
556.37	7.402
556.71	7.220
557.05	7.755
557.39	7.138
557.73	7.796
558.07	8.069
558.41	7.044
558.75	8.106
559.08	7.486
559.42	8.095
559.76	6.725
560.10	7.798
560.44	7.744
560.78	8.112
561.12	7.405
561.45	8.925
561.79	7.843
562.13	8.375
562.47	7.482
562.81	6.772
563.15	7.475
563.48	7.992
563.82	8.236
564.16	6.964
564.50	8.176
564.84	7.564
565.17	7.981
565.51	8.333
565.85	7.613
566.19	7.759
566.52	7.775
566.86	7.712
567.20	7.783
567.54	7.299
567.88	7.850
568.21	8.088
568.55	7.337
568.89	8.419
569.23	6.789
569.56	7.487
569.90	7.511
570.24	7.406
570.57	7.745
570.91	7.598
571.25	6.971
571.59	6.976
571.92	7.348
572.26	6.763
572.60	7.194
572.93	7.374
573.27	7.210
573.61	7.130
573.95	7.510
574.28	6.912
574.62	7.068
574.96	7.130
575.29	6.865
575.63	6.971
575.97	6.912
576.30	6.888
576.64	6.781
576.98	6.924
577.31	6.980
577.65	7.156
577.98	7.502
578.32	7.278
578.66	7.114
578.99	6.926
579.33	7.020
579.67	7.015
580.00	7.215
580.34	7.114
580.67	7.319
581.01	7.421
581.35	7.472
581.68	7.085
582.02	7.121
582.35	6.741
582.69	7.090
583.02	7.242
583.36	6.955
583.70	7.477
584.03	7.145
584.37	7.679
584.70	7.308
585.04	6.736
585.37	7.174
585.71	7.233
586.04	7.110
586.38	7.122
586.72	7.690
587.05	6.904
587.39	7.800
587.72	7.381
588.06	7.445
588.39	6.978
588.73	7.357
589.06	7.632
589.40	7.570
589.73	7.886
590.07	8.157
590.40	7.740
590.73	7.825
591.07	7.422
591.40	7.480
591.74	7.783
592.07	7.699
592.41	7.818
592.74	7.527
593.08	7.789
593.41	7.381
593.75	7.884
594.08	7.793
594.41	7.533
594.75	7.519
595.08	7.605
595.42	7.692
595.75	7.510
596.09	7.349
596.42	7.152
596.75	8.126
597.09	8.109
597.42	7.949
597.75	7.650
598.09	7.922
598.42	7.987
598.76	7.722
599.09	8.053
599.42	7.730
599.76	7.562
600.09	7.956
600.42	8.226
600.76	7.504
601.09	7.519
601.42	7.560
601.76	7.622
602.09	7.467
602.42	8.425
602.76	7.683
603.09	7.558
603.42	8.110
603.76	7.581
604.09	7.776
604.42	8.714
604.76	8.411
605.09	7.724
605.42	7.765
605.75	7.925
606.09	7.473
606.42	7.756
606.75	7.792
607.09	8.132
607.42	7.488
607.75	8.037
608.08	7.637
608.42	8.406
608.75	7.904
609.08	7.773
609.41	7.817
609.75	8.216
610.08	7.838
610.41	7.440
610.74	7.899
611.07	7.390
611.41	7.732
611.74	8.262
612.07	7.281
612.40	7.549
612.73	7.966
613.07	7.537
613.40	8.096
613.73	7.555
614.06	8.180
614.39	8.404
614.72	8.067
615.06	7.877
615.39	8.024
615.72	7.481
616.05	8.771
616.38	8.376
616.71	8.073
617.05	8.586
617.38	8.297
617.71	7.862
618.04	8.254
618.37	8.575
618.70	8.251
619.03	8.889
619.36	8.394
619.69	7.961
620.03	9.569
620.36	8.512
620.69	8.494
621.02	8.792
621.35	8.548
621.68	7.908
622.01	7.917
622.34	9.018
622.67	9.385
623.00	8.040
623.33	8.308
623.66	8.452
623.99	8.775
624.32	8.213
624.65	7.970
624.99	8.051
625.32	7.582
625.65	8.955
625.98	9.186
626.31	7.980
626.64	9.272
626.97	9.511
627.30	9.457
627.63	9.012
627.96	8.266
628.29	8.511
628.62	9.931
628.95	8.317
629.28	9.073
629.61	8.973
629.94	9.091
630.26	8.597
630.59	9.365
630.92	9.949
631.25	8.205
631.58	9.471
631.91	6.908
632.24	8.830
632.57	10.341
632.90	9.609
633.23	10.353
633.56	8.816
633.89	7.152
634.22	10.617
634.55	8.513
634.88	9.962
635.20	8.718
635.53	9.067
635.86	8.192
636.19	9.185
636.52	8.673
636.85	7.444
637.18	8.679
637.51	8.428
637.83	9.461
638.16	9.686
638.49	7.766
638.82	10.921
639.15	9.769
639.48	9.491
639.81	9.623
640.13	7.504
640.46	9.038
640.79	8.984
641.12	8.567
641.45	10.511
641.77	11.407
642.10	11.690
642.43	9.325
642.76	9.076
643.09	10.662
643.41	9.385
643.74	10.049
644.07	9.031
644.40	10.642
644.73	9.457
645.05	9.564
645.38	9.700
645.71	8.865
646.04	10.772
646.36	10.461
646.69	11.691
647.02	10.397
647.35	8.955
647.67	9.872
648.00	9.888
648.33	10.410
648.66	9.661
648.98	8.543
649.31	10.248
649.64	10.518
649.96	8.914
650.29	8.348
650.62	9.915
650.94	9.630
651.27	8.566
651.60	8.108
651.92	11.364
652.25	8.881
652.58	9.667
652.90	10.806
653.23	10.252
653.56	7.445
653.88	9.794
654.21	8.231
654.54	10.357
654.86	10.866
655.19	7.895
655.52	9.598
655.84	8.145
656.17	8.814
656.49	11.980
656.82	11.976
657.15	9.295
657.47	6.805
657.80	4.823
