SpectraSuite Data File
++++++++++++++++++++++++++++++++++++
Date: Fri May 15 20:31:48 PDT 2015
User: schluterlab
Dark Spectrum Present: Yes
Reference Spectrum Present: Yes
Number of Sampled Component Spectra: 1
Spectrometers: USB2E3373
Integration Time (usec): 3000 (USB2E3373)
Spectra Averaged: 3 (USB2E3373)
Boxcar Smoothing: 0 (USB2E3373)
Correct for Electrical Dark: No (USB2E3373)
Strobe/Lamp Enabled: No (USB2E3373)
Correct for Detector Non-linearity: No (USB2E3373)
Correct for Stray Light: No (USB2E3373)
Number of Pixels in Processed Spectrum: 2048
>>>>>Begin Processed Spectral Data<<<<<
178.53	0.000
178.91	0.000
179.29	100.000
179.67	-1050.000
180.04	-0.000
180.42	25.000
180.80	-200.000
181.18	233.333
181.56	650.000
181.94	-200.000
182.31	400.000
182.69	20.000
183.07	-566.667
183.45	-240.000
183.83	216.667
184.20	-36.364
184.58	188.889
184.96	-25.000
185.34	166.667
185.72	-200.000
186.09	100.000
186.47	-1200.000
186.85	283.333
187.23	133.333
187.61	-300.000
187.98	-66.667
188.36	0.000
188.74	-300.000
189.12	29.412
189.49	-16.667
189.87	0.000
190.25	-7.143
190.63	0.000
191.00	-400.000
191.38	10.526
191.76	300.000
192.14	250.000
192.51	250.000
192.89	-11.111
193.27	-142.857
193.65	250.000
194.02	172.727
194.40	50.000
194.78	-150.000
195.15	-25.000
195.53	-62.500
195.91	100.000
196.29	-75.000
196.66	161.538
197.04	242.857
197.42	-11.111
197.79	-766.667
198.17	-115.385
198.55	1700.000
198.92	-66.667
199.30	0.000
199.68	-40.000
200.05	-166.667
200.43	0.000
200.81	100.000
201.18	-200.000
201.56	1900.000
201.94	-650.000
202.31	-100.000
202.69	-180.000
203.07	-0.000
203.44	-800.000
203.82	0.000
204.19	-7.143
204.57	-533.333
204.95	125.000
205.32	60.000
205.70	28.571
206.08	-275.000
206.45	100.000
206.83	21.429
207.20	-14.286
207.58	700.000
207.96	0.000
208.33	-150.000
208.71	-325.000
209.08	-183.333
209.46	-1500.000
209.84	-100.000
210.21	-1200.000
210.59	-71.429
210.96	-166.667
211.34	75.000
211.71	-20.000
212.09	-14.286
212.46	-1700.000
212.84	0.000
213.22	110.000
213.59	700.000
213.97	30.769
214.34	9.091
214.72	-116.667
215.09	275.000
215.47	-61.538
215.84	-9.091
216.22	-233.333
216.59	-125.000
216.97	-450.000
217.34	-50.000
217.72	-140.000
218.09	25.000
218.47	112.500
218.84	-1500.000
219.22	-100.000
219.59	-160.000
219.97	-33.333
220.34	250.000
220.72	-100.000
221.09	-275.000
221.47	-150.000
221.84	-850.000
222.22	-1150.000
222.59	-27.273
222.97	-25.000
223.34	-66.667
223.72	14.286
224.09	-9.524
224.46	10.714
224.84	133.333
225.21	-10.000
225.59	-13.333
225.96	-700.000
226.34	450.000
226.71	-42.857
227.08	-150.000
227.46	-50.000
227.83	-600.000
228.21	-66.667
228.58	0.000
228.95	-175.000
229.33	80.000
229.70	12.500
230.08	-50.000
230.45	-114.286
230.82	-142.857
231.20	-26.667
231.57	0.000
231.95	-14.286
232.32	-80.000
232.69	35.714
233.07	-266.667
233.44	-100.000
233.81	-140.000
234.19	-111.111
234.56	5.882
234.93	150.000
235.31	50.000
235.68	-240.000
236.05	-46.154
236.43	-60.000
236.80	52.941
237.17	18.750
237.55	20.000
237.92	14.815
238.29	-11.111
238.67	3.333
239.04	8.824
239.41	-12.195
239.79	-6.667
240.16	43.902
240.53	0.000
240.91	15.217
241.28	26.984
241.65	17.857
242.02	24.658
242.40	20.000
242.77	3.390
243.14	4.545
243.51	26.250
243.89	25.287
244.26	10.345
244.63	27.381
245.00	22.680
245.38	31.959
245.75	8.989
246.12	8.621
246.49	17.355
246.87	21.154
247.24	15.966
247.61	15.789
247.98	22.764
248.36	21.250
248.73	27.632
249.10	11.039
249.47	23.418
249.84	18.954
250.22	24.706
250.59	20.915
250.96	27.700
251.33	20.930
251.70	26.471
252.08	21.320
252.45	22.772
252.82	27.638
253.19	29.493
253.56	21.495
253.94	26.126
254.31	27.391
254.68	25.000
255.05	24.803
255.42	22.271
255.79	25.483
256.16	25.292
256.54	24.254
256.91	21.673
257.28	24.907
257.65	26.592
258.02	23.404
258.39	25.253
258.76	24.542
259.14	26.578
259.51	26.214
259.88	24.742
260.25	23.203
260.62	29.514
260.99	21.356
261.36	23.973
261.73	19.304
262.10	22.796
262.47	22.699
262.85	24.451
263.22	22.154
263.59	26.480
263.96	27.019
264.33	25.758
264.70	23.214
265.07	21.429
265.44	28.045
265.81	22.881
266.18	28.415
266.55	25.450
266.92	22.539
267.29	24.282
267.66	24.041
268.03	26.702
268.40	24.804
268.77	25.668
269.14	25.659
269.51	26.992
269.88	23.192
270.25	23.980
270.62	23.415
270.99	22.251
271.36	24.450
271.73	24.648
272.10	27.737
272.47	24.350
272.84	25.248
273.21	25.754
273.58	25.783
273.95	24.027
274.32	23.326
274.69	20.136
275.06	24.330
275.43	22.676
275.80	24.062
276.17	23.908
276.54	22.912
276.91	22.368
277.28	21.616
277.65	25.207
278.02	22.340
278.39	23.195
278.76	21.174
279.13	21.784
279.50	26.471
279.87	25.918
280.23	22.151
280.60	23.977
280.97	24.444
281.34	21.923
281.71	25.873
282.08	24.744
282.45	22.309
282.82	24.710
283.19	25.145
283.56	21.773
283.92	21.632
284.29	23.269
284.66	23.256
285.03	21.807
285.40	21.361
285.77	23.023
286.14	22.563
286.51	25.092
286.87	20.293
287.24	22.836
287.61	20.988
287.98	23.158
288.35	19.584
288.72	21.891
289.08	20.486
289.45	23.023
289.82	22.028
290.19	19.795
290.56	19.897
290.93	20.370
291.29	19.260
291.66	19.843
292.03	20.734
292.40	20.000
292.77	19.617
293.13	18.669
293.50	18.665
293.87	20.763
294.24	19.165
294.60	19.076
294.97	18.452
295.34	17.945
295.71	19.374
296.08	17.788
296.44	16.785
296.81	16.806
297.18	14.928
297.55	18.970
297.91	18.356
298.28	19.393
298.65	17.639
299.02	17.251
299.38	16.416
299.75	18.069
300.12	17.147
300.48	16.337
300.85	16.096
301.22	17.792
301.59	16.711
301.95	17.468
302.32	18.547
302.69	17.662
303.05	16.832
303.42	18.057
303.79	17.407
304.15	18.399
304.52	16.052
304.89	16.842
305.25	15.254
305.62	15.753
305.99	15.322
306.35	16.416
306.72	16.310
307.09	16.876
307.45	17.681
307.82	16.319
308.19	17.770
308.55	17.557
308.92	18.519
309.29	16.089
309.65	16.146
310.02	17.382
310.38	18.002
310.75	17.596
311.12	16.792
311.48	15.589
311.85	17.696
312.22	17.932
312.58	19.427
312.95	18.570
313.31	17.081
313.68	18.848
314.05	19.898
314.41	20.309
314.78	20.103
315.14	20.555
315.51	21.118
315.87	20.492
316.24	22.952
316.61	21.457
316.97	22.718
317.34	22.852
317.70	24.187
318.07	23.846
318.43	25.098
318.80	23.958
319.16	25.879
319.53	26.686
319.89	28.150
320.26	26.822
320.62	29.288
320.99	28.079
321.35	30.113
321.72	31.360
322.08	31.722
322.45	33.096
322.81	33.006
323.18	33.562
323.54	33.301
323.91	34.469
324.27	36.621
324.64	35.393
325.00	38.686
325.37	40.220
325.73	39.347
326.10	40.145
326.46	40.897
326.83	42.520
327.19	42.720
327.56	43.788
327.92	45.246
328.29	45.804
328.65	47.170
329.01	46.691
329.38	48.940
329.74	48.253
330.11	48.842
330.47	49.814
330.84	51.154
331.20	52.662
331.56	49.815
331.93	51.598
332.29	52.796
332.66	51.855
333.02	52.230
333.38	52.429
333.75	54.853
334.11	51.925
334.48	54.850
334.84	55.586
335.20	54.346
335.57	55.213
335.93	54.201
336.29	54.788
336.66	54.587
337.02	55.483
337.38	54.259
337.75	55.909
338.11	56.537
338.47	57.117
338.84	57.948
339.20	56.764
339.56	56.697
339.93	56.580
340.29	56.972
340.65	56.989
341.02	55.230
341.38	57.876
341.74	56.007
342.11	55.373
342.47	57.384
342.83	56.315
343.20	57.927
343.56	57.043
343.92	57.484
344.28	57.899
344.65	59.758
345.01	56.698
345.37	56.098
345.73	57.908
346.10	58.326
346.46	57.527
346.82	57.447
347.19	56.276
347.55	58.062
347.91	56.796
348.27	56.346
348.63	58.177
349.00	56.768
349.36	57.689
349.72	58.126
350.08	56.066
350.45	56.664
350.81	57.392
351.17	57.003
351.53	58.204
351.89	56.400
352.26	55.920
352.62	56.855
352.98	55.502
353.34	57.488
353.70	58.252
354.07	55.242
354.43	57.726
354.79	56.730
355.15	57.063
355.51	56.171
355.87	56.877
356.24	55.954
356.60	55.538
356.96	56.587
357.32	56.390
357.68	55.668
358.04	55.574
358.40	56.752
358.77	57.576
359.13	55.885
359.49	55.239
359.85	55.460
360.21	55.901
360.57	56.006
360.93	55.976
361.29	55.287
361.66	55.329
362.02	56.667
362.38	57.350
362.74	55.337
363.10	56.810
363.46	56.486
363.82	56.950
364.18	54.760
364.54	54.706
364.90	55.054
365.26	55.167
365.62	56.423
365.98	55.792
366.35	55.572
366.71	57.132
367.07	56.749
367.43	56.219
367.79	55.194
368.15	54.128
368.51	55.353
368.87	54.917
369.23	54.874
369.59	55.831
369.95	55.792
370.31	57.514
370.67	55.448
371.03	56.012
371.39	55.142
371.75	55.678
372.11	55.920
372.47	54.734
372.83	55.926
373.19	55.635
373.55	55.235
373.91	55.436
374.27	55.705
374.63	55.133
374.99	56.028
375.35	55.432
375.71	55.245
376.07	54.424
376.42	54.898
376.78	55.570
377.14	54.976
377.50	54.250
377.86	54.953
378.22	55.329
378.58	54.808
378.94	54.442
379.30	54.024
379.66	55.298
380.02	53.035
380.38	53.987
380.74	54.758
381.09	55.031
381.45	54.618
381.81	53.609
382.17	54.632
382.53	54.154
382.89	55.179
383.25	54.512
383.61	54.817
383.97	55.238
384.32	54.159
384.68	54.985
385.04	51.900
385.40	52.894
385.76	54.151
386.12	55.175
386.48	54.342
386.83	53.583
387.19	54.090
387.55	53.513
387.91	53.667
388.27	53.358
388.62	53.556
388.98	52.977
389.34	54.466
389.70	54.133
390.06	52.045
390.42	52.526
390.77	54.284
391.13	52.837
391.49	54.981
391.85	53.606
392.20	52.793
392.56	52.575
392.92	52.965
393.28	53.538
393.64	52.913
393.99	54.169
394.35	53.890
394.71	53.321
395.07	52.797
395.42	52.095
395.78	51.596
396.14	53.279
396.50	53.710
396.85	53.509
397.21	52.130
397.57	52.038
397.92	52.546
398.28	53.218
398.64	51.867
399.00	52.596
399.35	51.580
399.71	51.120
400.07	52.479
400.42	51.714
400.78	51.868
401.14	52.208
401.49	51.519
401.85	51.920
402.21	51.687
402.57	51.562
402.92	51.945
403.28	51.942
403.63	51.955
403.99	51.913
404.35	52.155
404.70	49.940
405.06	51.351
405.42	50.715
405.77	50.378
406.13	50.873
406.49	50.681
406.84	50.978
407.20	51.595
407.55	50.612
407.91	52.206
408.27	50.096
408.62	51.323
408.98	50.031
409.34	51.053
409.69	50.517
410.05	49.877
410.40	50.617
410.76	50.422
411.11	51.250
411.47	51.742
411.83	49.655
412.18	50.386
412.54	49.251
412.89	48.214
413.25	49.338
413.60	48.944
413.96	48.957
414.31	49.390
414.67	49.262
415.03	48.668
415.38	50.196
415.74	49.446
416.09	49.967
416.45	48.886
416.80	49.108
417.16	50.829
417.51	48.301
417.87	47.784
418.22	49.288
418.58	49.030
418.93	49.154
419.29	48.015
419.64	48.931
420.00	49.937
420.35	49.254
420.71	48.906
421.06	48.435
421.42	48.498
421.77	48.382
422.12	48.638
422.48	48.782
422.83	47.680
423.19	46.840
423.54	48.207
423.90	47.527
424.25	47.646
424.61	49.510
424.96	48.548
425.31	48.758
425.67	47.829
426.02	49.293
426.38	48.842
426.73	48.123
427.09	49.557
427.44	49.118
427.79	48.321
428.15	48.058
428.50	48.274
428.85	46.560
429.21	47.991
429.56	49.488
429.92	47.663
430.27	46.917
430.62	47.360
430.98	47.930
431.33	47.056
431.68	47.514
432.04	47.680
432.39	46.891
432.74	46.422
433.10	47.931
433.45	47.969
433.80	47.301
434.16	46.482
434.51	46.290
434.86	47.445
435.22	47.056
435.57	46.538
435.92	47.545
436.28	46.094
436.63	46.321
436.98	46.002
437.34	46.158
437.69	47.525
438.04	47.179
438.39	45.999
438.75	48.330
439.10	46.293
439.45	46.805
439.81	46.177
440.16	48.100
440.51	47.164
440.86	48.278
441.22	45.419
441.57	46.082
441.92	47.954
442.27	47.395
442.63	48.233
442.98	46.410
443.33	45.910
443.68	46.844
444.03	45.802
444.39	46.286
444.74	46.042
445.09	46.659
445.44	46.667
445.79	47.602
446.15	46.531
446.50	46.090
446.85	47.237
447.20	45.985
447.55	46.373
447.91	46.193
448.26	46.500
448.61	46.862
448.96	46.931
449.31	45.549
449.66	45.412
450.02	46.264
450.37	45.347
450.72	46.163
451.07	46.203
451.42	44.444
451.77	44.485
452.12	46.352
452.47	45.396
452.83	44.817
453.18	46.300
453.53	45.702
453.88	45.659
454.23	45.114
454.58	46.411
454.93	46.263
455.28	44.190
455.63	45.195
455.98	45.941
456.34	46.041
456.69	46.252
457.04	46.251
457.39	45.687
457.74	45.828
458.09	44.320
458.44	45.465
458.79	44.650
459.14	45.252
459.49	44.239
459.84	44.444
460.19	44.964
460.54	44.682
460.89	45.284
461.24	44.161
461.59	45.428
461.94	44.340
462.29	44.753
462.64	45.316
462.99	45.768
463.34	44.784
463.69	44.916
464.04	44.552
464.39	44.330
464.74	43.926
465.09	44.105
465.44	44.547
465.79	42.971
466.14	44.413
466.49	43.933
466.84	44.200
467.19	44.055
467.54	42.976
467.89	44.283
468.24	43.127
468.59	45.016
468.94	43.810
469.29	44.984
469.64	42.515
469.99	44.499
470.34	43.481
470.68	44.146
471.03	43.454
471.38	42.582
471.73	44.608
472.08	41.995
472.43	43.289
472.78	42.975
473.13	42.857
473.48	43.257
473.83	42.653
474.17	43.394
474.52	41.672
474.87	44.424
475.22	43.197
475.57	42.405
475.92	43.500
476.27	43.364
476.61	43.808
476.96	42.220
477.31	43.375
477.66	42.528
478.01	42.560
478.36	42.157
478.70	43.991
479.05	43.132
479.40	42.925
479.75	42.961
480.10	43.011
480.45	42.550
480.79	42.951
481.14	42.264
481.49	42.611
481.84	43.147
482.19	41.862
482.53	42.830
482.88	40.811
483.23	41.939
483.58	41.698
483.92	41.433
484.27	41.203
484.62	41.954
484.97	40.796
485.31	41.474
485.66	39.011
486.01	39.481
486.36	39.526
486.70	40.234
487.05	40.474
487.40	39.969
487.75	40.648
488.09	39.555
488.44	39.718
488.79	40.456
489.13	41.306
489.48	40.829
489.83	41.300
490.17	41.303
490.52	41.062
490.87	41.832
491.22	41.738
491.56	40.417
491.91	40.105
492.26	41.711
492.60	40.931
492.95	41.515
493.30	40.596
493.64	42.191
493.99	40.821
494.34	41.505
494.68	40.286
495.03	40.584
495.37	40.726
495.72	41.747
496.07	41.024
496.41	40.189
496.76	40.626
497.11	40.941
497.45	40.668
497.80	40.666
498.14	40.487
498.49	40.630
498.84	39.820
499.18	40.161
499.53	40.476
499.87	40.078
500.22	39.664
500.56	41.251
500.91	40.060
501.26	39.644
501.60	40.187
501.95	39.398
502.29	39.952
502.64	39.865
502.98	40.059
503.33	38.857
503.67	39.325
504.02	39.834
504.36	40.475
504.71	40.152
505.06	38.802
505.40	39.695
505.75	39.485
506.09	38.925
506.44	40.606
506.78	38.929
507.13	39.349
507.47	39.321
507.82	38.515
508.16	38.405
508.51	39.664
508.85	40.293
509.19	39.170
509.54	39.625
509.88	38.296
510.23	39.699
510.57	40.086
510.92	37.953
511.26	39.062
511.61	39.274
511.95	39.288
512.30	38.858
512.64	37.785
512.98	38.069
513.33	40.235
513.67	38.147
514.02	39.760
514.36	40.743
514.70	40.035
515.05	39.835
515.39	39.433
515.74	39.880
516.08	40.108
516.42	39.576
516.77	39.204
517.11	39.050
517.46	39.497
517.80	38.379
518.14	38.396
518.49	40.625
518.83	39.307
519.17	39.357
519.52	38.366
519.86	37.935
520.20	38.578
520.55	37.774
520.89	38.457
521.23	38.569
521.58	40.126
521.92	38.782
522.26	39.623
522.61	38.442
522.95	39.470
523.29	37.929
523.64	39.517
523.98	39.728
524.32	37.564
524.66	38.732
525.01	38.636
525.35	38.561
525.69	38.586
526.04	37.831
526.38	39.364
526.72	36.233
527.06	37.808
527.41	36.741
527.75	37.869
528.09	38.206
528.43	39.095
528.78	38.746
529.12	38.129
529.46	37.752
529.80	37.809
530.15	37.822
530.49	37.172
530.83	38.372
531.17	37.005
531.51	38.714
531.86	37.322
532.20	37.787
532.54	36.964
532.88	38.056
533.22	36.828
533.57	36.697
533.91	36.749
534.25	38.216
534.59	36.305
534.93	35.557
535.27	35.787
535.62	36.228
535.96	36.138
536.30	37.203
536.64	37.354
536.98	36.167
537.32	38.051
537.66	37.027
538.01	37.133
538.35	34.882
538.69	36.285
539.03	36.364
539.37	36.406
539.71	35.310
540.05	36.320
540.39	36.219
540.73	36.053
541.07	36.533
541.42	37.164
541.76	37.233
542.10	37.164
542.44	35.928
542.78	34.067
543.12	35.302
543.46	35.049
543.80	35.947
544.14	34.579
544.48	35.710
544.82	36.774
545.16	36.954
545.50	35.981
545.84	37.606
546.18	35.390
546.52	34.895
546.86	35.945
547.20	35.050
547.54	34.841
547.88	34.986
548.22	34.845
548.56	34.894
548.90	35.243
549.24	34.298
549.58	36.319
549.92	34.668
550.26	34.066
550.60	35.316
550.94	35.922
551.28	35.317
551.62	35.462
551.96	34.286
552.30	34.430
552.64	33.921
552.98	34.951
553.32	34.736
553.66	34.543
554.00	34.453
554.34	35.229
554.68	34.366
555.02	35.193
555.36	34.929
555.69	33.993
556.03	33.762
556.37	35.231
556.71	35.090
557.05	34.303
557.39	34.126
557.73	35.907
558.07	35.219
558.41	34.763
558.75	34.606
559.08	34.200
559.42	35.476
559.76	35.709
560.10	34.709
560.44	34.624
560.78	34.476
561.12	34.415
561.45	34.786
561.79	35.154
562.13	34.634
562.47	33.309
562.81	34.582
563.15	33.075
563.48	33.168
563.82	34.317
564.16	33.705
564.50	33.176
564.84	33.936
565.17	33.400
565.51	33.880
565.85	33.813
566.19	33.289
566.52	33.780
566.86	34.897
567.20	32.565
567.54	33.516
567.88	32.982
568.21	33.428
568.55	32.283
568.89	31.982
569.23	32.258
569.56	32.093
569.90	32.075
570.24	31.001
570.57	32.073
570.91	31.684
571.25	31.042
571.59	30.053
571.92	29.600
572.26	30.435
572.60	30.016
572.93	29.997
573.27	29.843
573.61	29.982
573.95	30.311
574.28	29.635
574.62	29.926
574.96	29.594
575.29	29.026
575.63	28.505
575.97	28.870
576.30	29.182
576.64	28.980
576.98	29.961
577.31	30.007
577.65	29.564
577.98	29.079
578.32	28.926
578.66	28.261
578.99	28.942
579.33	28.728
579.67	28.842
580.00	29.114
580.34	28.731
580.67	28.561
581.01	28.794
581.35	28.790
581.68	28.203
582.02	28.317
582.35	28.282
582.69	28.788
583.02	28.434
583.36	28.555
583.70	29.232
584.03	29.330
584.37	29.785
584.70	28.049
585.04	27.979
585.37	28.796
585.71	28.956
586.04	28.417
586.38	28.488
586.72	29.268
587.05	29.376
587.39	28.907
587.72	28.978
588.06	29.006
588.39	28.710
588.73	29.823
589.06	29.159
589.40	29.485
589.73	29.609
590.07	29.267
590.40	29.567
590.73	30.437
591.07	29.729
591.40	29.697
591.74	29.910
592.07	30.427
592.41	29.903
592.74	29.231
593.08	28.921
593.41	29.357
593.75	29.473
594.08	28.321
594.41	28.530
594.75	29.237
595.08	28.982
595.42	29.407
595.75	29.178
596.09	29.242
596.42	29.268
596.75	29.707
597.09	29.431
597.42	28.862
597.75	29.226
598.09	28.972
598.42	29.468
598.76	28.529
599.09	28.886
599.42	28.875
599.76	28.555
600.09	29.110
600.42	28.696
600.76	28.083
601.09	27.977
601.42	28.163
601.76	27.908
602.09	29.043
602.42	29.570
602.76	28.862
603.09	28.654
603.42	28.846
603.76	28.790
604.09	28.514
604.42	28.892
604.76	29.016
605.09	28.336
605.42	28.984
605.75	28.590
606.09	28.323
606.42	28.691
606.75	28.182
607.09	28.659
607.42	28.445
607.75	27.886
608.08	27.808
608.42	28.232
608.75	28.627
609.08	28.151
609.41	29.492
609.75	29.234
610.08	28.507
610.41	28.937
610.74	28.766
611.07	28.630
611.41	28.594
611.74	29.104
612.07	28.426
612.40	29.705
612.73	28.757
613.07	28.234
613.40	28.720
613.73	28.595
614.06	29.271
614.39	28.821
614.72	28.964
615.06	28.380
615.39	28.330
615.72	28.041
616.05	28.994
616.38	27.977
616.71	28.624
617.05	28.845
617.38	28.787
617.71	29.686
618.04	30.095
618.37	30.958
618.70	29.505
619.03	30.833
619.36	29.016
619.69	30.402
620.03	30.387
620.36	28.255
620.69	29.193
621.02	29.893
621.35	31.037
621.68	29.847
622.01	31.667
622.34	30.327
622.67	30.047
623.00	30.475
623.33	29.040
623.66	29.319
623.99	29.047
624.32	29.202
624.65	29.023
624.99	29.722
625.32	28.203
625.65	30.401
625.98	30.218
626.31	30.008
626.64	31.369
626.97	31.501
627.30	31.349
627.63	29.896
627.96	30.638
628.29	29.972
628.62	30.777
628.95	31.563
629.28	30.141
629.61	29.511
629.94	31.378
630.26	31.522
630.59	30.489
630.92	31.077
631.25	29.538
631.58	30.947
631.91	30.263
632.24	31.995
632.57	31.364
632.90	30.724
