SpectraSuite Data File
++++++++++++++++++++++++++++++++++++
Date: Fri May 15 20:41:32 PDT 2015
User: schluterlab
Dark Spectrum Present: Yes
Reference Spectrum Present: Yes
Number of Sampled Component Spectra: 1
Spectrometers: USB2E3373
Integration Time (usec): 3000 (USB2E3373)
Spectra Averaged: 3 (USB2E3373)
Boxcar Smoothing: 0 (USB2E3373)
Correct for Electrical Dark: No (USB2E3373)
Strobe/Lamp Enabled: No (USB2E3373)
Correct for Detector Non-linearity: No (USB2E3373)
Correct for Stray Light: No (USB2E3373)
Number of Pixels in Processed Spectrum: 2048
>>>>>Begin Processed Spectral Data<<<<<
178.53	0.000
178.91	0.000
179.29	37.500
179.67	-50.000
180.04	-157.143
180.42	-125.000
180.80	-600.000
181.18	200.000
181.56	450.000
181.94	100.000
182.31	400.000
182.69	-40.000
183.07	-200.000
183.45	0.000
183.83	116.667
184.20	72.727
184.58	144.444
184.96	-25.000
185.34	33.333
185.72	-350.000
186.09	61.538
186.47	-1200.000
186.85	33.333
187.23	44.444
187.61	800.000
187.98	-300.000
188.36	0.000
188.74	-100.000
189.12	29.412
189.49	16.667
189.87	0.000
190.25	42.857
190.63	100.000
191.00	-300.000
191.38	26.316
191.76	600.000
192.14	-75.000
192.51	-400.000
192.89	-22.222
193.27	-128.571
193.65	16.667
194.02	154.545
194.40	60.000
194.78	-62.500
195.15	-25.000
195.53	-87.500
195.91	25.000
196.29	-25.000
196.66	84.615
197.04	157.143
197.42	-88.889
197.79	-433.333
198.17	-23.077
198.55	1200.000
198.92	-333.333
199.30	-900.000
199.68	-140.000
200.05	-33.333
200.43	0.000
200.81	-100.000
201.18	-100.000
201.56	700.000
201.94	-450.000
202.31	-66.667
202.69	-100.000
203.07	75.000
203.44	800.000
203.82	0.000
204.19	14.286
204.57	-666.667
204.95	150.000
205.32	-30.000
205.70	-85.714
206.08	-75.000
206.45	233.333
206.83	14.286
207.20	-114.286
207.58	200.000
207.96	-133.333
208.33	-80.000
208.71	-275.000
209.08	-300.000
209.46	-500.000
209.84	-80.000
210.21	-800.000
210.59	-57.143
210.96	-50.000
211.34	-200.000
211.71	46.667
212.09	-14.286
212.46	-700.000
212.84	0.000
213.22	50.000
213.59	400.000
213.97	38.462
214.34	81.818
214.72	33.333
215.09	-75.000
215.47	-23.077
215.84	0.000
216.22	-166.667
216.59	-50.000
216.97	-250.000
217.34	200.000
217.72	-320.000
218.09	62.500
218.47	75.000
218.84	-500.000
219.22	-33.333
219.59	0.000
219.97	466.667
220.34	150.000
220.72	-71.429
221.09	-25.000
221.47	0.000
221.84	-700.000
222.22	-50.000
222.59	-9.091
222.97	33.333
223.34	-100.000
223.72	-78.571
224.09	23.810
224.46	10.714
224.84	666.667
225.21	-20.000
225.59	20.000
225.96	-50.000
226.34	300.000
226.71	28.571
227.08	-16.667
227.46	-150.000
227.83	-550.000
228.21	-33.333
228.58	27.273
228.95	37.500
229.33	50.000
229.70	-6.250
230.08	-12.500
230.45	-85.714
230.82	128.571
231.20	46.667
231.57	21.429
231.95	28.571
232.32	-100.000
232.69	21.429
233.07	-133.333
233.44	40.000
233.81	40.000
234.19	33.333
234.56	-29.412
234.93	650.000
235.31	125.000
235.68	-260.000
236.05	-46.154
236.43	-55.000
236.80	-11.765
237.17	-3.125
237.55	-20.000
237.92	-40.741
238.29	16.667
238.67	-26.667
239.04	-8.824
239.41	-24.390
239.79	-13.333
240.16	9.756
240.53	-13.158
240.91	-4.348
241.28	15.873
241.65	3.571
242.02	5.479
242.40	11.667
242.77	5.085
243.14	-12.121
243.51	5.000
243.89	12.644
244.26	-11.494
244.63	-14.286
245.00	9.278
245.38	10.309
245.75	-11.236
246.12	-1.724
246.49	-0.826
246.87	2.885
247.24	-5.882
247.61	-12.281
247.98	1.626
248.36	4.375
248.73	4.605
249.10	-0.649
249.47	2.532
249.84	3.268
250.22	6.471
250.59	3.922
250.96	9.390
251.33	-0.581
251.70	2.353
252.08	5.076
252.45	2.970
252.82	4.020
253.19	3.687
253.56	0.000
253.94	4.505
254.31	6.522
254.68	6.140
255.05	2.362
255.42	0.437
255.79	4.633
256.16	5.837
256.54	4.478
256.91	1.521
257.28	2.602
257.65	-0.749
258.02	3.901
258.39	5.051
258.76	3.663
259.14	4.319
259.51	4.207
259.88	7.560
260.25	2.288
260.62	4.514
260.99	1.017
261.36	1.027
261.73	1.582
262.10	3.647
262.47	1.840
262.85	0.940
263.22	5.846
263.59	3.115
263.96	2.484
264.33	5.152
264.70	3.869
265.07	1.786
265.44	5.949
265.81	2.825
266.18	4.098
266.55	7.198
266.92	4.145
267.29	4.700
267.66	3.836
268.03	1.832
268.40	1.567
268.77	5.080
269.14	5.755
269.51	4.113
269.88	3.491
270.25	-1.786
270.62	2.927
270.99	2.302
271.36	4.645
271.73	3.756
272.10	6.083
272.47	2.837
272.84	4.208
273.21	3.944
273.58	2.410
273.95	5.034
274.32	3.926
274.69	3.167
275.06	4.464
275.43	2.268
275.80	3.974
276.17	2.989
276.54	3.426
276.91	3.509
277.28	2.620
277.65	4.545
278.02	2.766
278.39	4.595
278.76	2.306
279.13	0.207
279.50	4.622
279.87	3.024
280.23	1.935
280.60	3.899
280.97	2.828
281.34	2.885
281.71	5.133
282.08	1.840
282.45	4.892
282.82	2.317
283.19	3.095
283.56	3.854
283.92	3.416
284.29	2.500
284.66	3.682
285.03	3.143
285.40	5.104
285.77	2.988
286.14	3.069
286.51	3.875
286.87	5.667
287.24	6.446
287.61	4.056
287.98	5.088
288.35	2.773
288.72	4.378
289.08	2.778
289.45	3.691
289.82	3.497
290.19	3.072
290.56	3.259
290.93	1.347
291.29	1.387
291.66	3.780
292.03	3.987
292.40	2.742
292.77	2.233
293.13	0.974
293.50	1.821
293.87	2.290
294.24	2.318
294.60	3.875
294.97	3.720
295.34	3.528
295.71	3.428
296.08	2.242
296.44	1.280
296.81	2.222
297.18	3.043
297.55	3.794
297.91	3.014
298.28	4.090
298.65	2.578
299.02	3.100
299.38	0.274
299.75	3.034
300.12	3.272
300.48	1.845
300.85	2.915
301.22	3.506
301.59	2.632
301.95	3.924
302.32	4.280
302.69	3.607
303.05	4.332
303.42	3.861
303.79	3.621
304.15	3.345
304.52	1.784
304.89	2.807
305.25	3.874
305.62	2.800
305.99	2.456
306.35	3.006
306.72	2.700
307.09	5.359
307.45	3.789
307.82	2.431
308.19	4.994
308.55	3.272
308.92	4.248
309.29	2.905
309.65	3.767
310.02	3.960
310.38	3.732
310.75	4.481
311.12	4.952
311.48	4.348
311.85	5.550
312.22	5.274
312.58	5.096
312.95	4.269
313.31	5.383
313.68	4.398
314.05	5.000
314.41	5.464
314.78	6.289
315.14	7.708
315.51	7.350
315.87	6.557
316.24	9.100
316.61	8.268
316.97	7.341
317.34	8.203
317.70	8.795
318.07	9.808
318.43	9.020
318.80	10.038
319.16	10.840
319.53	11.966
319.89	12.697
320.26	13.360
320.62	13.942
320.99	13.152
321.35	14.080
321.72	15.680
322.08	15.106
322.45	17.360
322.81	18.369
323.18	17.566
323.54	18.243
323.91	19.766
324.27	20.605
324.64	22.191
325.00	23.084
325.37	24.793
325.73	24.207
326.10	25.704
326.46	26.188
326.83	27.647
327.19	29.032
327.56	29.540
327.92	30.018
328.29	29.643
328.65	31.132
329.01	31.985
329.38	32.627
329.74	34.278
330.11	34.198
330.47	34.694
330.84	33.942
331.20	38.023
331.56	35.463
331.93	36.347
332.29	37.122
332.66	37.466
333.02	37.732
333.38	37.397
333.75	40.018
334.11	37.243
334.48	39.801
334.84	40.385
335.20	39.707
335.57	39.075
335.93	40.108
336.29	40.976
336.66	40.236
337.02	40.799
337.38	39.722
337.75	42.818
338.11	41.298
338.47	41.515
338.84	42.144
339.20	41.042
339.56	41.284
339.93	42.793
340.29	44.128
340.65	42.832
341.02	42.021
341.38	42.920
341.74	41.608
342.11	42.808
342.47	44.395
342.83	43.426
343.20	42.683
343.56	43.826
343.92	44.730
344.28	43.894
344.65	44.214
345.01	43.647
345.37	42.977
345.73	44.351
346.10	44.866
346.46	45.416
346.82	43.617
347.19	41.729
347.55	45.698
347.91	44.903
348.27	44.624
348.63	44.974
349.00	43.970
349.36	44.805
349.72	44.610
350.08	44.836
350.45	45.012
350.81	45.681
351.17	44.137
351.53	45.878
351.89	44.591
352.26	44.560
352.62	45.645
352.98	44.498
353.34	44.042
353.70	46.036
354.07	46.371
354.43	44.516
354.79	44.756
355.15	44.921
355.51	45.253
355.87	45.146
356.24	45.922
356.60	45.513
356.96	45.556
357.32	45.527
357.68	45.973
358.04	44.992
358.40	46.704
358.77	46.093
359.13	46.998
359.49	44.838
359.85	46.256
360.21	46.252
360.57	44.836
360.93	45.159
361.29	44.637
361.66	46.630
362.02	46.515
362.38	46.915
362.74	47.313
363.10	46.351
363.46	47.443
363.82	46.431
364.18	46.494
364.54	46.103
364.90	45.878
365.26	46.361
365.62	47.518
365.98	46.188
366.35	48.070
366.71	47.524
367.07	46.880
367.43	45.866
367.79	46.572
368.15	45.944
368.51	46.686
368.87	46.375
369.23	45.199
369.59	49.052
369.95	47.141
370.31	46.749
370.67	47.015
371.03	45.258
371.39	46.171
371.75	47.399
372.11	46.933
372.47	47.633
372.83	47.197
373.19	46.933
373.55	46.570
373.91	46.940
374.27	46.988
374.63	46.447
374.99	47.092
375.35	45.961
375.71	46.853
376.07	46.489
376.42	47.619
376.78	46.644
377.14	46.784
377.50	46.149
377.86	46.720
378.22	46.969
378.58	46.795
378.94	45.936
379.30	47.037
379.66	46.520
380.02	47.210
380.38	46.987
380.74	46.200
381.09	46.258
381.45	46.116
381.81	45.959
382.17	45.876
382.53	46.346
382.89	47.018
383.25	46.484
383.61	46.463
383.97	46.667
384.32	46.216
384.68	46.563
385.04	46.078
385.40	45.302
385.76	47.296
386.12	46.442
386.48	46.807
386.83	45.847
387.19	46.459
387.55	46.361
387.91	46.822
388.27	44.689
388.62	46.948
388.98	45.795
389.34	45.909
389.70	46.240
390.06	43.801
390.42	45.013
390.77	46.632
391.13	46.091
391.49	44.890
391.85	46.264
392.20	46.139
392.56	45.518
392.92	45.449
393.28	45.401
393.64	45.045
393.99	44.828
394.35	45.478
394.71	46.169
395.07	43.495
395.42	44.869
395.78	44.886
396.14	44.641
396.50	44.705
396.85	44.495
397.21	43.797
397.57	43.824
397.92	43.919
398.28	44.828
398.64	43.855
399.00	44.695
399.35	43.059
399.71	43.538
400.07	43.894
400.42	43.941
400.78	43.968
401.14	43.739
401.49	44.133
401.85	43.266
402.21	43.554
402.57	43.437
402.92	42.409
403.28	44.424
403.63	43.758
403.99	42.666
404.35	42.973
404.70	41.786
405.06	42.068
405.42	42.573
405.77	40.906
406.13	42.375
406.49	42.333
406.84	42.176
407.20	42.745
407.55	41.468
407.91	42.647
408.27	41.683
408.62	41.600
408.98	42.206
409.34	42.379
409.69	39.987
410.05	41.071
410.40	42.778
410.76	41.978
411.11	41.188
411.47	41.026
411.83	40.615
412.18	42.085
412.54	40.262
412.89	40.825
413.25	41.095
413.60	40.807
413.96	39.939
414.31	39.329
414.67	40.154
415.03	39.814
415.38	39.426
415.74	40.717
416.09	41.019
416.45	40.986
416.80	39.921
417.16	41.298
417.51	40.506
417.87	39.831
418.22	39.767
418.58	39.933
418.93	40.815
419.29	38.668
419.64	40.117
420.00	40.365
420.35	39.403
420.71	39.733
421.06	40.147
421.42	39.964
421.77	38.671
422.12	38.820
422.48	39.036
422.83	38.167
423.19	37.980
423.54	38.213
423.90	38.339
424.25	38.921
424.61	39.535
424.96	38.502
425.31	38.417
425.67	38.204
426.02	38.928
426.38	38.760
426.73	39.649
427.09	40.443
427.44	38.706
427.79	38.951
428.15	38.410
428.50	39.673
428.85	37.285
429.21	39.106
429.56	38.598
429.92	36.518
430.27	37.544
430.62	36.958
430.98	36.253
431.33	37.434
431.68	36.421
432.04	37.898
432.39	36.509
432.74	37.643
433.10	38.161
433.45	37.933
433.80	36.912
434.16	36.731
434.51	36.935
434.86	37.050
435.22	36.960
435.57	37.118
435.92	37.425
436.28	37.209
436.63	38.106
436.98	37.138
437.34	36.842
437.69	37.209
438.04	37.379
438.39	35.614
438.75	36.126
439.10	37.012
439.45	36.701
439.81	35.046
440.16	37.589
440.51	37.015
440.86	37.583
441.22	36.086
441.57	35.872
441.92	36.149
442.27	36.031
442.63	36.670
442.98	35.497
443.33	35.559
443.68	35.438
444.03	36.612
444.39	35.760
444.74	36.288
445.09	36.359
445.44	35.954
445.79	37.236
446.15	35.242
446.50	35.885
446.85	36.769
447.20	35.923
447.55	35.547
447.91	36.210
448.26	34.718
448.61	34.888
448.96	35.112
449.31	35.665
449.66	34.030
450.02	34.797
450.37	35.922
450.72	34.422
451.07	35.316
451.42	34.270
451.77	34.479
452.12	34.211
452.47	34.192
452.83	34.865
453.18	34.156
453.53	34.008
453.88	34.183
454.23	34.604
454.58	35.013
454.93	34.729
455.28	32.317
455.63	34.594
455.98	34.516
456.34	34.483
456.69	35.006
457.04	34.342
457.39	33.232
457.74	34.160
458.09	32.313
458.44	33.704
458.79	32.717
459.14	34.325
459.49	34.030
459.84	33.390
460.19	32.282
460.54	33.680
460.89	33.466
461.24	33.540
461.59	33.432
461.94	32.956
462.29	33.474
462.64	34.020
462.99	33.717
463.34	31.433
463.69	31.596
464.04	32.627
464.39	32.747
464.74	32.270
465.09	33.063
465.44	31.968
465.79	31.349
466.14	31.414
466.49	31.397
466.84	30.934
467.19	31.915
467.54	31.545
467.89	31.712
468.24	31.144
468.59	32.571
468.94	30.794
469.29	31.541
469.64	32.194
469.99	32.165
470.34	30.648
470.68	33.557
471.03	31.706
471.38	30.813
471.73	32.213
472.08	30.597
472.43	31.208
472.78	30.021
473.13	30.408
473.48	30.163
473.83	30.075
474.17	31.671
474.52	30.185
474.87	29.758
475.22	30.567
475.57	30.040
475.92	30.664
476.27	30.384
476.61	30.382
476.96	30.229
477.31	29.259
477.66	30.225
478.01	29.759
478.36	29.902
478.70	30.451
479.05	30.220
479.40	29.253
479.75	29.771
480.10	28.725
480.45	30.000
480.79	29.305
481.14	29.662
481.49	28.719
481.84	28.089
482.19	28.625
482.53	29.065
482.88	28.449
483.23	28.791
483.58	28.868
483.92	28.993
484.27	27.438
484.62	28.507
484.97	27.861
485.31	26.987
485.66	26.706
486.01	26.262
486.36	26.022
486.70	26.595
487.05	26.804
487.40	26.603
487.75	26.732
488.09	26.761
488.44	26.685
488.79	27.083
489.13	27.444
489.48	27.448
489.83	27.130
490.17	27.101
490.52	27.483
490.87	27.441
491.22	27.364
491.56	26.992
491.91	27.151
492.26	27.321
492.60	26.775
492.95	27.742
493.30	27.015
493.64	27.358
493.99	26.135
494.34	26.699
494.68	27.000
495.03	26.423
495.37	26.938
495.72	27.511
496.07	26.780
496.41	26.179
496.76	26.117
497.11	25.431
497.45	26.730
497.80	26.589
498.14	26.329
498.49	26.460
498.84	25.898
499.18	25.853
499.53	25.645
499.87	25.389
500.22	25.865
500.56	25.517
500.91	26.054
501.26	25.161
501.60	24.988
501.95	25.473
502.29	25.908
502.64	25.145
502.98	25.752
503.33	24.304
503.67	25.590
504.02	25.660
504.36	25.482
504.71	24.747
505.06	24.560
505.40	25.127
505.75	25.258
506.09	24.785
506.44	25.359
506.78	24.694
507.13	25.181
507.47	24.073
507.82	24.038
508.16	24.564
508.51	24.711
508.85	24.594
509.19	23.523
509.54	24.826
509.88	24.703
510.23	24.583
510.57	25.120
510.92	23.081
511.26	24.059
511.61	24.037
511.95	23.945
512.30	24.390
512.64	23.984
512.98	24.200
513.33	24.287
513.67	23.138
514.02	23.970
514.36	25.200
514.70	24.184
515.05	24.148
515.39	24.262
515.74	24.611
516.08	24.328
516.42	24.971
516.77	23.640
517.11	24.570
517.46	23.639
517.80	23.421
518.14	24.127
518.49	24.279
518.83	24.848
519.17	23.226
519.52	23.387
519.86	23.109
520.20	23.694
520.55	23.139
520.89	24.216
521.23	23.369
521.58	24.669
521.92	23.782
522.26	24.138
522.61	23.766
522.95	24.702
523.29	22.872
523.64	23.443
523.98	23.914
524.32	22.294
524.66	23.367
525.01	22.792
525.35	23.007
525.69	23.232
526.04	23.016
526.38	24.189
526.72	22.302
527.06	23.930
527.41	22.559
527.75	22.855
528.09	22.525
528.43	24.173
528.78	22.772
529.12	22.581
529.46	22.677
529.80	23.369
530.15	22.442
530.49	23.098
530.83	22.025
531.17	23.237
531.51	22.709
531.86	21.754
532.20	21.642
532.54	22.941
532.88	22.724
533.22	22.513
533.57	22.018
533.91	21.018
534.25	23.112
534.59	21.937
534.93	21.397
535.27	20.939
535.62	20.674
535.96	21.526
536.30	22.493
536.64	20.675
536.98	21.463
537.32	21.408
537.66	23.072
538.01	22.448
538.35	20.180
538.69	21.172
539.03	20.506
539.37	21.198
539.71	20.927
540.05	21.181
540.39	20.983
540.73	20.084
541.07	21.478
541.42	20.430
541.76	20.853
542.10	21.060
542.44	20.639
542.78	19.408
543.12	20.124
543.46	21.280
543.80	20.194
544.14	19.559
544.48	20.786
544.82	20.574
545.16	20.492
545.50	20.027
545.84	20.751
546.18	20.496
546.52	19.899
546.86	19.914
547.20	21.030
547.54	19.576
547.88	20.380
548.22	19.001
548.56	19.789
548.90	20.081
549.24	19.904
549.58	19.605
549.92	19.728
550.26	19.780
550.60	20.297
550.94	20.986
551.28	20.402
551.62	20.385
551.96	20.150
552.30	18.933
552.64	19.394
552.98	19.620
553.32	18.331
553.66	18.940
554.00	18.905
554.34	20.015
554.68	20.354
555.02	19.643
555.36	19.297
555.69	18.608
556.03	19.129
556.37	19.217
556.71	19.278
557.05	18.568
557.39	18.439
557.73	19.715
558.07	18.326
558.41	19.066
558.75	19.330
559.08	18.676
559.42	19.048
559.76	19.536
560.10	18.731
560.44	18.466
560.78	19.580
561.12	18.054
561.45	18.412
561.79	18.908
562.13	18.950
562.47	17.554
562.81	18.012
563.15	18.124
563.48	17.893
563.82	18.600
564.16	17.827
564.50	18.243
564.84	18.407
565.17	17.773
565.51	18.511
565.85	18.381
566.19	18.568
566.52	17.828
566.86	18.123
567.20	16.687
567.54	17.153
567.88	16.930
568.21	17.760
568.55	18.152
568.89	17.351
569.23	16.948
569.56	15.806
569.90	16.768
570.24	15.966
570.57	15.855
570.91	16.626
571.25	15.061
571.59	15.852
571.92	15.052
572.26	15.338
572.60	15.504
572.93	15.344
573.27	14.420
573.61	15.871
573.95	15.483
574.28	14.857
574.62	14.925
574.96	15.233
575.29	14.791
575.63	14.512
575.97	14.421
576.30	14.563
576.64	14.331
576.98	15.135
577.31	15.114
577.65	14.817
577.98	14.391
578.32	14.265
578.66	14.335
578.99	14.389
579.33	14.239
579.67	14.913
580.00	14.506
580.34	14.726
580.67	14.219
581.01	14.553
581.35	13.975
581.68	14.111
582.02	14.058
582.35	14.132
582.69	14.199
583.02	14.206
583.36	14.265
583.70	14.772
584.03	14.623
584.37	14.766
584.70	13.901
585.04	14.093
585.37	14.005
585.71	13.602
586.04	13.868
586.38	13.577
586.72	14.232
587.05	13.980
587.39	14.202
587.72	14.762
588.06	14.392
588.39	14.554
588.73	14.805
589.06	14.514
589.40	14.310
589.73	14.640
590.07	14.199
590.40	14.396
590.73	15.074
591.07	13.868
591.40	14.693
591.74	14.344
592.07	14.750
592.41	14.708
592.74	14.098
593.08	14.041
593.41	13.542
593.75	13.641
594.08	13.560
594.41	14.374
594.75	13.664
595.08	14.302
595.42	13.802
595.75	13.819
596.09	14.034
596.42	14.262
596.75	14.165
597.09	13.895
597.42	14.002
597.75	14.613
598.09	13.762
598.42	13.718
598.76	13.556
599.09	13.702
599.42	12.770
599.76	13.093
600.09	13.575
600.42	13.723
600.76	13.484
601.09	12.977
601.42	13.396
601.76	13.497
602.09	13.614
602.42	14.238
602.76	13.497
603.09	13.663
603.42	13.963
603.76	13.347
604.09	13.487
604.42	13.663
604.76	13.796
605.09	13.757
605.42	13.860
605.75	13.835
606.09	13.588
606.42	13.636
606.75	13.636
607.09	14.418
607.42	13.425
607.75	13.277
608.08	13.208
608.42	13.476
608.75	13.639
609.08	13.453
609.41	13.959
609.75	13.206
610.08	14.029
610.41	13.237
610.74	13.311
611.07	13.437
611.41	12.870
611.74	14.286
612.07	13.704
612.40	13.293
612.73	13.503
613.07	13.048
613.40	14.442
613.73	13.374
614.06	14.469
614.39	13.931
614.72	13.165
615.06	13.520
615.39	12.937
615.72	12.648
616.05	13.743
616.38	13.162
616.71	13.639
617.05	13.280
617.38	14.268
617.71	12.956
618.04	13.968
618.37	14.313
618.70	14.059
619.03	13.958
619.36	13.025
619.69	14.102
620.03	14.755
620.36	14.378
620.69	14.133
621.02	14.067
621.35	14.689
621.68	14.201
622.01	14.917
622.34	14.126
622.67	14.748
623.00	14.701
623.33	14.634
623.66	14.435
623.99	13.540
624.32	14.601
624.65	13.008
624.99	14.447
625.32	13.192
625.65	14.454
625.98	14.102
626.31	13.383
626.64	14.211
626.97	14.049
627.30	14.273
627.63	14.731
627.96	14.016
628.29	14.986
628.62	15.241
628.95	14.729
629.28	14.113
629.61	13.559
629.94	14.956
630.26	15.316
630.59	15.401
630.92	14.564
631.25	14.051
631.58	14.097
631.91	13.268
632.24	15.023
632.57	15.909
632.90	14.235
633.23	15.176
633.56	13.350
633.89	15.290
634.22	16.667
634.55	15.502
634.88	14.559
635.20	15.513
635.53	14.800
635.86	13.264
636.19	15.395
636.52	14.286
636.85	14.516
637.18	12.704
637.51	14.088
