SpectraSuite Data File
++++++++++++++++++++++++++++++++++++
Date: Fri May 15 20:30:04 PDT 2015
User: schluterlab
Dark Spectrum Present: Yes
Reference Spectrum Present: Yes
Number of Sampled Component Spectra: 1
Spectrometers: USB2E3373
Integration Time (usec): 3000 (USB2E3373)
Spectra Averaged: 3 (USB2E3373)
Boxcar Smoothing: 0 (USB2E3373)
Correct for Electrical Dark: No (USB2E3373)
Strobe/Lamp Enabled: No (USB2E3373)
Correct for Detector Non-linearity: No (USB2E3373)
Correct for Stray Light: No (USB2E3373)
Number of Pixels in Processed Spectrum: 2048
>>>>>Begin Processed Spectral Data<<<<<
178.53	0.000
178.91	0.000
179.29	100.000
179.67	-400.000
180.04	-0.000
180.42	125.000
180.80	-500.000
181.18	133.333
181.56	450.000
181.94	-100.000
182.31	500.000
182.69	-100.000
183.07	0.000
183.45	-40.000
183.83	150.000
184.20	9.091
184.58	166.667
184.96	-150.000
185.34	233.333
185.72	-600.000
186.09	92.308
186.47	-400.000
186.85	183.333
187.23	166.667
187.61	100.000
187.98	-333.333
188.36	100.000
188.74	-233.333
189.12	35.294
189.49	16.667
189.87	0.000
190.25	-21.429
190.63	-100.000
191.00	-166.667
191.38	31.579
191.76	100.000
192.14	250.000
192.51	100.000
192.89	-88.889
193.27	-171.429
193.65	150.000
194.02	72.727
194.40	-100.000
194.78	-100.000
195.15	41.667
195.53	-50.000
195.91	150.000
196.29	100.000
196.66	146.154
197.04	85.714
197.42	-77.778
197.79	-400.000
198.17	-76.923
198.55	2300.000
198.92	-166.667
199.30	-700.000
199.68	-80.000
200.05	-200.000
200.43	0.000
200.81	-233.333
201.18	-333.333
201.56	1900.000
201.94	-300.000
202.31	-366.667
202.69	-220.000
203.07	100.000
203.44	200.000
203.82	0.000
204.19	28.571
204.57	-600.000
204.95	137.500
205.32	-50.000
205.70	-14.286
206.08	-75.000
206.45	155.556
206.83	-7.143
207.20	-14.286
207.58	-100.000
207.96	-400.000
208.33	-100.000
208.71	-175.000
209.08	-50.000
209.46	-900.000
209.84	-80.000
210.21	-900.000
210.59	-28.571
210.96	0.000
211.34	-75.000
211.71	66.667
212.09	-185.714
212.46	-1300.000
212.84	0.000
213.22	100.000
213.59	600.000
213.97	38.462
214.34	81.818
214.72	-100.000
215.09	400.000
215.47	-46.154
215.84	-63.636
216.22	-300.000
216.59	75.000
216.97	50.000
217.34	-350.000
217.72	-160.000
218.09	-62.500
218.47	187.500
218.84	-1400.000
219.22	-44.444
219.59	-140.000
219.97	466.667
220.34	400.000
220.72	0.000
221.09	-50.000
221.47	-200.000
221.84	-400.000
222.22	-600.000
222.59	-27.273
222.97	-8.333
223.34	-233.333
223.72	7.143
224.09	4.762
224.46	10.714
224.84	200.000
225.21	10.000
225.59	-20.000
225.96	-450.000
226.34	350.000
226.71	57.143
227.08	-83.333
227.46	0.000
227.83	-350.000
228.21	11.111
228.58	27.273
228.95	-112.500
229.33	80.000
229.70	-50.000
230.08	-112.500
230.45	14.286
230.82	128.571
231.20	-46.667
231.57	35.714
231.95	-71.429
232.32	-70.000
232.69	71.429
233.07	200.000
233.44	20.000
233.81	0.000
234.19	22.222
234.56	-23.529
234.93	100.000
235.31	-150.000
235.68	-120.000
236.05	-100.000
236.43	-35.000
236.80	-17.647
237.17	25.000
237.55	-20.000
237.92	-3.704
238.29	30.556
238.67	50.000
239.04	-8.824
239.41	-17.073
239.79	6.667
240.16	24.390
240.53	7.895
240.91	0.000
241.28	12.698
241.65	8.929
242.02	30.137
242.40	28.333
242.77	15.254
243.14	12.121
243.51	23.750
243.89	28.736
244.26	12.644
244.63	17.857
245.00	16.495
245.38	22.680
245.75	16.854
246.12	13.793
246.49	17.355
246.87	37.500
247.24	12.605
247.61	20.175
247.98	17.886
248.36	16.875
248.73	21.711
249.10	20.130
249.47	22.785
249.84	23.529
250.22	26.471
250.59	25.490
250.96	24.413
251.33	15.116
251.70	23.529
252.08	25.888
252.45	22.277
252.82	22.613
253.19	26.728
253.56	19.626
253.94	25.676
254.31	28.696
254.68	30.263
255.05	19.291
255.42	17.904
255.79	24.324
256.16	22.179
256.54	24.627
256.91	19.011
257.28	22.677
257.65	20.599
258.02	22.695
258.39	24.242
258.76	27.839
259.14	24.585
259.51	22.977
259.88	23.368
260.25	24.183
260.62	28.472
260.99	20.678
261.36	23.288
261.73	23.101
262.10	26.748
262.47	19.325
262.85	26.646
263.22	27.385
263.59	25.234
263.96	28.882
264.33	23.939
264.70	22.321
265.07	26.190
265.44	27.479
265.81	24.011
266.18	25.683
266.55	24.165
266.92	24.870
267.29	25.849
267.66	23.529
268.03	25.916
268.40	24.282
268.77	27.540
269.14	25.180
269.51	24.679
269.88	23.192
270.25	22.959
270.62	22.683
270.99	23.018
271.36	24.939
271.73	25.352
272.10	21.168
272.47	25.768
272.84	24.257
273.21	24.594
273.58	25.301
273.95	25.400
274.32	22.864
274.69	23.756
275.06	26.116
275.43	21.315
275.80	22.296
276.17	22.529
276.54	20.985
276.91	25.000
277.28	23.362
277.65	22.314
278.02	22.553
278.39	22.757
278.76	24.948
279.13	20.954
279.50	25.210
279.87	25.054
280.23	22.151
280.60	22.027
280.97	24.040
281.34	20.769
281.71	26.694
282.08	22.495
282.45	23.483
282.82	23.359
283.19	21.857
283.56	22.929
283.92	21.822
284.29	19.615
284.66	21.512
285.03	21.022
285.40	22.306
285.77	21.265
286.14	21.661
286.51	25.277
286.87	18.830
287.24	21.179
287.61	19.753
287.98	24.211
288.35	20.624
288.72	22.767
289.08	19.097
289.45	22.496
289.82	21.503
290.19	18.430
290.56	21.441
290.93	20.370
291.29	20.031
291.66	19.370
292.03	21.372
292.40	19.355
292.77	19.936
293.13	18.669
293.50	16.995
293.87	19.084
294.24	17.774
294.60	18.927
294.97	19.345
295.34	17.178
295.71	19.672
296.08	18.386
296.44	15.932
296.81	19.306
297.18	17.101
297.55	19.648
297.91	16.849
298.28	18.470
298.65	16.554
299.02	18.059
299.38	15.732
299.75	16.966
300.12	16.623
300.48	16.469
300.85	16.477
301.22	16.883
301.59	17.763
301.95	17.848
302.32	16.602
302.69	16.667
303.05	15.965
303.42	15.567
303.79	16.822
304.15	17.324
304.52	15.220
304.89	16.374
305.25	15.860
305.62	15.636
305.99	16.959
306.35	15.260
306.72	14.623
307.09	15.621
307.45	14.696
307.82	15.972
308.19	16.841
308.55	16.031
308.92	17.320
309.29	14.525
309.65	15.931
310.02	15.512
310.38	16.136
310.75	17.377
311.12	15.393
311.48	15.058
311.85	15.393
312.22	15.612
312.58	16.454
312.95	15.155
313.31	14.493
313.68	16.126
314.05	15.918
314.41	15.876
314.78	16.082
315.14	17.163
315.51	16.667
315.87	16.598
316.24	18.908
316.61	17.520
316.97	17.460
317.34	16.895
317.70	18.547
318.07	17.404
318.43	19.118
318.80	18.277
319.16	19.238
319.53	20.323
319.89	18.996
320.26	18.320
320.62	20.662
320.99	18.789
321.35	20.863
321.72	21.184
322.08	20.947
322.45	20.305
322.81	21.906
323.18	20.510
323.54	20.849
323.91	22.590
324.27	22.852
324.64	24.251
325.00	22.993
325.37	24.426
325.73	23.481
326.10	24.886
326.46	26.547
326.83	26.159
327.19	26.417
327.56	26.412
327.92	26.849
328.29	25.982
328.65	26.509
329.01	27.941
329.38	27.189
329.74	27.479
330.11	28.174
330.47	27.922
330.84	27.885
331.20	28.802
331.56	28.148
331.93	29.772
332.29	29.514
332.66	28.778
333.02	30.112
333.38	28.781
333.75	28.755
334.11	29.364
334.48	29.646
334.84	30.952
335.20	30.192
335.57	29.193
335.93	30.443
336.29	29.374
336.66	30.427
337.02	29.461
337.38	30.463
337.75	29.727
338.11	31.199
338.47	32.299
338.84	31.608
339.20	31.536
339.56	30.367
339.93	31.961
340.29	32.110
340.65	31.183
341.02	30.585
341.38	31.062
341.74	30.742
342.11	31.629
342.47	32.562
342.83	33.045
343.20	32.230
343.56	31.217
343.92	32.152
344.28	32.109
344.65	31.434
345.01	31.547
345.37	31.371
345.73	32.385
346.10	32.614
346.46	31.707
346.82	32.079
347.19	31.920
347.55	32.749
347.91	34.061
348.27	31.609
348.63	33.560
349.00	31.173
349.36	32.419
349.72	33.499
350.08	31.311
350.45	32.083
350.81	32.558
351.17	33.225
351.53	32.980
351.89	33.278
352.26	31.840
352.62	32.742
352.98	32.048
353.34	31.562
353.70	33.900
354.07	32.984
354.43	33.227
354.79	32.783
355.15	33.492
355.51	33.465
355.87	33.414
356.24	32.137
356.60	33.306
356.96	34.127
357.32	33.067
357.68	32.447
358.04	33.279
358.40	34.164
358.77	32.456
359.13	33.467
359.49	33.744
359.85	33.307
360.21	33.094
360.57	32.441
360.93	34.644
361.29	33.006
361.66	34.875
362.02	35.152
362.38	34.273
362.74	34.444
363.10	34.913
363.46	34.099
363.82	35.913
364.18	34.834
364.54	33.897
364.90	34.767
365.26	35.371
365.62	35.766
365.98	35.484
366.35	35.907
366.71	35.181
367.07	35.704
367.43	35.011
367.79	34.417
368.15	35.966
368.51	36.635
368.87	35.176
369.23	35.523
369.59	37.172
369.95	37.243
370.31	37.355
370.67	37.090
371.03	35.624
371.39	35.449
371.75	36.410
372.11	36.091
372.47	37.426
372.83	35.912
373.19	35.877
373.55	36.318
373.91	36.141
374.27	37.279
374.63	36.468
374.99	37.163
375.35	38.022
375.71	37.762
376.07	37.219
376.42	38.163
376.78	38.255
377.14	37.102
377.50	37.384
377.86	37.617
378.22	37.141
378.58	38.205
378.94	38.059
379.30	38.615
379.66	38.245
380.02	37.891
380.38	37.858
380.74	38.959
381.09	37.730
381.45	37.431
381.81	37.940
382.17	39.086
382.53	38.788
382.89	38.544
383.25	38.830
383.61	39.024
383.97	38.730
384.32	38.837
384.68	39.628
385.04	38.725
385.40	38.830
385.76	39.497
386.12	40.233
386.48	40.421
386.83	39.252
387.19	38.706
387.55	39.774
387.91	39.853
388.27	39.011
388.62	40.654
388.98	39.411
389.34	39.413
389.70	40.709
390.06	38.326
390.42	38.666
390.77	40.353
391.13	39.155
391.49	40.298
391.85	40.871
392.20	39.736
392.56	41.322
392.92	40.223
393.28	40.448
393.64	39.820
393.99	41.567
394.35	40.164
394.71	40.294
395.07	39.283
395.42	39.466
395.78	40.586
396.14	38.651
396.50	40.837
396.85	41.017
397.21	39.975
397.57	38.056
397.92	39.365
398.28	40.632
398.64	38.735
399.00	40.011
399.35	39.221
399.71	39.518
400.07	39.541
400.42	39.229
400.78	39.437
401.14	39.262
401.49	40.203
401.85	39.183
402.21	40.361
402.57	39.750
402.92	39.210
403.28	40.288
403.63	40.038
403.99	39.158
404.35	40.225
404.70	38.452
405.06	38.073
405.42	39.217
405.77	38.640
406.13	39.464
406.49	38.958
406.84	38.936
407.20	39.675
407.55	38.313
407.91	38.102
408.27	38.241
408.62	38.954
408.98	38.817
409.34	38.848
409.69	37.661
410.05	38.424
410.40	38.827
410.76	38.540
411.11	38.750
411.47	39.250
411.83	39.109
412.18	38.674
412.54	37.391
412.89	37.500
413.25	38.327
413.60	39.255
413.96	37.669
414.31	38.293
414.67	39.192
415.03	38.016
415.38	37.859
415.74	38.893
416.09	39.451
416.45	37.610
416.80	38.334
417.16	37.776
417.51	38.108
417.87	36.571
418.22	38.277
418.58	37.592
418.93	38.621
419.29	36.044
419.64	37.006
420.00	39.043
420.35	36.657
420.71	38.275
421.06	37.262
421.42	37.800
421.77	37.283
422.12	36.209
422.48	36.925
422.83	37.065
423.19	36.343
423.54	36.038
423.90	37.220
424.25	37.313
424.61	38.372
424.96	36.934
425.31	36.684
425.67	37.383
426.02	37.633
426.38	36.819
426.73	37.228
427.09	38.228
427.44	37.882
427.79	36.535
428.15	36.286
428.50	36.523
428.85	36.057
429.21	36.389
429.56	35.957
429.92	35.799
430.27	36.291
430.62	35.128
430.98	36.306
431.33	36.540
431.68	36.682
432.04	35.606
432.39	35.539
432.74	34.636
433.10	37.184
433.45	35.185
433.80	35.403
434.16	35.734
434.51	35.968
434.86	35.540
435.22	35.951
435.57	35.621
435.92	35.868
436.28	35.361
436.63	34.969
436.98	35.921
437.34	34.967
437.69	36.255
438.04	35.385
438.39	35.675
438.75	35.823
439.10	35.540
439.45	35.423
439.81	34.495
440.16	35.926
440.51	35.582
440.86	35.589
441.22	34.672
441.57	35.375
441.92	35.834
442.27	36.086
442.63	36.242
442.98	35.439
443.33	34.391
443.68	34.695
444.03	35.221
444.39	35.121
444.74	35.786
445.09	35.356
445.44	34.701
445.79	35.740
446.15	33.976
446.50	34.498
446.85	34.325
447.20	34.515
447.55	35.045
447.91	34.349
448.26	34.775
448.61	35.291
448.96	34.538
449.31	33.757
449.66	34.437
450.02	34.569
450.37	33.788
450.72	34.078
451.07	34.051
451.42	33.021
451.77	33.755
452.12	32.955
452.47	33.806
452.83	34.040
453.18	33.713
453.53	34.324
453.88	34.244
454.23	34.050
454.58	34.446
454.93	33.570
455.28	32.444
455.63	33.788
455.98	34.576
456.34	34.036
456.69	34.625
457.04	34.657
457.39	33.536
457.74	33.313
458.09	33.137
458.44	32.826
458.79	32.941
459.14	33.581
459.49	33.134
459.84	33.446
460.19	32.221
460.54	34.169
460.89	32.670
461.24	32.609
461.59	32.720
461.94	32.704
462.29	33.052
462.64	32.625
462.99	33.108
463.34	31.850
463.69	32.239
464.04	32.990
464.39	32.686
464.74	32.086
465.09	33.313
465.44	32.314
465.79	31.746
466.14	32.497
466.49	31.915
466.84	32.064
467.19	31.101
467.54	30.907
467.89	32.470
468.24	31.813
468.59	32.254
468.94	32.317
469.29	32.590
469.64	32.126
469.99	32.516
470.34	31.058
470.68	32.215
471.03	31.776
471.38	31.455
471.73	31.513
472.08	30.733
472.43	31.678
472.78	30.500
473.13	31.973
473.48	31.466
473.83	30.012
474.17	32.448
474.52	30.887
474.87	31.697
475.22	29.835
475.57	30.661
475.92	30.335
476.27	30.559
476.61	31.192
476.96	29.838
477.31	30.990
477.66	30.506
478.01	29.702
478.36	30.120
478.70	30.832
479.05	31.154
479.40	31.108
479.75	30.083
480.10	29.135
480.45	30.250
480.79	30.916
481.14	30.686
481.49	29.704
481.84	29.440
482.19	30.262
482.53	30.743
482.88	29.976
483.23	30.134
483.58	30.094
483.92	28.896
484.27	29.398
484.62	29.269
484.97	29.353
485.31	28.685
485.66	28.426
486.01	28.148
486.36	28.560
486.70	28.577
487.05	28.524
487.40	28.619
487.75	28.056
488.09	27.658
488.44	27.613
488.79	28.016
489.13	28.405
489.48	27.961
489.83	28.251
490.17	28.494
490.52	28.222
490.87	28.644
491.22	28.892
491.56	27.989
491.91	27.533
492.26	28.051
492.60	27.975
492.95	29.218
493.30	28.041
493.64	27.849
493.99	28.841
494.34	27.913
494.68	28.857
495.03	27.640
495.37	27.085
495.72	28.016
496.07	27.951
496.41	27.358
496.76	27.913
497.11	27.294
497.45	28.449
497.80	28.557
498.14	26.875
498.49	27.273
498.84	27.146
499.18	27.861
499.53	27.480
499.87	26.800
500.22	27.646
500.56	27.685
500.91	26.958
501.26	27.583
501.60	26.513
501.95	27.802
502.29	26.489
502.64	27.317
502.98	28.022
503.33	26.033
503.67	26.602
504.02	27.077
504.36	27.165
504.71	26.970
505.06	27.277
505.40	26.904
505.75	27.165
506.09	26.812
506.44	26.848
506.78	27.092
507.13	26.629
507.47	26.005
507.82	26.603
508.16	25.198
508.51	27.020
508.85	26.426
509.19	26.770
509.54	26.381
509.88	26.214
510.23	26.627
510.57	26.937
510.92	25.373
511.26	26.187
511.61	26.623
511.95	26.192
512.30	26.829
512.64	26.767
512.98	26.390
513.33	26.637
513.67	26.777
514.02	27.803
514.36	26.857
514.70	27.331
515.05	27.967
515.39	27.096
515.74	26.587
516.08	27.256
516.42	25.972
516.77	27.033
517.11	26.172
517.46	26.571
517.80	26.579
518.14	25.842
518.49	25.962
518.83	25.942
519.17	26.319
519.52	26.465
519.86	25.810
520.20	26.185
520.55	25.141
520.89	26.474
521.23	24.573
521.58	26.498
521.92	26.218
522.26	26.155
522.61	25.584
522.95	25.762
523.29	25.921
523.64	25.985
523.98	26.507
524.32	25.322
524.66	26.120
525.01	26.558
525.35	26.312
525.69	26.465
526.04	24.868
526.38	26.913
526.72	24.984
527.06	24.903
527.41	26.055
527.75	25.469
528.09	24.585
528.43	26.469
528.78	24.884
529.12	26.129
529.46	25.146
529.80	25.586
530.15	26.337
530.49	24.983
530.83	25.376
531.17	24.849
531.51	25.923
531.86	24.813
532.20	24.774
532.54	24.915
532.88	25.120
533.22	25.067
533.57	24.705
533.91	23.433
534.25	25.586
534.59	24.824
534.93	24.921
535.27	24.429
535.62	25.016
535.96	25.766
536.30	25.264
536.64	25.293
536.98	24.390
537.32	25.391
537.66	25.877
538.01	24.895
538.35	23.648
538.69	23.901
539.03	23.650
539.37	24.428
539.71	24.131
540.05	23.625
540.39	24.446
540.73	24.268
541.07	25.207
541.42	24.866
541.76	25.396
542.10	23.950
542.44	24.114
542.78	22.849
543.12	23.764
543.46	25.104
543.80	23.595
544.14	22.430
544.48	23.984
544.82	23.787
545.16	23.566
545.50	23.431
545.84	23.867
546.18	23.972
546.52	24.153
546.86	23.293
547.20	23.963
547.54	23.251
547.88	23.641
548.22	22.880
548.56	23.417
548.90	23.854
549.24	22.107
549.58	23.343
549.92	22.373
550.26	23.297
550.60	23.569
550.94	22.330
551.28	23.570
551.62	23.846
551.96	23.083
552.30	23.173
552.64	22.708
552.98	22.996
553.32	22.397
553.66	22.859
554.00	22.920
554.34	22.526
554.68	23.230
555.02	23.512
555.36	22.364
555.69	22.711
556.03	21.699
556.37	21.637
556.71	22.816
557.05	22.819
557.39	21.561
557.73	23.913
558.07	23.982
558.41	23.124
558.75	22.525
559.08	22.143
559.42	21.984
559.76	23.539
560.10	22.324
560.44	21.966
560.78	22.657
561.12	22.638
561.45	21.715
561.79	21.849
562.13	21.859
562.47	21.942
562.81	21.686
563.15	21.509
563.48	21.358
563.82	22.787
564.16	22.075
564.50	21.419
564.84	23.159
565.17	22.267
565.51	22.951
565.85	21.948
566.19	22.414
566.52	22.453
566.86	23.393
567.20	21.669
567.54	21.837
567.88	22.203
568.21	22.342
568.55	22.228
568.89	22.844
569.23	21.762
569.56	21.891
569.90	21.965
570.24	21.883
570.57	21.564
570.91	21.924
571.25	21.309
571.59	21.271
571.92	21.067
572.26	20.682
572.60	20.899
572.93	21.431
573.27	21.191
573.61	21.002
573.95	20.726
574.28	20.683
574.62	20.442
574.96	20.743
575.29	20.974
575.63	19.876
575.97	20.114
576.30	20.410
576.64	20.397
576.98	20.875
577.31	20.718
577.65	20.849
577.98	20.943
578.32	20.501
578.66	19.837
578.99	20.075
579.33	20.010
579.67	20.086
580.00	20.253
580.34	20.572
580.67	20.030
581.01	20.029
581.35	20.134
581.68	20.331
582.02	20.169
582.35	19.926
582.69	19.907
583.02	20.103
583.36	20.109
583.70	20.379
584.03	19.905
584.37	20.073
584.70	20.357
585.04	19.326
585.37	19.681
585.71	19.970
586.04	20.222
586.38	19.552
586.72	20.143
587.05	20.335
587.39	20.157
587.72	20.530
588.06	19.541
588.39	20.023
588.73	19.902
589.06	20.287
589.40	19.737
589.73	20.190
590.07	20.544
590.40	20.317
590.73	20.140
591.07	20.144
591.40	19.724
591.74	20.181
592.07	20.501
592.41	20.892
592.74	20.271
593.08	19.700
593.41	20.132
593.75	19.562
594.08	19.327
594.41	19.905
594.75	19.733
595.08	20.204
595.42	19.801
595.75	20.090
596.09	19.937
596.42	19.264
596.75	19.760
597.09	20.228
597.42	20.009
597.75	19.102
598.09	19.647
598.42	19.314
598.76	19.820
599.09	19.872
599.42	19.553
599.76	19.564
600.09	18.891
600.42	19.864
600.76	19.279
601.09	18.626
601.42	19.311
601.76	18.618
602.09	19.224
602.42	20.514
602.76	19.015
603.09	19.352
603.42	19.816
603.76	19.355
604.09	19.522
604.42	20.178
604.76	19.849
605.09	20.155
605.42	19.458
605.75	18.958
606.09	19.066
606.42	18.849
606.75	19.004
607.09	19.824
607.42	19.096
607.75	18.961
608.08	18.374
608.42	18.821
608.75	19.614
609.08	19.382
609.41	19.036
609.75	19.506
610.08	19.571
610.41	19.372
610.74	19.064
611.07	19.018
611.41	19.201
611.74	19.616
612.07	18.951
612.40	19.201
612.73	18.701
613.07	19.066
613.40	19.912
613.73	18.355
614.06	19.978
614.39	19.177
614.72	19.608
615.06	19.497
615.39	18.614
615.72	18.730
616.05	20.112
616.38	18.405
616.71	19.144
617.05	19.642
617.38	20.176
617.71	19.686
618.04	20.000
618.37	19.672
618.70	19.538
619.03	20.139
619.36	18.090
619.69	19.712
620.03	21.476
620.36	18.956
620.69	19.986
621.02	19.725
621.35	20.498
621.68	19.473
622.01	18.667
622.34	18.516
622.67	19.164
623.00	20.061
623.33	20.655
623.66	18.998
623.99	19.138
624.32	19.696
624.65	19.850
624.99	19.187
625.32	18.120
625.65	21.917
625.98	19.339
626.31	18.371
626.64	20.537
626.97	18.935
627.30	20.315
627.63	19.757
627.96	19.317
628.29	19.611
628.62	19.174
628.95	19.339
629.28	20.867
629.61	19.242
629.94	19.159
630.26	20.158
630.59	18.939
630.92	20.308
631.25	19.590
631.58	19.934
631.91	18.750
632.24	18.463
632.57	19.886
632.90	19.454
633.23	19.882
