SpectraSuite Data File
++++++++++++++++++++++++++++++++++++
Date: Fri May 15 20:42:33 PDT 2015
User: schluterlab
Dark Spectrum Present: Yes
Reference Spectrum Present: Yes
Number of Sampled Component Spectra: 1
Spectrometers: USB2E3373
Integration Time (usec): 3000 (USB2E3373)
Spectra Averaged: 3 (USB2E3373)
Boxcar Smoothing: 0 (USB2E3373)
Correct for Electrical Dark: No (USB2E3373)
Strobe/Lamp Enabled: No (USB2E3373)
Correct for Detector Non-linearity: No (USB2E3373)
Correct for Stray Light: No (USB2E3373)
Number of Pixels in Processed Spectrum: 2048
>>>>>Begin Processed Spectral Data<<<<<
178.53	0.000
178.91	0.000
179.29	75.000
179.67	-650.000
180.04	-28.571
180.42	-200.000
180.80	-500.000
181.18	-166.667
181.56	500.000
181.94	-100.000
182.31	-0.000
182.69	40.000
183.07	33.333
183.45	-120.000
183.83	266.667
184.20	-36.364
184.58	-22.222
184.96	50.000
185.34	66.667
185.72	0.000
186.09	38.462
186.47	-400.000
186.85	166.667
187.23	277.778
187.61	400.000
187.98	-33.333
188.36	55.556
188.74	-33.333
189.12	11.765
189.49	-44.444
189.87	0.000
190.25	42.857
190.63	-200.000
191.00	-166.667
191.38	10.526
191.76	400.000
192.14	100.000
192.51	100.000
192.89	-111.111
193.27	-42.857
193.65	283.333
194.02	136.364
194.40	-10.000
194.78	-175.000
195.15	-50.000
195.53	0.000
195.91	250.000
196.29	50.000
196.66	23.077
197.04	100.000
197.42	-66.667
197.79	-300.000
198.17	-138.462
198.55	900.000
198.92	-200.000
199.30	700.000
199.68	-40.000
200.05	-400.000
200.43	0.000
200.81	0.000
201.18	-266.667
201.56	1300.000
201.94	-100.000
202.31	-100.000
202.69	-180.000
203.07	-150.000
203.44	100.000
203.82	0.000
204.19	50.000
204.57	-100.000
204.95	62.500
205.32	-40.000
205.70	-128.571
206.08	50.000
206.45	155.556
206.83	142.857
207.20	-14.286
207.58	-100.000
207.96	100.000
208.33	-110.000
208.71	25.000
209.08	-100.000
209.46	-800.000
209.84	40.000
210.21	-1300.000
210.59	128.571
210.96	-166.667
211.34	-125.000
211.71	60.000
212.09	-42.857
212.46	-2000.000
212.84	0.000
213.22	80.000
213.59	400.000
213.97	38.462
214.34	9.091
214.72	-50.000
215.09	175.000
215.47	0.000
215.84	-18.182
216.22	-433.333
216.59	-25.000
216.97	200.000
217.34	50.000
217.72	-100.000
218.09	50.000
218.47	50.000
218.84	-1100.000
219.22	-100.000
219.59	-140.000
219.97	266.667
220.34	200.000
220.72	142.857
221.09	-50.000
221.47	150.000
221.84	-500.000
222.22	-700.000
222.59	-36.364
222.97	-16.667
223.34	-333.333
223.72	-35.714
224.09	42.857
224.46	3.571
224.84	33.333
225.21	-10.000
225.59	26.667
225.96	150.000
226.34	250.000
226.71	-57.143
227.08	183.333
227.46	-12.500
227.83	-500.000
228.21	-22.222
228.58	63.636
228.95	12.500
229.33	130.000
229.70	87.500
230.08	25.000
230.45	-185.714
230.82	71.429
231.20	-33.333
231.57	35.714
231.95	85.714
232.32	-80.000
232.69	21.429
233.07	-100.000
233.44	0.000
233.81	-30.000
234.19	33.333
234.56	-5.882
234.93	550.000
235.31	-25.000
235.68	-240.000
236.05	23.077
236.43	-40.000
236.80	47.059
237.17	56.250
237.55	40.000
237.92	-18.519
238.29	11.111
238.67	60.000
239.04	32.353
239.41	0.000
239.79	40.000
240.16	36.585
240.53	65.789
240.91	26.087
241.28	36.508
241.65	37.500
242.02	39.726
242.40	43.333
242.77	37.288
243.14	50.000
243.51	36.250
243.89	49.425
244.26	39.080
244.63	44.048
245.00	41.237
245.38	51.546
245.75	34.831
246.12	33.621
246.49	41.322
246.87	56.731
247.24	44.538
247.61	36.842
247.98	40.650
248.36	45.625
248.73	44.737
249.10	40.909
249.47	46.835
249.84	50.327
250.22	47.059
250.59	40.523
250.96	41.784
251.33	41.279
251.70	49.412
252.08	45.685
252.45	43.564
252.82	45.226
253.19	41.935
253.56	42.056
253.94	42.793
254.31	50.870
254.68	47.807
255.05	44.488
255.42	48.908
255.79	42.857
256.16	45.525
256.54	45.149
256.91	44.106
257.28	41.636
257.65	40.824
258.02	42.908
258.39	44.108
258.76	48.352
259.14	46.179
259.51	45.631
259.88	43.986
260.25	42.810
260.62	45.486
260.99	41.356
261.36	45.205
261.73	42.089
262.10	43.161
262.47	44.479
262.85	44.201
263.22	43.077
263.59	44.548
263.96	44.099
264.33	45.152
264.70	44.048
265.07	43.750
265.44	50.425
265.81	46.893
266.18	42.077
266.55	43.702
266.92	45.855
267.29	44.386
267.66	43.734
268.03	45.288
268.40	41.253
268.77	47.326
269.14	42.926
269.51	44.730
269.88	42.643
270.25	40.816
270.62	40.976
270.99	40.921
271.36	40.098
271.73	42.723
272.10	43.309
272.47	43.735
272.84	43.069
273.21	40.139
273.58	42.651
273.95	40.275
274.32	42.494
274.69	39.367
275.06	42.411
275.43	41.950
275.80	41.943
276.17	37.701
276.54	36.188
276.91	40.351
277.28	40.393
277.65	39.256
278.02	41.489
278.39	42.451
278.76	41.300
279.13	34.647
279.50	38.866
279.87	40.389
280.23	39.355
280.60	39.766
280.97	39.798
281.34	37.115
281.71	39.630
282.08	39.468
282.45	38.748
282.82	39.768
283.19	39.072
283.56	40.655
283.92	37.192
284.29	35.769
284.66	38.566
285.03	38.507
285.40	38.941
285.77	35.501
286.14	38.087
286.51	40.775
286.87	37.477
287.24	37.017
287.61	36.684
287.98	39.123
288.35	38.475
288.72	37.128
289.08	36.806
289.45	36.731
289.82	36.713
290.19	35.666
290.56	34.477
290.93	34.512
291.29	33.744
291.66	34.331
292.03	33.812
292.40	34.839
292.77	32.695
293.13	31.331
293.50	32.473
293.87	34.809
294.24	34.158
294.60	32.638
294.97	33.631
295.34	31.748
295.71	33.979
296.08	31.988
296.44	31.721
296.81	31.806
297.18	30.870
297.55	34.011
297.91	31.781
298.28	33.113
298.65	30.801
299.02	30.323
299.38	30.233
299.75	29.655
300.12	30.497
300.48	29.513
300.85	30.292
301.22	30.779
301.59	31.053
301.95	31.392
302.32	32.555
302.69	30.224
303.05	31.931
303.42	30.635
303.79	30.958
304.15	31.661
304.52	29.727
304.89	29.240
305.25	29.661
305.62	29.755
305.99	29.708
306.35	30.751
306.72	30.034
307.09	30.673
307.45	31.343
307.82	31.944
308.19	31.823
308.55	29.226
308.92	32.353
309.29	32.402
309.65	30.248
310.02	31.573
310.38	31.175
310.75	32.568
311.12	32.723
311.48	32.238
311.85	30.681
312.22	32.489
312.58	31.210
312.95	31.590
313.31	32.609
313.68	31.309
314.05	31.939
314.41	33.196
314.78	33.711
315.14	33.196
315.51	33.437
315.87	32.480
316.24	33.974
316.61	34.449
316.97	32.937
317.34	34.961
317.70	32.122
318.07	34.904
318.43	35.196
318.80	34.186
319.16	34.473
319.53	36.277
319.89	35.531
320.26	36.437
320.62	37.613
320.99	34.864
321.35	36.280
321.72	37.383
322.08	36.556
322.45	38.274
322.81	36.640
323.18	36.801
323.54	35.714
323.91	36.806
324.27	39.062
324.64	39.888
325.00	38.504
325.37	39.578
325.73	37.353
326.10	38.601
326.46	38.924
326.83	41.120
327.19	40.453
327.56	40.834
327.92	41.109
328.29	40.536
328.65	42.547
329.01	40.349
329.38	41.106
329.74	42.210
330.11	41.613
330.47	41.373
330.84	40.577
331.20	43.441
331.56	41.019
331.93	42.374
332.29	41.705
332.66	39.367
333.02	40.335
333.38	40.147
333.75	42.491
334.11	41.361
334.48	41.795
334.84	41.850
335.20	41.537
335.57	41.251
335.93	41.283
336.29	42.173
336.66	41.144
337.02	41.636
337.38	40.185
337.75	41.364
338.11	41.659
338.47	39.781
338.84	41.590
339.20	42.230
339.56	41.376
339.93	40.555
340.29	40.275
340.65	42.652
341.02	40.869
341.38	39.735
341.74	39.841
342.11	39.515
342.47	39.947
342.83	41.522
343.20	40.070
343.56	40.870
343.92	40.478
344.28	42.101
344.65	41.019
345.01	40.795
345.37	40.118
345.73	38.828
346.10	41.501
346.46	38.772
346.82	38.871
347.19	40.898
347.55	38.764
347.91	40.939
348.27	39.531
348.63	40.034
349.00	39.951
349.36	40.565
349.72	40.216
350.08	39.262
350.45	39.106
350.81	38.040
351.17	39.007
351.53	39.429
351.89	38.893
352.26	37.760
352.62	39.516
352.98	38.715
353.34	39.614
353.70	38.430
354.07	38.871
354.43	38.591
354.79	40.050
355.15	38.571
355.51	38.687
355.87	39.239
356.24	38.662
356.60	38.319
356.96	38.571
357.32	39.297
357.68	38.155
358.04	38.934
358.40	38.746
358.77	38.915
359.13	38.511
359.49	37.673
359.85	38.222
360.21	38.915
360.57	38.409
360.93	38.200
361.29	38.520
361.66	38.558
362.02	39.242
362.38	38.690
362.74	38.456
363.10	38.901
363.46	38.621
363.82	38.542
364.18	38.524
364.54	38.309
364.90	38.925
365.26	38.501
365.62	39.124
365.98	39.516
366.35	38.165
366.71	38.729
367.07	38.824
367.43	38.174
367.79	38.304
368.15	38.191
368.51	39.257
368.87	39.196
369.23	37.762
369.59	39.213
369.95	39.736
370.31	39.668
370.67	39.478
371.03	38.237
371.39	38.366
371.75	40.000
372.11	38.302
372.47	38.240
372.83	39.603
373.19	39.230
373.55	38.989
373.91	38.805
374.27	40.539
374.63	39.914
374.99	39.362
375.35	38.440
375.71	38.881
376.07	40.379
376.42	39.864
376.78	39.799
377.14	38.998
377.50	39.774
377.86	40.495
378.22	38.992
378.58	39.359
378.94	40.139
379.30	40.175
379.66	40.251
380.02	39.424
380.38	38.405
380.74	39.856
381.09	40.000
381.45	40.489
381.81	41.271
382.17	41.307
382.53	42.536
382.89	41.117
383.25	40.572
383.61	40.305
383.97	39.873
384.32	40.838
384.68	40.310
385.04	39.583
385.40	40.386
385.76	42.075
386.12	42.173
386.48	42.146
386.83	42.169
387.19	41.697
387.55	42.660
387.91	41.320
388.27	41.087
388.62	43.298
388.98	42.541
389.34	43.036
389.70	42.697
390.06	41.787
390.42	41.192
390.77	41.857
391.13	41.110
391.49	42.044
391.85	41.391
392.20	42.436
392.56	40.750
392.92	42.983
393.28	42.630
393.64	41.381
393.99	42.821
394.35	42.568
394.71	42.784
395.07	42.049
395.42	42.987
395.78	42.801
396.14	42.812
396.50	43.691
396.85	43.271
397.21	42.794
397.57	41.630
397.92	42.600
398.28	42.931
398.64	41.988
399.00	42.664
399.35	42.438
399.71	43.136
400.07	43.591
400.42	41.677
400.78	44.029
401.14	42.831
401.49	43.061
401.85	44.059
402.21	42.711
402.57	43.375
402.92	42.974
403.28	43.797
403.63	43.127
403.99	43.431
404.35	43.785
404.70	41.607
405.06	41.833
405.42	42.138
405.77	42.650
406.13	43.655
406.49	43.517
406.84	43.154
407.20	44.431
407.55	43.271
407.91	42.848
408.27	43.658
408.62	44.677
408.98	43.808
409.34	43.742
409.69	44.315
410.05	44.089
410.40	43.210
410.76	44.692
411.11	43.812
411.47	45.036
411.83	44.444
412.18	44.273
412.54	44.195
412.89	43.227
413.25	43.742
413.60	42.112
413.96	44.356
414.31	44.146
414.67	43.746
415.03	44.474
415.38	44.517
415.74	44.430
416.09	45.526
416.45	44.159
416.80	44.481
417.16	45.856
417.51	44.570
417.87	44.263
418.22	45.725
418.58	46.421
418.93	46.019
419.29	44.430
419.64	44.524
420.00	45.340
420.35	44.537
420.71	45.504
421.06	44.690
421.42	44.171
421.77	45.665
422.12	44.495
422.48	45.317
422.83	45.186
423.19	46.106
423.54	45.444
423.90	45.112
424.25	46.613
424.61	45.900
424.96	45.412
425.31	47.256
425.67	45.892
426.02	47.291
426.38	46.963
426.73	46.852
427.09	47.848
427.44	47.294
427.79	47.083
428.15	46.723
428.50	45.912
428.85	46.314
429.21	46.689
429.56	47.871
429.92	46.482
430.27	46.266
430.62	47.308
430.98	47.028
431.33	47.739
431.68	46.782
432.04	48.351
432.39	47.062
432.74	46.663
433.10	47.989
433.45	46.774
433.80	47.998
434.16	46.593
434.51	48.172
434.86	47.096
435.22	48.009
435.57	48.534
435.92	47.784
436.28	46.631
436.63	48.431
436.98	48.320
437.34	48.155
437.69	49.553
438.04	47.920
438.39	47.892
438.75	49.787
439.10	47.765
439.45	49.848
439.81	49.174
440.16	50.534
440.51	49.134
440.86	51.299
441.22	49.095
441.57	49.172
441.92	49.843
442.27	51.164
442.63	49.732
442.98	49.856
443.33	50.306
443.68	49.602
444.03	48.833
444.39	48.647
444.74	49.777
445.09	50.390
445.44	50.370
445.79	50.593
446.15	50.330
446.50	49.639
446.85	49.841
447.20	49.479
447.55	51.283
447.91	49.859
448.26	51.793
448.61	50.489
448.96	51.865
449.31	50.809
449.66	52.091
450.02	50.770
450.37	51.097
450.72	50.286
451.07	52.722
451.42	50.811
451.77	51.718
452.12	50.000
452.47	50.998
452.83	50.942
453.18	52.309
453.53	51.707
453.88	52.338
454.23	51.444
454.58	52.708
454.93	52.771
455.28	52.063
455.63	52.821
455.98	51.834
456.34	51.980
456.69	51.207
457.04	53.182
457.39	53.159
457.74	52.297
458.09	51.442
458.44	53.013
458.79	52.269
459.14	52.574
459.49	53.493
459.84	52.961
460.19	52.184
460.54	53.484
460.89	52.614
461.24	53.168
461.59	52.732
461.94	52.013
462.29	53.076
462.64	53.555
462.99	54.164
463.34	52.503
463.69	53.411
464.04	54.116
464.39	53.002
464.74	53.190
465.09	52.527
465.44	53.433
465.79	51.644
466.14	53.250
466.49	53.594
466.84	53.183
467.19	53.880
467.54	51.916
467.89	54.959
468.24	53.771
468.59	54.603
468.94	53.778
469.29	54.689
469.64	53.930
469.99	55.571
470.34	53.720
470.68	55.630
471.03	54.494
471.38	54.351
471.73	55.252
472.08	55.224
472.43	56.644
472.78	53.941
473.13	54.694
473.48	54.853
473.83	55.479
474.17	55.246
474.52	55.648
474.87	55.697
475.22	55.705
475.57	55.336
475.92	55.513
476.27	55.297
476.61	55.150
476.96	55.326
477.31	54.732
477.66	56.180
478.01	55.081
478.36	55.065
478.70	55.682
479.05	56.099
479.40	56.333
479.75	55.214
480.10	54.429
480.45	54.900
480.79	56.143
481.14	56.455
481.49	55.320
481.84	56.612
482.19	54.864
482.53	55.252
482.88	55.274
483.23	55.326
483.58	55.189
483.92	56.389
484.27	55.515
484.62	55.132
484.97	54.395
485.31	53.215
485.66	52.364
486.01	51.463
486.36	51.260
486.70	52.649
487.05	52.669
487.40	53.490
487.75	54.366
488.09	54.944
488.44	54.092
488.79	55.435
489.13	56.571
489.48	56.221
489.83	56.413
490.17	57.034
490.52	56.905
490.87	56.409
491.22	58.118
491.56	57.590
491.91	56.836
492.26	58.629
492.60	57.198
492.95	58.485
493.30	57.157
493.64	58.743
493.99	57.391
494.34	57.864
494.68	59.429
495.03	57.421
495.37	57.900
495.72	58.657
496.07	58.341
496.41	57.264
496.76	57.623
497.11	58.081
497.45	58.091
497.80	58.930
498.14	57.476
498.49	57.186
498.84	57.784
499.18	58.283
499.53	58.978
499.87	58.220
500.22	58.457
500.56	59.506
500.91	58.333
501.26	58.033
501.60	58.337
501.95	58.709
502.29	58.983
502.64	58.929
502.98	59.793
503.33	57.541
503.67	57.398
504.02	59.384
504.36	59.327
504.71	59.444
505.06	57.725
505.40	59.848
505.75	60.619
506.09	59.757
506.44	61.140
506.78	59.847
507.13	60.600
507.47	59.269
507.82	59.936
508.16	59.852
508.51	60.651
508.85	60.335
509.19	59.713
509.54	61.019
509.88	59.817
510.23	60.893
510.57	60.983
510.92	60.128
511.26	60.938
511.61	62.046
511.95	60.932
512.30	61.863
512.64	61.603
512.98	60.809
513.33	61.276
513.67	62.081
514.02	63.444
514.36	62.800
514.70	62.471
515.05	63.396
515.39	63.223
515.74	64.132
516.08	64.136
516.42	62.132
516.77	63.136
517.11	64.807
517.46	64.512
517.80	63.409
518.14	64.238
518.49	64.423
518.83	64.338
519.17	61.249
519.52	63.410
519.86	63.625
520.20	64.763
520.55	63.665
520.89	64.680
521.23	64.218
521.58	64.984
521.92	66.603
522.26	66.298
522.61	65.779
522.95	67.483
523.29	65.184
523.64	65.693
523.98	66.494
524.32	64.820
524.66	65.365
525.01	67.143
525.35	65.457
525.69	65.993
526.04	66.270
526.38	66.667
526.72	65.010
527.06	64.916
527.41	66.095
527.75	65.349
528.09	65.648
528.43	67.589
528.78	66.733
529.12	66.903
529.46	65.887
529.80	64.788
530.15	66.007
530.49	65.724
530.83	66.347
531.17	65.682
531.51	66.416
531.86	65.670
532.20	65.971
532.54	66.576
532.88	66.804
533.22	66.465
533.57	66.186
533.91	66.123
534.25	67.057
534.59	65.427
534.93	63.940
535.27	64.530
535.62	63.577
535.96	65.101
536.30	65.765
536.64	68.022
536.98	66.341
537.32	66.572
537.66	67.672
538.01	67.413
538.35	66.297
538.69	65.180
539.03	65.277
539.37	67.026
539.71	67.280
540.05	66.327
540.39	66.205
540.73	66.667
541.07	66.989
541.42	66.263
541.76	67.584
542.10	66.139
542.44	66.644
542.78	65.175
543.12	65.247
543.46	65.855
543.80	67.037
544.14	64.553
544.48	65.356
544.82	65.687
545.16	65.710
545.50	64.085
545.84	67.280
546.18	67.589
546.52	67.051
546.86	66.786
547.20	66.810
547.54	65.795
547.88	66.304
548.22	65.155
548.56	63.391
548.90	65.499
549.24	64.601
549.58	65.797
549.92	65.761
550.26	66.374
550.60	67.435
550.94	67.886
551.28	67.465
551.62	68.692
551.96	66.842
552.30	66.228
552.64	64.175
552.98	67.159
553.32	65.692
553.66	65.602
554.00	67.007
554.34	66.691
554.68	66.077
555.02	65.625
555.36	67.539
555.69	65.275
556.03	65.096
556.37	66.335
556.71	65.271
557.05	66.443
557.39	66.097
557.73	66.492
558.07	67.345
558.41	66.692
558.75	67.966
559.08	66.903
559.42	69.127
559.76	69.175
560.10	67.737
560.44	66.865
560.78	66.084
561.12	67.701
561.45	66.550
561.79	65.896
562.13	65.366
562.47	66.906
562.81	66.931
563.15	64.739
563.48	66.124
563.82	66.163
564.16	66.783
564.50	64.865
564.84	65.261
565.17	64.923
565.51	66.598
565.85	65.775
566.19	65.186
566.52	66.756
566.86	65.810
567.20	63.325
567.54	65.511
567.88	63.738
568.21	63.462
568.55	63.804
568.89	62.731
569.23	61.579
569.56	60.552
569.90	60.780
570.24	57.797
570.57	58.836
570.91	58.557
571.25	57.613
571.59	56.618
571.92	56.622
572.26	57.518
572.60	56.589
572.93	57.358
573.27	57.524
573.61	56.772
573.95	56.308
574.28	55.614
574.62	55.378
574.96	55.448
575.29	54.897
575.63	54.133
575.97	55.245
576.30	55.890
576.64	54.490
576.98	55.779
577.31	55.788
577.65	55.711
577.98	54.734
578.32	54.432
578.66	53.643
578.99	54.843
579.33	54.509
579.67	54.328
580.00	55.089
580.34	54.552
580.67	53.709
581.01	55.163
581.35	53.941
581.68	53.493
582.02	52.835
582.35	53.556
582.69	54.090
583.02	54.006
583.36	55.098
583.70	55.504
584.03	55.685
584.37	56.324
584.70	55.385
585.04	54.041
585.37	53.931
585.71	54.332
586.04	55.068
586.38	54.388
586.72	54.778
587.05	56.470
587.39	55.270
587.72	55.495
588.06	55.300
588.39	55.283
588.73	56.166
589.06	56.491
589.40	55.859
589.73	56.517
590.07	57.364
590.40	58.437
590.73	59.390
591.07	57.506
591.40	58.459
591.74	58.959
592.07	59.555
592.41	58.966
592.74	56.392
593.08	55.187
593.41	55.914
593.75	56.068
594.08	55.784
594.41	55.822
594.75	56.832
595.08	55.581
595.42	56.938
595.75	58.468
596.09	57.467
596.42	58.330
596.75	57.815
597.09	58.087
597.42	57.859
597.75	58.039
598.09	57.130
598.42	56.679
598.76	57.229
599.09	55.449
599.42	55.286
599.76	56.170
600.09	54.864
600.42	55.648
600.76	54.421
601.09	56.679
601.42	55.307
601.76	56.213
602.09	55.652
602.42	57.119
602.76	57.767
603.09	56.894
603.42	57.065
603.76	56.774
604.09	56.136
604.42	56.557
604.76	57.721
605.09	57.313
605.42	57.336
605.75	56.918
606.09	56.178
606.42	55.338
606.75	57.056
607.09	56.440
607.42	54.984
607.75	55.506
608.08	56.065
608.42	55.596
608.75	57.446
609.08	57.947
609.41	58.020
609.75	56.956
610.08	57.813
610.41	56.039
610.74	56.899
611.07	57.623
611.41	57.654
611.74	59.009
612.07	58.512
612.40	57.823
612.73	59.492
613.07	58.099
613.40	57.823
613.73	58.310
614.06	58.375
614.39	58.827
614.72	57.591
615.06	58.156
615.39	56.441
615.72	57.320
616.05	57.765
616.38	56.410
616.71	59.266
617.05	58.863
617.38	58.957
617.71	60.063
618.04	60.444
618.37	61.349
618.70	60.792
619.03	60.972
619.36	60.781
619.69	62.244
620.03	61.578
620.36	61.016
620.69	60.528
621.02	61.162
621.35	62.822
621.68	63.350
622.01	63.417
622.34	61.293
622.67	61.041
623.00	61.485
623.33	61.433
623.66	60.658
623.99	59.758
624.32	61.445
624.65	60.977
624.99	61.926
625.32	60.652
625.65	61.744
625.98	63.255
626.31	62.594
626.64	64.645
626.97	64.136
627.30	62.960
627.63	62.565
627.96	63.971
628.29	65.402
628.62	65.093
628.95	65.030
629.28	65.323
629.61	65.304
629.94	65.982
630.26	65.711
630.59	66.285
630.92	66.051
631.25	65.333
631.58	67.841
631.91	66.886
632.24	65.482
632.57	67.955
632.90	67.260
633.23	67.412
633.56	69.773
