SpectraSuite Data File
++++++++++++++++++++++++++++++++++++
Date: Fri May 15 20:47:51 PDT 2015
User: schluterlab
Dark Spectrum Present: Yes
Reference Spectrum Present: Yes
Number of Sampled Component Spectra: 1
Spectrometers: USB2E3373
Integration Time (usec): 3000 (USB2E3373)
Spectra Averaged: 3 (USB2E3373)
Boxcar Smoothing: 0 (USB2E3373)
Correct for Electrical Dark: No (USB2E3373)
Strobe/Lamp Enabled: No (USB2E3373)
Correct for Detector Non-linearity: No (USB2E3373)
Correct for Stray Light: No (USB2E3373)
Number of Pixels in Processed Spectrum: 2048
>>>>>Begin Processed Spectral Data<<<<<
178.53	0.000
178.91	0.000
179.29	-100.000
179.67	-350.000
180.04	-42.857
180.42	250.000
180.80	-700.000
181.18	400.000
181.56	350.000
181.94	-600.000
182.31	400.000
182.69	-60.000
183.07	-433.333
183.45	-80.000
183.83	216.667
184.20	36.364
184.58	166.667
184.96	100.000
185.34	100.000
185.72	-1000.000
186.09	38.462
186.47	-1100.000
186.85	400.000
187.23	200.000
187.61	1500.000
187.98	-500.000
188.36	11.111
188.74	-166.667
189.12	-17.647
189.49	5.556
189.87	0.000
190.25	-35.714
190.63	-150.000
191.00	-533.333
191.38	-36.842
191.76	-100.000
192.14	50.000
192.51	150.000
192.89	-33.333
193.27	-128.571
193.65	150.000
194.02	172.727
194.40	0.000
194.78	-125.000
195.15	-83.333
195.53	-87.500
195.91	225.000
196.29	-300.000
196.66	107.692
197.04	100.000
197.42	-144.444
197.79	-600.000
198.17	-100.000
198.55	1600.000
198.92	-766.667
199.30	-700.000
199.68	-240.000
200.05	-300.000
200.43	0.000
200.81	-466.667
201.18	0.000
201.56	1100.000
201.94	-300.000
202.31	-0.000
202.69	-260.000
203.07	175.000
203.44	-300.000
203.82	0.000
204.19	57.143
204.57	-700.000
204.95	162.500
205.32	-50.000
205.70	-85.714
206.08	-175.000
206.45	144.444
206.83	42.857
207.20	-242.857
207.58	1100.000
207.96	-400.000
208.33	-110.000
208.71	-75.000
209.08	-333.333
209.46	-900.000
209.84	-160.000
210.21	-1100.000
210.59	-85.714
210.96	16.667
211.34	0.000
211.71	-60.000
212.09	-214.286
212.46	-1800.000
212.84	0.000
213.22	10.000
213.59	800.000
213.97	-107.692
214.34	-9.091
214.72	0.000
215.09	425.000
215.47	-30.769
215.84	-27.273
216.22	-533.333
216.59	-12.500
216.97	150.000
217.34	-75.000
217.72	-380.000
218.09	-25.000
218.47	312.500
218.84	-1100.000
219.22	11.111
219.59	-20.000
219.97	433.333
220.34	275.000
220.72	-100.000
221.09	-250.000
221.47	-300.000
221.84	-600.000
222.22	-650.000
222.59	9.091
222.97	8.333
223.34	-400.000
223.72	-107.143
224.09	-33.333
224.46	14.286
224.84	466.667
225.21	-90.000
225.59	-93.333
225.96	-550.000
226.34	425.000
226.71	-314.286
227.08	-166.667
227.46	-87.500
227.83	-350.000
228.21	-44.444
228.58	-90.909
228.95	-125.000
229.33	50.000
229.70	0.000
230.08	-175.000
230.45	-114.286
230.82	-100.000
231.20	-20.000
231.57	0.000
231.95	14.286
232.32	-150.000
232.69	7.143
233.07	-233.333
233.44	-120.000
233.81	-90.000
234.19	-22.222
234.56	-5.882
234.93	350.000
235.31	-100.000
235.68	-300.000
236.05	-84.615
236.43	-100.000
236.80	-35.294
237.17	6.250
237.55	-35.000
237.92	-37.037
238.29	-8.333
238.67	-13.333
239.04	-23.529
239.41	-39.024
239.79	-43.333
240.16	0.000
240.53	-28.947
240.91	-13.043
241.28	0.000
241.65	3.571
242.02	0.000
242.40	-5.000
242.77	-10.169
243.14	-15.152
243.51	3.750
243.89	5.747
244.26	-5.747
244.63	0.000
245.00	-5.155
245.38	1.031
245.75	-5.618
246.12	-4.310
246.49	-1.653
246.87	-9.615
247.24	-6.723
247.61	-2.632
247.98	0.813
248.36	1.250
248.73	3.947
249.10	-7.792
249.47	4.430
249.84	1.307
250.22	1.176
250.59	1.961
250.96	10.798
251.33	-2.907
251.70	0.588
252.08	3.553
252.45	3.465
252.82	2.010
253.19	3.226
253.56	-1.869
253.94	-0.450
254.31	4.348
254.68	9.649
255.05	1.575
255.42	1.310
255.79	5.019
256.16	6.226
256.54	5.970
256.91	-0.380
257.28	2.974
257.65	1.498
258.02	-0.355
258.39	5.724
258.76	7.692
259.14	2.658
259.51	5.178
259.88	-2.062
260.25	3.922
260.62	6.597
260.99	2.034
261.36	-0.342
261.73	2.215
262.10	4.863
262.47	1.840
262.85	3.448
263.22	1.846
263.59	1.246
263.96	5.901
264.33	6.364
264.70	3.274
265.07	0.893
265.44	3.399
265.81	3.955
266.18	3.552
266.55	3.342
266.92	2.332
267.29	4.700
267.66	1.279
268.03	2.618
268.40	1.828
268.77	4.545
269.14	4.077
269.51	3.599
269.88	0.748
270.25	0.510
270.62	1.951
270.99	2.813
271.36	2.934
271.73	5.164
272.10	3.406
272.47	0.946
272.84	3.713
273.21	4.640
273.58	3.855
273.95	3.661
274.32	2.540
274.69	1.357
275.06	2.679
275.43	2.948
275.80	5.298
276.17	2.989
276.54	2.570
276.91	4.386
277.28	2.620
277.65	4.339
278.02	1.489
278.39	2.845
278.76	3.774
279.13	2.282
279.50	5.252
279.87	2.376
280.23	1.935
280.60	2.729
280.97	4.848
281.34	5.000
281.71	3.696
282.08	1.431
282.45	2.935
282.82	2.317
283.19	2.901
283.56	2.119
283.92	2.657
284.29	3.269
284.66	1.938
285.03	3.143
285.40	3.025
285.77	2.988
286.14	2.708
286.51	4.244
286.87	2.377
287.24	2.394
287.61	4.056
287.98	5.263
288.35	2.426
288.72	4.203
289.08	3.646
289.45	3.339
289.82	2.972
290.19	2.048
290.56	1.715
290.93	2.020
291.29	1.387
291.66	4.724
292.03	2.073
292.40	3.871
292.77	1.116
293.13	1.299
293.50	2.883
293.87	3.359
294.24	2.628
294.60	4.471
294.97	5.060
295.34	1.534
295.71	2.235
296.08	2.392
296.44	1.138
296.81	2.639
297.18	1.594
297.55	3.117
297.91	3.151
298.28	2.770
298.65	4.478
299.02	1.887
299.38	0.137
299.75	1.379
300.12	2.749
300.48	2.108
300.85	3.422
301.22	1.688
301.59	3.158
301.95	3.418
302.32	3.372
302.69	2.861
303.05	3.218
303.42	3.611
303.79	3.037
304.15	3.943
304.52	2.616
304.89	0.936
305.25	2.421
305.62	0.933
305.99	2.222
306.35	1.734
306.72	1.237
307.09	1.368
307.45	3.674
307.82	2.431
308.19	2.671
308.55	2.617
308.92	3.922
309.29	2.235
309.65	2.153
310.02	3.410
310.38	3.183
310.75	2.951
311.12	2.153
311.48	3.499
311.85	1.780
312.22	2.637
312.58	2.760
312.95	1.601
313.31	2.692
313.68	1.571
314.05	3.265
314.41	2.062
314.78	1.134
315.14	3.494
315.51	3.623
315.87	2.561
316.24	4.247
316.61	3.051
316.97	3.770
317.34	2.734
317.70	1.625
318.07	1.635
318.43	2.255
318.80	1.894
319.16	3.418
319.53	3.324
319.89	2.165
320.26	1.721
320.62	3.009
320.99	0.835
321.35	1.953
321.72	3.531
322.08	2.820
322.45	3.350
322.81	2.161
323.18	3.337
323.54	2.124
323.91	3.019
324.27	3.027
324.64	4.026
325.00	3.832
325.37	4.867
325.73	2.176
326.10	3.815
326.46	2.780
326.83	2.975
327.19	3.051
327.56	3.215
327.92	2.817
328.29	2.232
328.65	3.019
329.01	4.228
329.38	4.332
329.74	2.833
330.11	2.502
330.47	2.597
330.84	3.077
331.20	3.612
331.56	3.426
331.93	4.201
332.29	3.391
332.66	3.620
333.02	3.717
333.38	2.933
333.75	3.297
334.11	2.507
334.48	3.536
334.84	5.403
335.20	3.385
335.57	2.901
335.93	4.607
336.29	3.039
336.66	2.543
337.02	2.881
337.38	2.407
337.75	2.818
338.11	3.246
338.47	3.102
338.84	2.126
339.20	3.565
339.56	3.670
339.93	4.029
340.29	2.569
340.65	4.122
341.02	3.457
341.38	3.540
341.74	2.650
342.11	2.080
342.47	2.135
342.83	3.979
343.20	3.049
343.56	3.565
343.92	1.771
344.28	3.330
344.65	2.504
345.01	2.247
345.37	2.607
345.73	4.017
346.10	3.796
346.46	3.448
346.82	4.010
347.19	2.411
347.55	2.673
347.91	3.641
348.27	3.557
348.63	3.237
349.00	2.871
349.36	2.909
349.72	4.146
350.08	3.770
350.45	3.272
350.81	2.326
351.17	3.176
351.53	4.000
351.89	3.055
352.26	2.800
352.62	3.468
352.98	3.213
353.34	2.738
353.70	3.964
354.07	3.387
354.43	3.363
354.79	3.303
355.15	4.206
355.51	4.035
355.87	3.560
356.24	2.447
356.60	3.314
356.96	3.175
357.32	2.955
357.68	3.206
358.04	2.504
358.40	2.974
358.77	4.306
359.13	2.802
359.49	3.390
359.85	3.510
360.21	3.030
360.57	3.213
360.93	3.555
361.29	2.039
361.66	3.056
362.02	2.803
362.38	3.503
362.74	2.347
363.10	3.762
363.46	2.891
363.82	4.282
364.18	3.100
364.54	3.015
364.90	3.011
365.26	2.620
365.62	3.723
365.98	3.226
366.35	3.132
366.71	2.956
367.07	3.556
367.43	2.804
367.79	3.604
368.15	2.728
368.51	3.132
368.87	1.795
369.23	2.310
369.59	2.988
369.95	3.519
370.31	2.312
370.67	2.537
371.03	2.913
371.39	2.626
371.75	2.784
372.11	2.710
372.47	2.959
372.83	2.981
373.19	3.638
373.55	1.877
373.91	2.664
374.27	3.402
374.63	3.877
374.99	3.121
375.35	3.343
375.71	3.357
376.07	2.388
376.42	3.469
376.78	3.423
377.14	2.844
377.50	2.656
377.86	3.146
378.22	3.127
378.58	2.372
378.94	2.457
379.30	3.369
379.66	3.636
380.02	3.127
380.38	2.313
380.74	2.633
381.09	3.988
381.45	3.303
381.81	3.023
382.17	2.157
382.53	2.936
382.89	3.390
383.25	2.925
383.61	3.354
383.97	2.222
384.32	3.064
384.68	2.291
385.04	1.777
385.40	2.302
385.76	3.396
386.12	2.717
386.48	3.129
386.83	2.980
387.19	3.419
387.55	3.262
387.91	3.178
388.27	3.297
388.62	2.769
388.98	2.947
389.34	2.873
389.70	3.605
390.06	2.329
390.42	2.332
390.77	1.962
391.13	2.711
391.49	2.523
391.85	2.729
392.20	2.197
392.56	2.161
392.92	2.936
393.28	3.420
393.64	2.583
393.99	3.887
394.35	2.024
394.71	2.427
395.07	2.703
395.42	3.522
395.78	2.020
396.14	3.279
396.50	2.727
396.85	2.898
397.21	2.506
397.57	2.696
397.92	3.715
398.28	2.644
398.64	2.229
399.00	3.047
399.35	2.314
399.71	2.872
400.07	2.418
400.42	3.060
400.78	3.491
401.14	3.206
401.49	2.978
401.85	2.559
402.21	2.952
402.57	3.250
402.92	2.070
403.28	3.008
403.63	2.648
403.99	2.551
404.35	2.811
404.70	2.857
405.06	2.938
405.42	2.735
405.77	1.976
406.13	2.561
406.49	2.427
406.84	2.995
407.20	2.709
407.55	2.704
407.91	2.005
408.27	1.848
408.62	2.892
408.98	2.773
409.34	3.160
409.69	2.713
410.05	2.463
410.40	3.148
410.76	3.498
411.11	3.000
411.47	2.235
411.83	1.820
412.18	2.445
412.54	2.185
412.89	2.771
413.25	2.768
413.60	3.106
413.96	2.638
414.31	3.049
414.67	2.630
415.03	3.329
415.38	3.264
415.74	3.062
416.09	3.005
416.45	3.106
416.80	2.710
417.16	3.108
417.51	3.198
417.87	2.803
418.22	3.044
418.58	2.943
418.93	3.448
419.29	2.881
419.64	2.009
420.00	3.401
420.35	2.687
420.71	3.038
421.06	2.578
421.42	3.185
421.77	2.659
422.12	2.894
422.48	3.086
422.83	2.436
423.19	3.160
423.54	2.116
423.90	2.768
424.25	2.181
424.61	2.387
424.96	3.252
425.31	3.062
425.67	2.582
426.02	3.357
426.38	3.131
426.73	3.450
427.09	3.418
427.44	3.059
427.79	2.887
428.15	3.398
428.50	2.726
428.85	2.150
429.21	3.848
429.56	3.181
429.92	3.493
430.27	2.857
430.62	2.457
430.98	2.601
431.33	3.733
431.68	3.297
432.04	2.348
432.39	2.453
432.74	3.247
433.10	3.621
433.45	3.226
433.80	2.902
434.16	2.382
434.51	3.172
434.86	2.613
435.22	2.804
435.57	2.620
435.92	3.353
436.28	3.041
436.63	2.966
436.98	2.317
437.34	2.480
437.69	3.459
438.04	3.191
438.39	2.016
438.75	2.429
439.10	2.886
439.45	3.469
439.81	2.691
440.16	2.850
440.51	3.224
440.86	3.927
441.22	3.281
441.57	2.870
441.92	3.253
442.27	2.827
442.63	3.854
442.98	3.274
443.33	3.895
443.68	2.971
444.03	3.378
444.39	3.148
444.74	3.233
445.09	3.396
445.44	2.849
445.79	3.404
446.15	3.139
446.50	3.328
446.85	3.294
447.20	3.389
447.55	3.571
447.91	3.328
448.26	3.699
448.61	3.569
448.96	3.557
449.31	2.428
449.66	3.136
450.02	3.366
450.37	3.023
450.72	2.921
451.07	4.177
451.42	3.371
451.77	4.039
452.12	1.794
452.47	2.640
452.83	4.358
453.18	3.163
453.53	3.413
453.88	2.914
454.23	2.950
454.58	3.149
454.93	3.222
455.28	2.857
455.63	3.596
455.98	3.428
456.34	3.129
456.69	3.240
457.04	4.285
457.39	3.645
457.74	2.539
458.09	3.002
458.44	3.101
458.79	2.633
459.14	2.975
459.49	3.761
459.84	3.271
460.19	3.216
460.54	3.790
460.89	3.068
461.24	3.540
461.59	3.563
461.94	3.019
462.29	4.041
462.64	4.120
462.99	3.927
463.34	2.851
463.69	3.153
464.04	4.661
464.39	3.335
464.74	3.374
465.09	3.930
465.44	4.097
465.79	3.515
466.14	3.193
466.49	2.760
466.84	3.688
467.19	4.005
467.54	3.384
467.89	3.222
468.24	3.954
468.59	4.063
468.94	3.111
469.29	3.869
469.64	4.375
469.99	3.644
470.34	1.980
470.68	3.654
471.03	4.105
471.38	2.853
471.73	3.711
472.08	3.935
472.43	2.416
472.78	2.536
473.13	3.741
473.48	2.606
473.83	2.740
474.17	3.627
474.52	4.084
474.87	3.515
475.22	2.807
475.57	3.049
475.92	3.950
476.27	3.958
476.61	3.009
476.96	3.067
477.31	3.569
477.66	2.978
478.01	2.976
478.36	3.976
478.70	3.208
479.05	3.626
479.40	2.862
479.75	3.493
480.10	3.175
480.45	3.700
480.79	3.575
481.14	3.637
481.49	3.399
481.84	2.654
482.19	3.368
482.53	3.693
482.88	3.484
483.23	3.311
483.58	3.538
483.92	3.146
484.27	3.145
484.62	3.541
484.97	3.151
485.31	3.793
485.66	3.600
486.01	3.477
486.36	3.522
486.70	3.658
487.05	3.596
487.40	3.723
487.75	3.296
488.09	3.461
488.44	3.645
488.79	3.960
489.13	3.526
489.48	3.463
489.83	3.363
490.17	3.191
490.52	3.187
490.87	3.054
491.22	3.343
491.56	3.368
491.91	3.203
492.26	3.014
492.60	3.839
492.95	3.886
493.30	3.224
493.64	3.389
493.99	4.010
494.34	2.718
494.68	3.571
495.03	2.822
495.37	3.238
495.72	3.029
496.07	3.024
496.41	3.255
496.76	3.132
497.11	3.354
497.45	3.819
497.80	3.532
498.14	3.775
498.49	3.606
498.84	3.942
499.18	3.916
499.53	3.472
499.87	3.016
500.22	3.066
500.56	3.480
500.91	3.213
501.26	3.361
501.60	3.689
501.95	3.590
502.29	2.954
502.64	3.861
502.98	2.861
503.33	3.266
503.67	3.952
504.02	3.910
504.36	3.909
504.71	3.030
505.06	3.573
505.40	3.299
505.75	3.660
506.09	3.244
506.44	4.107
506.78	3.622
507.13	3.723
507.47	3.812
507.82	2.885
508.16	3.328
508.51	3.987
508.85	2.983
509.19	2.608
509.54	3.056
509.88	3.128
510.23	2.905
510.57	3.581
510.92	2.772
511.26	3.382
511.61	3.740
511.95	3.836
512.30	3.215
512.64	3.728
512.98	3.369
513.33	3.861
513.67	2.729
514.02	4.291
514.36	4.057
514.70	3.963
515.05	3.995
515.39	3.424
515.74	4.251
516.08	4.184
516.42	3.828
516.77	4.447
517.11	3.145
517.46	4.488
517.80	3.814
518.14	3.062
518.49	3.906
518.83	3.524
519.17	3.942
519.52	3.197
519.86	3.481
520.20	3.827
520.55	3.064
520.89	4.329
521.23	3.167
521.58	3.849
521.92	3.654
522.26	3.578
522.61	4.416
522.95	4.106
523.29	3.812
523.64	3.812
523.98	3.953
524.32	3.157
524.66	3.969
525.01	3.701
525.35	3.759
525.69	3.367
526.04	2.381
526.38	4.734
526.72	2.943
527.06	3.956
527.41	3.100
527.75	3.887
528.09	3.787
528.43	4.456
528.78	2.838
529.12	3.742
529.46	3.379
529.80	4.053
530.15	4.818
530.49	3.973
530.83	4.241
531.17	3.022
531.51	4.446
531.86	3.399
532.20	4.036
532.54	3.608
532.88	5.270
533.22	3.898
533.57	4.063
533.91	3.525
534.25	4.688
534.59	4.041
534.93	3.713
535.27	3.426
535.62	3.305
535.96	4.631
536.30	5.079
536.64	3.653
536.98	3.275
537.32	4.410
537.66	4.839
538.01	4.266
538.35	3.467
538.69	4.128
539.03	3.349
539.37	4.711
539.71	3.817
540.05	3.055
540.39	4.155
540.73	3.905
541.07	3.660
541.42	4.906
541.76	3.716
542.10	3.923
542.44	3.892
542.78	2.409
543.12	3.915
543.46	4.659
543.80	4.094
544.14	3.738
544.48	3.531
544.82	3.896
545.16	4.372
545.50	4.740
545.84	4.533
546.18	4.610
546.52	4.470
546.86	3.882
547.20	3.720
547.54	3.816
547.88	4.620
548.22	3.813
548.56	4.024
548.90	4.178
549.24	4.683
549.58	4.584
549.92	3.717
550.26	3.883
550.60	4.238
550.94	3.585
551.28	3.632
551.62	4.538
551.96	3.459
552.30	3.655
552.64	3.808
552.98	4.008
553.32	4.636
553.66	3.556
554.00	3.723
554.34	5.022
554.68	4.425
555.02	4.464
555.36	3.665
555.69	3.883
556.03	3.355
556.37	4.057
556.71	3.755
557.05	2.759
557.39	3.494
557.73	4.273
558.07	3.997
558.41	4.747
558.75	4.131
559.08	4.413
559.42	3.810
559.76	3.443
560.10	4.205
560.44	3.202
560.78	4.545
561.12	3.456
561.45	4.638
561.79	3.922
562.13	3.833
562.47	2.878
562.81	4.251
563.15	4.302
563.48	4.173
563.82	4.255
564.16	3.134
564.50	4.324
564.84	4.351
565.17	3.957
565.51	4.303
565.85	3.704
566.19	4.111
566.52	4.088
566.86	4.113
567.20	4.047
567.54	4.075
567.88	3.574
568.21	4.695
568.55	3.696
568.89	4.363
569.23	4.622
569.56	4.203
569.90	4.385
570.24	4.652
570.57	4.109
570.91	4.705
571.25	3.979
571.59	4.422
571.92	4.000
572.26	3.955
572.60	4.496
572.93	4.393
573.27	3.950
573.61	4.027
573.95	4.560
574.28	3.655
574.62	3.966
574.96	4.438
575.29	3.963
575.63	3.783
575.97	3.931
576.30	4.048
576.64	3.921
576.98	4.221
577.31	3.932
577.65	4.427
577.98	4.353
578.32	4.150
578.66	4.040
578.99	4.375
579.33	4.397
579.67	4.441
580.00	4.253
580.34	4.453
580.67	4.204
581.01	4.299
581.35	4.436
581.68	4.389
582.02	3.891
582.35	4.011
582.69	4.188
583.02	4.230
583.36	4.258
583.70	4.647
584.03	4.309
584.37	4.856
584.70	4.423
585.04	4.378
585.37	4.423
585.71	4.295
586.04	4.261
586.38	4.348
586.72	4.304
587.05	4.275
587.39	4.613
587.72	4.565
588.06	4.733
588.39	4.358
588.73	4.823
589.06	5.088
589.40	4.701
589.73	4.783
590.07	4.683
590.40	4.683
590.73	4.036
591.07	4.368
591.40	4.007
591.74	4.570
592.07	5.148
592.41	4.903
592.74	4.978
593.08	4.436
593.41	4.514
593.75	4.351
594.08	4.978
594.41	4.330
594.75	4.160
595.08	4.956
595.42	4.269
595.75	4.356
596.09	4.457
596.42	4.341
596.75	4.796
597.09	4.829
597.42	4.697
597.75	4.260
598.09	4.617
598.42	4.738
598.76	4.118
599.09	4.407
599.42	4.812
599.76	5.079
600.09	4.487
600.42	4.890
600.76	4.272
601.09	3.931
601.42	4.700
601.76	4.684
602.09	4.208
602.42	5.013
602.76	5.051
603.09	4.610
603.42	4.808
603.76	4.476
604.09	4.617
604.42	4.822
604.76	4.895
605.09	4.707
605.42	5.011
605.75	4.291
606.09	4.586
606.42	4.212
606.75	4.848
607.09	5.231
607.42	4.475
607.75	4.796
608.08	4.582
608.42	4.797
608.75	4.627
609.08	4.385
609.41	4.873
609.75	5.040
610.08	4.194
610.41	5.024
610.74	4.681
611.07	4.703
611.41	5.189
611.74	4.638
612.07	4.711
612.40	4.814
612.73	4.520
613.07	4.612
613.40	4.540
613.73	3.805
614.06	5.676
614.39	4.456
614.72	4.762
615.06	4.972
615.39	4.749
615.72	4.682
616.05	5.028
616.38	4.160
616.71	4.465
617.05	5.188
617.38	4.965
617.71	4.591
618.04	5.143
618.37	5.296
618.70	4.488
619.03	5.486
619.36	4.197
619.69	3.791
620.03	5.332
620.36	4.435
620.69	4.425
621.02	5.352
621.35	5.643
621.68	4.507
622.01	6.000
622.34	4.709
622.67	5.521
623.00	4.671
623.33	4.954
623.66	4.488
623.99	5.446
624.32	4.487
624.65	4.286
624.99	4.891
625.32	4.625
625.65	5.420
625.98	5.238
626.31	3.574
626.64	5.113
626.97	6.021
627.30	5.517
627.63	5.113
627.96	4.043
628.29	4.995
628.62	5.801
628.95	5.110
629.28	3.327
629.61	3.988
629.94	5.572
630.26	5.632
630.59	5.203
630.92	3.692
631.25	5.026
631.58	4.846
631.91	3.947
632.24	4.587
632.57	5.114
632.90	4.033
633.23	5.176
633.56	3.904
633.89	5.055
634.22	5.185
634.55	3.812
634.88	3.448
635.20	4.359
635.53	4.133
635.86	3.771
636.19	4.140
636.52	2.679
636.85	3.226
637.18	3.648
637.51	4.780
637.83	5.519
638.16	5.321
638.49	2.452
638.82	5.658
639.15	2.849
639.48	5.089
639.81	4.324
640.13	4.185
640.46	2.915
640.79	3.829
641.12	4.431
641.45	5.405
641.77	5.333
642.10	3.949
642.43	4.823
642.76	6.601
643.09	5.654
643.41	5.178
643.74	3.789
644.07	6.240
644.40	5.574
644.73	4.729
645.05	4.362
645.38	4.586
645.71	4.078
646.04	3.411
646.36	3.723
646.69	6.295
647.02	4.348
647.35	5.784
647.67	6.399
648.00	5.410
648.33	5.631
648.66	4.068
648.98	2.345
649.31	4.463
649.64	4.082
649.96	3.241
650.29	4.259
650.62	5.470
650.94	2.963
651.27	4.469
651.60	3.784
651.92	4.720
652.25	4.440
652.58	4.000
652.90	6.003
653.23	4.874
653.56	4.230
653.88	4.983
654.21	3.678
654.54	4.754
654.86	3.905
655.19	4.825
655.52	6.115
655.84	4.742
656.17	5.212
656.49	7.094
656.82	7.504
657.15	5.794
657.47	4.489
657.80	3.306
