SpectraSuite Data File
++++++++++++++++++++++++++++++++++++
Date: Fri May 15 20:45:32 PDT 2015
User: schluterlab
Dark Spectrum Present: Yes
Reference Spectrum Present: Yes
Number of Sampled Component Spectra: 1
Spectrometers: USB2E3373
Integration Time (usec): 3000 (USB2E3373)
Spectra Averaged: 3 (USB2E3373)
Boxcar Smoothing: 0 (USB2E3373)
Correct for Electrical Dark: No (USB2E3373)
Strobe/Lamp Enabled: No (USB2E3373)
Correct for Detector Non-linearity: No (USB2E3373)
Correct for Stray Light: No (USB2E3373)
Number of Pixels in Processed Spectrum: 2048
>>>>>Begin Processed Spectral Data<<<<<
178.53	0.000
178.91	0.000
179.29	12.500
179.67	-850.000
180.04	-0.000
180.42	75.000
180.80	-700.000
181.18	266.667
181.56	350.000
181.94	-150.000
182.31	500.000
182.69	-220.000
183.07	-400.000
183.45	-220.000
183.83	33.333
184.20	-36.364
184.58	188.889
184.96	125.000
185.34	-33.333
185.72	-50.000
186.09	192.308
186.47	-1100.000
186.85	300.000
187.23	111.111
187.61	-200.000
187.98	-233.333
188.36	44.444
188.74	-200.000
189.12	0.000
189.49	27.778
189.87	0.000
190.25	35.714
190.63	-350.000
191.00	-300.000
191.38	-21.053
191.76	400.000
192.14	200.000
192.51	250.000
192.89	-111.111
193.27	-28.571
193.65	200.000
194.02	218.182
194.40	-60.000
194.78	-87.500
195.15	-83.333
195.53	-100.000
195.91	250.000
196.29	-175.000
196.66	123.077
197.04	228.571
197.42	-122.222
197.79	-800.000
198.17	-130.769
198.55	1900.000
198.92	-366.667
199.30	-600.000
199.68	-20.000
200.05	-200.000
200.43	0.000
200.81	-466.667
201.18	-100.000
201.56	1100.000
201.94	-650.000
202.31	66.667
202.69	-300.000
203.07	300.000
203.44	-200.000
203.82	0.000
204.19	-14.286
204.57	-566.667
204.95	112.500
205.32	20.000
205.70	114.286
206.08	-200.000
206.45	155.556
206.83	21.429
207.20	-142.857
207.58	-0.000
207.96	-733.333
208.33	-200.000
208.71	-200.000
209.08	-216.667
209.46	-800.000
209.84	-180.000
210.21	-1100.000
210.59	-85.714
210.96	16.667
211.34	-175.000
211.71	66.667
212.09	-271.429
212.46	-1700.000
212.84	0.000
213.22	90.000
213.59	750.000
213.97	46.154
214.34	-9.091
214.72	16.667
215.09	375.000
215.47	-15.385
215.84	-127.273
216.22	-533.333
216.59	25.000
216.97	-500.000
217.34	150.000
217.72	-100.000
218.09	50.000
218.47	237.500
218.84	-400.000
219.22	-77.778
219.59	-320.000
219.97	100.000
220.34	325.000
220.72	-171.429
221.09	-100.000
221.47	0.000
221.84	-700.000
222.22	-200.000
222.59	-9.091
222.97	25.000
223.34	-266.667
223.72	-78.571
224.09	-4.762
224.46	7.143
224.84	633.333
225.21	40.000
225.59	33.333
225.96	-50.000
226.34	525.000
226.71	-57.143
227.08	83.333
227.46	-87.500
227.83	-800.000
228.21	-22.222
228.58	-9.091
228.95	-12.500
229.33	100.000
229.70	0.000
230.08	-125.000
230.45	-100.000
230.82	-28.571
231.20	-33.333
231.57	42.857
231.95	-71.429
232.32	-170.000
232.69	35.714
233.07	-366.667
233.44	40.000
233.81	-20.000
234.19	-11.111
234.56	-23.529
234.93	500.000
235.31	100.000
235.68	-360.000
236.05	-46.154
236.43	-40.000
236.80	17.647
237.17	-9.375
237.55	-10.000
237.92	-40.741
238.29	19.444
238.67	0.000
239.04	-5.882
239.41	-41.463
239.79	-6.667
240.16	7.317
240.53	0.000
240.91	-4.348
241.28	14.286
241.65	17.857
242.02	20.548
242.40	13.333
242.77	0.000
243.14	-3.030
243.51	12.500
243.89	11.494
244.26	2.299
244.63	10.714
245.00	3.093
245.38	10.309
245.75	-13.483
246.12	0.862
246.49	18.182
246.87	15.385
247.24	0.840
247.61	6.140
247.98	1.626
248.36	10.000
248.73	8.553
249.10	4.545
249.47	10.127
249.84	6.536
250.22	1.765
250.59	5.229
250.96	11.737
251.33	9.884
251.70	12.353
252.08	12.183
252.45	9.406
252.82	11.055
253.19	11.521
253.56	10.280
253.94	7.658
254.31	12.174
254.68	15.789
255.05	8.661
255.42	8.297
255.79	11.969
256.16	13.619
256.54	12.687
256.91	7.985
257.28	8.922
257.65	11.985
258.02	9.574
258.39	12.121
258.76	13.919
259.14	9.967
259.51	9.709
259.88	8.591
260.25	6.863
260.62	13.194
260.99	6.780
261.36	4.795
261.73	8.861
262.10	12.462
262.47	11.350
262.85	7.524
263.22	10.769
263.59	14.019
263.96	13.975
264.33	10.303
264.70	9.226
265.07	9.226
265.44	10.198
265.81	11.582
266.18	12.568
266.55	11.568
266.92	9.845
267.29	11.749
267.66	10.997
268.03	10.733
268.40	9.661
268.77	10.428
269.14	10.552
269.51	9.769
269.88	7.980
270.25	6.633
270.62	10.000
270.99	8.951
271.36	8.068
271.73	8.920
272.10	10.706
272.47	12.057
272.84	7.921
273.21	10.905
273.58	11.807
273.95	10.297
274.32	10.162
274.69	9.276
275.06	12.500
275.43	10.431
275.80	9.492
276.17	7.816
276.54	10.707
276.91	11.404
277.28	8.515
277.65	11.570
278.02	9.149
278.39	10.722
278.76	9.434
279.13	5.602
279.50	10.084
279.87	10.583
280.23	8.817
280.60	9.747
280.97	9.293
281.34	9.615
281.71	11.294
282.08	9.611
282.45	9.980
282.82	11.390
283.19	10.058
283.56	8.863
283.92	9.488
284.29	7.500
284.66	9.302
285.03	7.859
285.40	10.586
285.77	8.612
286.14	9.928
286.51	11.993
286.87	8.775
287.24	8.840
287.61	7.231
287.98	11.754
288.35	9.532
288.72	9.632
289.08	6.597
289.45	9.315
289.82	7.867
290.19	8.191
290.56	8.062
290.93	10.101
291.29	7.858
291.66	10.079
292.03	7.974
292.40	8.710
292.77	6.858
293.13	6.981
293.50	7.132
293.87	8.702
294.24	8.501
294.60	9.389
294.97	7.887
295.34	6.902
295.71	10.134
296.08	8.670
296.44	5.548
296.81	9.306
297.18	7.681
297.55	8.943
297.91	7.808
298.28	9.631
298.65	7.734
299.02	7.951
299.38	6.566
299.75	8.138
300.12	6.937
300.48	7.905
300.85	8.492
301.22	6.364
301.59	6.842
301.95	8.101
302.32	7.393
302.69	7.711
303.05	8.292
303.42	6.974
303.79	8.178
304.15	9.200
304.52	6.064
304.89	6.433
305.25	6.659
305.62	5.834
305.99	6.550
306.35	6.127
306.72	6.299
307.09	7.982
307.45	6.889
307.82	6.019
308.19	7.898
308.55	6.761
308.92	8.606
309.29	5.140
309.65	6.674
310.02	7.261
310.38	6.696
310.75	7.432
311.12	7.858
311.48	7.317
311.85	7.644
312.22	6.435
312.58	7.749
312.95	7.150
313.31	6.315
313.68	6.492
314.05	7.347
314.41	7.835
314.78	6.701
315.14	8.119
315.51	7.453
315.87	7.172
316.24	7.988
316.61	8.661
316.97	8.829
317.34	8.594
317.70	7.839
318.07	8.942
318.43	9.216
318.80	8.049
319.16	8.301
319.53	9.497
319.89	8.957
320.26	8.806
320.62	11.334
320.99	8.873
321.35	9.969
321.72	11.319
322.08	11.178
322.45	10.355
322.81	10.413
323.18	11.286
323.54	11.486
323.91	11.100
324.27	11.426
324.64	12.453
325.00	12.865
325.37	14.141
325.73	12.965
326.10	14.260
326.46	14.439
326.83	14.086
327.19	14.821
327.56	15.465
327.92	16.373
328.29	15.804
328.65	17.264
329.01	16.452
329.38	15.668
329.74	16.053
330.11	17.331
330.47	16.883
330.84	16.923
331.20	17.776
331.56	16.944
331.93	16.895
332.29	17.232
332.66	17.557
333.02	17.379
333.38	17.874
333.75	18.681
334.11	17.457
334.48	19.402
334.84	18.223
335.20	18.298
335.57	17.770
335.93	19.603
336.29	19.613
336.66	18.347
337.02	17.751
337.38	18.796
337.75	19.091
338.11	18.665
338.47	18.522
338.84	18.762
339.20	18.556
339.56	18.991
339.93	19.069
340.29	19.908
340.65	20.161
341.02	18.617
341.38	18.319
341.74	19.435
342.11	18.198
342.47	19.395
342.83	19.550
343.20	18.902
343.56	19.913
343.92	19.132
344.28	18.787
344.65	19.948
345.01	19.533
345.37	18.755
345.73	20.000
346.10	19.758
346.46	18.755
346.82	19.231
347.19	19.119
347.55	19.716
347.91	20.631
348.27	18.836
348.63	19.336
349.00	18.540
349.36	18.953
349.72	19.983
350.08	19.344
350.45	20.271
350.81	18.854
351.17	18.078
351.53	19.755
351.89	18.332
352.26	19.040
352.62	18.952
352.98	19.438
353.34	19.002
353.70	19.741
354.07	19.516
354.43	19.376
354.79	18.827
355.15	20.952
355.51	19.699
355.87	19.741
356.24	18.842
356.60	18.755
356.96	20.635
357.32	19.649
357.68	19.234
358.04	19.467
358.40	19.453
358.77	20.175
359.13	18.975
359.49	19.954
359.85	19.969
360.21	18.979
360.57	19.893
360.93	20.197
361.29	19.033
361.66	20.768
362.02	20.227
362.38	20.183
362.74	20.061
363.10	19.789
363.46	20.237
363.82	21.337
364.18	20.886
364.54	20.662
364.90	20.717
365.26	19.578
365.62	22.044
365.98	20.894
366.35	21.559
366.71	20.399
367.07	20.755
367.43	20.920
367.79	20.565
368.15	21.752
368.51	20.903
368.87	21.393
369.23	20.505
369.59	22.085
369.95	21.041
370.31	21.532
370.67	20.672
371.03	21.210
371.39	21.663
371.75	22.051
372.11	21.327
372.47	22.559
372.83	21.930
373.19	22.183
373.55	22.022
373.91	22.390
374.27	21.758
374.63	21.536
374.99	22.199
375.35	22.702
375.71	22.657
376.07	22.472
376.42	22.245
376.78	22.953
377.14	23.561
377.50	22.444
377.86	22.825
378.22	23.548
378.58	23.333
378.94	23.125
379.30	23.581
379.66	25.141
380.02	23.053
380.38	23.798
380.74	23.579
381.09	24.479
381.45	23.976
381.81	24.429
382.17	23.858
382.53	25.547
382.89	25.110
383.25	25.264
383.61	24.878
383.97	24.952
384.32	25.078
384.68	25.263
385.04	24.632
385.40	25.078
385.76	26.164
386.12	26.003
386.48	26.117
386.83	25.365
387.19	24.908
387.55	27.227
387.91	25.611
388.27	25.092
388.62	25.614
388.98	26.274
389.34	26.359
389.70	27.222
390.06	26.683
390.42	26.295
390.77	26.095
391.13	27.364
391.49	27.555
391.85	26.641
392.20	27.558
392.56	26.510
392.92	27.305
393.28	26.828
393.64	28.168
393.99	28.088
394.35	27.261
394.71	28.289
395.07	27.090
395.42	27.990
395.78	27.362
396.14	27.364
396.50	28.345
396.85	28.590
397.21	27.130
397.57	27.147
397.92	27.022
398.28	27.816
398.64	26.265
399.00	28.047
399.35	27.088
399.71	27.858
400.07	28.356
400.42	27.662
400.78	27.740
401.14	27.223
401.49	28.291
401.85	28.154
402.21	27.651
402.57	29.000
402.92	26.788
403.28	28.195
403.63	28.310
403.99	28.571
404.35	27.608
404.70	26.726
405.06	27.732
405.42	27.781
405.77	27.716
406.13	28.056
406.49	27.768
406.84	27.934
407.20	28.296
407.55	27.366
407.91	28.142
408.27	28.107
408.62	28.062
408.98	27.295
409.34	27.819
409.69	26.680
410.05	27.278
410.40	26.790
410.76	28.046
411.11	27.812
411.47	27.745
411.83	27.056
412.18	27.027
412.54	27.715
412.89	26.601
413.25	27.918
413.60	26.708
413.96	26.564
414.31	27.195
414.67	26.491
415.03	27.563
415.38	26.240
415.74	27.101
416.09	27.564
416.45	27.144
416.80	26.504
417.16	28.729
417.51	27.582
417.87	26.988
418.22	28.044
418.58	27.759
418.93	27.774
419.29	27.209
419.64	28.062
420.00	28.589
420.35	26.806
420.71	27.947
421.06	28.484
421.42	28.305
421.77	27.803
422.12	27.753
422.48	28.045
422.83	28.538
423.19	27.596
423.54	27.572
423.90	27.208
424.25	28.358
424.61	28.703
424.96	28.339
425.31	29.521
425.67	28.932
426.02	29.388
426.38	29.117
426.73	29.116
427.09	29.177
427.44	29.118
427.79	29.169
428.15	29.248
428.50	28.710
428.85	28.010
429.21	29.598
429.56	29.380
429.92	30.200
430.27	28.972
430.62	28.698
430.98	28.450
431.33	29.127
431.68	29.880
432.04	29.514
432.39	29.264
432.74	28.743
433.10	29.598
433.45	29.749
433.80	29.483
434.16	29.307
434.51	30.054
434.86	29.152
435.22	30.006
435.57	29.258
435.92	28.683
436.28	29.159
436.63	30.405
436.98	29.200
437.34	29.704
437.69	30.054
438.04	30.370
438.39	30.116
438.75	30.480
439.10	30.221
439.45	31.041
439.81	29.847
440.16	30.226
440.51	31.582
440.86	31.843
441.22	29.016
441.57	29.636
441.92	30.955
442.27	31.208
442.63	31.745
442.98	30.787
443.33	30.328
443.68	30.822
444.03	31.595
444.39	30.939
444.74	31.550
445.09	31.013
445.44	31.510
445.79	32.027
446.15	31.222
446.50	31.115
446.85	30.978
447.20	31.126
447.55	32.757
447.91	31.303
448.26	31.246
448.61	31.031
448.96	31.670
449.31	31.329
449.66	31.591
450.02	31.603
450.37	30.468
450.72	30.756
451.07	32.595
451.42	31.149
451.77	31.404
452.12	31.041
452.47	31.423
452.83	31.625
453.18	31.626
453.53	31.479
453.88	31.269
454.23	31.530
454.58	32.053
454.93	31.572
455.28	30.603
455.63	31.494
455.98	32.351
456.34	32.375
456.69	32.465
457.04	32.451
457.39	31.592
457.74	31.802
458.09	30.724
458.44	31.656
458.79	30.196
459.14	32.094
459.49	31.881
459.84	32.036
460.19	31.493
460.54	31.112
460.89	31.364
461.24	30.807
461.59	31.473
461.94	31.384
462.29	31.484
462.64	32.226
462.99	31.618
463.34	31.224
463.69	31.081
464.04	31.840
464.39	31.352
464.74	32.577
465.09	33.063
465.44	31.737
465.79	30.385
466.14	31.357
466.49	30.535
466.84	32.540
467.19	31.289
467.54	31.226
467.89	31.775
468.24	31.204
468.59	31.873
468.94	31.429
469.29	30.820
469.64	31.032
469.99	33.076
470.34	29.829
470.68	32.438
471.03	31.139
471.38	31.170
471.73	31.863
472.08	31.343
472.43	30.805
472.78	30.158
473.13	31.701
473.48	30.489
473.83	30.946
474.17	31.347
474.52	31.142
474.87	31.818
475.22	32.215
475.57	30.548
475.92	31.103
476.27	31.607
476.61	31.192
476.96	29.671
477.31	30.827
477.66	31.404
478.01	30.657
478.36	31.645
478.70	31.974
479.05	31.264
479.40	31.214
479.75	29.823
480.10	30.773
480.45	31.350
480.79	31.370
481.14	30.840
481.49	30.591
481.84	30.792
482.19	30.122
482.53	30.552
482.88	29.499
483.23	30.614
483.58	30.425
483.92	29.090
484.27	29.763
484.62	29.538
484.97	29.809
485.31	28.938
485.66	27.888
486.01	28.973
486.36	27.909
486.70	29.189
487.05	29.283
487.40	29.214
487.75	29.014
488.09	28.492
488.44	29.195
488.79	29.174
489.13	30.248
489.48	30.184
489.83	30.090
490.17	29.843
490.52	30.115
490.87	29.755
491.22	30.372
491.56	29.886
491.91	29.589
492.26	29.460
492.60	29.463
492.95	30.448
493.30	29.409
493.64	30.108
493.99	29.807
494.34	29.369
494.68	29.429
495.03	29.294
495.37	30.079
495.72	29.833
496.07	30.390
496.41	29.292
496.76	29.203
497.11	29.436
497.45	30.597
497.80	30.121
498.14	29.657
498.49	29.507
498.84	29.790
499.18	30.221
499.53	30.010
499.87	29.475
500.22	29.179
500.56	29.097
500.91	29.167
501.26	28.621
501.60	29.267
501.95	29.791
502.29	29.346
502.64	28.909
502.98	29.156
503.33	28.002
503.67	28.819
504.02	28.739
504.36	28.996
504.71	28.333
505.06	28.384
505.40	29.391
505.75	29.639
506.09	29.346
506.44	29.158
506.78	29.184
507.13	29.524
507.47	28.303
507.82	29.754
508.16	29.741
508.51	28.856
508.85	29.042
509.19	28.632
509.54	29.759
509.88	29.018
510.23	28.994
510.57	29.610
510.92	27.985
511.26	28.314
511.61	29.593
511.95	29.753
512.30	29.213
512.64	28.214
512.98	29.141
513.33	29.267
513.67	28.823
514.02	29.863
514.36	30.400
514.70	29.196
515.05	30.611
515.39	29.870
515.74	30.599
516.08	28.990
516.42	30.506
516.77	29.023
517.11	29.199
517.46	29.623
517.80	29.321
518.14	29.271
518.49	29.447
518.83	28.433
519.17	27.774
519.52	28.123
519.86	28.571
520.20	29.951
520.55	28.580
520.89	29.172
521.23	29.512
521.58	30.095
521.92	29.679
522.26	28.237
522.61	29.481
522.95	30.132
523.29	29.860
523.64	29.543
523.98	30.655
524.32	28.737
524.66	29.770
525.01	30.195
525.35	30.006
525.69	28.687
526.04	28.175
526.38	30.156
526.72	28.254
527.06	29.637
527.41	29.156
527.75	29.223
528.09	28.439
528.43	29.034
528.78	29.175
529.12	28.645
529.46	28.915
529.80	28.879
530.15	29.241
530.49	28.889
530.83	29.275
531.17	28.878
531.51	29.275
531.86	29.096
532.20	27.766
532.54	29.544
532.88	29.979
533.22	27.957
533.57	27.457
533.91	27.350
534.25	29.883
534.59	28.544
534.93	26.558
535.27	27.030
535.62	27.868
535.96	27.462
536.30	28.496
536.64	28.739
536.98	28.711
537.32	28.876
537.66	28.401
538.01	27.203
538.35	28.017
538.69	27.830
539.03	27.341
539.37	28.466
539.71	29.175
540.05	26.952
540.39	29.086
540.73	28.033
541.07	28.177
541.42	27.957
541.76	28.630
542.10	27.667
542.44	27.172
542.78	26.084
543.12	26.236
543.46	27.677
543.80	27.412
544.14	26.636
544.48	28.248
544.82	27.820
545.16	27.527
545.50	27.437
545.84	27.550
546.18	28.511
546.52	27.397
546.86	27.965
547.20	28.326
547.54	26.784
547.88	27.853
548.22	27.350
548.56	25.923
548.90	26.887
549.24	26.102
549.58	27.010
549.92	26.447
550.26	27.179
550.60	27.138
550.94	28.081
551.28	27.357
551.62	27.154
551.96	27.293
552.30	26.827
552.64	27.715
552.98	27.145
553.32	26.534
553.66	25.835
554.00	27.372
554.34	27.031
554.68	26.401
555.02	27.902
555.36	27.150
555.69	25.934
556.03	26.410
556.37	26.904
556.71	25.993
557.05	27.740
557.39	26.320
557.73	28.261
558.07	26.546
558.41	27.259
558.75	26.500
559.08	26.635
559.42	26.429
559.76	27.462
560.10	25.535
560.44	25.465
560.78	26.434
561.12	26.375
561.45	26.564
561.79	26.471
562.13	26.615
562.47	26.043
562.81	25.360
563.15	26.093
563.48	25.743
563.82	26.218
564.16	26.323
564.50	25.541
564.84	26.506
565.17	24.950
565.51	26.776
565.85	25.789
566.19	25.398
566.52	26.273
566.86	25.707
567.20	24.907
567.54	25.365
567.88	24.839
568.21	25.452
568.55	24.728
568.89	25.462
569.23	24.121
569.56	23.818
569.90	24.158
570.24	23.558
570.57	23.309
570.91	24.120
571.25	22.953
571.59	22.423
571.92	22.844
572.26	22.464
572.60	22.512
572.93	22.937
573.27	22.821
573.61	22.703
573.95	22.638
574.28	22.299
574.62	22.197
574.96	22.688
575.29	22.085
575.63	21.612
575.97	21.469
576.30	22.294
576.64	21.563
576.98	21.853
577.31	21.873
577.65	21.972
577.98	22.041
578.32	21.502
578.66	21.062
578.99	21.689
579.33	21.759
579.67	21.575
580.00	21.595
580.34	21.667
580.67	21.686
581.01	21.854
581.35	21.275
581.68	21.315
582.02	21.619
582.35	21.263
582.69	21.231
583.02	21.256
583.36	21.647
583.70	21.989
584.03	22.018
584.37	22.445
584.70	21.786
585.04	21.244
585.37	21.376
585.71	21.624
586.04	21.331
586.38	21.339
586.72	21.836
587.05	22.270
587.39	22.393
587.72	22.253
588.06	21.561
588.39	21.703
588.73	21.673
589.06	22.016
589.40	22.157
589.73	22.636
590.07	21.866
590.40	22.252
590.73	21.993
591.07	22.816
591.40	22.707
591.74	22.715
592.07	23.191
592.41	22.129
592.74	21.904
593.08	22.180
593.41	21.516
593.75	21.623
594.08	21.593
594.41	21.689
594.75	21.985
595.08	21.718
595.42	21.605
595.75	22.268
596.09	21.970
596.42	22.241
596.75	22.469
597.09	21.503
597.42	21.725
597.75	22.492
598.09	21.322
598.42	21.570
598.76	20.849
599.09	21.194
599.42	20.728
599.76	20.918
600.09	20.928
600.42	20.849
600.76	20.988
601.09	20.687
601.42	21.269
601.76	21.636
602.09	21.947
602.42	21.398
602.76	21.138
603.09	21.844
603.42	21.614
603.76	21.371
604.09	20.899
604.42	22.462
604.76	21.673
605.09	22.075
605.42	21.851
605.75	21.497
606.09	21.486
606.42	20.726
606.75	20.649
607.09	21.011
607.42	20.514
607.75	21.048
608.08	21.159
608.42	21.334
608.75	21.976
609.08	21.176
609.41	21.675
609.75	21.573
610.08	21.867
610.41	20.338
610.74	21.404
611.07	21.860
611.41	21.744
611.74	21.802
612.07	21.413
612.40	21.335
612.73	22.599
613.07	21.766
613.40	21.827
613.73	21.824
614.06	22.259
614.39	21.433
614.72	20.896
615.06	22.067
615.39	21.343
615.72	20.614
616.05	21.173
616.38	21.425
616.71	21.835
617.05	21.495
617.38	21.182
617.71	21.572
618.04	22.730
618.37	22.446
618.70	22.838
619.03	23.611
619.36	22.214
619.69	23.351
620.03	22.571
620.36	21.888
620.69	22.555
621.02	22.554
621.35	22.822
621.68	23.980
622.01	22.333
622.34	22.825
622.67	22.240
623.00	22.129
623.33	22.409
623.66	22.588
623.99	21.785
624.32	21.293
624.65	21.128
624.99	22.348
625.32	22.138
625.65	23.095
625.98	22.321
626.31	21.862
626.64	23.830
626.97	23.822
627.30	22.767
627.63	23.570
627.96	23.720
628.29	23.312
628.62	23.795
628.95	22.846
629.28	23.891
629.61	23.031
629.94	23.558
630.26	22.530
630.59	24.766
630.92	23.692
631.25	22.256
631.58	23.678
631.91	23.026
632.24	22.248
632.57	24.545
632.90	22.301
633.23	24.824
633.56	24.307
633.89	23.305
634.22	24.444
634.55	22.745
634.88	23.372
635.20	23.718
635.53	23.867
635.86	22.757
636.19	24.968
