SpectraSuite Data File
++++++++++++++++++++++++++++++++++++
Date: Fri May 15 21:12:29 PDT 2015
User: schluterlab
Dark Spectrum Present: Yes
Reference Spectrum Present: Yes
Number of Sampled Component Spectra: 1
Spectrometers: USB2E3373
Integration Time (usec): 3000 (USB2E3373)
Spectra Averaged: 3 (USB2E3373)
Boxcar Smoothing: 0 (USB2E3373)
Correct for Electrical Dark: No (USB2E3373)
Strobe/Lamp Enabled: No (USB2E3373)
Correct for Detector Non-linearity: No (USB2E3373)
Correct for Stray Light: No (USB2E3373)
Number of Pixels in Processed Spectrum: 2048
>>>>>Begin Processed Spectral Data<<<<<
178.53	0.000
178.91	0.000
179.29	25.000
179.67	-850.000
180.04	71.429
180.42	-125.000
180.80	-800.000
181.18	166.667
181.56	600.000
181.94	250.000
182.31	100.000
182.69	-120.000
183.07	-133.333
183.45	0.000
183.83	216.667
184.20	18.182
184.58	122.222
184.96	-100.000
185.34	-200.000
185.72	-100.000
186.09	61.538
186.47	-1000.000
186.85	233.333
187.23	144.444
187.61	300.000
187.98	-600.000
188.36	22.222
188.74	-366.667
189.12	23.529
189.49	11.111
189.87	0.000
190.25	7.143
190.63	-200.000
191.00	-400.000
191.38	0.000
191.76	-300.000
192.14	100.000
192.51	-150.000
192.89	-111.111
193.27	-114.286
193.65	183.333
194.02	81.818
194.40	-70.000
194.78	-112.500
195.15	-41.667
195.53	-137.500
195.91	325.000
196.29	-300.000
196.66	100.000
197.04	100.000
197.42	-22.222
197.79	-266.667
198.17	-153.846
198.55	800.000
198.92	-733.333
199.30	-1400.000
199.68	-60.000
200.05	-400.000
200.43	0.000
200.81	-433.333
201.18	-100.000
201.56	1900.000
201.94	-50.000
202.31	-100.000
202.69	-20.000
203.07	225.000
203.44	-200.000
203.82	0.000
204.19	42.857
204.57	-400.000
204.95	62.500
205.32	0.000
205.70	71.429
206.08	-75.000
206.45	44.444
206.83	71.429
207.20	28.571
207.58	100.000
207.96	-266.667
208.33	-80.000
208.71	-100.000
209.08	-233.333
209.46	-1300.000
209.84	80.000
210.21	-400.000
210.59	71.429
210.96	50.000
211.34	-100.000
211.71	-13.333
212.09	-42.857
212.46	-2100.000
212.84	0.000
213.22	10.000
213.59	650.000
213.97	38.462
214.34	81.818
214.72	-66.667
215.09	775.000
215.47	-53.846
215.84	-109.091
216.22	-166.667
216.59	50.000
216.97	200.000
217.34	25.000
217.72	-340.000
218.09	-50.000
218.47	200.000
218.84	-1100.000
219.22	-88.889
219.59	-360.000
219.97	633.333
220.34	500.000
220.72	-185.714
221.09	-75.000
221.47	-150.000
221.84	-950.000
222.22	-750.000
222.59	-81.818
222.97	-41.667
223.34	-66.667
223.72	-28.571
224.09	-23.810
224.46	-10.714
224.84	100.000
225.21	10.000
225.59	-6.667
225.96	-300.000
226.34	450.000
226.71	-14.286
227.08	-33.333
227.46	37.500
227.83	-400.000
228.21	-22.222
228.58	-45.455
228.95	-87.500
229.33	170.000
229.70	-43.750
230.08	-12.500
230.45	-100.000
230.82	14.286
231.20	0.000
231.57	14.286
231.95	-114.286
232.32	-110.000
232.69	35.714
233.07	-533.333
233.44	-200.000
233.81	-130.000
234.19	-11.111
234.56	-35.294
234.93	550.000
235.31	-25.000
235.68	-320.000
236.05	-100.000
236.43	-90.000
236.80	70.588
237.17	0.000
237.55	-10.000
237.92	-14.815
238.29	38.889
238.67	10.000
239.04	-20.588
239.41	-17.073
239.79	-46.667
240.16	29.268
240.53	-18.421
240.91	-4.348
241.28	9.524
241.65	3.571
242.02	12.329
242.40	10.000
242.77	6.780
243.14	0.000
243.51	7.500
243.89	16.092
244.26	-1.149
244.63	2.381
245.00	11.340
245.38	12.371
245.75	-8.989
246.12	-2.586
246.49	8.264
246.87	2.885
247.24	7.563
247.61	-14.912
247.98	-0.813
248.36	0.000
248.73	5.263
249.10	7.792
249.47	0.633
249.84	8.497
250.22	2.353
250.59	2.614
250.96	9.390
251.33	4.651
251.70	6.471
252.08	4.061
252.45	1.485
252.82	10.050
253.19	6.912
253.56	2.804
253.94	10.811
254.31	11.739
254.68	12.281
255.05	5.118
255.42	7.424
255.79	8.880
256.16	10.117
256.54	8.955
256.91	6.464
257.28	8.922
257.65	5.993
258.02	6.383
258.39	10.101
258.76	10.256
259.14	6.645
259.51	11.974
259.88	9.966
260.25	8.497
260.62	5.903
260.99	7.797
261.36	4.452
261.73	7.595
262.10	6.991
262.47	6.135
262.85	4.702
263.22	7.385
263.59	7.788
263.96	8.696
264.33	8.788
264.70	9.524
265.07	5.655
265.44	10.482
265.81	4.520
266.18	9.836
266.55	8.226
266.92	8.549
267.29	9.138
267.66	8.440
268.03	8.901
268.40	4.961
268.77	9.358
269.14	10.072
269.51	9.769
269.88	4.489
270.25	7.143
270.62	7.317
270.99	9.463
271.36	4.890
271.73	9.859
272.10	9.246
272.47	9.456
272.84	9.653
273.21	9.745
273.58	9.639
273.95	6.636
274.32	9.238
274.69	7.240
275.06	7.366
275.43	8.844
275.80	7.947
276.17	6.667
276.54	8.994
276.91	9.211
277.28	9.170
277.65	10.331
278.02	7.872
278.39	6.127
278.76	9.434
279.13	6.432
279.50	9.454
279.87	7.775
280.23	6.452
280.60	7.407
280.97	7.879
281.34	9.808
281.71	11.910
282.08	7.975
282.45	6.654
282.82	8.880
283.19	9.284
283.56	7.900
283.92	6.641
284.29	7.692
284.66	9.109
285.03	7.859
285.40	8.129
285.77	7.557
286.14	8.123
286.51	10.148
286.87	7.495
287.24	7.551
287.61	6.526
287.98	10.526
288.35	7.626
288.72	10.158
289.08	8.854
289.45	7.206
289.82	6.818
290.19	5.802
290.56	8.062
290.93	7.744
291.29	6.471
291.66	7.244
292.03	6.220
292.40	6.935
292.77	8.134
293.13	4.383
293.50	6.677
293.87	7.786
294.24	6.337
294.60	7.899
294.97	6.548
295.34	6.748
295.71	8.346
296.08	6.726
296.44	5.832
296.81	5.694
297.18	6.812
297.55	8.672
297.91	6.986
298.28	7.916
298.65	5.427
299.02	6.334
299.38	4.241
299.75	7.448
300.12	5.105
300.48	6.588
300.85	6.210
301.22	6.234
301.59	7.500
301.95	6.962
302.32	6.874
302.69	6.468
303.05	5.693
303.42	5.355
303.79	7.243
304.15	6.213
304.52	4.518
304.89	5.614
305.25	6.780
305.62	5.484
305.99	5.965
306.35	5.434
306.72	4.499
307.09	6.613
307.45	6.200
307.82	5.324
308.19	7.317
308.55	5.998
308.92	8.170
309.29	5.363
309.65	5.920
310.02	5.391
310.38	5.818
310.75	6.776
311.12	6.136
311.48	5.620
311.85	5.969
312.22	5.169
312.58	6.263
312.95	4.589
313.31	5.901
313.68	5.864
314.05	5.306
314.41	5.258
314.78	5.361
315.14	5.961
315.51	5.901
315.87	5.328
316.24	7.583
316.61	6.890
316.97	6.548
317.34	5.664
317.70	4.971
318.07	5.288
318.43	5.784
318.80	5.587
319.16	5.957
319.53	7.597
319.89	7.579
320.26	7.490
320.62	6.520
320.99	6.472
321.35	6.269
321.72	7.996
322.08	7.351
322.45	6.904
322.81	7.564
323.18	6.281
323.54	7.239
323.91	7.984
324.27	6.445
324.64	7.959
325.00	8.668
325.37	8.540
325.73	6.981
326.10	8.992
326.46	8.072
326.83	8.836
327.19	8.108
327.56	9.123
327.92	10.563
328.29	9.375
328.65	9.906
329.01	9.559
329.38	10.230
329.74	8.687
330.11	10.195
330.47	8.720
330.84	8.846
331.20	10.646
331.56	8.889
331.93	9.680
332.29	10.816
332.66	11.312
333.02	10.223
333.38	9.624
333.75	11.081
334.11	9.400
334.48	10.879
334.84	11.264
335.20	10.247
335.57	10.154
335.93	10.208
336.29	10.589
336.66	9.264
337.02	10.223
337.38	10.185
337.75	11.182
338.11	11.362
338.47	11.040
338.84	10.906
339.20	10.512
339.56	10.642
339.93	11.996
340.29	12.569
340.65	11.290
341.02	11.082
341.38	10.354
341.74	10.512
342.11	10.312
342.47	11.210
342.83	11.159
343.20	11.411
343.56	9.913
343.92	12.046
344.28	11.358
344.65	9.845
345.01	9.939
345.37	10.008
345.73	11.548
346.10	11.389
346.46	11.438
346.82	10.884
347.19	10.058
347.55	10.526
347.91	11.650
348.27	10.671
348.63	11.755
349.00	11.075
349.36	10.391
349.72	11.526
350.08	10.328
350.45	11.413
350.81	9.551
351.17	9.609
351.53	11.347
351.89	10.074
352.26	11.200
352.62	10.806
352.98	10.763
353.34	11.031
353.70	11.246
354.07	10.484
354.43	10.088
354.79	10.239
355.15	11.032
355.51	10.364
355.87	11.650
356.24	9.788
356.60	10.914
356.96	11.190
357.32	10.463
357.68	10.790
358.04	11.551
358.40	11.897
358.77	11.164
359.13	10.889
359.49	10.555
359.85	10.530
360.21	10.048
360.57	11.324
360.93	11.649
361.29	9.970
361.66	11.991
362.02	11.818
362.38	10.967
362.74	11.052
363.10	11.889
363.46	11.638
363.82	11.721
364.18	11.513
364.54	10.956
364.90	12.115
365.26	11.354
365.62	11.679
365.98	11.657
366.35	12.600
366.71	11.826
367.07	11.103
367.43	11.071
367.79	11.661
368.15	11.199
368.51	11.362
368.87	10.696
369.23	11.336
369.59	11.953
369.95	11.657
370.31	11.922
370.67	11.866
371.03	11.277
371.39	11.816
371.75	10.549
372.11	11.270
372.47	12.278
372.83	11.781
373.19	12.910
373.55	11.552
373.91	11.951
374.27	12.048
374.63	11.917
374.99	11.206
375.35	12.047
375.71	11.958
376.07	12.430
376.42	12.313
376.78	12.685
377.14	11.645
377.50	12.948
377.86	12.784
378.22	11.487
378.58	12.564
378.94	12.098
379.30	12.352
379.66	13.103
380.02	12.692
380.38	11.503
380.74	12.807
381.09	13.129
381.45	12.538
381.81	12.708
382.17	12.944
382.53	12.680
382.89	12.618
383.25	13.628
383.61	13.415
383.97	12.381
384.32	13.446
384.68	12.508
385.04	13.174
385.40	12.757
385.76	14.088
386.12	14.101
386.48	15.070
386.83	14.014
387.19	14.408
387.55	15.307
387.91	13.325
388.27	13.431
388.62	15.041
388.98	13.628
389.34	15.116
389.70	14.481
390.06	14.097
390.42	14.637
390.77	13.931
391.13	14.439
391.49	14.360
391.85	15.205
392.20	13.936
392.56	15.003
392.92	14.269
393.28	14.387
393.64	15.435
393.99	15.737
394.35	14.801
394.71	15.262
395.07	15.273
395.42	14.329
395.78	14.788
396.14	15.322
396.50	16.424
396.85	15.454
397.21	15.664
397.57	15.862
397.92	15.458
398.28	15.920
398.64	15.120
399.00	16.930
399.35	15.181
399.71	16.370
400.07	16.566
400.42	16.218
400.78	16.473
401.14	17.544
401.49	16.498
401.85	16.453
402.21	16.687
402.57	17.438
402.92	15.872
403.28	17.732
403.63	17.970
403.99	16.582
404.35	16.989
404.70	17.321
405.06	16.569
405.42	17.464
405.77	17.141
406.13	17.229
406.49	18.413
406.84	17.359
407.20	17.339
407.55	18.030
407.91	17.914
408.27	18.228
408.62	19.015
408.98	18.669
409.34	18.649
409.69	18.605
410.05	17.980
410.40	18.765
410.76	19.662
411.11	18.625
411.47	18.475
411.83	19.335
412.18	19.691
412.54	19.788
412.89	18.904
413.25	19.073
413.60	19.317
413.96	19.755
414.31	19.939
414.67	19.307
415.03	19.907
415.38	19.909
415.74	20.717
416.09	20.771
416.45	20.999
416.80	20.159
417.16	21.478
417.51	20.786
417.87	19.883
418.22	21.244
418.58	21.070
418.93	20.752
419.29	20.935
419.64	21.646
420.00	21.788
420.35	21.194
420.71	21.871
421.06	21.301
421.42	22.115
421.77	21.561
422.12	21.056
422.48	21.873
422.83	21.694
423.19	22.348
423.54	21.752
423.90	21.378
424.25	21.527
424.61	23.378
424.96	22.009
425.31	23.397
425.67	23.063
426.02	23.616
426.38	23.168
426.73	22.942
427.09	23.291
427.44	23.824
427.79	23.394
428.15	24.272
428.50	22.956
428.85	23.034
429.21	22.920
429.56	23.342
429.92	23.472
430.27	23.358
430.62	22.896
430.98	23.885
431.33	24.080
431.68	23.810
432.04	23.253
432.39	24.073
432.74	23.632
433.10	24.195
433.45	24.612
433.80	24.434
434.16	23.934
434.51	23.978
434.86	25.029
435.22	23.892
435.57	24.454
435.92	24.192
436.28	24.091
436.63	24.758
436.98	24.218
437.34	23.714
437.69	25.462
438.04	24.672
438.39	24.557
438.75	25.501
439.10	24.901
439.45	25.806
439.81	24.648
440.16	24.881
440.51	25.731
440.86	25.921
441.22	25.283
441.57	25.883
441.92	25.813
442.27	25.333
442.63	26.552
442.98	26.134
443.33	25.097
443.68	25.199
444.03	26.080
444.39	25.234
444.74	26.812
445.09	26.615
445.44	26.097
445.79	26.973
446.15	25.936
446.50	25.513
446.85	25.770
447.20	25.808
447.55	26.842
447.91	26.565
448.26	26.295
448.61	26.885
448.96	27.252
449.31	26.069
449.66	25.668
450.02	26.127
450.37	25.489
450.72	26.117
451.07	26.329
451.42	26.217
451.77	26.823
452.12	25.837
452.47	26.594
452.83	25.854
453.18	27.198
453.53	26.422
453.88	27.444
454.23	26.490
454.58	27.330
454.93	26.353
455.28	25.968
455.63	27.836
455.98	26.999
456.34	27.331
456.69	28.145
457.04	26.591
457.39	26.792
457.74	27.025
458.09	26.898
458.44	26.682
458.79	26.443
459.14	26.888
459.49	26.925
459.84	27.073
460.19	26.820
460.54	25.978
460.89	27.159
461.24	26.584
461.59	28.266
461.94	26.289
462.29	29.071
462.64	27.575
462.99	27.556
463.34	26.356
463.69	26.641
464.04	27.421
464.39	27.168
464.74	27.239
465.09	26.949
465.44	27.063
465.79	26.077
466.14	26.511
466.49	27.430
466.84	26.710
467.19	28.098
467.54	26.564
467.89	27.606
468.24	26.642
468.59	28.444
468.94	27.175
469.29	27.607
469.64	26.863
469.99	27.120
470.34	26.962
470.68	28.262
471.03	27.742
471.38	27.532
471.73	27.311
472.08	27.137
472.43	27.785
472.78	26.525
473.13	28.163
473.48	27.101
473.83	26.339
474.17	27.979
474.52	28.143
474.87	27.455
475.22	28.066
475.57	27.329
475.92	27.647
476.27	26.426
476.61	27.488
476.96	26.938
477.31	27.528
477.66	27.135
478.01	27.344
478.36	27.560
478.70	27.896
479.05	27.527
479.40	27.292
479.75	26.382
480.10	27.291
480.45	27.450
480.79	28.248
481.14	27.561
481.49	26.650
481.84	27.268
482.19	26.754
482.53	27.482
482.88	26.921
483.23	27.351
483.58	27.358
483.92	26.815
484.27	26.709
484.62	27.208
484.97	26.990
485.31	26.481
485.66	24.530
486.01	24.946
486.36	24.887
486.70	25.658
487.05	26.268
487.40	26.060
487.75	26.366
488.09	26.885
488.44	26.719
488.79	26.485
489.13	26.763
489.48	27.319
489.83	27.085
490.17	26.472
490.52	27.344
490.87	27.626
491.22	26.982
491.56	27.941
491.91	27.677
492.26	27.662
492.60	27.207
492.95	27.791
493.30	26.869
493.64	27.849
493.99	27.343
494.34	26.990
494.68	27.429
495.03	27.202
495.37	27.036
495.72	27.663
496.07	27.415
496.41	27.311
496.76	26.532
497.11	25.757
497.45	26.969
497.80	27.245
498.14	26.925
498.49	27.781
498.84	27.495
499.18	27.108
499.53	27.629
499.87	26.362
500.22	27.102
500.56	27.988
500.91	26.355
501.26	26.495
501.60	27.152
501.95	27.220
502.29	27.651
502.64	27.992
502.98	26.443
503.33	26.177
503.67	27.229
504.02	28.152
504.36	26.967
504.71	27.071
505.06	26.925
505.40	27.614
505.75	27.577
506.09	27.116
506.44	27.721
506.78	27.194
507.13	27.353
507.47	27.520
507.82	26.656
508.16	27.364
508.51	27.702
508.85	27.839
509.19	27.781
509.54	27.292
509.88	26.699
510.23	28.026
510.57	27.525
510.92	26.866
511.26	27.332
511.61	27.118
511.95	27.562
512.30	27.993
512.64	28.102
512.98	27.288
513.33	28.539
513.67	27.118
514.02	28.032
514.36	28.971
514.70	28.963
515.05	29.083
515.39	27.686
515.74	28.743
516.08	28.213
516.42	29.034
516.77	28.613
517.11	28.309
517.46	28.905
517.80	29.082
518.14	29.210
518.49	28.846
518.83	28.554
519.17	28.502
519.52	27.353
519.86	28.031
520.20	28.554
520.55	29.456
520.89	28.482
521.23	28.942
521.58	28.896
521.92	29.615
522.26	30.124
522.61	29.351
522.95	30.331
523.29	29.987
523.64	29.670
523.98	29.942
524.32	28.673
524.66	29.257
525.01	29.351
525.35	29.942
525.69	28.148
526.04	29.233
526.38	30.091
526.72	29.169
527.06	29.831
527.41	29.222
527.75	28.485
528.09	28.704
528.43	29.440
528.78	28.449
529.12	29.032
529.46	28.330
529.80	28.309
530.15	28.647
530.49	28.754
530.83	29.343
531.17	28.744
531.51	29.959
531.86	28.756
532.20	29.784
532.54	29.408
532.88	29.090
533.22	28.629
533.57	28.309
533.91	27.611
534.25	28.516
534.59	28.672
534.93	29.075
535.27	28.426
535.62	27.933
535.96	29.615
536.30	29.683
536.64	28.808
536.98	27.875
537.32	29.659
537.66	29.944
538.01	28.951
538.35	28.017
538.69	27.763
539.03	27.888
539.37	28.600
539.71	28.289
540.05	27.631
540.39	28.047
540.73	26.918
541.07	28.591
541.42	28.159
541.76	28.837
542.10	28.217
542.44	28.562
542.78	27.116
543.12	27.679
543.46	28.860
543.80	28.314
544.14	27.570
544.48	27.249
544.82	28.913
545.16	28.689
545.50	28.772
545.84	28.399
546.18	28.936
546.52	27.830
546.86	28.253
547.20	28.255
547.54	27.208
547.88	28.261
548.22	27.482
548.56	27.375
548.90	26.819
549.24	27.204
549.58	27.927
549.92	27.591
550.26	27.546
550.60	27.955
550.94	28.753
551.28	28.362
551.62	28.692
551.96	28.647
552.30	26.901
552.64	27.433
552.98	27.567
553.32	27.817
553.66	27.286
554.00	26.642
554.34	28.360
554.68	26.917
555.02	27.753
555.36	27.674
555.69	25.641
556.03	26.838
556.37	26.619
556.71	26.715
557.05	27.442
557.39	26.394
557.73	27.361
558.07	27.677
558.41	26.876
558.75	26.734
559.08	26.714
559.42	27.381
559.76	28.022
560.10	26.223
560.44	26.508
560.78	26.643
561.12	27.715
561.45	26.704
561.79	25.910
562.13	27.466
562.47	25.755
562.81	26.657
563.15	26.516
563.48	27.086
563.82	27.042
564.16	26.462
564.50	26.284
564.84	27.108
565.17	25.218
565.51	26.708
565.85	27.023
566.19	26.459
566.52	27.480
566.86	26.864
567.20	25.156
567.54	25.852
567.88	25.600
568.21	26.188
568.55	24.293
568.89	25.719
569.23	24.410
569.56	24.037
569.90	24.726
570.24	23.707
570.57	23.600
570.91	23.632
571.25	22.887
571.59	22.952
571.92	22.341
572.26	22.736
572.60	22.667
572.93	22.623
573.27	22.100
573.61	22.524
573.95	22.802
574.28	21.901
574.62	21.917
574.96	22.039
575.29	22.312
575.63	21.119
575.97	22.147
576.30	22.041
576.64	21.457
576.98	22.497
577.31	22.069
577.65	21.858
577.98	21.809
578.32	21.126
578.66	20.933
578.99	21.549
579.33	21.184
579.67	21.019
580.00	21.620
580.34	22.139
580.67	21.340
581.01	21.230
581.35	20.586
581.68	20.862
582.02	20.940
582.35	20.947
582.69	20.958
583.02	21.000
583.36	21.150
583.70	21.807
584.03	21.796
584.37	21.993
584.70	21.429
585.04	20.440
585.37	21.302
585.71	20.859
586.04	20.978
586.38	21.046
586.72	21.521
587.05	21.288
587.39	21.443
587.72	21.241
588.06	21.616
588.39	21.561
588.73	21.734
589.06	22.016
589.40	21.984
589.73	21.614
590.07	22.243
590.40	22.330
590.73	22.529
591.07	22.137
591.40	22.618
591.74	22.353
592.07	22.217
592.41	22.527
592.74	21.505
593.08	21.062
593.41	21.219
593.75	20.870
594.08	21.456
594.41	21.507
594.75	21.183
595.08	21.302
595.42	21.384
595.75	21.555
596.09	21.658
596.42	21.042
596.75	22.025
597.09	21.139
597.42	21.545
597.75	21.851
598.09	21.458
598.42	21.796
598.76	21.064
599.09	21.434
599.42	20.614
599.76	20.354
600.09	21.078
600.42	20.546
600.76	19.725
601.09	20.687
601.42	19.937
601.76	20.286
602.09	21.122
602.42	21.567
602.76	20.501
603.09	21.387
603.42	21.446
603.76	20.000
604.09	20.049
604.42	20.939
604.76	21.362
605.09	21.069
605.42	21.400
605.75	20.534
606.09	19.830
606.42	20.892
606.75	20.563
607.09	20.747
607.42	20.027
607.75	20.515
608.08	20.171
608.42	20.740
608.75	21.012
609.08	20.877
609.41	20.609
609.75	20.413
610.08	20.869
610.41	19.855
610.74	20.819
611.07	21.395
611.41	21.173
611.74	21.588
612.07	21.360
612.40	21.335
612.73	20.904
613.07	20.529
613.40	21.991
613.73	20.257
614.06	20.924
614.39	20.925
614.72	20.672
615.06	20.000
615.39	20.415
615.72	20.667
616.05	20.894
616.38	20.057
616.71	20.428
617.05	21.433
617.38	20.553
617.71	20.881
618.04	21.143
618.37	21.185
618.70	21.188
619.03	21.944
619.36	20.839
619.69	21.077
620.03	22.790
620.36	22.246
620.69	21.413
621.02	21.636
621.35	22.822
621.68	22.789
622.01	22.917
622.34	21.708
622.67	23.186
623.00	21.210
623.33	22.104
623.66	21.242
623.99	21.180
624.32	21.901
624.65	20.752
624.99	21.670
625.32	21.077
625.65	22.702
625.98	23.207
626.31	21.530
626.64	22.010
626.97	21.815
627.30	22.154
627.63	22.790
627.96	22.821
628.29	22.109
628.62	22.812
628.95	22.345
629.28	23.891
629.61	21.934
629.94	23.460
630.26	22.431
630.59	23.621
630.92	23.077
631.25	22.769
631.58	22.137
631.91	21.820
632.24	22.821
632.57	23.068
632.90	21.827
633.23	24.000
633.56	23.678
633.89	23.798
634.22	24.691
634.55	21.093
634.88	23.116
635.20	22.308
635.53	24.533
635.86	23.407
636.19	25.097
636.52	22.577
636.85	20.720
637.18	22.138
637.51	24.025
637.83	24.310
