SpectraSuite Data File
++++++++++++++++++++++++++++++++++++
Date: Fri May 15 21:07:37 PDT 2015
User: schluterlab
Dark Spectrum Present: Yes
Reference Spectrum Present: Yes
Number of Sampled Component Spectra: 1
Spectrometers: USB2E3373
Integration Time (usec): 3000 (USB2E3373)
Spectra Averaged: 3 (USB2E3373)
Boxcar Smoothing: 0 (USB2E3373)
Correct for Electrical Dark: No (USB2E3373)
Strobe/Lamp Enabled: No (USB2E3373)
Correct for Detector Non-linearity: No (USB2E3373)
Correct for Stray Light: No (USB2E3373)
Number of Pixels in Processed Spectrum: 2048
>>>>>Begin Processed Spectral Data<<<<<
178.53	0.000
178.91	0.000
179.29	87.500
179.67	-500.000
180.04	-100.000
180.42	-150.000
180.80	0.000
181.18	-66.667
181.56	600.000
181.94	-50.000
182.31	1300.000
182.69	-240.000
183.07	-266.667
183.45	-260.000
183.83	250.000
184.20	45.455
184.58	166.667
184.96	-25.000
185.34	33.333
185.72	-400.000
186.09	107.692
186.47	0.000
186.85	116.667
187.23	22.222
187.61	200.000
187.98	-333.333
188.36	-11.111
188.74	-133.333
189.12	17.647
189.49	0.000
189.87	0.000
190.25	85.714
190.63	50.000
191.00	-200.000
191.38	52.632
191.76	450.000
192.14	175.000
192.51	-350.000
192.89	55.556
193.27	-100.000
193.65	133.333
194.02	100.000
194.40	70.000
194.78	-150.000
195.15	-8.333
195.53	-112.500
195.91	375.000
196.29	-300.000
196.66	100.000
197.04	28.571
197.42	-22.222
197.79	-633.333
198.17	-92.308
198.55	900.000
198.92	-400.000
199.30	200.000
199.68	-60.000
200.05	-200.000
200.43	0.000
200.81	200.000
201.18	-266.667
201.56	1000.000
201.94	-400.000
202.31	166.667
202.69	-340.000
203.07	150.000
203.44	100.000
203.82	0.000
204.19	7.143
204.57	-566.667
204.95	50.000
205.32	-40.000
205.70	-57.143
206.08	-50.000
206.45	88.889
206.83	57.143
207.20	-285.714
207.58	100.000
207.96	-366.667
208.33	-130.000
208.71	-75.000
209.08	-183.333
209.46	-1100.000
209.84	120.000
210.21	-400.000
210.59	57.143
210.96	-183.333
211.34	75.000
211.71	-13.333
212.09	-142.857
212.46	-2000.000
212.84	0.000
213.22	-40.000
213.59	300.000
213.97	-23.077
214.34	27.273
214.72	33.333
215.09	425.000
215.47	-7.692
215.84	0.000
216.22	-66.667
216.59	-50.000
216.97	-400.000
217.34	-100.000
217.72	-180.000
218.09	-25.000
218.47	237.500
218.84	-1300.000
219.22	-44.444
219.59	-320.000
219.97	700.000
220.34	25.000
220.72	-171.429
221.09	-150.000
221.47	-50.000
221.84	-250.000
222.22	-550.000
222.59	-18.182
222.97	-8.333
223.34	-133.333
223.72	-21.429
224.09	47.619
224.46	7.143
224.84	533.333
225.21	-50.000
225.59	66.667
225.96	-150.000
226.34	400.000
226.71	-14.286
227.08	-116.667
227.46	12.500
227.83	-200.000
228.21	-111.111
228.58	18.182
228.95	-100.000
229.33	80.000
229.70	0.000
230.08	-100.000
230.45	-14.286
230.82	-42.857
231.20	-53.333
231.57	0.000
231.95	-200.000
232.32	-120.000
232.69	21.429
233.07	-66.667
233.44	-120.000
233.81	-120.000
234.19	55.556
234.56	5.882
234.93	400.000
235.31	-50.000
235.68	-220.000
236.05	-115.385
236.43	-35.000
236.80	11.765
237.17	28.125
237.55	-5.000
237.92	-44.444
238.29	5.556
238.67	23.333
239.04	2.941
239.41	-29.268
239.79	-26.667
240.16	-14.634
240.53	-28.947
240.91	0.000
241.28	4.762
241.65	17.857
242.02	6.849
242.40	6.667
242.77	8.475
243.14	0.000
243.51	5.000
243.89	13.793
244.26	-8.046
244.63	-7.143
245.00	8.247
245.38	20.619
245.75	-6.742
246.12	-1.724
246.49	8.264
246.87	5.769
247.24	5.042
247.61	-6.140
247.98	2.439
248.36	3.750
248.73	3.947
249.10	2.597
249.47	8.861
249.84	10.458
250.22	10.000
250.59	7.843
250.96	11.737
251.33	8.140
251.70	11.176
252.08	10.660
252.45	8.911
252.82	6.533
253.19	10.599
253.56	4.206
253.94	9.459
254.31	11.304
254.68	7.895
255.05	9.055
255.42	7.860
255.79	8.880
256.16	10.506
256.54	11.940
256.91	12.548
257.28	8.178
257.65	8.614
258.02	7.801
258.39	8.081
258.76	8.425
259.14	12.625
259.51	9.385
259.88	9.966
260.25	12.418
260.62	11.111
260.99	7.458
261.36	8.562
261.73	7.595
262.10	12.158
262.47	10.429
262.85	9.404
263.22	7.692
263.59	10.592
263.96	9.627
264.33	11.515
264.70	10.714
265.07	8.333
265.44	10.198
265.81	11.017
266.18	10.383
266.55	12.339
266.92	9.845
267.29	7.833
267.66	10.742
268.03	10.995
268.40	8.094
268.77	10.695
269.14	11.511
269.51	13.882
269.88	6.733
270.25	9.184
270.62	10.244
270.99	8.696
271.36	10.024
271.73	11.268
272.10	9.246
272.47	9.929
272.84	6.931
273.21	12.065
273.58	11.084
273.95	9.611
274.32	8.314
274.69	6.109
275.06	10.938
275.43	11.111
275.80	10.375
276.17	9.425
276.54	10.278
276.91	9.868
277.28	8.952
277.65	9.711
278.02	8.723
278.39	8.972
278.76	9.015
279.13	6.846
279.50	9.034
279.87	10.583
280.23	5.591
280.60	10.721
280.97	10.909
281.34	8.269
281.71	12.526
282.08	8.793
282.45	6.654
282.82	9.073
283.19	10.832
283.56	12.139
283.92	9.108
284.29	9.231
284.66	8.527
285.03	7.466
285.40	8.696
285.77	9.139
286.14	7.942
286.51	9.779
286.87	8.410
287.24	7.551
287.61	8.289
287.98	9.298
288.35	7.972
288.72	10.158
289.08	8.160
289.45	8.612
289.82	9.091
290.19	7.850
290.56	7.547
290.93	9.428
291.29	6.934
291.66	8.819
292.03	9.569
292.40	7.581
292.77	6.539
293.13	6.818
293.50	6.980
293.87	7.023
294.24	6.801
294.60	7.601
294.97	9.077
295.34	6.902
295.71	7.303
296.08	7.623
296.44	5.405
296.81	7.917
297.18	7.536
297.55	7.182
297.91	8.082
298.28	8.839
298.65	6.242
299.02	6.739
299.38	4.514
299.75	6.621
300.12	7.592
300.48	6.851
300.85	8.492
301.22	6.104
301.59	7.500
301.95	7.848
302.32	7.782
302.69	6.965
303.05	6.064
303.42	7.098
303.79	8.294
304.15	5.735
304.52	6.778
304.89	5.614
305.25	7.385
305.62	4.901
305.99	7.251
306.35	6.358
306.72	6.187
307.09	7.754
307.45	7.003
307.82	6.019
308.19	6.620
308.55	6.652
308.92	6.209
309.29	5.028
309.65	5.813
310.02	5.831
310.38	6.037
310.75	7.541
311.12	5.167
311.48	6.469
311.85	6.387
312.22	5.274
312.58	6.051
312.95	5.443
313.31	5.487
313.68	6.073
314.05	4.388
314.41	6.082
314.78	6.495
315.14	6.578
315.51	6.729
315.87	6.250
316.24	7.381
316.61	6.988
316.97	6.250
317.34	6.348
317.70	6.310
318.07	6.250
318.43	6.078
318.80	6.439
319.16	6.445
319.53	7.787
319.89	6.693
320.26	6.579
320.62	7.222
320.99	5.637
321.35	6.269
321.72	7.061
322.08	6.344
322.45	6.599
322.81	7.564
323.18	6.084
323.54	6.467
323.91	7.303
324.27	7.910
324.64	7.865
325.00	8.212
325.37	8.724
325.73	6.890
326.10	7.175
326.46	8.610
326.83	7.612
327.19	8.806
327.56	8.341
327.92	9.243
328.29	7.768
328.65	8.208
329.01	9.099
329.38	9.585
329.74	8.404
330.11	8.341
330.47	9.647
330.84	8.365
331.20	10.932
331.56	9.630
331.93	10.594
332.29	10.082
332.66	9.502
333.02	8.736
333.38	8.616
333.75	10.714
334.11	9.400
334.48	9.066
334.84	10.256
335.20	9.881
335.57	10.063
335.93	9.124
336.29	10.497
336.66	9.809
337.02	9.851
337.38	10.093
337.75	10.727
338.11	11.722
338.47	9.763
338.84	10.444
339.20	10.786
339.56	8.716
339.93	10.295
340.29	9.725
340.65	9.677
341.02	10.993
341.38	9.823
341.74	9.894
342.11	9.619
342.47	10.053
342.83	10.727
343.20	10.017
343.56	9.739
343.92	10.452
344.28	9.735
344.65	10.363
345.01	9.853
345.37	10.429
345.73	11.046
346.10	10.095
346.46	10.765
346.82	10.556
347.19	9.559
347.55	10.109
347.91	10.599
348.27	10.186
348.63	9.540
349.00	9.680
349.36	9.726
349.72	10.365
350.08	10.328
350.45	10.694
350.81	9.801
351.17	10.831
351.53	9.959
351.89	10.239
352.26	9.520
352.62	10.081
352.98	8.916
353.34	11.111
353.70	10.437
354.07	10.000
354.43	10.969
354.79	9.744
355.15	10.397
355.51	10.680
355.87	10.194
356.24	9.788
356.60	9.701
356.96	10.873
357.32	10.463
357.68	10.164
358.04	9.855
358.40	10.129
358.77	10.207
359.13	9.928
359.49	9.707
359.85	10.140
360.21	9.171
360.57	10.099
360.93	10.817
361.29	9.366
361.66	10.345
362.02	9.848
362.38	10.206
362.74	8.933
363.10	10.609
363.46	10.082
363.82	10.819
364.18	9.151
364.54	9.779
364.90	10.609
365.26	9.971
365.62	10.584
365.98	9.824
366.35	10.269
366.71	10.643
367.07	10.160
367.43	9.561
367.79	10.459
368.15	10.481
368.51	10.561
368.87	9.907
369.23	9.242
369.59	10.277
369.95	11.437
370.31	10.694
370.67	10.075
371.03	9.783
371.39	9.044
371.75	10.256
372.11	10.057
372.47	9.837
372.83	10.007
373.19	10.913
373.55	9.603
373.91	10.367
374.27	10.135
374.63	10.194
374.99	8.511
375.35	9.889
375.71	10.420
376.07	10.042
376.42	10.340
376.78	10.201
377.14	10.020
377.50	10.027
377.86	10.375
378.22	10.019
378.58	9.936
378.94	9.641
379.30	10.730
379.66	10.470
380.02	10.607
380.38	10.043
380.74	9.934
381.09	10.859
381.45	9.419
381.81	10.919
382.17	9.962
382.53	11.368
382.89	9.542
383.25	9.770
383.61	10.488
383.97	9.968
384.32	10.694
384.68	8.545
385.04	10.233
385.40	9.770
385.76	10.377
386.12	10.414
386.48	10.409
386.83	9.956
387.19	10.195
387.55	9.348
387.91	9.963
388.27	9.585
388.62	9.817
388.98	10.129
389.34	10.056
389.70	11.001
390.06	9.880
390.42	9.326
390.77	8.698
391.13	9.773
391.49	10.091
391.85	9.487
392.20	9.918
392.56	9.282
392.92	10.335
393.28	10.024
393.64	9.189
393.99	10.596
394.35	9.045
394.71	9.962
395.07	9.554
395.42	8.986
395.78	9.837
396.14	10.340
396.50	10.653
396.85	9.852
397.21	9.837
397.57	9.154
397.92	10.545
398.28	9.540
398.64	9.578
399.00	9.989
399.35	9.029
399.71	9.707
400.07	10.157
400.42	10.282
400.78	10.227
401.14	9.921
401.49	10.066
401.85	10.360
402.21	10.181
402.57	10.000
402.92	9.536
403.28	9.962
403.63	10.340
403.99	8.929
404.35	10.119
404.70	9.048
405.06	9.283
405.42	9.820
405.77	9.181
406.13	9.721
406.49	9.177
406.84	9.230
407.20	9.813
407.55	9.659
407.91	9.626
408.27	8.604
408.62	10.338
408.98	9.735
409.34	10.409
409.69	9.690
410.05	9.544
410.40	9.444
410.76	10.374
411.11	9.687
411.47	9.467
411.83	8.851
412.18	10.103
412.54	10.175
412.89	8.867
413.25	10.108
413.60	9.441
413.96	9.509
414.31	10.061
414.67	9.044
415.03	8.655
415.38	9.008
415.74	9.251
416.09	10.516
416.45	9.386
416.80	9.187
417.16	9.876
417.51	10.460
417.87	9.257
418.22	9.845
418.58	9.565
418.93	10.596
419.29	9.731
419.64	10.629
420.00	10.579
420.35	8.836
420.71	10.146
421.06	9.576
421.42	9.856
421.77	10.058
422.12	9.875
422.48	10.070
422.83	9.977
423.19	9.707
423.54	9.406
423.90	10.012
424.25	9.759
424.61	10.404
424.96	10.105
425.31	10.225
425.67	11.033
426.02	10.483
426.38	10.144
426.73	10.169
427.09	10.190
427.44	11.294
427.79	9.782
428.15	10.801
428.50	9.691
428.85	9.459
429.21	11.036
429.56	10.836
429.92	10.786
430.27	10.727
430.62	10.350
430.98	9.979
431.33	10.305
431.68	10.309
432.04	10.006
432.39	9.983
432.74	9.441
433.10	10.977
433.45	9.737
433.80	10.505
434.16	9.972
434.51	10.376
434.86	10.337
435.22	10.208
435.57	10.480
435.92	10.659
436.28	10.793
436.63	10.896
436.98	9.849
437.34	9.437
437.69	10.555
438.04	10.541
438.39	9.896
438.75	10.200
439.10	10.074
439.45	11.321
439.81	10.887
440.16	10.392
440.51	10.925
440.86	11.360
441.22	10.747
441.57	10.375
441.92	10.808
442.27	10.588
442.63	10.921
442.98	11.143
443.33	11.074
443.68	10.557
444.03	11.475
444.39	10.920
444.74	11.984
445.09	10.913
445.44	11.054
445.79	11.604
446.15	11.068
446.50	10.205
446.85	10.999
447.20	10.792
447.55	10.938
447.91	10.152
448.26	10.814
448.61	11.226
448.96	11.130
449.31	11.040
449.66	10.801
450.02	10.724
450.37	11.500
450.72	10.710
451.07	11.203
451.42	10.674
451.77	11.694
452.12	10.467
452.47	10.174
452.83	10.777
453.18	10.816
453.53	10.809
453.88	11.293
454.23	11.002
454.58	11.083
454.93	11.082
455.28	10.032
455.63	11.717
455.98	10.463
456.34	10.983
456.69	11.436
457.04	11.846
457.39	11.239
457.74	11.306
458.09	11.772
458.44	10.942
458.79	11.429
459.14	10.812
459.49	12.597
459.84	11.337
460.19	10.983
460.54	11.736
460.89	11.477
461.24	11.553
461.59	12.530
461.94	10.629
462.29	11.942
462.64	11.761
462.99	12.119
463.34	11.196
463.69	11.583
464.04	11.562
464.39	11.401
464.74	11.718
465.09	10.667
465.44	12.118
465.79	10.714
466.14	12.258
466.49	11.041
466.84	12.195
467.19	12.203
467.54	11.750
467.89	11.118
468.24	11.740
468.59	12.508
468.94	12.063
469.29	12.262
469.64	12.645
469.99	12.684
470.34	12.218
470.68	12.081
471.03	12.880
471.38	11.769
471.73	12.465
472.08	11.533
472.43	11.745
472.78	11.995
473.13	12.721
473.48	11.987
473.83	12.640
474.17	12.500
474.52	11.870
474.87	13.333
475.22	11.470
475.57	12.140
475.92	12.342
476.27	13.038
476.61	12.442
476.96	12.660
477.31	12.818
477.66	12.191
478.01	11.454
478.36	11.983
478.70	12.561
479.05	12.363
479.40	12.666
479.75	12.357
480.10	11.521
480.45	12.300
480.79	13.192
481.14	13.217
481.49	11.872
481.84	12.452
482.19	11.787
482.53	12.326
482.88	13.126
483.23	12.860
483.58	12.736
483.92	11.810
484.27	11.851
484.62	12.102
484.97	12.604
485.31	12.030
485.66	11.902
486.01	11.727
486.36	11.884
486.70	12.162
487.05	12.263
487.40	12.435
487.75	12.394
488.09	12.732
488.44	12.758
488.79	13.112
489.13	12.981
489.48	12.227
489.83	12.377
490.17	12.404
490.52	12.887
490.87	12.726
491.22	12.512
491.56	12.951
491.91	12.428
492.26	13.320
492.60	12.956
492.95	13.379
493.30	12.897
493.64	12.868
493.99	13.430
494.34	12.476
494.68	12.571
495.03	12.506
495.37	12.758
495.72	12.670
496.07	12.732
496.41	12.830
496.76	13.404
497.11	13.041
497.45	13.604
497.80	13.320
498.14	13.065
498.49	12.798
498.84	12.874
499.18	12.801
499.53	12.698
499.87	13.278
500.22	13.056
500.56	13.162
500.91	13.052
501.26	12.704
501.60	12.789
501.95	12.809
502.29	13.898
502.64	13.562
502.98	12.778
503.33	13.977
503.67	13.108
504.02	14.174
504.36	14.052
504.71	13.131
505.06	13.387
505.40	14.162
505.75	14.021
506.09	13.786
506.44	14.014
506.78	14.439
507.13	13.754
507.47	14.047
507.82	12.821
508.16	14.052
508.51	14.533
508.85	14.286
509.19	13.571
509.54	14.584
509.88	14.024
510.23	14.040
510.57	14.645
510.92	14.179
511.26	14.075
511.61	14.246
511.95	14.411
512.30	14.856
512.64	14.747
512.98	14.879
513.33	15.109
513.67	14.497
514.02	15.046
514.36	15.771
514.70	15.909
515.05	15.864
515.39	15.643
515.74	16.048
516.08	15.302
516.42	15.312
516.77	16.150
517.11	15.074
517.46	16.218
517.80	15.554
518.14	16.044
518.49	16.887
518.83	15.857
519.17	15.403
519.52	15.808
519.86	15.726
520.20	15.735
520.55	16.073
520.89	17.378
521.23	16.276
521.58	17.035
521.92	17.115
522.26	16.461
522.61	17.013
522.95	17.616
523.29	17.535
523.64	17.281
523.98	17.369
524.32	17.139
524.66	17.093
525.01	16.883
525.35	18.276
525.69	16.902
526.04	17.196
526.38	17.704
526.72	17.005
527.06	17.056
527.41	16.953
527.75	17.292
528.09	17.807
528.43	18.231
528.78	17.756
529.12	18.129
529.46	17.284
529.80	17.733
530.15	18.086
530.49	17.912
530.83	18.399
531.17	17.797
531.51	17.989
531.86	17.471
532.20	17.884
532.54	16.950
532.88	18.617
533.22	18.078
533.57	17.104
533.91	17.232
534.25	18.424
534.59	17.447
534.93	17.432
535.27	17.322
535.62	17.758
535.96	17.808
536.30	18.931
536.64	18.677
536.98	17.143
537.32	17.994
537.66	19.565
538.01	18.392
538.35	17.961
538.69	18.242
539.03	17.567
539.37	17.766
539.71	18.200
540.05	18.534
540.39	17.590
540.73	18.271
541.07	18.439
541.42	18.817
541.76	18.238
542.10	18.720
542.44	18.346
542.78	16.930
543.12	17.720
543.46	18.220
543.80	17.974
544.14	17.490
544.48	18.121
544.82	18.660
545.16	18.443
545.50	18.825
545.84	19.334
546.18	17.163
546.52	18.601
546.86	17.901
547.20	18.312
547.54	17.880
547.88	18.818
548.22	17.488
548.56	17.546
548.90	18.127
549.24	18.113
549.58	17.701
549.92	17.655
550.26	18.168
550.60	18.216
550.94	18.671
551.28	17.929
551.62	18.615
551.96	17.820
552.30	17.178
552.64	17.630
552.98	18.073
553.32	18.331
553.66	17.199
554.00	18.248
554.34	18.612
554.68	18.068
555.02	18.452
555.36	17.801
555.69	17.143
556.03	18.558
556.37	17.367
556.71	18.051
557.05	18.046
557.39	18.364
557.73	18.741
558.07	18.250
558.41	18.760
558.75	18.316
559.08	18.834
559.42	18.492
559.76	18.415
560.10	18.196
560.44	18.690
560.78	17.552
561.12	17.560
561.45	18.412
561.79	17.997
562.13	18.382
562.47	17.122
562.81	18.012
563.15	18.829
563.48	18.458
563.82	19.012
564.16	18.036
564.50	17.500
564.84	18.541
565.17	17.304
565.51	18.374
565.85	18.244
566.19	18.435
566.52	17.962
566.86	17.545
567.20	17.933
567.54	18.370
567.88	18.219
568.21	18.043
568.55	17.228
568.89	17.762
569.23	16.948
569.56	17.469
569.90	17.418
570.24	17.268
570.57	16.800
570.91	16.591
571.25	16.278
571.59	16.350
571.92	16.207
572.26	15.912
572.60	16.372
572.93	16.097
573.27	16.740
573.61	16.289
573.95	16.521
574.28	15.572
574.62	15.459
574.96	16.255
575.29	16.027
575.63	15.833
575.97	15.966
576.30	16.306
576.64	15.894
576.98	16.216
577.31	16.146
577.65	16.445
577.98	16.272
578.32	15.537
578.66	15.710
578.99	16.238
579.33	15.588
579.67	16.149
580.00	16.329
580.34	16.393
580.67	16.024
581.01	15.994
581.35	15.655
581.68	15.312
582.02	15.526
582.35	15.673
582.69	15.680
583.02	15.531
583.36	16.253
583.70	16.303
584.03	16.069
584.37	16.516
584.70	16.071
585.04	15.518
585.37	15.799
585.71	16.144
586.04	15.860
586.38	15.738
586.72	16.356
587.05	16.031
587.39	16.438
587.72	16.348
588.06	15.970
588.39	16.320
588.73	16.697
589.06	16.438
589.40	16.765
589.73	16.758
590.07	16.427
590.40	16.563
590.73	16.392
591.07	16.200
591.40	17.008
591.74	16.787
592.07	17.254
592.41	16.784
592.74	15.810
593.08	15.962
593.41	16.310
593.75	16.192
594.08	16.169
594.41	16.339
594.75	15.725
595.08	15.967
595.42	15.974
595.75	16.260
596.09	16.458
596.42	16.742
596.75	16.918
597.09	16.173
597.42	16.712
597.75	16.720
598.09	16.750
598.42	15.884
598.76	16.088
599.09	15.385
599.42	16.029
599.76	15.651
600.09	15.875
600.42	16.414
600.76	15.416
601.09	15.763
601.42	15.668
601.76	16.316
602.09	16.708
602.42	16.639
602.76	16.044
603.09	16.071
603.42	16.597
603.76	15.282
604.09	15.877
604.42	16.751
604.76	16.911
605.09	16.728
605.42	15.937
605.75	15.674
606.09	16.348
606.42	15.888
606.75	15.887
607.09	16.000
607.42	15.419
607.75	15.941
608.08	16.397
608.42	16.492
608.75	16.482
609.08	16.044
609.41	16.447
609.75	16.482
610.08	16.725
610.41	16.473
610.74	15.407
611.07	16.382
611.41	17.177
611.74	17.537
612.07	16.328
612.40	16.302
612.73	16.045
613.07	16.310
613.40	17.396
613.73	16.620
614.06	16.861
614.39	16.920
614.72	15.798
615.06	15.866
615.39	15.993
615.72	16.146
616.05	15.475
616.38	16.239
616.71	16.147
617.05	16.553
617.38	16.719
617.71	16.918
618.04	16.317
618.37	16.393
618.70	16.436
619.03	16.806
619.36	16.064
619.69	17.134
620.03	17.531
620.36	16.309
620.69	16.560
621.02	16.896
621.35	17.012
621.68	16.752
622.01	16.917
622.34	17.398
622.67	17.114
623.00	17.611
623.33	15.549
623.66	15.258
623.99	16.566
624.32	17.262
624.65	16.466
624.99	18.284
625.32	16.452
625.65	16.418
625.98	17.889
626.31	15.794
626.64	17.418
626.97	17.976
627.30	17.776
627.63	17.504
627.96	16.262
628.29	18.224
628.62	18.092
628.95	17.635
629.28	17.540
629.61	17.747
629.94	17.498
630.26	16.897
630.59	17.898
630.92	18.051
631.25	17.128
631.58	18.172
631.91	15.899
632.24	18.693
632.57	18.523
632.90	16.014
633.23	18.471
633.56	16.877
633.89	17.879
634.22	18.395
634.55	17.154
634.88	18.646
635.20	15.385
635.53	17.200
635.86	16.775
636.19	19.017
636.52	16.837
636.85	17.122
637.18	17.484
637.51	16.604
637.83	19.185
638.16	19.918
638.49	16.349
638.82	18.158
639.15	17.775
639.48	17.331
639.81	18.968
640.13	16.017
640.46	18.805
