SpectraSuite Data File
++++++++++++++++++++++++++++++++++++
Date: Fri May 15 20:34:29 PDT 2015
User: schluterlab
Dark Spectrum Present: Yes
Reference Spectrum Present: Yes
Number of Sampled Component Spectra: 1
Spectrometers: USB2E3373
Integration Time (usec): 3000 (USB2E3373)
Spectra Averaged: 3 (USB2E3373)
Boxcar Smoothing: 0 (USB2E3373)
Correct for Electrical Dark: No (USB2E3373)
Strobe/Lamp Enabled: No (USB2E3373)
Correct for Detector Non-linearity: No (USB2E3373)
Correct for Stray Light: No (USB2E3373)
Number of Pixels in Processed Spectrum: 2048
>>>>>Begin Processed Spectral Data<<<<<
178.53	0.000
178.91	0.000
179.29	-12.500
179.67	-850.000
180.04	-42.857
180.42	-75.000
180.80	-200.000
181.18	66.667
181.56	700.000
181.94	150.000
182.31	600.000
182.69	-160.000
183.07	-133.333
183.45	-140.000
183.83	83.333
184.20	-36.364
184.58	88.889
184.96	75.000
185.34	166.667
185.72	-300.000
186.09	92.308
186.47	-400.000
186.85	233.333
187.23	100.000
187.61	-0.000
187.98	-366.667
188.36	22.222
188.74	-100.000
189.12	17.647
189.49	0.000
189.87	0.000
190.25	50.000
190.63	-200.000
191.00	-200.000
191.38	0.000
191.76	400.000
192.14	75.000
192.51	-200.000
192.89	-33.333
193.27	-142.857
193.65	266.667
194.02	81.818
194.40	20.000
194.78	-175.000
195.15	-75.000
195.53	-87.500
195.91	25.000
196.29	-100.000
196.66	123.077
197.04	157.143
197.42	-100.000
197.79	-500.000
198.17	-153.846
198.55	2400.000
198.92	-533.333
199.30	300.000
199.68	-240.000
200.05	-466.667
200.43	0.000
200.81	-200.000
201.18	-200.000
201.56	1300.000
201.94	-350.000
202.31	-66.667
202.69	-300.000
203.07	225.000
203.44	400.000
203.82	0.000
204.19	-78.571
204.57	-566.667
204.95	100.000
205.32	-10.000
205.70	14.286
206.08	0.000
206.45	-33.333
206.83	28.571
207.20	-71.429
207.58	600.000
207.96	-233.333
208.33	-70.000
208.71	50.000
209.08	-166.667
209.46	-1600.000
209.84	-160.000
210.21	-1900.000
210.59	28.571
210.96	-150.000
211.34	-250.000
211.71	0.000
212.09	-142.857
212.46	-1400.000
212.84	0.000
213.22	10.000
213.59	700.000
213.97	-15.385
214.34	-45.455
214.72	-166.667
215.09	475.000
215.47	7.692
215.84	-9.091
216.22	-133.333
216.59	-87.500
216.97	150.000
217.34	-100.000
217.72	-240.000
218.09	-37.500
218.47	175.000
218.84	-800.000
219.22	-55.556
219.59	-120.000
219.97	666.667
220.34	300.000
220.72	0.000
221.09	-225.000
221.47	50.000
221.84	-500.000
222.22	-750.000
222.59	81.818
222.97	50.000
223.34	66.667
223.72	-71.429
224.09	-33.333
224.46	-14.286
224.84	366.667
225.21	-20.000
225.59	-13.333
225.96	-400.000
226.34	375.000
226.71	-28.571
227.08	-83.333
227.46	-12.500
227.83	-1050.000
228.21	-11.111
228.58	-100.000
228.95	50.000
229.33	270.000
229.70	-43.750
230.08	-125.000
230.45	-185.714
230.82	42.857
231.20	-40.000
231.57	-35.714
231.95	-171.429
232.32	-160.000
232.69	0.000
233.07	-400.000
233.44	-300.000
233.81	-80.000
234.19	-44.444
234.56	-5.882
234.93	600.000
235.31	150.000
235.68	-140.000
236.05	-138.462
236.43	-50.000
236.80	-88.235
237.17	-15.625
237.55	-15.000
237.92	-22.222
238.29	0.000
238.67	-20.000
239.04	-8.824
239.41	-12.195
239.79	-76.667
240.16	-9.756
240.53	-34.211
240.91	-19.565
241.28	11.111
241.65	-3.571
242.02	21.918
242.40	-3.333
242.77	0.000
243.14	-15.152
243.51	5.000
243.89	5.747
244.26	-3.448
244.63	-2.381
245.00	3.093
245.38	-7.216
245.75	-14.607
246.12	-1.724
246.49	0.000
246.87	1.923
247.24	-2.521
247.61	-3.509
247.98	-3.252
248.36	0.000
248.73	1.974
249.10	1.299
249.47	-4.430
249.84	-1.307
250.22	-0.588
250.59	7.190
250.96	4.225
251.33	-4.651
251.70	4.706
252.08	3.046
252.45	2.475
252.82	0.000
253.19	9.677
253.56	0.935
253.94	2.703
254.31	3.913
254.68	7.018
255.05	-1.575
255.42	3.493
255.79	2.703
256.16	5.058
256.54	4.104
256.91	1.141
257.28	7.063
257.65	3.371
258.02	5.674
258.39	10.438
258.76	2.930
259.14	5.648
259.51	3.560
259.88	3.780
260.25	6.863
260.62	10.069
260.99	0.339
261.36	2.055
261.73	2.848
262.10	3.343
262.47	4.294
262.85	5.643
263.22	1.231
263.59	5.296
263.96	4.658
264.33	1.818
264.70	3.869
265.07	5.357
265.44	3.683
265.81	6.497
266.18	4.372
266.55	6.941
266.92	6.218
267.29	2.350
267.66	5.627
268.03	5.236
268.40	2.350
268.77	8.556
269.14	5.036
269.51	3.085
269.88	5.237
270.25	0.255
270.62	1.220
270.99	3.581
271.36	2.689
271.73	4.930
272.10	3.650
272.47	4.965
272.84	3.218
273.21	4.176
273.58	3.133
273.95	5.034
274.32	2.079
274.69	2.262
275.06	4.018
275.43	3.855
275.80	1.987
276.17	1.839
276.54	4.925
276.91	5.702
277.28	5.677
277.65	4.959
278.02	3.830
278.39	1.969
278.76	5.031
279.13	-1.452
279.50	3.782
279.87	4.536
280.23	2.796
280.60	5.653
280.97	4.848
281.34	2.308
281.71	6.571
282.08	3.476
282.45	2.348
282.82	2.896
283.19	5.416
283.56	4.239
283.92	1.898
284.29	3.462
284.66	3.682
285.03	3.143
285.40	4.159
285.77	3.515
286.14	4.874
286.51	5.720
286.87	4.388
287.24	2.026
287.61	2.469
287.98	4.737
288.35	4.679
288.72	6.655
289.08	2.431
289.45	3.339
289.82	4.720
290.19	3.584
290.56	4.631
290.93	2.525
291.29	2.928
291.66	4.882
292.03	4.625
292.40	1.935
292.77	3.509
293.13	0.487
293.50	2.731
293.87	4.275
294.24	4.946
294.60	2.981
294.97	4.762
295.34	3.221
295.71	2.683
296.08	3.737
296.44	1.138
296.81	4.028
297.18	1.884
297.55	5.014
297.91	3.014
298.28	3.430
298.65	2.578
299.02	3.504
299.38	0.137
299.75	2.621
300.12	1.440
300.48	1.845
300.85	2.915
301.22	1.948
301.59	1.711
301.95	4.177
302.32	5.318
302.69	2.861
303.05	1.856
303.42	3.113
303.79	2.804
304.15	3.704
304.52	1.189
304.89	1.988
305.25	3.874
305.62	2.567
305.99	2.339
306.35	3.006
306.72	2.587
307.09	2.737
307.45	4.133
307.82	2.546
308.19	3.717
308.55	3.599
308.92	3.704
309.29	1.229
309.65	2.260
310.02	2.970
310.38	2.964
310.75	2.623
311.12	1.938
311.48	2.651
311.85	2.827
312.22	3.376
312.58	3.503
312.95	3.095
313.31	3.313
313.68	3.141
314.05	3.776
314.41	4.845
314.78	3.711
315.14	4.111
315.51	3.934
315.87	3.484
316.24	4.853
316.61	4.331
316.97	5.556
317.34	4.590
317.70	4.207
318.07	4.231
318.43	5.098
318.80	5.208
319.16	5.078
319.53	7.692
319.89	5.610
320.26	6.781
320.62	4.915
320.99	4.802
321.35	7.503
321.72	7.580
322.08	8.359
322.45	7.513
322.81	8.153
323.18	8.440
323.54	8.398
323.91	7.790
324.27	8.203
324.64	9.738
325.00	9.854
325.37	10.101
325.73	9.429
326.10	9.264
326.46	10.942
326.83	10.499
327.19	9.765
327.56	10.339
327.92	11.620
328.29	11.161
328.65	11.698
329.01	11.029
329.38	12.258
329.74	11.898
330.11	11.863
330.47	12.709
330.84	10.865
331.20	13.593
331.56	12.315
331.93	13.790
332.29	14.024
332.66	12.579
333.02	12.639
333.38	11.916
333.75	13.004
334.11	12.444
334.48	13.871
334.84	13.095
335.20	13.175
335.57	12.149
335.93	13.369
336.29	13.812
336.66	13.533
337.02	11.431
337.38	12.500
337.75	12.818
338.11	13.526
338.47	13.686
338.84	14.233
339.20	12.706
339.56	13.853
339.93	14.145
340.29	13.303
340.65	13.799
341.02	12.500
341.38	12.301
341.74	12.544
342.11	12.912
342.47	12.811
342.83	13.235
343.20	12.805
343.56	12.435
343.92	12.489
344.28	15.286
344.65	12.522
345.01	13.051
345.37	13.625
345.73	13.222
346.10	13.201
346.46	13.204
346.82	12.848
347.19	12.219
347.55	12.865
347.91	12.945
348.27	13.824
348.63	13.458
349.00	14.110
349.36	12.801
349.72	13.765
350.08	13.279
350.45	13.647
350.81	11.628
351.17	13.355
351.53	12.245
351.89	12.634
352.26	12.160
352.62	13.387
352.98	13.333
353.34	12.399
353.70	13.269
354.07	13.065
354.43	12.410
354.79	12.634
355.15	13.492
355.51	12.579
355.87	12.460
356.24	12.724
356.60	12.935
356.96	13.492
357.32	13.259
357.68	12.432
358.04	12.601
358.40	13.826
358.77	13.716
359.13	12.730
359.49	12.943
359.85	12.168
360.21	13.158
360.57	13.619
360.93	13.464
361.29	11.934
361.66	12.461
362.02	13.939
362.38	12.262
362.74	12.263
363.10	14.221
363.46	12.602
363.82	13.449
364.18	13.063
364.54	12.941
364.90	13.262
365.26	13.028
365.62	14.161
365.98	12.537
366.35	14.421
366.71	13.673
367.07	13.280
367.43	13.300
367.79	13.498
368.15	13.065
368.51	12.964
368.87	13.496
369.23	12.563
369.59	13.484
369.95	14.809
370.31	14.162
370.67	13.433
371.03	13.069
371.39	13.786
371.75	13.187
372.11	13.909
372.47	14.423
372.83	14.904
373.19	14.265
373.55	13.213
373.91	14.183
374.27	15.308
374.63	13.711
374.99	14.184
375.35	15.251
375.71	14.126
376.07	13.624
376.42	15.170
376.78	14.564
377.14	13.879
377.50	14.343
377.86	14.458
378.22	14.040
378.58	15.449
378.94	14.682
379.30	14.286
379.66	15.047
380.02	14.224
380.38	14.242
380.74	14.722
381.09	15.767
381.45	15.168
381.81	14.621
382.17	15.546
382.53	15.428
382.89	15.505
383.25	14.872
383.61	15.671
383.97	15.111
384.32	15.197
384.68	15.294
385.04	15.135
385.40	14.312
385.76	17.107
386.12	15.847
386.48	15.709
386.83	15.029
387.19	15.873
387.55	16.562
387.91	15.403
388.27	16.300
388.62	16.174
388.98	16.145
389.34	16.302
389.70	17.029
390.06	15.607
390.42	15.220
390.77	16.612
391.13	16.393
391.49	16.818
391.85	15.919
392.20	16.070
392.56	16.020
392.92	16.735
393.28	16.922
393.64	16.336
393.99	17.367
394.35	17.078
394.71	17.050
395.07	16.593
395.42	16.576
395.78	17.980
396.14	16.772
396.50	16.360
396.85	16.420
397.21	16.416
397.57	16.614
397.92	17.436
398.28	16.724
398.64	17.108
399.00	16.648
399.35	16.253
399.71	16.715
400.07	16.989
400.42	16.769
400.78	17.575
401.14	18.149
401.49	17.927
401.85	16.697
402.21	17.410
402.57	16.750
402.92	17.189
403.28	17.669
403.63	17.276
403.99	16.709
404.35	16.740
404.70	17.024
405.06	16.275
405.42	16.346
405.77	16.967
406.13	16.997
406.49	16.282
406.84	17.359
407.20	16.857
407.55	16.871
407.91	16.511
408.27	17.017
408.62	17.908
408.98	17.129
409.34	17.596
409.69	16.602
410.05	15.948
410.40	16.914
410.76	16.888
411.11	16.500
411.47	16.568
411.83	16.761
412.18	17.375
412.54	17.416
412.89	16.256
413.25	17.148
413.60	16.584
413.96	16.380
414.31	16.707
414.67	16.613
415.03	17.310
415.38	16.710
415.74	16.938
416.09	16.917
416.45	17.151
416.80	17.383
417.16	17.334
417.51	17.722
417.87	17.210
418.22	17.358
418.58	16.254
418.93	18.245
419.29	16.325
419.64	16.915
420.00	17.947
420.35	17.015
420.71	16.525
421.06	17.373
421.42	17.788
421.77	17.110
422.12	16.288
422.48	17.650
422.83	17.401
423.19	16.535
423.54	16.814
423.90	17.197
424.25	17.738
424.61	17.319
424.96	16.841
425.31	17.851
425.67	17.782
426.02	17.786
426.38	17.846
426.73	17.373
427.09	17.722
427.44	17.941
427.79	17.619
428.15	18.204
428.50	17.081
428.85	17.199
429.21	17.770
429.56	18.329
429.92	18.028
430.27	17.794
430.62	17.041
430.98	17.357
431.33	17.613
431.68	17.164
432.04	18.055
432.39	16.771
432.74	17.318
433.10	17.989
433.45	17.503
433.80	17.121
434.16	17.008
434.51	18.065
434.86	17.770
435.22	18.452
435.57	18.278
435.92	18.144
436.28	17.710
436.63	18.654
436.98	17.265
437.34	18.572
437.69	17.710
438.04	17.664
438.39	17.654
438.75	18.944
439.10	18.393
439.45	18.381
439.81	18.165
440.16	18.765
440.51	18.448
440.86	19.396
441.22	18.439
441.57	18.653
441.92	19.203
442.27	18.958
442.63	19.968
442.98	18.150
443.33	18.420
443.68	18.143
444.03	19.921
444.39	19.380
444.74	19.231
445.09	19.543
445.44	18.575
445.79	20.578
446.15	19.824
446.50	18.968
446.85	19.660
447.20	19.917
447.55	21.261
447.91	19.515
448.26	19.636
448.61	20.898
448.96	19.793
449.31	19.480
449.66	20.151
450.02	19.566
450.37	19.739
450.72	19.931
451.07	20.949
451.42	20.287
451.77	20.313
452.12	20.096
452.47	19.639
452.83	19.258
453.18	19.102
453.53	21.113
453.88	20.219
454.23	20.160
454.58	19.899
454.93	20.812
455.28	19.492
455.63	20.893
455.98	20.926
456.34	20.370
456.69	21.093
457.04	20.479
457.39	19.684
457.74	20.254
458.09	19.717
458.44	19.836
458.79	20.112
459.14	20.709
459.49	21.910
459.84	20.530
460.19	20.570
460.54	20.049
460.89	20.455
461.24	20.186
461.59	20.368
461.94	19.560
462.29	20.024
462.64	20.465
462.99	18.822
463.34	20.376
463.69	18.790
464.04	20.460
464.39	20.133
464.74	19.755
465.09	20.898
465.44	20.658
465.79	20.181
466.14	20.696
466.49	19.954
466.84	20.048
467.19	20.463
467.54	19.668
467.89	19.646
468.24	20.377
468.59	20.825
468.94	19.746
469.29	20.393
469.64	20.574
469.99	21.233
470.34	20.273
470.68	19.836
471.03	20.453
471.38	19.615
471.73	20.798
472.08	19.810
472.43	19.463
472.78	19.534
473.13	20.816
473.48	20.000
473.83	19.863
474.17	20.337
474.52	20.676
474.87	19.515
475.22	20.866
475.57	19.537
475.92	20.132
476.27	19.383
476.61	20.313
476.96	19.688
477.31	20.065
477.66	19.719
478.01	19.483
478.36	19.390
478.70	19.793
479.05	19.835
479.40	19.555
479.75	18.874
480.10	19.867
480.45	19.750
480.79	20.393
481.14	19.980
481.49	18.867
481.84	19.691
482.19	19.224
482.53	19.904
482.88	19.284
483.23	18.138
483.58	18.962
483.92	18.829
484.27	19.098
484.62	19.139
484.97	18.864
485.31	18.533
485.66	18.565
486.01	18.503
486.36	18.761
486.70	19.027
487.05	19.321
487.40	19.131
487.75	18.507
488.09	18.232
488.44	18.294
488.79	17.632
489.13	19.191
489.48	18.469
489.83	18.341
490.17	18.292
490.52	18.707
490.87	19.297
491.22	18.911
491.56	18.406
491.91	18.595
492.26	18.230
492.60	18.378
492.95	19.085
493.30	17.733
493.64	18.075
493.99	18.502
494.34	18.155
494.68	17.905
495.03	17.810
495.37	17.763
495.72	18.274
496.07	18.537
496.41	18.019
496.76	18.747
497.11	17.885
497.45	18.329
497.80	18.517
498.14	17.685
498.49	18.588
498.84	18.313
499.18	18.624
499.53	17.907
499.87	17.996
500.22	17.804
500.56	17.953
500.91	17.269
501.26	17.202
501.60	17.314
501.95	17.467
502.29	17.337
502.64	17.761
502.98	17.563
503.33	16.667
503.67	17.590
504.02	18.231
504.36	17.862
504.71	16.919
505.06	16.860
505.40	17.056
505.75	16.598
506.09	17.537
506.44	17.454
506.78	17.500
507.13	17.528
507.47	17.232
507.82	16.560
508.16	16.587
508.51	16.789
508.85	17.321
509.19	16.232
509.54	17.051
509.88	16.990
510.23	17.106
510.57	16.622
510.92	16.418
511.26	17.021
511.61	17.382
511.95	17.315
512.30	16.685
512.64	17.140
512.98	16.171
513.33	17.124
513.67	16.202
514.02	17.220
514.36	17.314
514.70	17.716
515.05	17.156
515.39	16.883
515.74	17.904
516.08	16.796
516.42	17.845
516.77	17.262
517.11	16.736
517.46	16.697
517.80	16.925
518.14	16.656
518.49	16.887
518.83	17.132
519.17	16.192
519.52	16.696
519.86	16.627
520.20	16.889
520.55	16.010
520.89	17.315
521.23	16.086
521.58	16.972
521.92	17.372
522.26	16.070
522.61	15.974
522.95	16.954
523.29	16.518
523.64	16.773
523.98	15.943
524.32	16.044
524.66	17.093
525.01	16.039
525.35	16.202
525.69	16.027
526.04	15.146
526.38	16.018
526.72	16.089
527.06	15.694
527.41	16.359
527.75	15.684
528.09	16.013
528.43	16.678
528.78	16.304
529.12	15.290
529.46	15.660
529.80	15.516
530.15	16.238
530.49	15.758
530.83	15.595
531.17	14.976
531.51	15.663
531.86	15.228
532.20	15.727
532.54	14.772
532.88	15.332
533.22	14.987
533.57	15.072
533.91	15.601
534.25	14.974
534.59	15.202
534.93	14.475
535.27	14.848
535.62	15.230
535.96	15.525
536.30	15.172
536.64	14.404
536.98	14.425
537.32	15.363
537.66	15.638
538.01	14.476
538.35	14.771
538.69	14.714
539.03	14.764
539.37	14.738
539.71	14.110
540.05	14.121
540.39	15.512
540.73	13.947
541.07	15.677
541.42	16.196
541.76	15.348
542.10	14.315
542.44	14.454
542.78	12.870
543.12	14.011
543.46	14.395
543.80	14.781
544.14	13.618
544.48	14.390
544.82	14.354
545.16	13.934
545.50	14.553
545.84	15.014
546.18	13.830
546.52	14.420
546.86	14.809
547.20	14.306
547.54	12.933
547.88	13.655
548.22	14.267
548.56	12.731
548.90	13.410
549.24	13.223
549.58	14.175
549.92	13.510
550.26	13.773
550.60	14.275
550.94	14.414
551.28	13.138
551.62	13.769
551.96	13.609
552.30	12.719
552.64	13.963
552.98	13.924
553.32	12.839
553.66	13.135
554.00	12.555
554.34	14.402
554.68	12.168
555.02	13.393
555.36	12.939
555.69	12.821
556.03	13.062
556.37	13.167
556.71	13.791
557.05	12.975
557.39	12.193
557.73	12.594
558.07	13.348
558.41	12.864
558.75	12.860
559.08	12.530
559.42	12.222
559.76	12.570
560.10	11.850
560.44	12.063
560.78	13.217
561.12	12.976
561.45	12.860
561.79	12.885
562.13	12.775
562.47	12.590
562.81	13.112
563.15	12.341
563.48	12.942
563.82	12.766
564.16	12.117
564.50	12.230
564.84	13.788
565.17	11.133
565.51	12.637
565.85	12.277
566.19	12.202
566.52	12.332
566.86	12.532
567.20	12.391
567.54	12.287
567.88	11.951
568.21	12.104
568.55	11.522
568.89	12.423
569.23	12.374
569.56	11.471
569.90	12.464
570.24	11.649
570.57	12.436
570.91	12.060
571.25	11.641
571.59	11.772
571.92	11.615
572.26	11.051
572.60	11.225
572.93	11.296
573.27	11.223
573.61	11.396
573.95	11.633
574.28	11.255
574.62	10.882
574.96	11.269
575.29	11.080
575.63	11.117
575.97	11.006
576.30	10.964
576.64	11.205
576.98	11.248
577.31	11.010
577.65	11.422
577.98	11.179
578.32	11.116
578.66	10.724
578.99	10.950
579.33	10.892
579.67	10.901
580.00	11.595
580.34	10.995
580.67	11.202
581.01	10.783
581.35	11.003
581.68	10.825
582.02	10.773
582.35	11.049
582.69	10.654
583.02	10.874
583.36	10.953
583.70	10.826
584.03	11.120
584.37	11.293
584.70	10.687
585.04	10.363
585.37	10.491
585.71	10.467
586.04	10.590
586.38	10.376
586.72	11.162
587.05	10.919
587.39	10.959
587.72	10.798
588.06	10.794
588.39	11.108
588.73	11.020
589.06	11.350
589.40	10.716
589.73	10.953
590.07	11.140
590.40	10.178
590.73	10.956
591.07	10.984
591.40	10.329
591.74	10.317
592.07	11.874
592.41	10.468
592.74	10.832
593.08	10.164
593.41	10.346
593.75	10.173
594.08	10.882
594.41	10.408
594.75	10.458
595.08	10.481
595.42	9.937
595.75	10.477
596.09	10.907
596.42	10.748
596.75	10.879
597.09	10.433
597.42	11.427
597.75	10.765
598.09	10.140
598.42	9.702
598.76	10.382
599.09	10.176
599.42	9.663
599.76	10.609
600.09	10.068
600.42	10.273
600.76	9.733
601.09	10.305
601.42	9.832
601.76	10.123
602.09	10.314
602.42	11.289
602.76	10.144
603.09	10.091
603.42	10.033
603.76	9.839
604.09	9.964
604.42	10.618
604.76	10.547
605.09	10.420
605.42	10.609
605.75	9.982
606.09	9.639
606.42	9.925
606.75	9.870
607.09	10.286
607.42	9.127
607.75	9.991
608.08	9.659
608.42	10.233
608.75	10.169
609.08	10.314
609.41	10.558
609.75	9.829
610.08	10.035
610.41	9.662
610.74	10.336
611.07	9.922
611.41	9.704
611.74	10.448
612.07	9.797
612.40	10.011
612.73	9.944
613.07	9.280
613.40	9.956
613.73	9.905
614.06	10.017
614.39	10.209
614.72	9.580
615.06	10.112
615.39	10.044
615.72	8.988
616.05	9.944
616.38	8.889
616.71	9.969
617.05	10.377
617.38	9.868
617.71	8.679
618.04	9.714
618.37	10.719
618.70	10.495
619.03	10.278
619.36	9.768
619.69	9.932
620.03	9.131
620.36	10.229
620.69	8.922
621.02	10.245
621.35	11.701
621.68	9.099
622.01	10.000
622.34	10.694
622.67	10.726
623.00	10.720
623.33	9.680
623.66	9.349
623.99	9.834
624.32	9.658
624.65	9.549
624.99	9.857
625.32	8.491
625.65	10.448
625.98	10.475
626.31	9.643
626.64	8.925
626.97	10.558
627.30	10.508
627.63	10.919
627.96	9.704
628.29	9.713
628.62	9.538
628.95	10.220
629.28	9.073
629.61	9.073
629.94	8.602
630.26	9.881
630.59	10.094
630.92	8.410
631.25	9.846
631.58	7.709
631.91	9.211
632.24	10.206
632.57	10.114
632.90	9.253
633.23	9.647
633.56	8.312
633.89	9.988
634.22	9.012
634.55	10.801
634.88	8.940
635.20	8.974
635.53	9.600
635.86	10.403
636.19	9.702
636.52	9.949
636.85	8.189
637.18	9.057
637.51	9.308
637.83	8.936
638.16	10.232
638.49	9.537
638.82	10.000
