SpectraSuite Data File
++++++++++++++++++++++++++++++++++++
Date: Fri May 15 21:03:24 PDT 2015
User: schluterlab
Dark Spectrum Present: Yes
Reference Spectrum Present: Yes
Number of Sampled Component Spectra: 1
Spectrometers: USB2E3373
Integration Time (usec): 3000 (USB2E3373)
Spectra Averaged: 3 (USB2E3373)
Boxcar Smoothing: 0 (USB2E3373)
Correct for Electrical Dark: No (USB2E3373)
Strobe/Lamp Enabled: No (USB2E3373)
Correct for Detector Non-linearity: No (USB2E3373)
Correct for Stray Light: No (USB2E3373)
Number of Pixels in Processed Spectrum: 2048
>>>>>Begin Processed Spectral Data<<<<<
178.53	0.000
178.91	0.000
179.29	75.000
179.67	-500.000
180.04	42.857
180.42	-125.000
180.80	200.000
181.18	366.667
181.56	500.000
181.94	-400.000
182.31	600.000
182.69	-220.000
183.07	-400.000
183.45	-220.000
183.83	66.667
184.20	18.182
184.58	166.667
184.96	100.000
185.34	-0.000
185.72	-900.000
186.09	115.385
186.47	400.000
186.85	250.000
187.23	100.000
187.61	-100.000
187.98	-133.333
188.36	-33.333
188.74	-433.333
189.12	-41.176
189.49	-11.111
189.87	0.000
190.25	71.429
190.63	-150.000
191.00	-300.000
191.38	-26.316
191.76	0.000
192.14	50.000
192.51	-700.000
192.89	-33.333
193.27	-185.714
193.65	200.000
194.02	118.182
194.40	-70.000
194.78	-137.500
195.15	-108.333
195.53	-112.500
195.91	550.000
196.29	-350.000
196.66	100.000
197.04	142.857
197.42	-11.111
197.79	-533.333
198.17	-123.077
198.55	1300.000
198.92	-233.333
199.30	-100.000
199.68	-400.000
200.05	-333.333
200.43	0.000
200.81	-133.333
201.18	-333.333
201.56	1500.000
201.94	-300.000
202.31	233.333
202.69	-220.000
203.07	250.000
203.44	200.000
203.82	0.000
204.19	0.000
204.57	-500.000
204.95	112.500
205.32	-130.000
205.70	-71.429
206.08	-25.000
206.45	0.000
206.83	21.429
207.20	-185.714
207.58	1200.000
207.96	-33.333
208.33	-40.000
208.71	0.000
209.08	-266.667
209.46	-1200.000
209.84	-60.000
210.21	-1500.000
210.59	-128.571
210.96	-200.000
211.34	0.000
211.71	-6.667
212.09	-128.571
212.46	-2100.000
212.84	0.000
213.22	0.000
213.59	1000.000
213.97	-76.923
214.34	0.000
214.72	-150.000
215.09	375.000
215.47	-69.231
215.84	-45.455
216.22	-166.667
216.59	-87.500
216.97	-650.000
217.34	-350.000
217.72	-360.000
218.09	-100.000
218.47	75.000
218.84	-800.000
219.22	-144.444
219.59	0.000
219.97	766.667
220.34	375.000
220.72	-157.143
221.09	-275.000
221.47	-600.000
221.84	-550.000
222.22	-600.000
222.59	-63.636
222.97	-50.000
223.34	-66.667
223.72	-57.143
224.09	0.000
224.46	21.429
224.84	700.000
225.21	-80.000
225.59	13.333
225.96	-250.000
226.34	125.000
226.71	-185.714
227.08	-183.333
227.46	-50.000
227.83	-1100.000
228.21	22.222
228.58	36.364
228.95	-62.500
229.33	140.000
229.70	-12.500
230.08	-200.000
230.45	-100.000
230.82	-85.714
231.20	-53.333
231.57	21.429
231.95	-71.429
232.32	-160.000
232.69	7.143
233.07	-166.667
233.44	-60.000
233.81	-110.000
234.19	0.000
234.56	-35.294
234.93	500.000
235.31	175.000
235.68	-540.000
236.05	-84.615
236.43	-20.000
236.80	-82.353
237.17	9.375
237.55	-20.000
237.92	-18.519
238.29	25.000
238.67	-43.333
239.04	14.706
239.41	-14.634
239.79	-26.667
240.16	9.756
240.53	-28.947
240.91	-10.870
241.28	9.524
241.65	0.000
242.02	0.000
242.40	11.667
242.77	-3.390
243.14	-13.636
243.51	5.000
243.89	13.793
244.26	11.494
244.63	0.000
245.00	0.000
245.38	-1.031
245.75	-14.607
246.12	-3.448
246.49	4.959
246.87	9.615
247.24	6.723
247.61	4.386
247.98	0.000
248.36	4.375
248.73	7.895
249.10	5.844
249.47	11.392
249.84	5.229
250.22	7.059
250.59	5.229
250.96	11.737
251.33	-2.907
251.70	11.176
252.08	11.675
252.45	4.455
252.82	5.025
253.19	6.452
253.56	3.738
253.94	4.054
254.31	7.826
254.68	4.825
255.05	9.449
255.42	4.803
255.79	8.494
256.16	8.560
256.54	10.075
256.91	6.844
257.28	2.602
257.65	10.487
258.02	5.674
258.39	7.744
258.76	9.158
259.14	6.312
259.51	7.443
259.88	6.873
260.25	7.516
260.62	7.639
260.99	4.746
261.36	4.110
261.73	3.797
262.10	7.295
262.47	6.442
262.85	5.956
263.22	6.154
263.59	9.346
263.96	6.211
264.33	7.273
264.70	4.464
265.07	6.845
265.44	8.215
265.81	8.192
266.18	6.831
266.55	7.455
266.92	8.290
267.29	4.961
267.66	7.161
268.03	6.283
268.40	3.655
268.77	8.021
269.14	4.556
269.51	8.226
269.88	7.232
270.25	6.633
270.62	7.805
270.99	2.302
271.36	4.645
271.73	7.746
272.10	7.543
272.47	6.383
272.84	7.673
273.21	7.425
273.58	9.398
273.95	7.323
274.32	7.852
274.69	3.846
275.06	8.036
275.43	7.029
275.80	6.623
276.17	5.287
276.54	5.996
276.91	6.360
277.28	6.114
277.65	5.785
278.02	6.383
278.39	5.252
278.76	5.241
279.13	3.942
279.50	5.882
279.87	7.127
280.23	4.946
280.60	6.433
280.97	5.859
281.34	5.769
281.71	7.187
282.08	5.317
282.45	6.262
282.82	5.985
283.19	7.157
283.56	7.322
283.92	3.795
284.29	4.423
284.66	5.620
285.03	5.501
285.40	5.293
285.77	4.569
286.14	6.498
286.51	8.487
286.87	5.850
287.24	5.709
287.61	4.762
287.98	7.895
288.35	6.066
288.72	7.180
289.08	6.250
289.45	6.503
289.82	6.993
290.19	5.802
290.56	5.832
290.93	4.377
291.29	4.468
291.66	6.457
292.03	5.901
292.40	6.452
292.77	3.987
293.13	3.409
293.50	4.704
293.87	7.176
294.24	6.337
294.60	7.004
294.97	4.613
295.34	4.755
295.71	4.173
296.08	4.783
296.44	2.987
296.81	5.000
297.18	5.652
297.55	6.233
297.91	5.479
298.28	7.916
298.65	4.478
299.02	5.660
299.38	2.873
299.75	4.414
300.12	4.581
300.48	3.821
300.85	4.816
301.22	3.506
301.59	4.474
301.95	5.570
302.32	5.318
302.69	4.104
303.05	5.074
303.42	4.110
303.79	4.556
304.15	5.018
304.52	3.924
304.89	3.626
305.25	3.632
305.62	3.734
305.99	4.444
306.35	3.699
306.72	4.162
307.09	3.535
307.45	4.707
307.82	5.093
308.19	4.762
308.55	4.689
308.92	5.991
309.29	3.687
309.65	3.875
310.02	4.290
310.38	4.171
310.75	5.355
311.12	4.306
311.48	5.408
311.85	5.026
312.22	4.958
312.58	5.202
312.95	4.909
313.31	4.348
313.68	5.654
314.05	5.816
314.41	5.670
314.78	5.155
315.14	7.400
315.51	6.315
315.87	5.533
316.24	7.583
316.61	6.299
316.97	6.448
317.34	7.324
317.70	6.310
318.07	7.596
318.43	8.627
318.80	6.723
319.16	8.203
319.53	8.832
319.89	9.350
320.26	9.919
320.62	9.428
320.99	9.186
321.35	9.044
321.72	11.319
322.08	12.286
322.45	11.066
322.81	12.083
323.18	13.052
323.54	12.259
323.91	12.950
324.27	13.965
324.64	14.232
325.00	14.964
325.37	16.529
325.73	15.141
326.10	16.530
326.46	18.386
326.83	17.935
327.19	17.786
327.56	18.766
327.92	19.102
328.29	19.643
328.65	21.321
329.01	20.496
329.38	21.106
329.74	20.302
330.11	21.131
330.47	21.243
330.84	21.154
331.20	22.433
331.56	22.037
331.93	22.466
332.29	24.015
332.66	23.529
333.02	22.398
333.38	23.648
333.75	24.542
334.11	23.277
334.48	24.025
334.84	25.000
335.20	23.879
335.57	23.844
335.93	23.035
336.29	24.586
336.66	23.252
337.02	22.955
337.38	23.796
337.75	24.545
338.11	24.707
338.47	25.000
338.84	24.677
339.20	25.868
339.56	25.138
339.93	24.888
340.29	25.505
340.65	26.075
341.02	25.000
341.38	24.867
341.74	24.823
342.11	24.437
342.47	25.979
342.83	25.692
343.20	24.826
343.56	26.000
343.92	25.775
344.28	25.790
344.65	25.043
345.01	24.633
345.37	25.568
345.73	25.356
346.10	25.280
346.46	25.568
346.82	24.141
347.19	23.691
347.55	25.564
347.91	25.890
348.27	25.465
348.63	26.065
349.00	25.677
349.36	26.101
349.72	26.036
350.08	26.557
350.45	26.417
350.81	25.997
351.17	24.756
351.53	27.592
351.89	26.177
352.26	26.000
352.62	26.371
352.98	26.506
353.34	24.799
353.70	26.052
354.07	26.694
354.43	26.021
354.79	26.507
355.15	26.508
355.51	26.978
355.87	26.861
356.24	26.101
356.60	27.082
356.96	27.143
357.32	27.476
357.68	27.522
358.04	26.494
358.40	27.251
358.77	26.635
359.13	27.382
359.49	27.042
359.85	26.833
360.21	26.635
360.57	26.243
360.93	26.021
361.29	26.511
361.66	27.743
362.02	27.500
362.38	28.408
362.74	28.009
363.10	28.217
363.46	28.317
363.82	29.001
364.18	28.413
364.54	28.824
364.90	28.817
365.26	28.603
365.62	29.781
365.98	30.279
366.35	29.716
366.71	29.194
367.07	28.737
367.43	28.037
367.79	29.399
368.15	29.720
368.51	29.789
368.87	30.079
369.23	29.386
369.59	30.466
369.95	30.279
370.31	31.069
370.67	31.567
371.03	30.022
371.39	30.926
371.75	30.696
372.11	30.243
372.47	31.213
372.83	31.157
373.19	29.957
373.55	30.975
373.91	31.389
374.27	31.184
374.63	31.156
374.99	32.979
375.35	31.825
375.71	31.958
376.07	31.742
376.42	32.517
376.78	32.081
377.14	31.889
377.50	32.736
377.86	32.530
378.22	32.929
378.58	33.013
378.94	32.766
379.30	33.562
379.66	33.981
380.02	33.231
380.38	34.023
380.74	32.855
381.09	34.172
381.45	33.578
381.81	34.547
382.17	34.201
382.53	34.478
382.89	35.028
383.25	35.843
383.61	35.915
383.97	34.413
384.32	35.647
384.68	35.604
385.04	34.988
385.40	35.096
385.76	37.484
386.12	36.546
386.48	36.335
386.83	36.335
387.19	36.081
387.55	36.700
387.91	36.369
388.27	37.241
388.62	36.690
388.98	36.219
389.34	38.039
389.70	37.352
390.06	35.620
390.42	38.731
390.77	38.653
391.13	38.714
391.49	38.357
391.85	38.856
392.20	39.109
392.56	38.207
392.92	38.579
393.28	37.913
393.64	38.138
393.99	39.310
394.35	39.279
394.71	39.527
395.07	38.655
395.42	39.709
395.78	39.544
396.14	39.407
396.50	39.949
396.85	40.052
397.21	39.474
397.57	38.997
397.92	40.144
398.28	40.920
398.64	39.699
399.00	39.278
399.35	40.632
399.71	39.632
400.07	40.810
400.42	40.514
400.78	40.600
401.14	39.746
401.49	40.381
401.85	39.976
402.21	40.783
402.57	40.500
402.92	40.715
403.28	40.789
403.63	41.110
403.99	40.944
404.35	41.162
404.70	40.298
405.06	40.012
405.42	41.516
405.77	39.919
406.13	41.444
406.49	40.912
406.84	41.198
407.20	41.902
407.55	41.275
407.91	40.976
408.27	41.938
408.62	42.277
408.98	42.144
409.34	42.379
409.69	40.698
410.05	41.195
410.40	41.173
410.76	41.496
411.11	41.938
411.47	41.749
411.83	40.239
412.18	41.828
412.54	41.261
412.89	41.626
413.25	42.479
413.60	40.745
413.96	42.025
414.31	42.256
414.67	42.207
415.03	40.945
415.38	40.927
415.74	42.410
416.09	42.260
416.45	42.404
416.80	41.243
417.16	42.403
417.51	42.638
417.87	41.460
418.22	43.070
418.58	41.605
418.93	42.194
419.29	42.061
419.64	43.487
420.00	44.207
420.35	43.164
420.71	42.467
421.06	41.375
421.42	42.007
421.77	41.503
422.12	42.281
422.48	42.447
422.83	41.821
423.19	43.736
423.54	42.563
423.90	41.696
424.25	41.619
424.61	43.452
424.96	42.683
425.31	43.963
425.67	43.075
426.02	44.464
426.38	44.083
426.73	43.765
427.09	44.241
427.44	43.000
427.79	42.899
428.15	43.022
428.50	43.852
428.85	42.076
429.21	42.671
429.56	43.450
429.92	43.041
430.27	43.008
430.62	41.976
430.98	42.410
431.33	43.165
431.68	43.171
432.04	43.488
432.39	42.556
432.74	41.191
433.10	43.276
433.45	44.205
433.80	43.413
434.16	42.548
434.51	44.247
434.86	43.496
435.22	42.400
435.57	43.980
435.92	44.012
436.28	43.709
436.63	42.784
436.98	43.395
437.34	43.255
437.69	43.769
438.04	43.419
438.39	43.494
438.75	44.384
439.10	42.218
439.45	44.309
439.81	43.547
440.16	45.368
440.51	44.179
440.86	45.861
441.22	42.421
441.57	44.647
441.92	44.491
442.27	44.900
442.63	44.272
442.98	44.400
443.33	42.905
443.68	44.244
444.03	44.163
444.39	44.270
444.74	45.764
445.09	44.766
445.44	44.387
445.79	46.209
446.15	43.117
446.50	43.483
446.85	44.261
447.20	44.056
447.55	44.810
447.91	43.486
448.26	43.085
448.61	44.099
448.96	43.603
449.31	44.682
449.66	43.961
450.02	43.868
450.37	44.754
450.72	44.158
451.07	45.506
451.42	44.444
451.77	44.183
452.12	43.959
452.47	43.593
452.83	44.287
453.18	44.086
453.53	43.995
453.88	43.594
454.23	43.700
454.58	45.088
454.93	43.943
455.28	42.603
455.63	44.575
455.98	44.498
456.34	43.487
456.69	43.837
457.04	44.297
457.39	43.682
457.74	44.196
458.09	42.260
458.44	44.412
458.79	42.465
459.14	43.478
459.49	44.060
459.84	44.275
460.19	42.718
460.54	44.499
460.89	45.625
461.24	43.913
461.59	43.943
461.94	42.579
462.29	42.642
462.64	44.983
462.99	43.399
463.34	43.115
463.69	42.664
464.04	43.765
464.39	42.207
464.74	42.883
465.09	43.731
465.44	42.585
465.79	43.141
466.14	43.044
466.49	42.266
466.84	41.642
467.19	43.242
467.54	42.529
467.89	43.146
468.24	42.275
468.59	42.730
468.94	42.413
469.29	43.279
469.64	41.422
469.99	43.167
470.34	41.980
470.68	44.370
471.03	42.463
471.38	42.725
471.73	41.947
472.08	42.130
472.43	41.879
472.78	41.604
473.13	42.041
473.48	42.866
473.83	40.847
474.17	42.746
474.52	42.055
474.87	41.455
475.22	41.123
475.57	40.655
475.92	42.567
476.27	41.560
476.61	41.551
476.96	41.550
477.31	41.752
477.66	40.899
478.01	41.325
478.36	40.359
478.70	41.599
479.05	41.593
479.40	42.289
479.75	40.094
480.10	40.963
480.45	41.250
480.79	41.138
481.14	41.803
481.49	40.690
481.84	41.168
482.19	39.850
482.53	40.384
482.88	40.191
483.23	40.115
483.58	40.142
483.92	39.642
484.27	40.611
484.62	40.430
484.97	39.386
485.31	39.017
485.66	37.963
486.01	38.990
486.36	39.109
486.70	39.586
487.05	39.781
487.40	39.400
487.75	38.648
488.09	38.288
488.44	38.343
488.79	38.775
489.13	38.462
489.48	38.649
489.83	38.296
490.17	38.427
490.52	39.215
490.87	39.241
491.22	39.351
491.56	38.899
491.91	38.193
492.26	39.037
492.60	38.916
492.95	38.859
493.30	38.544
493.64	39.686
493.99	38.068
494.34	38.155
494.68	38.333
495.03	37.713
495.37	38.518
495.72	38.819
496.07	39.317
496.41	37.830
496.76	37.817
497.11	37.820
497.45	38.043
497.80	38.597
498.14	38.202
498.49	38.090
498.84	37.525
499.18	37.801
499.53	37.004
499.87	37.208
500.22	37.636
500.56	38.023
500.91	37.651
501.26	35.788
501.60	37.531
501.95	37.894
502.29	37.143
502.64	35.859
502.98	37.938
503.33	36.215
503.67	36.386
504.02	37.488
504.36	37.853
504.71	35.859
505.06	35.732
505.40	35.736
505.75	36.392
506.09	36.290
506.44	37.577
506.78	36.786
507.13	36.143
507.47	36.345
507.82	35.043
508.16	35.552
508.51	35.782
508.85	36.054
509.19	35.125
509.54	35.925
509.88	35.922
510.23	35.987
510.57	35.970
510.92	34.701
511.26	35.734
511.61	36.249
511.95	35.507
512.30	35.477
512.64	36.839
512.98	34.363
513.33	35.367
513.67	35.190
514.02	36.041
514.36	35.657
514.70	35.723
515.05	35.429
515.39	36.009
515.74	36.527
516.08	35.445
516.42	35.453
516.77	34.933
517.11	35.134
517.46	35.129
517.80	34.267
518.14	34.783
518.49	34.615
518.83	34.690
519.17	33.596
519.52	33.156
519.86	33.733
520.20	34.569
520.55	34.021
520.89	34.567
521.23	34.516
521.58	34.322
521.92	34.038
522.26	33.702
522.61	33.377
522.95	34.834
523.29	34.879
523.64	35.006
523.98	34.997
524.32	32.796
524.66	33.291
525.01	33.896
525.35	34.608
525.69	33.872
526.04	33.201
526.38	34.695
526.72	32.832
527.06	33.139
527.41	33.311
527.75	33.847
528.09	32.425
528.43	33.626
528.78	32.673
529.12	33.484
529.46	32.814
529.80	32.046
530.15	33.597
530.49	33.064
530.83	32.353
531.17	31.229
531.51	33.242
531.86	32.019
532.20	32.498
532.54	31.314
532.88	32.991
533.22	32.594
533.57	31.717
533.91	31.984
534.25	32.161
534.59	31.302
534.93	32.599
535.27	30.266
535.62	31.303
535.96	32.029
536.30	32.322
536.64	32.460
536.98	32.334
537.32	32.859
537.66	32.539
538.01	31.608
538.35	31.831
538.69	31.158
539.03	31.647
539.37	32.571
539.71	30.675
540.05	30.414
540.39	31.163
540.73	31.520
541.07	32.113
541.42	30.712
541.76	31.383
542.10	30.626
542.44	30.785
542.78	30.557
543.12	30.975
543.46	31.780
543.80	29.979
544.14	29.105
544.48	30.779
544.82	30.144
545.16	31.421
545.50	30.574
545.84	29.674
546.18	30.851
546.52	30.209
546.86	30.194
547.20	30.329
547.54	29.329
547.88	30.299
548.22	29.060
548.56	30.475
548.90	30.189
549.24	29.614
549.58	30.395
549.92	29.164
550.26	30.403
550.60	30.037
550.94	29.276
551.28	29.675
551.62	29.462
551.96	30.150
552.30	28.655
552.64	27.997
552.98	28.692
553.32	29.458
553.66	28.012
554.00	28.540
554.34	29.173
554.68	28.466
555.02	28.720
555.36	27.749
555.69	28.718
556.03	27.980
556.37	27.473
556.71	28.448
557.05	28.635
557.39	27.658
557.73	27.886
558.07	28.130
558.41	28.025
558.75	28.449
559.08	26.714
559.42	28.413
559.76	28.263
560.10	27.370
560.44	27.103
560.78	28.042
561.12	28.350
561.45	28.883
561.79	27.171
562.13	28.247
562.47	27.626
562.81	27.233
563.15	27.504
563.48	27.440
563.82	26.218
564.16	27.577
564.50	27.973
564.84	27.443
565.17	27.297
565.51	28.005
565.85	26.886
566.19	27.785
566.52	27.614
566.86	27.506
567.20	26.152
567.54	26.521
567.88	26.831
568.21	27.376
568.55	25.924
568.89	27.515
569.23	26.673
569.56	25.919
569.90	26.431
570.24	26.907
570.57	25.709
570.91	26.107
571.25	25.222
571.59	25.288
571.92	25.689
572.26	25.574
572.60	25.488
572.93	25.322
573.27	25.016
573.61	24.970
573.95	25.287
574.28	24.762
574.62	24.383
574.96	24.557
575.29	24.710
575.63	24.100
575.97	24.072
576.30	24.571
576.64	23.947
576.98	24.736
577.31	24.846
577.65	24.839
577.98	24.598
578.32	24.025
578.66	23.985
578.99	24.146
579.33	24.057
579.67	23.543
580.00	24.228
580.34	24.328
580.67	24.233
581.01	24.256
581.35	23.730
581.68	23.519
582.02	23.913
582.35	23.510
582.69	24.114
583.02	24.012
583.36	24.202
583.70	24.688
584.03	23.825
584.37	24.619
584.70	24.011
585.04	23.316
585.37	23.391
585.71	23.698
586.04	23.727
586.38	23.500
586.72	24.017
587.05	24.177
587.39	23.623
587.72	23.647
588.06	23.526
588.39	24.010
588.73	23.291
589.06	24.136
589.40	23.712
589.73	23.804
590.07	23.754
590.40	24.342
590.73	23.723
591.07	23.791
591.40	23.375
591.74	24.525
592.07	24.490
592.41	23.410
592.74	22.939
593.08	22.389
593.41	23.196
593.75	23.520
594.08	22.760
594.41	22.780
594.75	22.672
595.08	23.042
595.42	23.077
595.75	23.132
596.09	23.769
596.42	23.357
596.75	23.401
597.09	22.961
597.42	22.674
597.75	23.225
598.09	23.042
598.42	22.518
598.76	22.308
599.09	22.115
599.42	22.130
599.76	22.122
600.09	22.511
600.42	22.138
600.76	21.991
601.09	22.290
601.42	21.974
601.76	21.993
602.09	21.782
602.42	22.241
602.76	23.048
603.09	23.007
603.42	22.826
603.76	21.734
604.09	22.398
604.42	21.912
604.76	22.741
605.09	22.395
605.42	22.483
605.75	22.285
606.09	22.293
606.42	22.102
606.75	22.121
607.09	22.505
607.42	21.799
607.75	21.714
608.08	21.249
608.42	21.288
608.75	22.602
609.08	21.873
609.41	21.980
609.75	22.933
610.08	22.566
610.41	21.884
610.74	21.502
611.07	22.119
611.41	22.470
611.74	22.708
612.07	21.146
612.40	22.046
612.73	22.203
613.07	21.541
613.40	21.499
613.73	21.544
614.06	21.703
614.39	21.658
614.72	21.961
615.06	21.285
615.39	21.288
615.72	21.636
616.05	21.899
616.38	21.026
616.71	21.346
617.05	21.186
617.38	21.245
617.71	21.258
618.04	22.032
618.37	22.383
618.70	21.056
619.03	22.986
619.36	22.069
619.69	21.683
620.03	22.790
620.36	21.388
620.69	21.984
621.02	21.789
621.35	22.241
621.68	22.024
622.01	20.917
622.34	22.586
622.67	22.397
623.00	21.286
623.33	21.723
623.66	21.017
623.99	21.104
624.32	20.837
624.65	21.278
624.99	21.746
625.32	20.622
625.65	21.681
625.98	20.467
626.31	19.950
626.64	20.277
626.97	21.640
627.30	21.454
627.63	21.924
627.96	22.192
628.29	22.387
628.62	22.812
628.95	21.743
629.28	21.673
629.61	20.538
629.94	21.701
630.26	21.542
630.59	23.101
630.92	21.128
631.25	20.821
631.58	20.485
631.91	21.272
632.24	20.642
632.57	20.909
632.90	20.522
633.23	20.824
633.56	20.025
633.89	19.852
634.22	21.358
634.55	20.712
634.88	19.923
635.20	19.359
635.53	21.733
635.86	20.546
636.19	21.863
636.52	21.046
636.85	20.099
