SpectraSuite Data File
++++++++++++++++++++++++++++++++++++
Date: Fri May 15 21:04:36 PDT 2015
User: schluterlab
Dark Spectrum Present: Yes
Reference Spectrum Present: Yes
Number of Sampled Component Spectra: 1
Spectrometers: USB2E3373
Integration Time (usec): 3000 (USB2E3373)
Spectra Averaged: 3 (USB2E3373)
Boxcar Smoothing: 0 (USB2E3373)
Correct for Electrical Dark: No (USB2E3373)
Strobe/Lamp Enabled: No (USB2E3373)
Correct for Detector Non-linearity: No (USB2E3373)
Correct for Stray Light: No (USB2E3373)
Number of Pixels in Processed Spectrum: 2048
>>>>>Begin Processed Spectral Data<<<<<
178.53	0.000
178.91	0.000
179.29	137.500
179.67	-650.000
180.04	28.571
180.42	25.000
180.80	-300.000
181.18	233.333
181.56	150.000
181.94	-500.000
182.31	900.000
182.69	-200.000
183.07	-300.000
183.45	-120.000
183.83	133.333
184.20	36.364
184.58	88.889
184.96	150.000
185.34	133.333
185.72	-350.000
186.09	146.154
186.47	-700.000
186.85	-83.333
187.23	177.778
187.61	-200.000
187.98	-333.333
188.36	-22.222
188.74	-66.667
189.12	29.412
189.49	50.000
189.87	0.000
190.25	100.000
190.63	200.000
191.00	-200.000
191.38	-36.842
191.76	0.000
192.14	150.000
192.51	0.000
192.89	-44.444
193.27	-71.429
193.65	33.333
194.02	154.545
194.40	0.000
194.78	-125.000
195.15	-50.000
195.53	-100.000
195.91	450.000
196.29	-200.000
196.66	146.154
197.04	100.000
197.42	22.222
197.79	-500.000
198.17	-53.846
198.55	1400.000
198.92	-366.667
199.30	-900.000
199.68	-120.000
200.05	-366.667
200.43	0.000
200.81	-366.667
201.18	-333.333
201.56	1500.000
201.94	-650.000
202.31	100.000
202.69	-300.000
203.07	125.000
203.44	-400.000
203.82	0.000
204.19	28.571
204.57	-566.667
204.95	150.000
205.32	50.000
205.70	-14.286
206.08	-25.000
206.45	66.667
206.83	28.571
207.20	-214.286
207.58	1200.000
207.96	-133.333
208.33	-170.000
208.71	-50.000
209.08	-133.333
209.46	-600.000
209.84	-20.000
210.21	-1800.000
210.59	-57.143
210.96	-50.000
211.34	-200.000
211.71	46.667
212.09	-100.000
212.46	-1400.000
212.84	0.000
213.22	-20.000
213.59	650.000
213.97	0.000
214.34	45.455
214.72	-166.667
215.09	475.000
215.47	0.000
215.84	-81.818
216.22	-400.000
216.59	50.000
216.97	150.000
217.34	-175.000
217.72	-240.000
218.09	-25.000
218.47	-37.500
218.84	-900.000
219.22	-44.444
219.59	-80.000
219.97	266.667
220.34	150.000
220.72	0.000
221.09	-175.000
221.47	0.000
221.84	-550.000
222.22	-900.000
222.59	-63.636
222.97	58.333
223.34	-166.667
223.72	-35.714
224.09	28.571
224.46	21.429
224.84	100.000
225.21	0.000
225.59	-33.333
225.96	-600.000
226.34	350.000
226.71	-100.000
227.08	-50.000
227.46	-37.500
227.83	-750.000
228.21	-22.222
228.58	-63.636
228.95	-25.000
229.33	130.000
229.70	-6.250
230.08	-87.500
230.45	-242.857
230.82	85.714
231.20	-60.000
231.57	14.286
231.95	28.571
232.32	-120.000
232.69	35.714
233.07	-333.333
233.44	-120.000
233.81	-100.000
234.19	-44.444
234.56	-23.529
234.93	-0.000
235.31	25.000
235.68	-180.000
236.05	-138.462
236.43	-65.000
236.80	23.529
237.17	15.625
237.55	-50.000
237.92	-11.111
238.29	-8.333
238.67	16.667
239.04	14.706
239.41	-34.146
239.79	0.000
240.16	21.951
240.53	2.632
240.91	19.565
241.28	9.524
241.65	25.000
242.02	28.767
242.40	16.667
242.77	25.424
243.14	9.091
243.51	18.750
243.89	18.391
244.26	17.241
244.63	13.095
245.00	30.928
245.38	17.526
245.75	4.494
246.12	18.966
246.49	18.182
246.87	21.154
247.24	21.849
247.61	16.667
247.98	21.951
248.36	20.000
248.73	24.342
249.10	14.286
249.47	18.354
249.84	20.261
250.22	18.824
250.59	26.144
250.96	25.352
251.33	14.535
251.70	21.765
252.08	22.335
252.45	24.257
252.82	23.618
253.19	19.816
253.56	21.028
253.94	23.874
254.31	23.043
254.68	25.877
255.05	21.654
255.42	20.087
255.79	25.483
256.16	22.957
256.54	27.985
256.91	22.433
257.28	23.048
257.65	21.723
258.02	23.759
258.39	25.253
258.76	24.542
259.14	24.252
259.51	22.330
259.88	23.711
260.25	23.203
260.62	22.917
260.99	18.644
261.36	19.178
261.73	23.418
262.10	22.796
262.47	21.779
262.85	18.182
263.22	20.923
263.59	20.872
263.96	23.913
264.33	23.636
264.70	24.702
265.07	21.131
265.44	21.813
265.81	22.599
266.18	20.765
266.55	24.679
266.92	23.316
267.29	21.149
267.66	21.483
268.03	25.393
268.40	22.715
268.77	25.668
269.14	25.899
269.51	23.650
269.88	23.192
270.25	21.429
270.62	20.732
270.99	23.274
271.36	21.027
271.73	23.239
272.10	21.168
272.47	23.168
272.84	21.287
273.21	23.202
273.58	23.373
273.95	21.510
274.32	21.940
274.69	20.588
275.06	23.438
275.43	21.542
275.80	24.945
276.17	23.448
276.54	20.557
276.91	21.272
277.28	21.834
277.65	22.314
278.02	22.553
278.39	22.757
278.76	23.899
279.13	18.050
279.50	21.429
279.87	22.678
280.23	21.290
280.60	22.612
280.97	22.222
281.34	20.385
281.71	22.793
282.08	23.313
282.45	20.744
282.82	19.691
283.19	22.631
283.56	22.158
283.92	20.683
284.29	20.577
284.66	18.992
285.03	20.629
285.40	21.928
285.77	19.684
286.14	21.300
286.51	25.277
286.87	21.938
287.24	19.337
287.61	21.517
287.98	22.632
288.35	22.357
288.72	22.242
289.08	20.486
289.45	16.872
289.82	21.503
290.19	19.454
290.56	19.039
290.93	20.370
291.29	21.572
291.66	20.945
292.03	19.777
292.40	18.387
292.77	18.022
293.13	15.909
293.50	18.968
293.87	19.695
294.24	19.165
294.60	17.586
294.97	19.345
295.34	18.252
295.71	18.778
296.08	19.432
296.44	15.932
296.81	18.056
297.18	18.406
297.55	19.106
297.91	20.000
298.28	20.053
298.65	18.182
299.02	16.577
299.38	17.100
299.75	17.793
300.12	16.492
300.48	17.523
300.85	19.138
301.22	18.831
301.59	18.684
301.95	18.481
302.32	20.104
302.69	19.030
303.05	18.193
303.42	17.559
303.79	18.692
304.15	20.311
304.52	17.717
304.89	17.193
305.25	18.523
305.62	16.919
305.99	17.310
306.35	18.035
306.72	18.110
307.09	20.068
307.45	18.485
307.82	18.981
308.19	21.022
308.55	19.193
308.92	21.242
309.29	20.112
309.65	19.806
310.02	20.242
310.38	21.405
310.75	20.874
311.12	20.775
311.48	21.739
311.85	20.314
312.22	20.781
312.58	22.718
312.95	22.412
313.31	22.360
313.68	21.675
314.05	24.082
314.41	23.505
314.78	23.711
315.14	23.638
315.51	24.120
315.87	25.717
316.24	26.896
316.61	26.378
316.97	25.099
317.34	26.855
317.70	25.430
318.07	26.635
318.43	27.157
318.80	26.420
319.16	27.441
319.53	27.920
319.89	27.953
320.26	28.846
320.62	29.689
320.99	29.749
321.35	29.291
321.72	30.945
322.08	30.816
322.45	33.299
322.81	33.202
323.18	32.483
323.54	30.792
323.91	33.106
324.27	33.984
324.64	34.270
325.00	36.040
325.37	36.915
325.73	35.811
326.10	36.058
326.46	36.771
326.83	38.320
327.19	39.233
327.56	39.183
327.92	39.701
328.29	39.018
328.65	40.283
329.01	41.544
329.38	40.922
329.74	41.737
330.11	41.242
330.47	41.837
330.84	41.635
331.20	46.198
331.56	42.222
331.93	42.374
332.29	43.721
332.66	41.448
333.02	42.286
333.38	42.255
333.75	42.033
334.11	42.883
334.48	44.334
334.84	44.231
335.20	44.282
335.57	42.520
335.93	44.625
336.29	44.751
336.66	43.052
337.02	43.216
337.38	43.889
337.75	44.364
338.11	44.004
338.47	45.529
338.84	45.379
339.20	44.516
339.56	44.128
339.93	45.031
340.29	44.495
340.65	44.355
341.02	43.794
341.38	44.690
341.74	44.523
342.11	42.721
342.47	42.438
342.83	44.118
343.20	43.990
343.56	44.435
343.92	45.438
344.28	45.260
344.65	45.078
345.01	44.166
345.37	43.734
345.73	43.598
346.10	44.262
346.46	44.323
346.82	44.599
347.19	43.392
347.55	44.444
347.91	44.660
348.27	44.705
348.63	44.974
349.00	44.955
349.36	44.555
349.72	44.527
350.08	45.246
350.45	45.331
350.81	45.017
351.17	44.300
351.53	44.898
351.89	44.261
352.26	43.680
352.62	46.855
352.98	43.695
353.34	44.203
353.70	45.793
354.07	44.113
354.43	45.156
354.79	45.665
355.15	44.921
355.51	44.620
355.87	46.117
356.24	44.046
356.60	43.735
356.96	47.381
357.32	45.367
357.68	44.957
358.04	45.477
358.40	44.373
358.77	47.528
359.13	46.197
359.49	44.145
359.85	45.320
360.21	45.295
360.57	43.917
360.93	47.277
361.29	45.166
361.66	46.003
362.02	46.136
362.38	47.753
362.74	46.858
363.10	47.630
363.46	46.108
363.82	48.385
364.18	45.978
364.54	47.132
364.90	44.946
365.26	46.361
365.62	48.686
365.98	47.214
366.35	47.123
366.71	47.894
367.07	48.113
367.43	47.232
367.79	47.279
368.15	47.523
368.51	47.342
368.87	47.093
369.23	45.776
369.59	47.959
369.95	48.534
370.31	47.760
370.67	49.403
371.03	46.975
371.39	49.015
371.75	47.179
372.11	47.718
372.47	48.669
372.83	48.261
373.19	49.001
373.55	47.148
373.91	47.876
374.27	48.831
374.63	49.031
374.99	47.943
375.35	49.304
375.71	48.741
376.07	48.666
376.42	48.707
376.78	48.792
377.14	48.409
377.50	50.199
377.86	48.327
378.22	49.202
378.58	49.423
378.94	48.141
379.30	48.784
379.66	49.530
380.02	49.356
380.38	48.813
380.74	49.013
381.09	49.939
381.45	49.052
381.81	48.674
382.17	49.048
382.53	49.219
382.89	49.592
383.25	50.156
383.61	50.061
383.97	48.889
384.32	50.031
384.68	50.155
385.04	49.326
385.40	49.533
385.76	50.252
386.12	50.582
386.48	50.511
386.83	50.032
387.19	49.695
387.55	50.251
387.91	48.716
388.27	48.352
388.62	49.906
388.98	49.601
389.34	50.468
389.70	51.025
390.06	49.717
390.42	50.194
390.77	51.668
391.13	50.315
391.49	50.776
391.85	50.357
392.20	48.713
392.56	50.477
392.92	49.442
393.28	51.061
393.64	50.210
393.99	50.784
394.35	50.601
394.71	49.553
395.07	49.717
395.42	49.241
395.78	50.749
396.14	50.631
396.50	49.715
396.85	50.097
397.21	49.875
397.57	49.279
397.92	49.670
398.28	49.310
398.64	48.012
399.00	49.887
399.35	49.210
399.71	48.708
400.07	50.242
400.42	49.388
400.78	50.337
401.14	49.728
401.49	50.804
401.85	49.238
402.21	50.422
402.57	49.312
402.92	49.373
403.28	49.937
403.63	50.378
403.99	49.554
404.35	50.219
404.70	47.857
405.06	48.414
405.42	49.161
405.77	49.680
406.13	48.778
406.49	48.549
406.84	49.022
407.20	50.151
407.55	49.066
407.91	48.730
408.27	49.012
408.62	49.538
408.98	49.538
409.34	49.318
409.69	49.096
410.05	48.091
410.40	50.062
410.76	50.241
411.11	49.125
411.47	49.375
411.83	48.964
412.18	49.871
412.54	49.064
412.89	48.522
413.25	48.676
413.60	50.621
413.96	47.055
414.31	49.085
414.67	49.262
415.03	48.802
415.38	49.543
415.74	49.511
416.09	50.098
416.45	49.629
416.80	48.843
417.16	51.519
417.51	49.500
417.87	48.696
418.22	51.295
418.58	49.030
418.93	50.784
419.29	48.464
419.64	49.320
420.00	50.441
420.35	50.328
420.71	50.243
421.06	50.031
421.42	48.738
421.77	50.751
422.12	48.751
422.48	49.053
422.83	51.624
423.19	49.774
423.54	49.324
423.90	49.588
424.25	49.828
424.61	51.163
424.96	50.290
425.31	51.820
425.67	50.939
426.02	52.297
426.38	51.534
426.73	50.969
427.09	52.405
427.44	51.471
427.79	51.444
428.15	51.092
428.50	51.121
428.85	49.816
429.21	51.047
429.56	52.183
429.92	50.488
430.27	50.426
430.62	51.072
430.98	51.911
431.33	52.050
431.68	50.863
432.04	51.761
432.39	51.626
432.74	51.413
433.10	52.414
433.45	52.031
433.80	52.699
434.16	51.524
434.51	52.151
434.86	52.846
435.22	52.271
435.57	52.714
435.92	52.395
436.28	51.640
436.63	52.082
436.98	52.375
437.34	52.269
437.69	53.309
438.04	51.624
438.39	51.741
438.75	53.127
439.10	53.084
439.45	52.648
439.81	52.355
440.16	54.751
440.51	53.075
440.86	54.683
441.22	53.167
441.57	52.152
441.92	53.043
442.27	53.326
442.63	54.497
442.98	53.418
443.33	52.421
443.68	51.936
444.03	52.260
444.39	53.468
444.74	54.181
445.09	53.953
445.44	53.732
445.79	54.203
446.15	52.863
446.50	52.468
446.85	52.019
447.20	52.659
447.55	53.571
447.91	53.130
448.26	53.102
448.61	53.310
448.96	54.733
449.31	53.121
449.66	53.833
450.02	53.280
450.37	54.120
450.72	53.265
451.07	55.000
451.42	53.683
451.77	53.466
452.12	54.366
452.47	53.703
452.83	54.122
453.18	53.131
453.53	54.614
453.88	54.523
454.23	53.042
454.58	55.416
454.93	54.575
455.28	52.444
455.63	54.929
455.98	54.540
456.34	54.534
456.69	53.748
457.04	54.631
457.39	54.557
457.74	55.139
458.09	52.560
458.44	54.476
458.79	53.669
459.14	54.920
459.49	54.269
459.84	52.905
460.19	53.944
460.54	53.851
460.89	54.318
461.24	53.416
461.59	54.394
461.94	53.270
462.29	53.860
462.64	55.349
462.99	54.232
463.34	54.033
463.69	52.960
464.04	54.903
464.39	53.669
464.74	53.988
465.09	55.084
465.44	53.606
465.79	52.664
466.14	53.991
466.49	52.846
466.84	54.015
467.19	55.006
467.54	53.448
467.89	54.706
468.24	54.501
468.59	54.921
468.94	54.413
469.29	56.525
469.64	55.434
469.99	56.622
470.34	55.017
470.68	57.122
471.03	54.706
471.38	55.563
471.73	56.443
472.08	54.885
472.43	55.503
472.78	54.352
473.13	55.646
473.48	54.463
473.83	54.421
474.17	55.829
474.52	55.073
474.87	55.394
475.22	55.461
475.57	55.336
475.92	56.281
476.27	54.948
476.61	56.597
476.96	55.270
477.31	55.057
477.66	54.831
478.01	55.811
478.36	54.684
478.70	55.791
479.05	55.934
479.40	54.955
479.75	54.640
480.10	54.839
480.45	55.750
480.79	55.891
481.14	55.635
481.49	55.172
481.84	55.019
482.19	54.677
482.53	54.580
482.88	54.033
483.23	54.559
483.58	54.953
483.92	54.743
484.27	54.740
484.62	54.953
484.97	53.980
485.31	52.854
485.66	49.597
486.01	50.049
486.36	49.407
486.70	51.297
487.05	52.513
487.40	53.128
487.75	52.507
488.09	53.307
488.44	54.298
488.79	54.688
489.13	55.088
489.48	54.853
489.83	56.054
490.17	53.798
490.52	56.074
490.87	54.095
491.22	55.826
491.56	54.839
491.91	54.732
492.26	56.879
492.60	54.942
492.95	56.665
493.30	55.154
493.64	55.845
493.99	55.314
494.34	54.320
494.68	56.095
495.03	56.058
495.37	55.103
495.72	55.174
496.07	54.927
496.41	55.283
496.76	54.583
497.11	54.262
497.45	54.558
497.80	56.105
498.14	54.545
498.49	56.882
498.84	55.339
499.18	55.723
499.53	54.464
499.87	54.767
500.22	55.737
500.56	55.673
500.91	55.120
501.26	55.413
501.60	55.337
501.95	55.847
502.29	55.254
502.64	55.019
502.98	57.967
503.33	54.947
503.67	55.904
504.02	56.207
504.36	55.468
504.71	55.505
505.06	55.360
505.40	55.431
505.75	56.134
506.09	55.803
506.44	57.392
506.78	56.224
507.13	56.050
507.47	56.815
507.82	56.571
508.16	56.683
508.51	56.558
508.85	57.875
509.19	57.743
509.54	56.676
509.88	56.742
510.23	57.934
510.57	58.311
510.92	56.130
511.26	57.774
511.61	57.811
511.95	57.479
512.30	57.428
512.64	56.761
512.98	57.440
513.33	58.590
513.67	57.817
514.02	58.982
514.36	59.943
514.70	59.615
515.05	60.693
515.39	59.091
515.74	61.198
516.08	60.251
516.42	60.365
516.77	60.328
517.11	58.872
517.46	60.144
517.80	59.654
518.14	60.257
518.49	60.517
518.83	60.571
519.17	59.491
519.52	58.733
519.86	60.204
520.20	60.085
520.55	61.101
520.89	60.853
521.23	61.368
521.58	59.685
521.92	61.987
522.26	61.223
522.61	62.403
522.95	63.775
523.29	60.419
523.64	61.309
523.98	62.800
524.32	62.178
524.66	61.524
525.01	62.273
525.35	62.281
525.69	62.761
526.04	61.905
526.38	62.257
526.72	62.198
527.06	60.246
527.41	62.995
527.75	61.461
528.09	62.392
528.43	62.593
528.78	63.168
529.12	61.484
529.46	61.858
529.80	60.481
530.15	62.178
530.49	63.434
530.83	63.064
531.17	61.316
531.51	63.748
531.86	61.727
532.20	62.283
532.54	62.764
532.88	62.286
533.22	61.156
533.57	61.271
533.91	61.031
534.25	61.458
534.59	61.450
534.93	60.227
535.27	60.787
535.62	61.439
535.96	62.100
536.30	61.280
536.64	63.336
536.98	61.672
537.32	62.802
537.66	62.202
538.01	62.448
538.35	60.888
538.69	61.385
539.03	61.722
539.37	62.382
539.71	60.804
540.05	60.964
540.39	60.596
540.73	62.483
541.07	62.155
541.42	60.417
541.76	60.702
542.10	61.528
542.44	61.293
542.78	60.702
543.12	60.852
543.46	60.848
543.80	60.999
544.14	60.614
544.48	59.893
544.82	61.176
545.16	61.885
545.50	60.214
545.84	61.331
546.18	62.340
546.52	62.149
546.86	61.251
547.20	62.876
547.54	60.353
547.88	60.394
548.22	59.895
548.56	59.894
548.90	59.636
549.24	59.504
549.58	61.001
549.92	60.758
550.26	61.758
550.60	61.710
550.94	63.779
551.28	63.524
551.62	63.846
551.96	63.308
552.30	62.427
552.64	61.707
552.98	60.338
553.32	61.127
553.66	62.119
554.00	61.752
554.34	62.629
554.68	61.726
555.02	62.946
555.36	62.453
555.69	60.659
556.03	60.171
556.37	61.423
556.71	61.516
557.05	61.969
557.39	61.338
557.73	61.844
558.07	62.443
558.41	62.021
558.75	63.523
559.08	61.939
559.42	63.968
559.76	63.251
560.10	62.691
560.44	62.025
560.78	61.469
561.12	61.566
561.45	60.576
561.79	62.465
562.13	61.746
562.47	62.230
562.81	61.455
563.15	60.437
563.48	60.608
563.82	61.359
564.16	60.515
564.50	60.000
564.84	60.643
565.17	59.490
565.51	61.749
565.85	62.551
566.19	60.743
566.52	60.121
566.86	60.540
567.20	58.717
567.54	58.455
567.88	58.641
568.21	58.201
568.55	57.935
568.89	57.084
569.23	56.331
569.56	56.042
569.90	55.298
570.24	53.777
570.57	54.800
570.91	53.817
571.25	52.450
571.59	52.258
571.92	51.022
572.26	51.812
572.60	52.031
572.93	51.773
573.27	51.787
573.61	52.297
573.95	51.748
574.28	51.218
574.62	51.284
574.96	49.788
575.29	50.177
575.63	49.598
575.97	50.637
576.30	50.886
576.64	49.457
576.98	50.862
577.31	50.455
577.65	50.436
577.98	50.190
578.32	49.969
578.66	49.044
578.99	49.813
579.33	50.637
579.67	49.609
580.00	50.684
580.34	50.050
580.67	50.173
581.01	49.784
581.35	49.591
581.68	48.632
582.02	49.000
582.35	48.375
582.69	48.948
583.02	49.498
583.36	50.059
583.70	51.610
584.03	52.182
584.37	52.541
584.70	50.797
585.04	49.016
585.37	49.484
585.71	49.247
586.04	49.924
586.38	49.773
586.72	51.105
587.05	51.213
587.39	50.238
587.72	50.820
588.06	50.761
588.39	49.900
588.73	51.465
589.06	51.729
589.40	51.573
589.73	52.574
590.07	52.606
590.40	53.135
590.73	54.119
591.07	52.969
591.40	53.072
591.74	53.348
592.07	53.293
592.41	53.313
592.74	50.856
593.08	50.157
593.41	50.082
593.75	49.918
594.08	50.360
594.41	51.710
594.75	51.527
595.08	51.230
595.42	51.822
595.75	52.047
596.09	52.971
596.42	52.253
596.75	53.108
597.09	53.257
597.42	53.207
597.75	52.771
598.09	51.607
598.42	52.076
598.76	51.780
599.09	50.761
599.42	49.867
599.76	49.737
600.09	50.264
600.42	50.796
600.76	50.149
601.09	50.382
601.42	50.607
601.76	51.449
602.09	50.784
602.42	52.106
602.76	51.273
603.09	51.661
603.42	51.630
603.76	50.403
604.09	51.154
604.42	51.777
604.76	52.648
605.09	51.554
605.42	51.828
605.75	51.182
606.09	51.083
606.42	50.917
606.75	50.606
607.09	51.516
607.42	50.554
607.75	50.577
608.08	50.539
608.42	50.251
608.75	52.867
609.08	51.968
609.41	51.827
609.75	50.958
610.08	52.022
610.41	51.401
610.74	51.780
611.07	51.938
611.41	52.517
611.74	52.825
612.07	51.017
612.40	52.462
612.73	53.503
613.07	51.575
613.40	51.751
613.73	52.266
614.06	52.087
614.39	53.356
614.72	51.933
615.06	52.179
615.39	51.146
615.72	51.722
616.05	51.788
616.38	52.308
616.71	52.722
617.05	53.366
617.38	53.803
617.71	53.396
618.04	53.651
618.37	53.657
618.70	54.653
619.03	54.722
619.36	55.427
619.69	55.497
620.03	56.465
620.36	54.721
620.69	54.818
621.02	55.275
621.35	57.427
621.68	57.398
622.01	56.250
622.34	55.946
622.67	54.968
623.00	55.590
623.33	54.116
623.66	54.151
623.99	54.539
624.32	54.373
624.65	54.887
624.99	54.176
625.32	55.193
625.65	54.988
625.98	56.084
626.31	54.364
626.64	58.406
626.97	57.243
627.30	56.743
627.63	56.239
627.96	58.221
628.29	57.817
628.62	58.505
628.95	57.014
629.28	58.871
629.61	57.428
629.94	57.674
630.26	59.289
630.59	59.521
630.92	58.359
631.25	56.718
631.58	59.141
631.91	56.798
632.24	59.748
632.57	61.136
632.90	61.091
