SpectraSuite Data File
++++++++++++++++++++++++++++++++++++
Date: Fri May 15 20:50:01 PDT 2015
User: schluterlab
Dark Spectrum Present: Yes
Reference Spectrum Present: Yes
Number of Sampled Component Spectra: 1
Spectrometers: USB2E3373
Integration Time (usec): 3000 (USB2E3373)
Spectra Averaged: 3 (USB2E3373)
Boxcar Smoothing: 0 (USB2E3373)
Correct for Electrical Dark: No (USB2E3373)
Strobe/Lamp Enabled: No (USB2E3373)
Correct for Detector Non-linearity: No (USB2E3373)
Correct for Stray Light: No (USB2E3373)
Number of Pixels in Processed Spectrum: 2048
>>>>>Begin Processed Spectral Data<<<<<
178.53	0.000
178.91	0.000
179.29	0.000
179.67	-750.000
180.04	57.143
180.42	-75.000
180.80	-800.000
181.18	-0.000
181.56	250.000
181.94	-350.000
182.31	1400.000
182.69	-280.000
183.07	-533.333
183.45	0.000
183.83	150.000
184.20	90.909
184.58	144.444
184.96	-150.000
185.34	400.000
185.72	-700.000
186.09	92.308
186.47	-1700.000
186.85	116.667
187.23	111.111
187.61	-200.000
187.98	-366.667
188.36	0.000
188.74	0.000
189.12	-5.882
189.49	38.889
189.87	0.000
190.25	7.143
190.63	-50.000
191.00	-300.000
191.38	10.526
191.76	250.000
192.14	75.000
192.51	-550.000
192.89	-111.111
193.27	-285.714
193.65	183.333
194.02	72.727
194.40	-100.000
194.78	-200.000
195.15	-41.667
195.53	-200.000
195.91	400.000
196.29	-150.000
196.66	84.615
197.04	242.857
197.42	22.222
197.79	-433.333
198.17	-92.308
198.55	1600.000
198.92	-233.333
199.30	-1200.000
199.68	-300.000
200.05	-566.667
200.43	0.000
200.81	0.000
201.18	-200.000
201.56	1200.000
201.94	-1000.000
202.31	266.667
202.69	-460.000
203.07	250.000
203.44	-800.000
203.82	0.000
204.19	21.429
204.57	-300.000
204.95	250.000
205.32	-70.000
205.70	-57.143
206.08	-150.000
206.45	77.778
206.83	28.571
207.20	-128.571
207.58	-100.000
207.96	-133.333
208.33	-130.000
208.71	-200.000
209.08	-133.333
209.46	-1200.000
209.84	-160.000
210.21	-1100.000
210.59	0.000
210.96	-50.000
211.34	-175.000
211.71	26.667
212.09	-142.857
212.46	-1100.000
212.84	0.000
213.22	40.000
213.59	850.000
213.97	46.154
214.34	27.273
214.72	-100.000
215.09	475.000
215.47	-7.692
215.84	-81.818
216.22	-466.667
216.59	-162.500
216.97	-250.000
217.34	-200.000
217.72	-160.000
218.09	-112.500
218.47	150.000
218.84	-200.000
219.22	-33.333
219.59	-40.000
219.97	400.000
220.34	200.000
220.72	-71.429
221.09	-275.000
221.47	-550.000
221.84	-750.000
222.22	-850.000
222.59	-63.636
222.97	25.000
223.34	-300.000
223.72	-21.429
224.09	-23.810
224.46	3.571
224.84	366.667
225.21	-20.000
225.59	-33.333
225.96	-600.000
226.34	550.000
226.71	-171.429
227.08	-16.667
227.46	-62.500
227.83	-800.000
228.21	-100.000
228.58	-18.182
228.95	-62.500
229.33	40.000
229.70	-12.500
230.08	-112.500
230.45	-171.429
230.82	-171.429
231.20	-33.333
231.57	7.143
231.95	-128.571
232.32	-170.000
232.69	-78.571
233.07	133.333
233.44	-180.000
233.81	-200.000
234.19	-22.222
234.56	-29.412
234.93	650.000
235.31	225.000
235.68	-380.000
236.05	-92.308
236.43	-60.000
236.80	-76.471
237.17	-31.250
237.55	-60.000
237.92	-40.741
238.29	-8.333
238.67	-20.000
239.04	-35.294
239.41	-39.024
239.79	-26.667
240.16	12.195
240.53	0.000
240.91	-30.435
241.28	-1.587
241.65	-3.571
242.02	-1.370
242.40	8.333
242.77	-13.559
243.14	-3.030
243.51	6.250
243.89	10.345
244.26	-5.747
244.63	-9.524
245.00	4.124
245.38	1.031
245.75	-14.607
246.12	-2.586
246.49	-0.826
246.87	0.962
247.24	0.000
247.61	-5.263
247.98	-3.252
248.36	6.875
248.73	4.605
249.10	0.000
249.47	-1.266
249.84	1.961
250.22	0.588
250.59	1.307
250.96	3.756
251.33	-5.814
251.70	4.706
252.08	7.107
252.45	4.950
252.82	0.503
253.19	0.461
253.56	-3.271
253.94	3.153
254.31	2.609
254.68	1.754
255.05	3.543
255.42	3.493
255.79	4.633
256.16	2.724
256.54	6.343
256.91	3.422
257.28	0.372
257.65	0.000
258.02	2.482
258.39	4.040
258.76	5.128
259.14	6.645
259.51	3.560
259.88	6.186
260.25	4.248
260.62	5.208
260.99	2.034
261.36	0.685
261.73	3.481
262.10	5.471
262.47	0.613
262.85	3.135
263.22	-0.923
263.59	1.246
263.96	4.037
264.33	3.333
264.70	2.976
265.07	0.595
265.44	5.666
265.81	6.215
266.18	2.186
266.55	6.941
266.92	5.699
267.29	4.439
267.66	3.325
268.03	4.712
268.40	3.655
268.77	6.417
269.14	5.755
269.51	3.856
269.88	1.746
270.25	2.296
270.62	-1.707
270.99	1.279
271.36	0.489
271.73	2.347
272.10	4.623
272.47	3.783
272.84	1.238
273.21	5.568
273.58	7.229
273.95	4.119
274.32	3.695
274.69	2.036
275.06	4.688
275.43	3.855
275.80	2.208
276.17	2.069
276.54	4.283
276.91	4.605
277.28	2.402
277.65	5.372
278.02	3.617
278.39	2.626
278.76	2.725
279.13	-0.207
279.50	2.311
279.87	4.968
280.23	1.075
280.60	5.068
280.97	3.838
281.34	2.692
281.71	5.133
282.08	1.636
282.45	3.523
282.82	4.633
283.19	3.095
283.56	5.973
283.92	3.985
284.29	0.962
284.66	2.907
285.03	1.375
285.40	4.537
285.77	1.582
286.14	2.888
286.51	4.244
286.87	2.742
287.24	3.315
287.61	2.646
287.98	4.912
288.35	3.120
288.72	2.977
289.08	3.299
289.45	3.163
289.82	4.895
290.19	0.683
290.56	2.401
290.93	2.694
291.29	3.390
291.66	5.354
292.03	2.392
292.40	2.097
292.77	1.435
293.13	0.974
293.50	1.062
293.87	5.191
294.24	1.700
294.60	2.086
294.97	4.613
295.34	2.454
295.71	3.577
296.08	3.886
296.44	2.134
296.81	3.194
297.18	2.609
297.55	5.014
297.91	2.740
298.28	5.277
298.65	3.664
299.02	2.695
299.38	1.368
299.75	3.310
300.12	3.665
300.48	2.240
300.85	3.549
301.22	3.506
301.59	3.816
301.95	2.911
302.32	2.724
302.69	4.104
303.05	2.847
303.42	3.238
303.79	2.804
304.15	3.584
304.52	2.021
304.89	2.690
305.25	4.600
305.62	2.450
305.99	3.392
306.35	3.121
306.72	1.800
307.09	2.965
307.45	4.478
307.82	3.241
308.19	1.974
308.55	2.399
308.92	4.793
309.29	2.682
309.65	3.660
310.02	3.520
310.38	4.281
310.75	4.153
311.12	3.229
311.48	2.969
311.85	3.455
312.22	3.692
312.58	3.503
312.95	3.202
313.31	1.967
313.68	3.037
314.05	3.571
314.41	4.639
314.78	4.433
315.14	4.419
315.51	4.969
315.87	3.176
316.24	4.954
316.61	5.906
316.97	5.258
317.34	6.543
317.70	4.493
318.07	6.154
318.43	6.275
318.80	4.545
319.16	5.957
319.53	6.268
319.89	5.906
320.26	5.870
320.62	6.419
320.99	6.681
321.35	5.755
321.72	6.854
322.08	6.747
322.45	6.904
322.81	6.189
323.18	6.379
323.54	5.985
323.91	7.692
324.27	7.227
324.64	7.491
325.00	7.847
325.37	8.815
325.73	7.978
326.10	7.629
326.46	9.865
326.83	8.224
327.19	8.980
327.56	8.862
327.92	10.035
328.29	8.125
328.65	7.453
329.01	9.467
329.38	8.018
329.74	8.404
330.11	9.361
330.47	8.534
330.84	8.846
331.20	10.932
331.56	8.889
331.93	9.589
332.29	9.441
332.66	10.136
333.02	8.550
333.38	9.624
333.75	9.615
334.11	9.132
334.48	8.885
334.84	10.531
335.20	9.424
335.57	7.978
335.93	10.388
336.29	9.761
336.66	8.901
337.02	9.015
337.38	9.630
337.75	9.364
338.11	9.829
338.47	9.489
338.84	9.797
339.20	9.963
339.56	9.633
339.93	10.474
340.29	9.541
340.65	10.753
341.02	8.688
341.38	10.000
341.74	8.127
342.11	9.359
342.47	9.698
342.83	10.121
343.20	7.927
343.56	10.435
343.92	8.503
344.28	10.077
344.65	9.585
345.01	7.952
345.37	8.579
345.73	9.791
346.10	9.836
346.46	9.504
346.82	9.247
347.19	9.310
347.55	9.691
347.91	9.790
348.27	9.782
348.63	10.307
349.00	9.270
349.36	10.224
349.72	9.121
350.08	9.672
350.45	9.896
350.81	8.721
351.17	9.609
351.53	9.551
351.89	9.001
352.26	9.520
352.62	8.790
352.98	10.522
353.34	9.581
353.70	10.032
354.07	8.871
354.43	9.848
354.79	9.661
355.15	11.190
355.51	10.047
355.87	10.680
356.24	8.483
356.60	9.620
356.96	9.762
357.32	10.304
357.68	9.382
358.04	9.208
358.40	8.923
358.77	10.287
359.13	10.008
359.49	8.706
359.85	9.438
360.21	8.453
360.57	9.334
360.93	9.985
361.29	8.761
361.66	10.266
362.02	9.242
362.38	8.987
362.74	9.538
363.10	10.685
363.46	9.414
363.82	9.992
364.18	9.742
364.54	9.118
364.90	9.032
365.26	9.389
365.62	10.438
365.98	9.457
366.35	10.342
366.71	9.165
367.07	9.942
367.43	8.843
367.79	10.247
368.15	10.194
368.51	9.614
368.87	9.332
369.23	9.892
369.59	10.131
369.95	9.531
370.31	9.610
370.67	10.075
371.03	8.813
371.39	8.899
371.75	10.183
372.11	9.558
372.47	9.320
372.83	9.794
373.19	9.558
373.55	9.314
373.91	10.511
374.27	9.426
374.63	9.763
374.99	9.433
375.35	10.097
375.71	9.650
376.07	9.831
376.42	9.796
376.78	9.732
377.14	10.630
377.50	9.894
377.86	10.107
378.22	9.892
378.58	9.359
378.94	10.019
379.30	9.545
379.66	9.843
380.02	9.749
380.38	9.495
380.74	9.575
381.09	11.411
381.45	10.275
381.81	10.056
382.17	10.089
382.53	10.681
382.89	9.981
383.25	9.459
383.61	10.671
383.97	9.397
384.32	10.819
384.68	10.279
385.04	9.314
385.40	9.210
385.76	10.189
386.12	10.414
386.48	10.281
386.83	9.956
387.19	10.867
387.55	11.167
387.91	10.941
388.27	9.829
388.62	10.195
388.98	10.374
389.34	10.556
389.70	10.752
390.06	10.258
390.42	10.039
390.77	10.137
391.13	9.710
391.49	10.155
391.85	9.617
392.20	10.295
392.56	10.935
392.92	10.159
393.28	10.554
393.64	10.691
393.99	11.034
394.35	9.804
394.71	10.473
395.07	10.245
395.42	10.261
395.78	10.489
396.14	10.340
396.50	10.526
396.85	10.560
397.21	10.276
397.57	10.596
397.92	10.665
398.28	10.690
398.64	10.904
399.00	10.779
399.35	9.650
399.71	10.626
400.07	10.036
400.42	10.159
400.78	10.900
401.14	10.768
401.49	10.363
401.85	9.689
402.21	10.663
402.57	10.625
402.92	9.536
403.28	11.529
403.63	10.088
403.99	10.013
404.35	10.931
404.70	9.643
405.06	9.871
405.42	10.876
405.77	9.704
406.13	10.303
406.49	9.769
406.84	10.575
407.20	10.295
407.55	10.303
407.91	10.227
408.27	9.751
408.62	11.138
408.98	10.413
409.34	10.533
409.69	9.884
410.05	9.791
410.40	9.630
410.76	11.098
411.11	10.188
411.47	10.322
411.83	9.730
412.18	9.974
412.54	10.674
412.89	9.298
413.25	11.492
413.60	9.938
413.96	10.061
414.31	10.549
414.67	9.622
415.03	9.587
415.38	10.313
415.74	9.837
416.09	9.993
416.45	9.791
416.80	9.518
417.16	10.221
417.51	11.126
417.87	8.605
418.22	10.298
418.58	9.900
418.93	11.097
419.29	9.155
419.64	10.305
420.00	10.579
420.35	8.836
420.71	10.267
421.06	9.638
421.42	10.457
421.77	9.480
422.12	9.818
422.48	9.908
422.83	9.513
423.19	9.481
423.54	9.641
423.90	8.834
424.25	10.218
424.61	10.282
424.96	10.105
425.31	10.283
425.67	9.977
426.02	10.247
426.38	9.956
426.73	9.746
427.09	9.937
427.44	9.706
427.79	10.077
428.15	10.012
428.50	9.933
428.85	9.337
429.21	10.243
429.56	9.704
429.92	10.272
430.27	9.524
430.62	8.782
430.98	9.236
431.33	10.515
431.68	9.524
432.04	9.111
432.39	9.070
432.74	9.441
433.10	9.310
433.45	9.140
433.80	8.590
434.16	8.864
434.51	9.624
434.86	9.698
435.22	9.759
435.57	9.170
435.92	9.102
436.28	9.302
436.63	9.070
436.98	9.154
437.34	8.227
437.69	9.600
438.04	8.832
438.39	8.552
438.75	9.047
439.10	8.093
439.45	8.034
439.81	8.624
440.16	8.967
440.51	9.910
440.86	10.030
441.22	8.767
441.57	8.996
441.92	9.864
442.27	9.035
442.63	9.636
442.98	9.362
443.33	8.904
443.68	8.647
444.03	9.588
444.39	9.493
444.74	9.922
445.09	10.078
445.44	9.060
445.79	9.644
446.15	9.196
446.50	8.930
446.85	9.458
447.20	9.645
447.55	9.933
447.91	8.460
448.26	9.277
448.61	9.902
448.96	8.893
449.31	8.728
449.66	8.885
450.02	9.755
450.37	8.654
450.72	8.763
451.07	8.987
451.42	9.114
451.77	8.680
452.12	8.672
452.47	9.981
452.83	9.658
453.18	8.855
453.53	9.418
453.88	9.654
454.23	10.203
454.58	9.194
454.93	9.987
455.28	9.016
455.63	8.989
455.98	9.982
456.34	8.812
456.69	9.149
457.04	9.200
457.39	8.688
457.74	9.129
458.09	8.888
458.44	9.070
458.79	8.796
459.14	9.497
459.49	9.791
459.84	8.855
460.19	8.981
460.54	8.924
460.89	9.205
461.24	9.068
461.59	9.264
461.94	9.371
462.29	9.469
462.64	8.970
462.99	8.802
463.34	8.206
463.69	8.816
464.04	9.685
464.39	8.793
464.74	8.834
465.09	8.609
465.44	9.175
465.79	8.730
466.14	9.407
466.49	8.511
466.84	8.447
467.19	9.074
467.54	9.259
467.89	8.465
468.24	8.759
468.59	9.143
468.94	8.635
469.29	8.656
469.64	8.271
469.99	8.479
470.34	7.031
470.68	8.874
471.03	9.908
471.38	8.203
471.73	8.403
472.08	8.616
472.43	8.456
472.78	7.128
473.13	9.116
473.48	8.664
473.83	8.281
474.17	8.679
474.52	8.424
474.87	8.606
475.22	8.176
475.57	8.018
475.92	8.667
476.27	8.964
476.61	8.738
476.96	8.589
477.31	8.545
477.66	7.921
478.01	7.861
478.36	8.007
478.70	8.157
479.05	8.407
479.40	8.691
479.75	7.873
480.10	8.193
480.45	8.450
480.79	8.610
481.14	7.992
481.49	7.980
481.84	7.963
482.19	8.372
482.53	8.153
482.88	8.449
483.23	7.917
483.58	8.066
483.92	7.841
484.27	7.475
484.62	8.023
484.97	7.546
485.31	7.803
485.66	7.899
486.01	7.778
486.36	7.945
486.70	8.288
487.05	8.130
487.40	8.144
487.75	7.437
488.09	7.633
488.44	7.875
488.79	7.845
489.13	7.853
489.48	7.482
489.83	7.982
490.17	7.191
490.52	7.667
490.87	6.988
491.22	8.214
491.56	7.116
491.91	7.505
492.26	7.341
492.60	7.438
492.95	8.313
493.30	7.474
493.64	7.073
493.99	7.874
494.34	7.379
494.68	7.143
495.03	7.007
495.37	7.409
495.72	7.320
496.07	7.415
496.41	6.887
496.76	7.278
497.11	6.986
497.45	8.115
497.80	7.366
498.14	7.650
498.49	6.755
498.84	7.585
499.18	8.032
499.53	7.589
499.87	6.566
500.22	6.825
500.56	7.463
500.91	6.677
501.26	7.019
501.60	7.231
501.95	6.841
502.29	6.295
502.64	7.432
502.98	7.005
503.33	7.349
503.67	7.133
504.02	7.625
504.36	7.620
504.71	6.869
505.06	7.247
505.40	7.817
505.75	7.165
506.09	6.893
506.44	6.828
506.78	7.041
507.13	6.774
507.47	7.415
507.82	6.036
508.16	6.233
508.51	6.821
508.85	7.378
509.19	6.493
509.54	7.185
509.88	6.580
510.23	6.885
510.57	7.322
510.92	6.130
511.26	6.001
511.61	7.041
511.95	7.288
512.30	6.652
512.64	7.012
512.98	6.513
513.33	6.771
513.67	5.969
514.02	7.780
514.36	7.657
514.70	7.925
515.05	7.462
515.39	7.202
515.74	6.826
516.08	7.173
516.42	7.362
516.77	7.197
517.11	6.706
517.46	7.481
517.80	7.271
518.14	6.736
518.49	7.692
518.83	7.351
519.17	6.246
519.52	6.868
519.86	6.483
520.20	6.804
520.55	5.316
520.89	7.089
521.23	7.093
521.58	6.688
521.92	6.603
522.26	6.636
522.61	7.013
522.95	6.689
523.29	6.734
523.64	6.861
523.98	7.194
524.32	5.863
524.66	7.170
525.01	7.273
525.35	7.064
525.69	6.397
526.04	6.085
526.38	8.042
526.72	6.409
527.06	6.939
527.41	7.388
527.75	6.166
528.09	6.179
528.43	7.968
528.78	6.271
529.12	6.581
529.46	6.758
529.80	7.663
530.15	6.799
530.49	6.734
530.83	7.045
531.17	6.246
531.51	7.387
531.86	6.526
532.20	5.985
532.54	7.488
532.88	6.913
533.22	6.720
533.57	7.274
533.91	6.527
534.25	7.227
534.59	6.863
534.93	6.230
535.27	6.662
535.62	6.092
535.96	6.980
536.30	6.926
536.64	5.789
536.98	6.481
537.32	6.543
537.66	7.433
538.01	6.434
538.35	6.449
538.69	6.591
539.03	6.015
539.37	6.662
539.71	6.339
540.05	6.449
540.39	6.510
540.73	6.695
541.07	6.423
541.42	7.728
541.76	6.813
542.10	6.056
542.44	6.880
542.78	5.368
543.12	5.975
543.46	6.745
543.80	5.899
544.14	5.674
544.48	6.329
544.82	5.947
545.16	6.762
545.50	6.609
545.84	5.878
546.18	6.667
546.52	6.489
546.86	6.398
547.20	6.581
547.54	6.714
547.88	6.318
548.22	5.720
548.56	5.871
548.90	6.469
549.24	6.818
549.58	6.135
549.92	5.647
550.26	6.813
550.60	6.468
550.94	6.647
551.28	5.410
551.62	6.154
551.96	7.744
552.30	5.629
552.64	5.924
552.98	6.681
553.32	6.348
553.66	6.168
554.00	5.547
554.34	6.647
554.68	5.826
555.02	6.696
555.36	5.834
555.69	6.154
556.03	5.353
556.37	6.050
556.71	6.426
557.05	5.667
557.39	5.056
557.73	5.772
558.07	5.882
558.41	5.513
558.75	6.391
559.08	5.437
559.42	6.270
559.76	4.484
560.10	5.963
560.44	5.659
560.78	6.434
561.12	5.783
561.45	5.552
561.79	5.952
562.13	5.607
562.47	5.396
562.81	6.196
563.15	5.924
563.48	5.587
563.82	5.834
564.16	5.362
564.50	5.608
564.84	6.158
565.17	4.963
565.51	6.011
565.85	5.761
566.19	6.233
566.52	5.831
566.86	6.041
567.20	5.417
567.54	5.779
567.88	6.034
568.21	6.109
568.55	6.033
568.89	5.903
569.23	5.633
569.56	5.823
569.90	6.050
570.24	5.992
570.57	6.073
570.91	5.960
571.25	5.886
571.59	5.824
571.92	5.363
572.26	6.008
572.60	6.264
572.93	6.087
573.27	5.611
573.61	5.668
573.95	5.898
574.28	6.197
574.62	5.899
574.96	5.934
575.29	6.184
575.63	5.442
575.97	5.476
576.30	5.313
576.64	5.960
576.98	5.997
577.31	5.726
577.65	5.826
577.98	6.107
578.32	5.985
578.66	5.781
578.99	5.779
579.33	5.746
579.67	6.081
580.00	5.924
580.34	5.498
580.67	5.415
581.01	5.403
581.35	5.577
581.68	5.786
582.02	5.634
582.35	5.757
582.69	5.843
583.02	5.896
583.36	5.749
583.70	5.893
584.03	5.644
584.37	5.816
584.70	5.907
585.04	5.259
585.37	5.971
585.71	5.554
586.04	5.724
586.38	5.708
586.72	6.227
587.05	5.719
587.39	5.927
587.72	6.178
588.06	5.619
588.39	6.238
588.73	5.769
589.06	6.099
589.40	6.015
589.73	6.243
590.07	5.967
590.40	5.998
590.73	6.301
591.07	5.344
591.40	5.476
591.74	6.244
592.07	5.983
592.41	5.963
592.74	5.735
593.08	6.112
593.41	6.129
593.75	5.921
594.08	5.252
594.41	6.186
594.75	5.458
595.08	5.713
595.42	5.631
595.75	5.445
596.09	5.864
596.42	5.622
596.75	5.817
597.09	6.059
597.42	6.188
597.75	5.589
598.09	6.247
598.42	5.505
598.76	5.148
599.09	5.569
599.42	5.684
599.76	5.756
600.09	5.732
600.42	5.610
600.76	5.312
601.09	5.305
601.42	5.170
601.76	5.796
602.09	5.858
602.42	5.687
602.76	5.645
603.09	6.022
603.42	5.644
603.76	5.121
604.09	5.630
604.42	5.711
604.76	6.631
605.09	6.490
605.42	5.418
605.75	5.079
606.09	5.520
606.42	5.588
606.75	6.017
607.09	5.978
607.42	5.184
607.75	5.728
608.08	5.750
608.42	5.528
608.75	5.590
609.08	5.431
609.41	5.584
609.75	5.494
610.08	5.691
610.41	5.169
610.74	5.266
611.07	5.375
611.41	5.086
611.74	6.023
612.07	5.514
612.40	5.525
612.73	5.311
613.07	4.668
613.40	5.416
613.73	5.428
614.06	5.676
614.39	5.640
614.72	5.490
615.06	5.587
615.39	5.677
615.72	5.490
616.05	5.698
616.38	5.413
616.71	6.116
617.05	5.435
617.38	6.160
617.71	5.409
618.04	5.587
618.37	6.494
618.70	5.941
619.03	6.736
619.36	5.644
619.69	5.459
620.03	6.501
620.36	6.438
620.69	5.496
621.02	5.199
621.35	5.477
621.68	4.592
622.01	5.917
622.34	5.826
622.67	6.388
623.00	6.968
623.33	6.555
623.66	5.984
623.99	5.598
624.32	5.247
624.65	4.586
624.99	5.794
625.32	5.307
625.65	6.049
625.98	6.124
626.31	4.323
626.64	6.412
626.97	6.719
627.30	6.567
627.63	6.066
627.96	6.379
628.29	5.180
628.62	5.605
628.95	6.513
629.28	5.343
629.61	4.786
629.94	6.940
630.26	6.225
630.59	6.139
630.92	6.154
631.25	5.949
631.58	5.396
631.91	4.276
632.24	4.702
632.57	4.318
632.90	4.745
633.23	5.412
633.56	4.660
633.89	4.069
634.22	6.049
634.55	4.701
634.88	5.492
635.20	4.744
635.53	4.667
635.86	4.941
636.19	4.657
636.52	4.464
636.85	4.591
637.18	3.270
637.51	5.786
637.83	5.519
638.16	6.548
638.49	5.177
638.82	6.316
639.15	5.970
639.48	5.089
639.81	5.439
640.13	5.339
640.46	4.956
640.79	4.713
641.12	4.136
641.45	6.757
641.77	6.667
642.10	5.529
642.43	5.949
642.76	6.436
643.09	6.462
643.41	4.693
643.74	4.942
644.07	6.076
644.40	7.770
644.73	4.904
645.05	6.711
645.38	4.938
645.71	5.674
646.04	6.104
646.36	4.078
646.69	5.935
647.02	4.726
647.35	4.291
647.67	5.850
648.00	5.224
648.33	5.461
648.66	5.763
648.98	3.853
649.31	2.810
649.64	4.396
649.96	5.024
650.29	5.111
650.62	4.274
650.94	4.630
651.27	4.283
651.60	5.766
651.92	5.944
652.25	4.796
652.58	4.167
652.90	6.003
653.23	3.529
653.56	5.584
653.88	4.467
654.21	1.751
654.54	4.924
654.86	6.452
