SpectraSuite Data File
++++++++++++++++++++++++++++++++++++
Date: Fri May 15 20:40:56 PDT 2015
User: schluterlab
Dark Spectrum Present: Yes
Reference Spectrum Present: Yes
Number of Sampled Component Spectra: 1
Spectrometers: USB2E3373
Integration Time (usec): 3000 (USB2E3373)
Spectra Averaged: 3 (USB2E3373)
Boxcar Smoothing: 0 (USB2E3373)
Correct for Electrical Dark: No (USB2E3373)
Strobe/Lamp Enabled: No (USB2E3373)
Correct for Detector Non-linearity: No (USB2E3373)
Correct for Stray Light: No (USB2E3373)
Number of Pixels in Processed Spectrum: 2048
>>>>>Begin Processed Spectral Data<<<<<
178.53	0.000
178.91	0.000
179.29	-50.000
179.67	-400.000
180.04	28.571
180.42	225.000
180.80	500.000
181.18	500.000
181.56	400.000
181.94	-250.000
182.31	1500.000
182.69	100.000
183.07	66.667
183.45	-300.000
183.83	250.000
184.20	-90.909
184.58	111.111
184.96	-200.000
185.34	-166.667
185.72	0.000
186.09	23.077
186.47	-200.000
186.85	116.667
187.23	155.556
187.61	500.000
187.98	-433.333
188.36	-122.222
188.74	100.000
189.12	41.176
189.49	-16.667
189.87	0.000
190.25	64.286
190.63	0.000
191.00	-66.667
191.38	21.053
191.76	150.000
192.14	50.000
192.51	400.000
192.89	0.000
193.27	-85.714
193.65	116.667
194.02	36.364
194.40	40.000
194.78	-87.500
195.15	-75.000
195.53	-37.500
195.91	200.000
196.29	75.000
196.66	53.846
197.04	100.000
197.42	11.111
197.79	-466.667
198.17	-130.769
198.55	1400.000
198.92	-533.333
199.30	-200.000
199.68	-200.000
200.05	-300.000
200.43	0.000
200.81	33.333
201.18	-200.000
201.56	1000.000
201.94	-450.000
202.31	-133.333
202.69	-40.000
203.07	275.000
203.44	-300.000
203.82	0.000
204.19	35.714
204.57	-533.333
204.95	87.500
205.32	0.000
205.70	71.429
206.08	-75.000
206.45	177.778
206.83	107.143
207.20	-185.714
207.58	500.000
207.96	-200.000
208.33	-110.000
208.71	-25.000
209.08	-200.000
209.46	500.000
209.84	-200.000
210.21	-1600.000
210.59	71.429
210.96	33.333
211.34	-75.000
211.71	20.000
212.09	-14.286
212.46	-1400.000
212.84	0.000
213.22	60.000
213.59	300.000
213.97	15.385
214.34	36.364
214.72	-133.333
215.09	525.000
215.47	30.769
215.84	-90.909
216.22	-233.333
216.59	-12.500
216.97	-200.000
217.34	50.000
217.72	-60.000
218.09	25.000
218.47	112.500
218.84	-500.000
219.22	-44.444
219.59	-80.000
219.97	433.333
220.34	350.000
220.72	-85.714
221.09	-125.000
221.47	100.000
221.84	-450.000
222.22	-250.000
222.59	0.000
222.97	0.000
223.34	-100.000
223.72	-100.000
224.09	9.524
224.46	-10.714
224.84	300.000
225.21	110.000
225.59	20.000
225.96	-50.000
226.34	-75.000
226.71	14.286
227.08	-33.333
227.46	37.500
227.83	-600.000
228.21	11.111
228.58	45.455
228.95	-62.500
229.33	10.000
229.70	-18.750
230.08	-37.500
230.45	-85.714
230.82	-57.143
231.20	-66.667
231.57	100.000
231.95	-128.571
232.32	-10.000
232.69	0.000
233.07	-133.333
233.44	100.000
233.81	-80.000
234.19	122.222
234.56	5.882
234.93	200.000
235.31	175.000
235.68	-280.000
236.05	-38.462
236.43	-25.000
236.80	23.529
237.17	31.250
237.55	45.000
237.92	-22.222
238.29	44.444
238.67	36.667
239.04	26.471
239.41	2.439
239.79	43.333
240.16	46.341
240.53	28.947
240.91	21.739
241.28	23.810
241.65	55.357
242.02	49.315
242.40	35.000
242.77	38.983
243.14	28.788
243.51	35.000
243.89	36.782
244.26	24.138
244.63	41.667
245.00	30.928
245.38	35.052
245.75	25.843
246.12	28.448
246.49	42.149
246.87	43.269
247.24	32.773
247.61	36.842
247.98	35.772
248.36	31.250
248.73	48.026
249.10	37.662
249.47	44.304
249.84	33.987
250.22	40.588
250.59	39.869
250.96	40.845
251.33	36.047
251.70	41.765
252.08	45.685
252.45	43.564
252.82	42.714
253.19	43.779
253.56	44.393
253.94	38.739
254.31	40.435
254.68	42.982
255.05	37.402
255.42	38.865
255.79	38.610
256.16	39.300
256.54	40.672
256.91	35.741
257.28	37.546
257.65	37.828
258.02	39.716
258.39	43.098
258.76	43.590
259.14	37.209
259.51	40.777
259.88	36.426
260.25	37.255
260.62	40.625
260.99	35.254
261.36	36.986
261.73	42.089
262.10	39.818
262.47	39.571
262.85	42.947
263.22	37.846
263.59	43.925
263.96	41.925
264.33	46.061
264.70	40.774
265.07	40.476
265.44	44.759
265.81	37.853
266.18	41.257
266.55	38.303
266.92	40.674
267.29	42.298
267.66	40.665
268.03	43.717
268.40	40.209
268.77	44.118
269.14	36.691
269.51	42.159
269.88	39.900
270.25	37.500
270.62	38.780
270.99	38.619
271.36	39.364
271.73	38.028
272.10	41.606
272.47	35.461
272.84	41.089
273.21	40.139
273.58	42.651
273.95	39.588
274.32	40.416
274.69	34.163
275.06	40.179
275.43	37.188
275.80	40.397
276.17	40.230
276.54	37.687
276.91	39.254
277.28	37.118
277.65	39.463
278.02	39.149
278.39	39.825
278.76	40.671
279.13	32.988
279.50	41.387
279.87	37.365
280.23	34.409
280.60	39.376
280.97	36.768
281.34	37.885
281.71	43.121
282.08	37.219
282.45	36.595
282.82	36.873
283.19	36.750
283.56	38.150
283.92	37.192
284.29	36.923
284.66	36.434
285.03	35.756
285.40	35.539
285.77	35.852
286.14	35.921
286.51	37.823
286.87	37.112
287.24	35.359
287.61	33.333
287.98	37.193
288.35	35.875
288.72	38.879
289.08	36.458
289.45	35.149
289.82	34.790
290.19	36.519
290.56	31.732
290.93	33.502
291.29	32.203
291.66	33.071
292.03	34.131
292.40	32.258
292.77	32.536
293.13	28.084
293.50	28.528
293.87	31.450
294.24	31.066
294.60	32.936
294.97	30.952
295.34	30.521
295.71	29.061
296.08	29.895
296.44	29.303
296.81	30.139
297.18	28.551
297.55	29.133
297.91	29.178
298.28	28.496
298.65	28.494
299.02	27.628
299.38	27.223
299.75	28.000
300.12	25.262
300.48	27.404
300.85	27.123
301.22	26.883
301.59	27.105
301.95	27.975
302.32	28.145
302.69	28.731
303.05	25.743
303.42	27.397
303.79	27.453
304.15	27.599
304.52	25.089
304.89	26.082
305.25	26.513
305.62	25.438
305.99	25.848
306.35	24.393
306.72	24.409
307.09	26.112
307.45	26.636
307.82	23.958
308.19	26.597
308.55	25.954
308.92	27.233
309.29	26.480
309.65	25.081
310.02	26.403
310.38	25.686
310.75	26.120
311.12	25.619
311.48	25.875
311.85	25.026
312.22	23.945
312.58	25.796
312.95	24.013
313.31	25.052
313.68	25.026
314.05	23.265
314.41	25.464
314.78	25.979
315.14	25.385
315.51	24.120
315.87	24.078
316.24	25.480
316.61	24.606
316.97	24.504
317.34	24.609
317.70	25.813
318.07	25.192
318.43	25.588
318.80	24.242
319.16	25.684
319.53	25.451
319.89	24.902
320.26	23.988
320.62	25.677
320.99	25.157
321.35	24.872
321.72	22.741
322.08	23.565
322.45	24.365
322.81	24.754
323.18	24.338
323.54	24.324
323.91	24.051
324.27	24.609
324.64	24.157
325.00	26.095
325.37	24.977
325.73	23.391
326.10	25.522
326.46	25.291
326.83	25.634
327.19	24.586
327.56	26.064
327.92	25.968
328.29	22.946
328.65	24.811
329.01	24.449
329.38	24.885
329.74	24.363
330.11	24.004
330.47	24.304
330.84	24.808
331.20	25.665
331.56	24.074
331.93	24.566
332.29	24.748
332.66	24.163
333.02	24.257
333.38	23.465
333.75	24.542
334.11	23.903
334.48	24.116
334.84	24.451
335.20	23.422
335.57	23.028
335.93	24.571
336.29	24.125
336.66	22.525
337.02	23.606
337.38	24.259
337.75	24.273
338.11	25.518
338.47	25.182
338.84	24.399
339.20	23.857
339.56	23.578
339.93	23.814
340.29	22.936
340.65	23.566
341.02	23.316
341.38	22.655
341.74	22.085
342.11	22.704
342.47	22.687
342.83	24.048
343.20	23.084
343.56	24.087
343.92	23.295
344.28	23.228
344.65	22.539
345.01	21.435
345.37	23.633
345.73	23.682
346.10	23.296
346.46	23.381
346.82	22.504
347.19	22.527
347.55	23.058
347.91	23.867
348.27	22.716
348.63	22.743
349.00	22.806
349.36	22.111
349.72	23.632
350.08	22.459
350.45	23.065
350.81	23.090
351.17	22.313
351.53	24.408
351.89	22.543
352.26	22.240
352.62	22.339
352.98	21.928
353.34	22.705
353.70	23.058
354.07	22.339
354.43	22.578
354.79	22.626
355.15	23.889
355.51	22.231
355.87	22.896
356.24	21.860
356.60	22.231
356.96	22.381
357.32	22.045
357.68	22.048
358.04	21.486
358.40	22.267
358.77	22.249
359.13	21.617
359.49	21.341
359.85	22.465
360.21	22.169
360.57	21.270
360.93	21.256
361.29	21.148
361.66	22.492
362.02	22.348
362.38	22.163
362.74	22.029
363.10	21.971
363.46	20.904
363.82	22.915
364.18	21.107
364.54	20.956
364.90	22.151
365.26	21.470
365.62	22.920
365.98	21.774
366.35	22.287
366.71	21.508
367.07	22.279
367.43	21.136
367.79	21.837
368.15	21.321
368.51	21.413
368.87	20.962
369.23	20.505
369.59	21.501
369.95	22.214
370.31	21.387
370.67	20.373
371.03	20.836
371.39	21.007
371.75	21.465
372.11	20.827
372.47	21.006
372.83	22.072
373.19	21.755
373.55	21.300
373.91	21.022
374.27	21.758
374.63	21.823
374.99	20.355
375.35	20.752
375.71	21.608
376.07	20.435
376.42	21.293
376.78	21.141
377.14	20.853
377.50	20.518
377.86	22.155
378.22	21.251
378.58	21.154
378.94	20.605
379.30	20.524
379.66	21.066
380.02	21.030
380.38	20.694
380.74	21.185
381.09	21.534
381.45	21.040
381.81	20.666
382.17	20.241
382.53	20.675
382.89	20.967
383.25	20.846
383.61	21.220
383.97	20.190
384.32	20.200
384.68	20.805
385.04	20.466
385.40	20.597
385.76	21.698
386.12	21.022
386.48	20.307
386.83	20.419
387.19	21.123
387.55	21.016
387.91	21.577
388.27	20.330
388.62	21.082
388.98	21.363
389.34	20.300
389.70	20.510
390.06	20.201
390.42	20.142
390.77	20.994
391.13	19.609
391.49	20.440
391.85	20.338
392.20	20.088
392.56	21.170
392.92	21.080
393.28	20.932
393.64	20.841
393.99	20.940
394.35	20.304
394.71	20.945
395.07	19.987
395.42	19.976
395.78	20.456
396.14	20.492
396.50	20.799
396.85	20.670
397.21	20.363
397.57	20.313
397.92	19.952
398.28	20.000
398.64	20.120
399.00	20.429
399.35	19.695
399.71	20.333
400.07	21.765
400.42	20.318
400.78	20.637
401.14	19.903
401.49	19.476
401.85	19.927
402.21	20.663
402.57	20.063
402.92	18.821
403.28	20.865
403.63	20.870
403.99	20.217
404.35	20.237
404.70	20.119
405.06	20.094
405.42	20.137
405.77	19.930
406.13	20.081
406.49	19.361
406.84	19.866
407.20	20.229
407.55	19.382
407.91	20.455
408.27	19.567
408.62	19.815
408.98	19.717
409.34	20.694
409.69	20.801
410.05	19.643
410.40	20.802
410.76	20.567
411.11	20.687
411.47	19.855
411.83	18.707
412.18	19.949
412.54	20.037
412.89	19.458
413.25	19.434
413.60	20.124
413.96	19.755
414.31	20.305
414.67	19.564
415.03	20.639
415.38	19.843
415.74	21.107
416.09	20.509
416.45	20.122
416.80	19.233
417.16	20.511
417.51	20.453
417.87	19.817
418.22	20.078
418.58	19.732
418.93	20.188
419.29	19.526
419.64	19.572
420.00	20.466
420.35	19.343
420.71	20.778
421.06	19.214
421.42	20.673
421.77	20.636
422.12	20.034
422.48	19.491
422.83	20.360
423.19	20.316
423.54	19.224
423.90	20.259
424.25	20.436
424.61	19.706
424.96	19.861
425.31	20.566
425.67	20.070
426.02	21.025
426.38	19.912
426.73	20.460
427.09	21.203
427.44	20.235
427.79	20.507
428.15	20.874
428.50	20.109
428.85	19.963
429.21	20.939
429.56	20.377
429.92	20.288
430.27	19.198
430.62	19.498
430.98	19.480
431.33	20.978
431.68	19.937
432.04	20.067
432.39	19.852
432.74	19.363
433.10	21.149
433.45	20.251
433.80	20.313
434.16	19.889
434.51	20.376
434.86	20.674
435.22	20.022
435.57	20.274
435.92	20.120
436.28	19.738
436.63	19.795
436.98	20.046
437.34	20.448
437.69	19.738
438.04	20.057
438.39	19.670
438.75	20.158
439.10	20.543
439.45	20.633
439.81	20.245
440.16	19.952
440.51	20.119
440.86	21.208
441.22	20.814
441.57	19.978
441.92	20.619
442.27	21.175
442.63	21.574
442.98	20.735
443.33	20.757
443.68	19.841
444.03	21.908
444.39	21.545
444.74	21.293
445.09	20.768
445.44	21.140
445.79	21.145
446.15	21.145
446.50	20.133
446.85	21.360
447.20	20.490
447.55	20.815
447.91	21.433
448.26	21.685
448.61	21.704
448.96	21.572
449.31	21.387
449.66	21.080
450.02	21.677
450.37	21.043
450.72	20.790
451.07	21.582
451.42	21.536
451.77	22.242
452.12	20.813
452.47	20.863
452.83	21.201
453.18	21.948
453.53	22.124
453.88	21.494
454.23	21.942
454.58	21.977
454.93	22.101
455.28	20.254
455.63	21.637
455.98	22.069
456.34	20.881
456.69	22.935
457.04	22.747
457.39	21.446
457.74	21.886
458.09	21.071
458.44	22.352
458.79	22.633
459.14	22.254
459.49	22.985
459.84	22.448
460.19	21.966
460.54	22.677
460.89	21.023
461.24	21.615
461.59	22.268
461.94	21.887
462.29	22.075
462.64	22.857
462.99	22.343
463.34	21.419
463.69	22.008
464.04	22.518
464.39	22.680
464.74	22.515
465.09	23.206
465.44	22.677
465.79	21.145
466.14	23.432
466.49	21.737
466.84	22.665
467.19	22.340
467.54	22.478
467.89	22.489
468.24	22.749
468.59	22.984
468.94	22.476
469.29	22.820
469.64	22.146
469.99	22.775
470.34	22.048
470.68	22.446
471.03	23.425
471.38	22.967
471.73	23.179
472.08	22.795
472.43	22.416
472.78	22.344
473.13	22.721
473.48	22.541
473.83	22.914
474.17	23.705
474.52	23.165
474.87	23.333
475.22	22.697
475.57	21.852
475.92	22.710
476.27	22.992
476.61	23.785
476.96	22.755
477.31	22.499
477.66	23.034
478.01	22.403
478.36	22.876
478.70	23.545
479.05	22.857
479.40	23.370
479.75	22.054
480.10	22.529
480.45	22.850
480.79	23.112
481.14	23.566
481.49	22.069
481.84	22.828
482.19	22.357
482.53	22.878
482.88	23.246
483.23	22.601
483.58	23.349
483.92	22.023
484.27	22.151
484.62	22.456
484.97	22.678
485.31	22.074
485.66	22.972
486.01	22.805
486.36	22.367
486.70	22.414
487.05	22.515
487.40	22.544
487.75	22.338
488.09	21.879
488.44	22.318
488.79	22.936
489.13	22.596
489.48	22.189
489.83	22.063
490.17	22.157
490.52	22.725
490.87	22.304
491.22	23.352
491.56	23.197
491.91	22.945
492.26	23.189
492.60	22.889
492.95	23.020
493.30	22.765
493.64	22.495
493.99	23.768
494.34	23.398
494.68	23.286
495.03	23.552
495.37	22.915
495.72	23.322
496.07	23.756
496.41	22.170
496.76	23.215
497.11	22.077
497.45	22.912
497.80	22.957
498.14	23.150
498.49	23.261
498.84	23.154
499.18	23.845
499.53	23.512
499.87	22.665
500.22	23.244
500.56	23.752
500.91	23.193
501.26	22.887
501.60	23.217
501.95	23.823
502.29	23.487
502.64	24.035
502.98	23.483
503.33	23.247
503.67	23.855
504.02	23.509
504.36	23.949
504.71	23.838
505.06	22.999
505.40	23.858
505.75	24.021
506.09	23.112
506.44	23.614
506.78	23.776
507.13	23.940
507.47	22.611
507.82	22.810
508.16	23.719
508.51	23.033
508.85	23.862
509.19	23.204
509.54	23.217
509.88	23.517
510.23	23.615
510.57	24.265
510.92	22.761
511.26	23.895
511.61	23.707
511.95	24.438
512.30	24.390
512.64	24.318
512.98	24.088
513.33	23.671
513.67	23.252
514.02	24.371
514.36	24.514
514.70	23.951
515.05	24.383
515.39	24.498
515.74	24.910
516.08	23.610
516.42	24.794
516.77	23.991
517.11	24.095
517.46	24.177
517.80	23.838
518.14	25.046
518.49	24.279
518.83	23.390
519.17	23.772
519.52	24.393
519.86	24.430
520.20	24.423
520.55	24.078
520.89	24.906
521.23	25.269
521.58	25.237
521.92	24.167
522.26	24.203
522.61	23.896
522.95	25.298
523.29	24.460
523.64	24.714
523.98	25.859
524.32	25.000
524.66	25.096
525.01	25.714
525.35	24.563
525.69	23.636
526.04	23.611
526.38	24.643
526.72	24.199
527.06	23.995
527.41	24.472
527.75	23.995
528.09	24.452
528.43	25.456
528.78	25.017
529.12	25.806
529.46	24.886
529.80	24.889
530.15	25.281
530.49	25.051
530.83	25.581
531.17	25.319
531.51	24.761
531.86	24.881
532.20	24.843
532.54	24.575
532.88	25.462
533.22	24.530
533.57	25.098
533.91	24.478
534.25	24.805
534.59	24.310
534.93	24.418
535.27	23.921
535.62	24.563
535.96	24.853
536.30	24.604
536.64	24.397
536.98	24.530
537.32	24.467
537.66	25.105
538.01	25.315
538.35	24.827
538.69	23.835
539.03	24.129
539.37	24.226
539.71	23.586
540.05	24.100
540.39	25.346
540.73	24.338
541.07	24.862
541.42	26.008
541.76	25.189
542.10	25.052
542.44	24.809
542.78	23.882
543.12	24.176
543.46	25.661
543.80	24.913
544.14	24.032
544.48	24.783
544.82	24.607
545.16	25.751
545.50	25.367
545.84	24.363
546.18	25.106
546.52	24.730
546.86	24.515
547.20	26.037
547.54	24.240
547.88	25.272
548.22	24.063
548.56	23.945
548.90	24.326
549.24	25.275
549.58	25.247
549.92	23.445
550.26	25.934
550.60	24.387
550.94	23.525
551.28	25.811
551.62	26.385
551.96	25.789
552.30	24.781
552.64	24.542
552.98	25.035
553.32	24.964
553.66	25.617
554.00	25.766
554.34	26.071
554.68	23.968
555.02	25.298
555.36	24.009
555.69	23.297
556.03	25.625
556.37	24.555
556.71	24.621
557.05	24.758
557.39	24.907
557.73	25.862
558.07	25.792
558.41	24.732
558.75	25.409
559.08	26.399
559.42	26.111
559.76	26.421
560.10	24.924
560.44	25.168
560.78	25.804
561.12	26.023
561.45	24.947
561.79	25.910
562.13	25.337
562.47	24.820
562.81	24.856
563.15	25.388
563.48	24.823
563.82	25.463
564.16	24.861
564.50	24.527
564.84	24.431
565.17	24.816
565.51	25.342
565.85	24.691
566.19	25.066
566.52	25.201
566.86	25.064
567.20	24.222
567.54	24.696
567.88	24.722
568.21	25.905
568.55	23.859
568.89	25.154
569.23	24.747
569.56	24.518
569.90	24.767
570.24	23.930
570.57	24.800
570.91	24.573
571.25	24.268
571.59	23.637
571.92	23.467
572.26	23.792
572.60	23.008
572.93	23.313
573.27	23.448
573.61	23.449
573.95	23.621
574.28	23.067
574.62	22.731
574.96	23.111
575.29	22.817
575.63	22.519
575.97	22.662
576.30	23.278
576.64	23.020
576.98	23.269
577.31	23.224
577.65	23.394
577.98	23.352
578.32	23.233
578.66	22.695
578.99	22.812
579.33	22.833
579.67	22.559
580.00	23.063
580.34	23.109
580.67	22.774
581.01	23.175
581.35	22.976
581.68	23.480
582.02	23.160
582.35	22.804
582.69	22.789
583.02	23.115
583.36	22.853
583.70	23.494
584.03	23.436
584.37	24.111
584.70	23.599
585.04	22.824
585.37	23.808
585.71	23.352
586.04	23.399
586.38	22.779
586.72	23.529
587.05	23.917
587.39	23.791
587.72	23.866
588.06	23.249
588.39	23.925
588.73	24.206
589.06	24.690
589.40	24.058
589.73	24.461
590.07	24.585
590.40	25.116
590.73	24.341
591.07	24.555
591.40	25.067
591.74	25.023
592.07	25.093
592.41	25.044
592.74	24.612
593.08	23.996
593.41	24.613
593.75	24.174
594.08	24.854
594.41	24.127
594.75	24.084
595.08	24.745
595.42	24.144
595.75	24.972
596.09	24.394
596.42	24.928
596.75	24.734
597.09	24.556
597.42	24.345
597.75	25.744
598.09	24.808
598.42	24.233
598.76	24.882
599.09	24.639
599.42	24.668
599.76	24.417
600.09	25.075
600.42	24.602
600.76	24.926
601.09	24.046
601.42	24.207
601.76	23.978
602.09	24.381
602.42	25.232
602.76	25.000
603.09	25.374
603.42	25.753
603.76	24.637
604.09	25.071
604.42	25.254
604.76	25.990
605.09	25.594
605.42	24.831
605.75	25.350
606.09	24.926
606.42	25.271
606.75	25.065
607.09	25.363
607.42	24.723
607.75	25.089
608.08	24.349
608.42	24.852
608.75	25.735
609.08	25.361
609.41	25.888
609.75	25.806
610.08	26.111
610.41	24.879
610.74	24.525
611.07	25.168
611.41	25.376
611.74	25.533
612.07	25.161
612.40	25.930
612.73	25.706
613.07	24.466
613.40	26.696
613.73	25.462
614.06	26.377
614.39	26.509
614.72	25.378
615.06	25.419
615.39	24.782
615.72	25.027
616.05	25.196
616.38	25.128
616.71	25.566
617.05	25.633
617.38	26.147
617.71	26.101
618.04	26.095
618.37	26.545
618.70	27.129
619.03	26.667
619.36	25.687
619.69	26.611
620.03	27.319
620.36	25.179
620.69	27.409
621.02	26.223
621.35	27.552
621.68	27.806
622.01	26.417
622.34	26.656
622.67	27.050
623.00	26.110
623.33	26.982
623.66	26.103
623.99	26.399
624.32	26.616
624.65	26.692
624.99	27.013
625.32	27.142
625.65	27.965
625.98	26.430
626.31	26.600
626.64	27.123
626.97	27.487
627.30	27.408
627.63	26.950
627.96	27.853
628.29	26.549
628.62	27.827
628.95	27.655
629.28	28.024
629.61	28.116
629.94	28.641
630.26	27.964
630.59	27.992
630.92	28.615
631.25	27.385
631.58	28.194
631.91	27.412
632.24	28.211
632.57	28.409
632.90	28.233
633.23	28.588
633.56	28.841
