SpectraSuite Data File
++++++++++++++++++++++++++++++++++++
Date: Fri May 15 20:57:55 PDT 2015
User: schluterlab
Dark Spectrum Present: Yes
Reference Spectrum Present: Yes
Number of Sampled Component Spectra: 1
Spectrometers: USB2E3373
Integration Time (usec): 3000 (USB2E3373)
Spectra Averaged: 3 (USB2E3373)
Boxcar Smoothing: 0 (USB2E3373)
Correct for Electrical Dark: No (USB2E3373)
Strobe/Lamp Enabled: No (USB2E3373)
Correct for Detector Non-linearity: No (USB2E3373)
Correct for Stray Light: No (USB2E3373)
Number of Pixels in Processed Spectrum: 2048
>>>>>Begin Processed Spectral Data<<<<<
178.53	0.000
178.91	0.000
179.29	-25.000
179.67	-300.000
180.04	-0.000
180.42	0.000
180.80	-600.000
181.18	166.667
181.56	950.000
181.94	400.000
182.31	700.000
182.69	-40.000
183.07	-266.667
183.45	40.000
183.83	66.667
184.20	-27.273
184.58	222.222
184.96	-50.000
185.34	33.333
185.72	-450.000
186.09	84.615
186.47	-300.000
186.85	50.000
187.23	133.333
187.61	-800.000
187.98	-400.000
188.36	-33.333
188.74	-33.333
189.12	17.647
189.49	55.556
189.87	0.000
190.25	42.857
190.63	-250.000
191.00	-133.333
191.38	15.789
191.76	250.000
192.14	-125.000
192.51	-200.000
192.89	-100.000
193.27	-42.857
193.65	166.667
194.02	127.273
194.40	-20.000
194.78	-50.000
195.15	41.667
195.53	-100.000
195.91	125.000
196.29	150.000
196.66	76.923
197.04	14.286
197.42	-55.556
197.79	-666.667
198.17	-76.923
198.55	900.000
198.92	-300.000
199.30	-200.000
199.68	60.000
200.05	-366.667
200.43	0.000
200.81	-100.000
201.18	33.333
201.56	1500.000
201.94	-250.000
202.31	66.667
202.69	-120.000
203.07	250.000
203.44	-200.000
203.82	0.000
204.19	42.857
204.57	-433.333
204.95	137.500
205.32	-10.000
205.70	-42.857
206.08	-50.000
206.45	111.111
206.83	57.143
207.20	-157.143
207.58	-0.000
207.96	-333.333
208.33	-150.000
208.71	-100.000
209.08	-100.000
209.46	-800.000
209.84	-120.000
210.21	-1800.000
210.59	-114.286
210.96	-66.667
211.34	-150.000
211.71	26.667
212.09	-100.000
212.46	-600.000
212.84	0.000
213.22	40.000
213.59	700.000
213.97	53.846
214.34	0.000
214.72	-33.333
215.09	350.000
215.47	-61.538
215.84	45.455
216.22	-33.333
216.59	-25.000
216.97	200.000
217.34	50.000
217.72	-20.000
218.09	-50.000
218.47	150.000
218.84	-900.000
219.22	22.222
219.59	-280.000
219.97	-0.000
220.34	200.000
220.72	57.143
221.09	-225.000
221.47	250.000
221.84	-850.000
222.22	-400.000
222.59	-27.273
222.97	-33.333
223.34	-400.000
223.72	-7.143
224.09	-42.857
224.46	14.286
224.84	733.333
225.21	-30.000
225.59	33.333
225.96	-200.000
226.34	525.000
226.71	0.000
227.08	-16.667
227.46	12.500
227.83	-200.000
228.21	0.000
228.58	0.000
228.95	12.500
229.33	60.000
229.70	-31.250
230.08	-50.000
230.45	-114.286
230.82	128.571
231.20	13.333
231.57	42.857
231.95	-14.286
232.32	-60.000
232.69	-28.571
233.07	-166.667
233.44	-140.000
233.81	-70.000
234.19	11.111
234.56	-11.765
234.93	300.000
235.31	200.000
235.68	-140.000
236.05	-30.769
236.43	0.000
236.80	23.529
237.17	18.750
237.55	-25.000
237.92	3.704
238.29	11.111
238.67	40.000
239.04	44.118
239.41	-4.878
239.79	30.000
240.16	17.073
240.53	34.211
240.91	8.696
241.28	33.333
241.65	42.857
242.02	34.247
242.40	25.000
242.77	22.034
243.14	33.333
243.51	35.000
243.89	42.529
244.26	27.586
244.63	27.381
245.00	24.742
245.38	45.361
245.75	39.326
246.12	34.483
246.49	42.149
246.87	39.423
247.24	34.454
247.61	32.456
247.98	33.333
248.36	30.000
248.73	40.132
249.10	30.519
249.47	41.139
249.84	38.562
250.22	35.882
250.59	44.444
250.96	33.333
251.33	27.907
251.70	41.765
252.08	39.086
252.45	35.644
252.82	38.191
253.19	42.857
253.56	37.383
253.94	37.838
254.31	37.391
254.68	40.351
255.05	37.008
255.42	41.921
255.79	40.541
256.16	40.078
256.54	36.940
256.91	41.825
257.28	35.316
257.65	38.202
258.02	35.461
258.39	39.394
258.76	38.095
259.14	41.196
259.51	36.246
259.88	41.237
260.25	38.889
260.62	48.611
260.99	37.627
261.36	40.411
261.73	41.456
262.10	39.514
262.47	37.117
262.85	39.812
263.22	36.308
263.59	40.498
263.96	42.547
264.33	42.424
264.70	41.071
265.07	39.286
265.44	41.643
265.81	41.808
266.18	40.710
266.55	37.275
266.92	41.192
267.29	40.209
267.66	39.130
268.03	42.147
268.40	37.598
268.77	43.583
269.14	40.528
269.51	38.560
269.88	35.411
270.25	38.520
270.62	36.829
270.99	41.432
271.36	39.120
271.73	38.732
272.10	41.606
272.47	40.898
272.84	41.832
273.21	39.211
273.58	39.277
273.95	39.130
274.32	41.339
274.69	36.425
275.06	38.393
275.43	39.229
275.80	39.073
276.17	40.000
276.54	36.403
276.91	41.009
277.28	34.498
277.65	36.157
278.02	39.574
278.39	38.731
278.76	38.155
279.13	34.440
279.50	41.597
279.87	38.661
280.23	37.419
280.60	37.427
280.97	38.788
281.34	39.038
281.71	37.988
282.08	35.787
282.45	37.965
282.82	35.907
283.19	36.557
283.56	37.572
283.92	35.104
284.29	36.346
284.66	38.760
285.03	36.149
285.40	35.728
285.77	37.083
286.14	35.921
286.51	39.668
286.87	34.735
287.24	33.702
287.61	34.744
287.98	35.965
288.35	34.662
288.72	36.077
289.08	33.681
289.45	34.622
289.82	34.266
290.19	32.082
290.56	34.648
290.93	34.512
291.29	30.354
291.66	32.913
292.03	32.376
292.40	31.613
292.77	31.738
293.13	30.682
293.50	28.680
293.87	32.061
294.24	29.366
294.60	29.955
294.97	28.125
295.34	31.595
295.71	29.359
296.08	29.895
296.44	27.454
296.81	29.167
297.18	30.145
297.55	27.642
297.91	26.301
298.28	28.364
298.65	27.273
299.02	29.515
299.38	25.445
299.75	27.862
300.12	27.487
300.48	27.009
300.85	26.743
301.22	26.623
301.59	26.184
301.95	27.342
302.32	27.626
302.69	26.866
303.05	26.114
303.42	27.148
303.79	28.154
304.15	27.479
304.52	25.089
304.89	26.316
305.25	27.119
305.62	23.221
305.99	23.275
306.35	25.665
306.72	24.409
307.09	23.717
307.45	25.947
307.82	25.231
308.19	25.319
308.55	24.755
308.92	25.708
309.29	25.028
309.65	23.897
310.02	25.193
310.38	24.808
310.75	25.355
311.12	24.865
311.48	25.451
311.85	26.178
312.22	22.574
312.58	23.885
312.95	24.440
313.31	23.188
313.68	23.037
314.05	24.490
314.41	24.948
314.78	23.505
315.14	25.385
315.51	24.327
315.87	23.566
316.24	24.975
316.61	24.311
316.97	23.710
317.34	23.828
317.70	23.327
318.07	23.365
318.43	23.725
318.80	23.769
319.16	23.828
319.53	24.596
319.89	22.835
320.26	24.393
320.62	24.072
320.99	22.025
321.35	23.638
321.72	25.337
322.08	23.766
322.45	24.975
322.81	23.870
323.18	23.847
323.54	23.166
323.91	23.077
324.27	23.828
324.64	24.345
325.00	24.818
325.37	24.518
325.73	21.759
326.10	23.797
326.46	24.036
326.83	23.097
327.19	23.452
327.56	24.153
327.92	24.208
328.29	23.304
328.65	24.057
329.01	24.540
329.38	24.147
329.74	23.229
330.11	23.448
330.47	21.985
330.84	23.462
331.20	25.095
331.56	22.963
331.93	23.653
332.29	24.840
332.66	23.167
333.02	22.305
333.38	22.273
333.75	24.267
334.11	23.098
334.48	23.209
334.84	22.527
335.20	23.239
335.57	21.215
335.93	23.668
336.29	23.297
336.66	21.526
337.02	22.305
337.38	22.407
337.75	23.273
338.11	24.166
338.47	23.905
338.84	22.551
339.20	23.218
339.56	23.119
339.93	23.814
340.29	21.927
340.65	23.925
341.02	22.872
341.38	22.389
341.74	22.615
342.11	22.357
342.47	23.399
342.83	23.702
343.20	21.603
343.56	21.913
343.92	23.561
344.28	22.972
344.65	22.453
345.01	22.040
345.37	23.045
345.73	22.762
346.10	22.261
346.46	22.372
346.82	21.604
347.19	21.446
347.55	22.473
347.91	21.683
348.27	22.231
348.63	21.976
349.00	22.395
349.36	22.444
349.72	23.964
350.08	22.951
350.45	21.389
350.81	21.346
351.17	22.313
351.53	22.694
351.89	21.057
352.26	22.080
352.62	22.419
352.98	21.446
353.34	20.209
353.70	22.573
354.07	21.371
354.43	22.098
354.79	21.222
355.15	21.667
355.51	22.152
355.87	21.278
356.24	20.147
356.60	21.261
356.96	20.714
357.32	20.687
357.68	21.345
358.04	20.759
358.40	20.579
358.77	21.691
359.13	21.057
359.49	20.570
359.85	20.593
360.21	21.212
360.57	20.275
360.93	20.651
361.29	19.637
361.66	21.552
362.02	21.288
362.38	21.097
362.74	20.439
363.10	20.090
363.46	21.942
363.82	21.563
364.18	19.483
364.54	21.029
364.90	21.219
365.26	20.378
365.62	20.657
365.98	20.601
366.35	21.631
366.71	22.247
367.07	20.682
367.43	20.561
367.79	20.071
368.15	20.244
368.51	19.883
368.87	19.526
369.23	20.433
369.59	19.388
369.95	20.968
370.31	20.087
370.67	20.224
371.03	19.343
371.39	19.110
371.75	19.853
372.11	19.757
372.47	19.527
372.83	19.872
373.19	20.257
373.55	19.783
373.91	20.374
374.27	20.482
374.63	20.675
374.99	19.787
375.35	20.195
375.71	20.280
376.07	19.874
376.42	19.456
376.78	21.141
377.14	19.499
377.50	20.053
377.86	19.679
378.22	19.783
378.58	19.038
378.94	19.156
379.30	19.713
379.66	19.875
380.02	20.172
380.38	18.685
380.74	19.868
381.09	20.368
381.45	19.572
381.81	20.049
382.17	19.987
382.53	18.926
382.89	19.272
383.25	20.722
383.61	19.695
383.97	18.286
384.32	20.013
384.68	18.885
385.04	18.811
385.40	18.793
385.76	20.000
386.12	18.887
386.48	19.796
386.83	19.341
387.19	19.719
387.55	19.699
387.91	18.582
388.27	18.681
388.62	18.565
388.98	19.153
389.34	18.926
389.70	19.702
390.06	19.383
390.42	19.624
390.77	19.490
391.13	18.411
391.49	18.435
391.85	19.428
392.20	19.083
392.56	19.517
392.92	19.495
393.28	18.809
393.64	18.619
393.99	19.310
394.35	19.355
394.71	20.179
395.07	18.290
395.42	19.429
395.78	19.088
396.14	20.050
396.50	19.087
396.85	19.511
397.21	19.236
397.57	19.122
397.92	18.874
398.28	19.655
398.64	19.217
399.00	19.300
399.35	18.284
399.71	19.586
400.07	19.045
400.42	18.115
400.78	19.657
401.14	19.601
401.49	18.999
401.85	19.196
402.21	19.337
402.57	18.938
402.92	18.946
403.28	18.734
403.63	19.294
403.99	18.367
404.35	19.925
404.70	18.810
405.06	18.508
405.42	18.645
405.77	18.478
406.13	18.161
406.49	17.821
406.84	18.399
407.20	18.423
407.55	18.674
407.91	17.848
408.27	18.802
408.62	19.938
408.98	18.053
409.34	18.835
409.69	18.217
410.05	18.781
410.40	18.272
410.76	18.999
411.11	19.438
411.47	19.001
411.83	17.954
412.18	19.112
412.54	18.851
412.89	18.781
413.25	18.773
413.60	17.764
413.96	18.405
414.31	18.902
414.67	18.409
415.03	17.843
415.38	18.734
415.74	19.153
416.09	18.289
416.45	18.771
416.80	17.978
417.16	19.682
417.51	18.454
417.87	18.449
418.22	18.264
418.58	18.395
418.93	18.871
419.29	18.694
419.64	18.146
420.00	19.584
420.35	18.149
420.71	18.773
421.06	18.539
421.42	19.111
421.77	19.191
422.12	18.275
422.48	18.679
422.83	18.213
423.19	17.833
423.54	18.342
423.90	18.198
424.25	18.025
424.61	18.727
424.96	18.060
425.31	18.833
425.67	18.427
426.02	19.258
426.38	19.724
426.73	18.765
427.09	19.177
427.44	19.000
427.79	19.269
428.15	18.871
428.50	18.595
428.85	18.612
429.21	18.166
429.56	19.407
429.92	19.055
430.27	18.596
430.62	18.296
430.98	18.047
431.33	19.190
431.68	18.420
432.04	19.173
432.39	18.711
432.74	18.581
433.10	19.138
433.45	18.339
433.80	18.398
434.16	18.393
434.51	18.333
434.86	18.815
435.22	19.013
435.57	18.715
435.92	19.222
436.28	18.426
436.63	19.452
436.98	18.540
437.34	18.996
437.69	19.439
438.04	19.031
438.39	18.693
438.75	18.397
439.10	19.072
439.45	18.868
439.81	18.838
440.16	18.468
440.51	18.567
440.86	19.094
441.22	17.986
441.57	18.267
441.92	19.203
442.27	18.792
442.63	18.951
442.98	19.242
443.33	18.141
443.68	18.992
444.03	19.523
444.39	19.183
444.74	19.955
445.09	19.154
445.44	19.145
445.79	20.062
446.15	19.824
446.50	18.469
446.85	19.129
447.20	19.030
447.55	19.699
447.91	18.895
448.26	19.863
448.61	19.574
448.96	20.195
449.31	19.595
449.66	19.164
450.02	18.939
450.37	19.502
450.72	19.759
451.07	19.114
451.42	19.725
451.77	19.409
452.12	18.900
452.47	18.609
452.83	19.317
453.18	19.102
453.53	19.659
453.88	19.126
454.23	19.668
454.58	18.829
454.93	19.137
455.28	17.905
455.63	20.025
455.98	19.663
456.34	20.307
456.69	19.695
457.04	20.290
457.39	19.745
457.74	19.347
458.09	18.952
458.44	19.134
458.79	19.048
459.14	19.336
459.49	19.582
459.84	19.966
460.19	19.539
460.54	19.621
460.89	19.830
461.24	19.689
461.59	19.715
461.94	18.553
462.29	19.662
462.64	20.000
462.99	20.447
463.34	18.498
463.69	18.468
464.04	19.249
464.39	19.466
464.74	19.018
465.09	20.961
465.44	19.446
465.79	18.821
466.14	19.954
466.49	19.379
466.84	19.393
467.19	19.962
467.54	18.774
467.89	19.583
468.24	20.377
468.59	19.873
468.94	20.063
469.29	20.066
469.64	20.301
469.99	20.603
470.34	19.317
470.68	21.626
471.03	19.887
471.38	19.757
471.73	19.468
472.08	19.267
472.43	20.403
472.78	18.917
473.13	19.728
473.48	18.827
473.83	19.489
474.17	20.013
474.52	20.676
474.87	19.939
475.22	18.853
475.57	19.650
475.92	20.570
476.27	20.373
476.61	20.197
476.96	18.795
477.31	19.524
477.66	19.607
478.01	19.427
478.36	19.390
478.70	20.283
479.05	19.451
479.40	20.244
479.75	19.656
480.10	19.816
480.45	20.050
480.79	20.393
481.14	20.287
481.49	19.310
481.84	19.450
482.19	19.270
482.53	19.520
482.88	19.618
483.23	19.194
483.58	19.292
483.92	19.603
484.27	19.827
484.62	19.364
484.97	19.237
485.31	19.292
485.66	18.135
486.01	18.228
486.36	18.761
486.70	19.694
487.05	19.857
487.40	19.623
487.75	20.563
488.09	20.643
488.44	21.114
488.79	20.770
489.13	20.753
489.48	20.094
489.83	19.596
490.17	19.416
490.52	19.492
490.87	19.435
491.22	20.201
491.56	19.545
491.91	19.455
492.26	19.981
492.60	20.154
492.95	19.921
493.30	19.345
493.64	19.695
493.99	19.807
494.34	19.466
494.68	20.048
495.03	20.049
495.37	20.314
495.72	20.192
496.07	20.390
496.41	19.528
496.76	19.300
497.11	18.817
497.45	20.430
497.80	20.081
498.14	19.523
498.49	19.807
498.84	19.062
499.18	19.629
499.53	20.040
499.87	19.698
500.22	19.090
500.56	19.869
500.91	19.629
501.26	19.575
501.60	19.823
501.95	19.990
502.29	19.370
502.64	18.533
502.98	19.635
503.33	19.260
503.67	19.711
504.02	20.479
504.36	20.040
504.71	19.596
505.06	19.829
505.40	18.934
505.75	20.412
506.09	19.767
506.44	20.226
506.78	20.561
507.13	19.597
507.47	19.373
507.82	19.231
508.16	19.599
508.51	20.147
508.85	20.408
509.19	19.425
509.54	19.678
509.88	19.417
510.23	20.118
510.57	19.989
510.92	18.710
511.26	19.749
511.61	19.802
511.95	19.836
512.30	20.233
512.64	19.644
512.98	19.090
513.33	19.586
513.67	18.988
514.02	20.881
514.36	20.057
514.70	20.280
515.05	20.447
515.39	21.015
515.74	20.719
516.08	19.486
516.42	20.907
516.77	20.012
517.11	20.593
517.46	19.928
517.80	20.560
518.14	20.208
518.49	20.192
518.83	20.595
519.17	19.709
519.52	20.426
519.86	19.148
520.20	20.231
520.55	19.450
520.89	21.016
521.23	19.443
521.58	20.505
521.92	20.833
522.26	19.974
522.61	19.545
522.95	20.795
523.29	20.457
523.64	20.902
523.98	20.220
524.32	19.652
524.66	20.679
525.01	21.429
525.35	20.868
525.69	19.933
526.04	20.238
526.38	21.271
526.72	19.751
527.06	20.233
527.41	19.525
527.75	20.442
528.09	19.801
528.43	20.594
528.78	20.726
529.12	20.323
529.46	20.143
529.80	20.013
530.15	20.330
530.49	20.404
530.83	20.657
531.17	19.610
531.51	21.409
531.86	20.054
532.20	19.624
532.54	20.490
532.88	20.808
533.22	20.161
533.57	19.790
533.91	20.431
534.25	20.508
534.59	19.628
534.93	18.628
535.27	19.734
535.62	20.480
535.96	20.744
536.30	20.646
536.64	20.538
536.98	20.418
537.32	21.906
537.66	21.669
538.01	21.259
538.35	20.042
538.69	20.173
539.03	20.301
539.37	21.198
539.71	20.723
540.05	20.502
540.39	20.083
540.73	20.711
541.07	20.787
541.42	20.901
541.76	20.234
542.10	21.473
542.44	20.917
542.78	18.858
543.12	20.536
543.46	20.723
543.80	20.680
544.14	18.892
544.48	20.653
544.82	20.711
545.16	21.243
545.50	21.429
545.84	21.105
546.18	21.489
546.52	21.053
546.86	20.489
547.20	21.173
547.54	19.717
547.88	20.245
548.22	20.447
548.56	20.844
548.90	21.024
549.24	20.248
549.58	20.028
549.92	19.657
550.26	19.634
550.60	20.074
550.94	20.463
551.28	21.175
551.62	20.538
551.96	20.752
552.30	20.322
552.64	21.368
552.98	19.550
553.32	20.257
553.66	21.045
554.00	20.219
554.34	21.344
554.68	20.133
555.02	21.875
555.36	21.167
555.69	21.099
556.03	19.629
556.37	19.929
556.71	20.794
557.05	20.731
557.39	19.628
557.73	21.214
558.07	21.041
558.41	20.597
558.75	20.889
559.08	22.065
559.42	20.397
559.76	20.977
560.10	20.413
560.44	20.774
560.78	20.559
561.12	20.381
561.45	20.801
561.79	21.148
562.13	20.795
562.47	21.295
562.81	21.037
563.15	21.932
563.48	21.358
563.82	21.414
564.16	20.265
564.50	19.797
564.84	21.151
565.17	20.926
565.51	20.287
565.85	21.125
566.19	20.623
566.52	21.783
566.86	20.951
567.20	20.486
567.54	19.769
567.88	21.558
568.21	20.079
568.55	20.489
568.89	20.329
569.23	20.510
569.56	20.184
569.90	20.625
570.24	19.725
570.57	20.218
570.91	20.983
571.25	20.092
571.59	20.056
571.92	19.378
572.26	19.263
572.60	19.845
572.93	20.238
573.27	19.969
573.61	19.869
573.95	19.825
574.28	19.809
574.62	19.781
574.96	19.746
575.29	19.561
575.63	19.228
575.97	19.409
576.30	19.820
576.64	19.762
576.98	19.923
577.31	20.152
577.65	19.954
577.98	19.738
578.32	19.687
578.66	18.998
578.99	19.841
579.33	20.085
579.67	20.111
580.00	19.975
580.34	20.249
580.67	20.401
581.01	19.861
581.35	19.358
581.68	19.366
582.02	19.563
582.35	19.387
582.69	19.887
583.02	19.910
583.36	20.582
583.70	20.483
584.03	20.795
584.37	20.977
584.70	20.577
585.04	19.922
585.37	20.319
585.71	19.798
586.04	19.566
586.38	19.712
586.72	20.344
587.05	20.711
587.39	20.268
587.72	20.558
588.06	20.343
588.39	20.450
588.73	20.360
589.06	21.102
589.40	20.774
589.73	20.737
590.07	21.337
590.40	20.975
590.73	20.799
591.07	20.696
591.40	20.748
591.74	20.860
592.07	20.640
592.41	20.716
592.74	19.873
593.08	18.931
593.41	19.176
593.75	20.314
594.08	19.533
594.41	20.306
594.75	19.847
595.08	20.166
595.42	19.764
595.75	20.729
596.09	20.407
596.42	20.504
596.75	21.004
597.09	20.547
597.42	19.648
597.75	19.835
598.09	19.873
598.42	19.495
598.76	19.734
599.09	19.952
599.42	19.932
599.76	19.940
600.09	20.324
600.42	19.939
600.76	19.577
601.09	19.580
601.42	19.467
601.76	19.770
602.09	20.957
602.42	20.893
602.76	20.840
603.09	20.224
603.42	20.652
603.76	20.081
604.09	19.725
604.42	20.093
604.76	21.139
605.09	21.207
605.42	20.181
605.75	20.053
606.09	19.490
606.42	19.892
606.75	20.130
607.09	20.176
607.42	19.672
607.75	20.249
608.08	20.171
608.42	20.694
608.75	21.205
609.08	20.329
609.41	20.305
609.75	20.111
610.08	20.819
610.41	19.420
610.74	19.844
611.07	20.620
611.41	20.602
611.74	20.682
612.07	20.289
612.40	20.678
612.73	20.282
613.07	19.966
613.40	20.624
613.73	19.922
614.06	21.313
614.39	21.376
614.72	19.776
615.06	20.447
615.39	20.197
615.72	19.160
616.05	20.615
616.38	20.228
616.71	20.306
617.05	20.136
617.38	20.050
617.71	20.063
618.04	21.143
618.37	21.059
618.70	20.924
619.03	21.181
619.36	19.754
619.69	21.911
620.03	20.964
620.36	21.745
620.69	20.985
621.02	20.872
621.35	21.577
621.68	20.408
622.01	21.250
622.34	22.426
622.67	21.136
623.00	20.138
623.33	21.189
623.66	20.344
623.99	19.894
624.32	21.673
624.65	19.624
624.99	20.467
625.32	21.228
625.65	21.131
625.98	20.387
626.31	20.532
626.64	22.357
626.97	21.815
627.30	20.928
627.63	22.617
627.96	20.395
628.29	21.184
628.62	20.846
628.95	21.242
629.28	20.968
629.61	19.541
629.94	21.310
630.26	21.047
630.59	21.852
630.92	20.718
631.25	20.923
631.58	21.696
631.91	21.053
632.24	22.018
632.57	20.795
632.90	21.115
633.23	22.000
