SpectraSuite Data File
++++++++++++++++++++++++++++++++++++
Date: Fri May 15 21:06:13 PDT 2015
User: schluterlab
Dark Spectrum Present: Yes
Reference Spectrum Present: Yes
Number of Sampled Component Spectra: 1
Spectrometers: USB2E3373
Integration Time (usec): 3000 (USB2E3373)
Spectra Averaged: 3 (USB2E3373)
Boxcar Smoothing: 0 (USB2E3373)
Correct for Electrical Dark: No (USB2E3373)
Strobe/Lamp Enabled: No (USB2E3373)
Correct for Detector Non-linearity: No (USB2E3373)
Correct for Stray Light: No (USB2E3373)
Number of Pixels in Processed Spectrum: 2048
>>>>>Begin Processed Spectral Data<<<<<
178.53	0.000
178.91	0.000
179.29	112.500
179.67	-300.000
180.04	85.714
180.42	125.000
180.80	200.000
181.18	-33.333
181.56	-0.000
181.94	-100.000
182.31	1000.000
182.69	-200.000
183.07	-233.333
183.45	20.000
183.83	216.667
184.20	-27.273
184.58	244.444
184.96	-125.000
185.34	-33.333
185.72	50.000
186.09	38.462
186.47	-1200.000
186.85	50.000
187.23	200.000
187.61	-900.000
187.98	-366.667
188.36	44.444
188.74	-433.333
189.12	17.647
189.49	22.222
189.87	0.000
190.25	71.429
190.63	50.000
191.00	0.000
191.38	-21.053
191.76	500.000
192.14	225.000
192.51	450.000
192.89	-55.556
193.27	71.429
193.65	150.000
194.02	218.182
194.40	-60.000
194.78	-87.500
195.15	-25.000
195.53	-150.000
195.91	350.000
196.29	-25.000
196.66	100.000
197.04	71.429
197.42	0.000
197.79	-900.000
198.17	-107.692
198.55	1400.000
198.92	-366.667
199.30	-600.000
199.68	-120.000
200.05	-600.000
200.43	0.000
200.81	33.333
201.18	-66.667
201.56	2100.000
201.94	-350.000
202.31	-66.667
202.69	-100.000
203.07	50.000
203.44	100.000
203.82	0.000
204.19	21.429
204.57	-300.000
204.95	137.500
205.32	30.000
205.70	28.571
206.08	-75.000
206.45	100.000
206.83	0.000
207.20	-228.571
207.58	700.000
207.96	-166.667
208.33	-90.000
208.71	-125.000
209.08	-283.333
209.46	100.000
209.84	80.000
210.21	-1600.000
210.59	0.000
210.96	50.000
211.34	-150.000
211.71	-33.333
212.09	-128.571
212.46	-1700.000
212.84	0.000
213.22	70.000
213.59	450.000
213.97	-7.692
214.34	27.273
214.72	-116.667
215.09	375.000
215.47	-23.077
215.84	-72.727
216.22	-133.333
216.59	-75.000
216.97	-50.000
217.34	-325.000
217.72	-240.000
218.09	0.000
218.47	212.500
218.84	-900.000
219.22	-144.444
219.59	-60.000
219.97	366.667
220.34	250.000
220.72	-142.857
221.09	-200.000
221.47	-50.000
221.84	-600.000
222.22	-750.000
222.59	9.091
222.97	50.000
223.34	-100.000
223.72	-64.286
224.09	-33.333
224.46	14.286
224.84	500.000
225.21	-20.000
225.59	20.000
225.96	-250.000
226.34	300.000
226.71	-42.857
227.08	-183.333
227.46	-100.000
227.83	-650.000
228.21	-44.444
228.58	-27.273
228.95	25.000
229.33	110.000
229.70	31.250
230.08	-100.000
230.45	14.286
230.82	-42.857
231.20	-66.667
231.57	28.571
231.95	-142.857
232.32	-170.000
232.69	7.143
233.07	-133.333
233.44	20.000
233.81	-120.000
234.19	-22.222
234.56	-29.412
234.93	850.000
235.31	-100.000
235.68	-140.000
236.05	-30.769
236.43	-80.000
236.80	-29.412
237.17	15.625
237.55	-60.000
237.92	-51.852
238.29	13.889
238.67	-16.667
239.04	-20.588
239.41	-4.878
239.79	-30.000
240.16	0.000
240.53	-15.789
240.91	-10.870
241.28	-1.587
241.65	5.357
242.02	8.219
242.40	8.333
242.77	-5.085
243.14	-7.576
243.51	-1.250
243.89	17.241
244.26	-1.149
244.63	4.762
245.00	4.124
245.38	10.309
245.75	-3.371
246.12	0.862
246.49	4.959
246.87	1.923
247.24	-12.605
247.61	-9.649
247.98	-9.756
248.36	-1.875
248.73	3.289
249.10	3.247
249.47	0.633
249.84	0.654
250.22	7.059
250.59	-2.614
250.96	9.859
251.33	1.744
251.70	10.000
252.08	4.061
252.45	6.931
252.82	2.513
253.19	5.991
253.56	-4.206
253.94	7.658
254.31	6.087
254.68	5.263
255.05	6.299
255.42	3.057
255.79	4.247
256.16	4.669
256.54	8.955
256.91	2.281
257.28	1.115
257.65	2.996
258.02	2.128
258.39	5.051
258.76	1.465
259.14	5.648
259.51	5.178
259.88	4.124
260.25	2.941
260.62	3.819
260.99	2.712
261.36	2.055
261.73	3.481
262.10	3.951
262.47	2.454
262.85	0.000
263.22	5.538
263.59	3.738
263.96	5.590
264.33	3.636
264.70	1.786
265.07	2.976
265.44	4.249
265.81	0.847
266.18	3.279
266.55	6.941
266.92	5.440
267.29	5.483
267.66	4.604
268.03	3.141
268.40	2.089
268.77	9.626
269.14	5.516
269.51	5.141
269.88	5.985
270.25	2.041
270.62	2.683
270.99	4.348
271.36	2.689
271.73	5.399
272.10	5.596
272.47	3.783
272.84	2.475
273.21	4.176
273.58	4.096
273.95	2.059
274.32	2.540
274.69	1.131
275.06	5.580
275.43	3.628
275.80	1.987
276.17	3.678
276.54	6.638
276.91	5.921
277.28	4.367
277.65	5.785
278.02	4.894
278.39	5.689
278.76	4.612
279.13	4.357
279.50	4.832
279.87	5.616
280.23	4.516
280.60	6.628
280.97	3.636
281.34	5.192
281.71	6.776
282.08	2.454
282.45	4.501
282.82	3.282
283.19	4.642
283.56	4.817
283.92	2.277
284.29	3.077
284.66	4.070
285.03	4.912
285.40	6.427
285.77	5.097
286.14	5.415
286.51	5.535
286.87	4.936
287.24	4.788
287.61	5.291
287.98	8.596
288.35	3.986
288.72	7.180
289.08	7.118
289.45	7.909
289.82	4.720
290.19	6.143
290.56	7.033
290.93	5.724
291.29	5.547
291.66	8.819
292.03	6.061
292.40	7.097
292.77	5.742
293.13	3.247
293.50	6.829
293.87	7.328
294.24	6.955
294.60	6.855
294.97	8.631
295.34	6.748
295.71	8.197
296.08	7.623
296.44	7.255
296.81	7.361
297.18	8.696
297.55	9.350
297.91	9.315
298.28	10.422
298.65	8.820
299.02	7.817
299.38	7.934
299.75	7.310
300.12	7.984
300.48	8.564
300.85	9.252
301.22	8.312
301.59	7.368
301.95	8.354
302.32	9.339
302.69	8.458
303.05	8.045
303.42	9.091
303.79	10.748
304.15	9.797
304.52	8.323
304.89	9.123
305.25	8.838
305.62	7.935
305.99	10.175
306.35	9.364
306.72	10.011
307.09	9.920
307.45	9.989
307.82	9.606
308.19	11.150
308.55	9.269
308.92	11.874
309.29	9.274
309.65	10.118
310.02	10.011
310.38	9.440
310.75	11.694
311.12	10.441
311.48	8.271
311.85	10.157
312.22	10.338
312.58	9.766
312.95	9.925
313.31	9.834
313.68	11.309
314.05	10.408
314.41	11.031
314.78	10.722
315.14	10.894
315.51	10.352
315.87	9.939
316.24	11.931
316.61	11.220
316.97	11.508
317.34	10.742
317.70	10.229
318.07	11.635
318.43	11.765
318.80	11.174
319.16	10.742
319.53	11.396
319.89	11.417
320.26	12.146
320.62	12.437
320.99	11.378
321.35	11.305
321.72	12.357
322.08	12.085
322.45	12.284
322.81	13.261
323.18	11.678
323.54	11.680
323.91	11.977
324.27	13.184
324.64	14.045
325.00	13.869
325.37	14.141
325.73	12.239
326.10	12.807
326.46	12.377
326.83	13.998
327.19	13.252
327.56	14.248
327.92	14.789
328.29	12.411
328.65	13.208
329.01	13.511
329.38	12.627
329.74	13.503
330.11	13.716
330.47	12.523
330.84	12.500
331.20	14.734
331.56	12.500
331.93	14.155
332.29	13.199
332.66	11.946
333.02	12.918
333.38	12.374
333.75	14.011
334.11	12.713
334.48	13.055
334.84	13.278
335.20	13.632
335.57	12.511
335.93	13.098
336.29	12.983
336.66	12.534
337.02	11.338
337.38	11.481
337.75	12.636
338.11	13.075
338.47	11.679
338.84	12.015
339.20	12.980
339.56	12.477
339.93	11.996
340.29	12.661
340.65	12.993
341.02	12.677
341.38	12.035
341.74	11.837
342.11	11.785
342.47	12.722
342.83	12.370
343.20	11.847
343.56	12.174
343.92	12.223
344.28	13.322
344.65	10.967
345.01	10.458
345.37	11.775
345.73	12.552
346.10	11.734
346.46	12.784
346.82	11.948
347.19	11.056
347.55	12.448
347.91	11.489
348.27	12.611
348.63	12.095
349.00	11.895
349.36	11.638
349.72	11.360
350.08	12.131
350.45	13.328
350.81	11.047
351.17	12.052
351.53	12.000
351.89	12.386
352.26	11.040
352.62	12.097
352.98	11.004
353.34	11.755
353.70	11.974
354.07	12.097
354.43	12.170
354.79	11.148
355.15	11.746
355.51	12.737
355.87	11.327
356.24	11.664
356.60	10.509
356.96	12.381
357.32	11.661
357.68	11.806
358.04	10.743
358.40	11.736
358.77	12.520
359.13	11.449
359.49	11.325
359.85	12.012
360.21	12.121
360.57	12.318
360.93	12.784
361.29	11.858
361.66	12.226
362.02	12.045
362.38	10.967
362.74	11.734
363.10	12.039
363.46	11.935
363.82	12.923
364.18	13.358
364.54	12.574
364.90	12.832
365.26	12.518
365.62	13.066
365.98	12.390
366.35	13.110
366.71	13.895
367.07	12.264
367.43	12.150
367.79	12.580
368.15	13.065
368.51	13.110
368.87	12.419
369.23	12.924
369.59	12.245
369.95	12.390
370.31	12.934
370.67	12.313
371.03	12.547
371.39	12.327
371.75	13.187
372.11	12.482
372.47	12.352
372.83	12.988
373.19	13.267
373.55	12.852
373.91	12.167
374.27	12.615
374.63	13.281
374.99	12.199
375.35	13.162
375.71	13.147
376.07	12.008
376.42	12.789
376.78	12.550
377.14	12.661
377.50	12.749
377.86	13.052
378.22	12.572
378.58	12.949
378.94	13.296
379.30	12.976
379.66	13.292
380.02	12.262
380.38	12.781
380.74	13.046
381.09	13.190
381.45	12.232
381.81	12.276
382.17	12.754
382.53	12.305
382.89	12.869
383.25	12.259
383.61	13.537
383.97	11.746
384.32	13.258
384.68	12.570
385.04	12.010
385.40	11.699
385.76	12.830
386.12	13.260
386.48	12.324
386.83	11.541
387.19	12.821
387.55	12.798
387.91	12.653
388.27	12.027
388.62	12.020
388.98	11.909
389.34	11.805
389.70	12.617
390.06	10.824
390.42	11.464
390.77	11.642
391.13	11.160
391.49	11.902
391.85	12.086
392.20	11.299
392.56	11.189
392.92	11.216
393.28	11.026
393.64	10.811
393.99	11.348
394.35	10.120
394.71	11.367
395.07	10.874
395.42	11.475
395.78	9.121
396.14	10.656
396.50	10.590
396.85	10.431
397.21	10.589
397.57	11.223
397.92	10.725
398.28	9.885
398.64	9.458
399.00	10.666
399.35	9.199
399.71	9.650
400.07	9.613
400.42	9.853
400.78	9.920
401.14	8.590
401.49	9.649
401.85	8.897
402.21	9.518
402.57	9.188
402.92	8.030
403.28	9.023
403.63	8.260
403.99	8.099
404.35	8.495
404.70	8.631
405.06	8.167
405.42	8.017
405.77	7.786
406.13	7.392
406.49	7.460
406.84	8.068
407.20	8.368
407.55	7.469
407.91	7.687
408.27	7.776
408.62	8.923
408.98	7.640
409.34	7.125
409.69	7.171
410.05	6.712
410.40	7.037
410.76	7.720
411.11	6.937
411.47	7.824
411.83	6.466
412.18	6.692
412.54	6.929
412.89	6.958
413.25	7.521
413.60	6.832
413.96	6.258
414.31	7.134
414.67	7.120
415.03	7.923
415.38	7.115
415.74	7.231
416.09	7.642
416.45	7.225
416.80	7.204
417.16	7.320
417.51	7.395
417.87	7.497
418.22	7.124
418.58	7.425
418.93	8.025
419.29	7.298
419.64	7.907
420.00	8.060
420.35	8.000
420.71	8.323
421.06	8.103
421.42	8.594
421.77	8.266
422.12	7.775
422.48	8.988
422.83	8.817
423.19	9.029
423.54	8.348
423.90	8.716
424.25	8.898
424.61	9.425
424.96	8.943
425.31	9.936
425.67	9.683
426.02	9.541
426.38	10.019
426.73	9.322
427.09	10.190
427.44	10.647
427.79	11.137
428.15	10.558
428.50	10.418
428.85	9.705
429.21	11.092
429.56	10.296
429.92	10.940
430.27	10.927
430.62	10.978
430.98	10.616
431.33	11.830
431.68	11.355
432.04	11.179
432.39	11.295
432.74	12.508
433.10	12.471
433.45	12.186
433.80	12.768
434.16	11.801
434.51	12.527
434.86	12.137
435.22	12.787
435.57	12.913
435.92	12.994
436.28	12.343
436.63	13.006
436.98	12.514
437.34	12.523
437.69	14.073
438.04	13.048
438.39	13.195
438.75	13.904
439.10	13.413
439.45	13.694
439.81	13.456
440.16	13.895
440.51	14.806
440.86	14.864
441.22	13.688
441.57	13.962
441.92	14.323
442.27	14.302
442.63	15.364
442.98	15.336
443.33	14.246
443.68	14.695
444.03	14.655
444.39	15.101
444.74	15.775
445.09	14.811
445.44	14.473
445.79	15.678
446.15	15.419
446.50	14.309
446.85	15.462
447.20	15.433
447.55	16.239
447.91	14.946
448.26	15.367
448.61	15.602
448.96	15.663
449.31	15.318
449.66	15.796
450.02	15.744
450.37	15.649
450.72	16.094
451.07	15.380
451.42	17.041
451.77	16.637
452.12	15.550
452.47	15.132
452.83	15.371
453.18	15.750
453.53	15.866
453.88	15.726
454.23	15.304
454.58	16.310
454.93	16.430
455.28	15.175
455.63	16.367
455.98	16.536
456.34	15.453
456.69	16.773
457.04	16.320
457.39	16.464
457.74	16.082
458.09	16.009
458.44	14.921
458.79	16.078
459.14	15.789
459.49	16.955
459.84	16.977
460.19	15.716
460.54	16.870
460.89	16.761
461.24	16.646
461.59	17.577
461.94	15.597
462.29	16.526
462.64	17.276
462.99	16.249
463.34	16.690
463.69	16.152
464.04	16.646
464.39	16.980
464.74	16.748
465.09	16.968
465.44	16.734
465.79	16.497
466.14	16.192
466.49	15.756
466.84	17.311
467.19	17.459
467.54	16.539
467.89	16.235
468.24	16.180
468.59	17.016
468.94	16.254
469.29	17.443
469.64	16.678
469.99	17.519
470.34	15.836
470.68	17.226
471.03	16.844
471.38	16.690
471.73	17.647
472.08	16.757
472.43	15.973
472.78	17.752
473.13	17.619
473.48	17.655
473.83	16.252
474.17	16.580
474.52	17.486
474.87	16.788
475.22	17.023
475.57	18.069
475.92	17.224
476.27	17.288
476.61	17.477
476.96	15.839
477.31	17.361
477.66	17.022
478.01	16.732
478.36	16.231
478.70	17.183
479.05	17.253
479.40	16.958
479.75	16.267
480.10	16.795
480.45	16.200
480.79	17.623
481.14	17.264
481.49	16.650
481.84	16.747
482.19	16.277
482.53	16.691
482.88	17.184
483.23	16.027
483.58	17.830
483.92	17.038
484.27	16.044
484.62	16.764
484.97	16.584
485.31	16.835
485.66	16.900
486.01	16.637
486.36	16.491
486.70	16.865
487.05	16.641
487.40	17.089
487.75	16.817
488.09	16.502
488.44	16.713
488.79	16.922
489.13	17.067
489.48	16.375
489.83	16.233
490.17	15.730
490.52	17.229
490.87	15.872
491.22	15.903
491.56	16.319
491.91	16.252
492.26	16.383
492.60	17.035
492.95	17.019
493.30	16.170
493.64	16.896
493.99	17.488
494.34	16.068
494.68	16.143
495.03	16.204
495.37	16.487
495.72	16.860
496.07	16.683
496.41	16.179
496.76	16.582
497.11	15.603
497.45	16.134
497.80	17.154
498.14	16.592
498.49	16.455
498.84	17.116
499.18	16.717
499.53	16.220
499.87	16.488
500.22	15.925
500.56	16.641
500.91	16.817
501.26	16.510
501.60	15.839
501.95	16.885
502.29	15.545
502.64	16.892
502.98	16.231
503.33	16.475
503.67	16.241
504.02	16.325
504.36	17.368
504.71	16.111
505.06	15.954
505.40	16.548
505.75	16.495
506.09	16.624
506.44	17.197
506.78	16.582
507.13	16.856
507.47	16.136
507.82	16.774
508.16	17.010
508.51	16.737
508.85	16.379
509.19	16.179
509.54	16.515
509.88	16.073
510.23	16.407
510.57	16.943
510.92	15.991
511.26	16.203
511.61	16.832
511.95	16.658
512.30	16.630
512.64	16.528
512.98	15.834
513.33	16.116
513.67	16.828
514.02	18.593
514.36	17.657
514.70	17.366
515.05	18.155
515.39	17.769
515.74	17.964
516.08	16.497
516.42	17.727
516.77	17.203
517.11	16.261
517.46	16.697
517.80	18.176
518.14	16.412
518.49	17.788
518.83	17.315
519.17	16.677
519.52	16.755
519.86	16.687
520.20	16.950
520.55	16.385
520.89	17.754
521.23	15.896
521.58	17.855
521.92	17.821
522.26	17.046
522.61	16.818
522.95	17.086
523.29	17.980
523.64	16.836
523.98	17.693
524.32	16.559
524.66	16.901
525.01	17.208
525.35	18.276
525.69	16.498
526.04	15.542
526.38	17.445
526.72	15.762
527.06	16.732
527.41	17.480
527.75	16.421
528.09	16.545
528.43	18.163
528.78	15.710
529.12	17.290
529.46	16.634
529.80	16.909
530.15	17.096
530.49	17.172
530.83	16.689
531.17	16.051
531.51	16.553
531.86	15.908
532.20	15.658
532.54	16.133
532.88	16.632
533.22	16.196
533.57	16.514
533.91	15.862
534.25	17.057
534.59	15.651
534.93	15.922
535.27	15.609
535.62	15.878
535.96	16.830
536.30	15.963
536.64	16.954
536.98	15.889
537.32	16.216
537.66	16.339
538.01	16.434
538.35	15.811
538.69	16.445
539.03	15.926
539.37	16.083
539.71	15.542
540.05	15.343
540.39	16.205
540.73	15.063
541.07	16.713
541.42	16.465
541.76	16.242
542.10	15.485
542.44	15.497
542.78	15.348
543.12	15.522
543.46	15.090
543.80	16.308
544.14	14.887
544.48	14.857
544.82	15.858
545.16	16.803
545.50	15.621
545.84	16.289
546.18	16.170
546.52	15.285
546.86	14.306
547.20	15.737
547.54	14.700
547.88	16.236
548.22	14.793
548.56	16.293
548.90	15.970
549.24	15.427
549.58	16.150
549.92	15.440
550.26	15.238
550.60	15.390
550.94	15.833
551.28	15.224
551.62	15.231
551.96	15.564
552.30	14.985
552.64	15.374
552.98	15.963
553.32	15.193
553.66	15.893
554.00	15.401
554.34	15.362
554.68	14.749
555.02	14.807
555.36	16.081
555.69	15.531
556.03	15.560
556.37	15.658
556.71	14.874
557.05	15.436
557.39	15.167
557.73	14.318
558.07	15.611
558.41	15.084
558.75	14.887
559.08	14.972
559.42	15.714
559.76	15.212
560.10	14.220
560.44	15.711
560.78	15.245
561.12	14.810
561.45	15.320
561.79	15.336
562.13	14.833
562.47	14.532
562.81	14.914
563.15	14.598
563.48	14.639
563.82	15.992
564.16	15.460
564.50	14.595
564.84	15.328
565.17	14.889
565.51	14.754
565.85	14.952
566.19	15.451
566.52	15.416
566.86	15.296
567.20	15.442
567.54	14.294
567.88	14.821
568.21	14.932
568.55	14.239
568.89	14.425
569.23	14.636
569.56	14.186
569.90	14.170
570.24	14.217
570.57	14.182
570.91	14.814
571.25	13.581
571.59	13.391
571.92	13.985
572.26	13.406
572.60	13.209
572.93	13.524
573.27	12.759
573.61	13.544
573.95	13.872
574.28	13.347
574.62	13.247
574.96	13.588
575.29	12.721
575.63	12.983
575.97	12.741
576.30	13.213
576.64	13.139
576.98	13.565
577.31	13.246
577.65	13.326
577.98	13.419
578.32	12.951
578.66	12.658
578.99	12.845
579.33	12.715
579.67	12.718
580.00	12.734
580.34	13.085
580.67	12.537
581.01	13.473
581.35	13.071
581.68	13.364
582.02	13.434
582.35	13.185
582.69	13.148
583.02	13.160
583.36	13.414
583.70	13.629
584.03	13.317
584.37	14.032
584.70	13.434
585.04	13.420
585.37	13.563
585.71	13.700
586.04	13.616
586.38	13.950
586.72	14.146
587.05	13.836
587.39	14.118
587.72	13.969
588.06	13.562
588.39	13.728
588.73	14.042
589.06	14.710
589.40	14.034
589.73	14.531
590.07	14.199
590.40	14.203
590.73	14.909
591.07	14.419
591.40	14.871
591.74	14.932
592.07	15.121
592.41	14.885
592.74	14.337
593.08	13.936
593.41	14.234
593.75	14.426
594.08	14.452
594.41	14.592
594.75	14.389
595.08	13.659
595.42	14.649
595.75	14.270
596.09	14.113
596.42	14.179
596.75	14.254
597.09	14.943
597.42	14.634
597.75	14.705
598.09	14.486
598.42	14.440
598.76	14.414
599.09	14.423
599.42	14.134
599.76	13.544
600.09	14.253
600.42	13.874
600.76	13.819
601.09	14.122
601.42	13.905
601.76	13.894
602.09	13.985
602.42	14.280
602.76	14.092
603.09	14.037
603.42	13.880
603.76	14.073
604.09	14.216
604.42	14.086
604.76	14.731
605.09	13.985
605.42	14.492
605.75	13.923
606.09	13.715
606.42	13.553
606.75	14.113
607.09	14.549
607.42	13.824
607.75	13.277
608.08	13.477
608.42	14.344
608.75	14.024
609.08	14.549
609.41	14.061
609.75	14.214
610.08	14.428
610.41	13.865
610.74	14.091
611.07	14.367
611.41	13.856
611.74	14.925
612.07	13.330
612.40	14.278
612.73	13.898
613.07	14.004
613.40	13.895
613.73	14.046
614.06	13.467
614.39	14.044
614.72	14.174
615.06	13.687
615.39	13.373
615.72	13.563
616.05	14.078
616.38	12.821
616.71	14.128
617.05	13.836
617.38	14.331
617.71	13.459
618.04	14.032
618.37	14.439
618.70	15.314
619.03	14.444
619.36	13.314
619.69	13.874
620.03	14.755
620.36	13.591
620.69	13.062
621.02	13.914
621.35	14.274
621.68	15.306
622.01	14.417
622.34	14.685
622.67	15.221
623.00	14.089
623.33	14.405
623.66	13.463
623.99	13.691
624.32	14.601
624.65	13.308
624.99	13.168
625.32	12.055
625.65	14.768
625.98	14.746
626.31	12.552
626.64	14.385
626.97	13.613
627.30	13.398
627.63	14.731
627.96	13.926
628.29	13.228
628.62	13.864
628.95	14.329
629.28	13.508
629.61	13.759
629.94	15.054
630.26	15.316
630.59	13.424
630.92	14.359
631.25	13.641
631.58	14.097
631.91	12.829
632.24	13.532
632.57	13.864
632.90	12.930
633.23	14.941
633.56	14.106
633.89	13.317
634.22	15.556
634.55	13.596
634.88	12.899
635.20	12.821
635.53	13.733
635.86	12.354
636.19	14.101
636.52	14.541
636.85	13.400
637.18	12.830
637.51	13.711
637.83	14.717
638.16	13.915
638.49	12.807
