SpectraSuite Data File
++++++++++++++++++++++++++++++++++++
Date: Fri May 15 20:41:41 PDT 2015
User: schluterlab
Dark Spectrum Present: Yes
Reference Spectrum Present: Yes
Number of Sampled Component Spectra: 1
Spectrometers: USB2E3373
Integration Time (usec): 3000 (USB2E3373)
Spectra Averaged: 3 (USB2E3373)
Boxcar Smoothing: 0 (USB2E3373)
Correct for Electrical Dark: No (USB2E3373)
Strobe/Lamp Enabled: No (USB2E3373)
Correct for Detector Non-linearity: No (USB2E3373)
Correct for Stray Light: No (USB2E3373)
Number of Pixels in Processed Spectrum: 2048
>>>>>Begin Processed Spectral Data<<<<<
178.53	0.000
178.91	0.000
179.29	50.000
179.67	-50.000
180.04	42.857
180.42	25.000
180.80	-500.000
181.18	-33.333
181.56	-50.000
181.94	50.000
182.31	1700.000
182.69	-240.000
183.07	-233.333
183.45	-80.000
183.83	200.000
184.20	9.091
184.58	122.222
184.96	150.000
185.34	-0.000
185.72	-550.000
186.09	61.538
186.47	-700.000
186.85	100.000
187.23	133.333
187.61	400.000
187.98	-200.000
188.36	22.222
188.74	-166.667
189.12	47.059
189.49	50.000
189.87	0.000
190.25	50.000
190.63	50.000
191.00	33.333
191.38	10.526
191.76	0.000
192.14	125.000
192.51	-50.000
192.89	0.000
193.27	-42.857
193.65	216.667
194.02	154.545
194.40	-40.000
194.78	-75.000
195.15	-66.667
195.53	-62.500
195.91	175.000
196.29	0.000
196.66	76.923
197.04	28.571
197.42	33.333
197.79	-233.333
198.17	-38.462
198.55	1000.000
198.92	-33.333
199.30	300.000
199.68	-40.000
200.05	-133.333
200.43	0.000
200.81	100.000
201.18	-33.333
201.56	600.000
201.94	-150.000
202.31	-0.000
202.69	-440.000
203.07	100.000
203.44	200.000
203.82	0.000
204.19	57.143
204.57	-400.000
204.95	50.000
205.32	30.000
205.70	85.714
206.08	-150.000
206.45	188.889
206.83	0.000
207.20	157.143
207.58	500.000
207.96	-300.000
208.33	-110.000
208.71	-50.000
209.08	-83.333
209.46	-1100.000
209.84	180.000
210.21	-400.000
210.59	14.286
210.96	16.667
211.34	0.000
211.71	33.333
212.09	-14.286
212.46	-1000.000
212.84	0.000
213.22	100.000
213.59	900.000
213.97	61.538
214.34	54.545
214.72	-66.667
215.09	350.000
215.47	30.769
215.84	-45.455
216.22	-66.667
216.59	-62.500
216.97	-300.000
217.34	-25.000
217.72	-120.000
218.09	37.500
218.47	100.000
218.84	-300.000
219.22	-100.000
219.59	160.000
219.97	500.000
220.34	250.000
220.72	28.571
221.09	225.000
221.47	200.000
221.84	-850.000
222.22	-350.000
222.59	-45.455
222.97	8.333
223.34	100.000
223.72	14.286
224.09	9.524
224.46	-3.571
224.84	266.667
225.21	100.000
225.59	40.000
225.96	50.000
226.34	75.000
226.71	-42.857
227.08	-100.000
227.46	0.000
227.83	-350.000
228.21	22.222
228.58	18.182
228.95	0.000
229.33	50.000
229.70	31.250
230.08	-75.000
230.45	0.000
230.82	-28.571
231.20	0.000
231.57	42.857
231.95	28.571
232.32	0.000
232.69	-14.286
233.07	100.000
233.44	20.000
233.81	-20.000
234.19	-11.111
234.56	-11.765
234.93	-300.000
235.31	50.000
235.68	80.000
236.05	30.769
236.43	5.000
236.80	5.882
237.17	25.000
237.55	20.000
237.92	22.222
238.29	52.778
238.67	53.333
239.04	23.529
239.41	4.878
239.79	30.000
240.16	26.829
240.53	47.368
240.91	26.087
241.28	44.444
241.65	32.143
242.02	39.726
242.40	41.667
242.77	25.424
243.14	37.879
243.51	45.000
243.89	57.471
244.26	27.586
244.63	44.048
245.00	43.299
245.38	37.113
245.75	43.820
246.12	31.897
246.49	37.190
246.87	35.577
247.24	36.975
247.61	35.088
247.98	39.837
248.36	35.000
248.73	42.763
249.10	29.870
249.47	43.671
249.84	43.791
250.22	39.412
250.59	41.176
250.96	44.131
251.33	38.953
251.70	48.824
252.08	43.147
252.45	43.069
252.82	45.729
253.19	41.475
253.56	39.720
253.94	45.495
254.31	44.783
254.68	42.544
255.05	36.614
255.42	48.035
255.79	42.085
256.16	43.969
256.54	43.284
256.91	41.825
257.28	39.033
257.65	39.326
258.02	39.007
258.39	41.751
258.76	43.590
259.14	44.850
259.51	42.071
259.88	40.550
260.25	43.464
260.62	44.444
260.99	43.051
261.36	39.384
261.73	41.772
262.10	46.201
262.47	40.798
262.85	38.871
263.22	43.385
263.59	44.548
263.96	41.925
264.33	46.061
264.70	43.750
265.07	41.369
265.44	42.210
265.81	41.808
266.18	42.623
266.55	41.388
266.92	44.819
267.29	40.992
267.66	40.409
268.03	42.147
268.40	43.342
268.77	45.187
269.14	42.206
269.51	43.445
269.88	42.893
270.25	41.582
270.62	41.707
270.99	41.432
271.36	40.587
271.73	43.897
272.10	41.119
272.47	43.735
272.84	41.337
273.21	44.316
273.58	42.169
273.95	41.419
274.32	42.956
274.69	38.235
275.06	41.741
275.43	40.363
275.80	41.280
276.17	42.299
276.54	40.043
276.91	43.860
277.28	39.956
277.65	40.496
278.02	40.638
278.39	41.575
278.76	38.365
279.13	36.722
279.50	41.176
279.87	41.901
280.23	40.000
280.60	38.986
280.97	42.020
281.34	38.846
281.71	40.862
282.08	36.810
282.45	38.356
282.82	37.066
283.19	37.524
283.56	37.572
283.92	37.761
284.29	37.115
284.66	42.054
285.03	39.293
285.40	40.076
285.77	36.380
286.14	36.823
286.51	38.561
286.87	36.746
287.24	38.306
287.61	35.979
287.98	36.316
288.35	35.529
288.72	38.529
289.08	35.069
289.45	37.083
289.82	36.538
290.19	35.836
290.56	35.506
290.93	35.354
291.29	33.436
291.66	36.535
292.03	33.652
292.40	34.194
292.77	32.695
293.13	31.818
293.50	32.625
293.87	32.061
294.24	32.303
294.60	32.489
294.97	31.994
295.34	31.902
295.71	30.849
296.08	30.344
296.44	28.734
296.81	31.250
297.18	30.000
297.55	30.217
297.91	30.548
298.28	31.398
298.65	28.358
299.02	27.628
299.38	26.539
299.75	28.690
300.12	30.366
300.48	27.931
300.85	26.109
301.22	27.792
301.59	28.158
301.95	29.494
302.32	27.886
302.69	28.234
303.05	28.218
303.42	27.273
303.79	28.505
304.15	29.749
304.52	28.181
304.89	27.602
305.25	27.845
305.62	25.321
305.99	26.901
306.35	26.936
306.72	26.547
307.09	27.822
307.45	29.277
307.82	26.157
308.19	28.455
308.55	26.609
308.92	29.194
309.29	27.933
309.65	27.018
310.02	26.623
310.38	27.881
310.75	28.634
311.12	29.064
311.48	27.147
311.85	27.435
312.22	27.110
312.58	28.556
312.95	27.001
313.31	28.261
313.68	28.901
314.05	27.857
314.41	29.175
314.78	29.794
315.14	28.880
315.51	29.296
315.87	30.123
316.24	30.233
316.61	30.315
316.97	30.754
317.34	30.371
317.70	32.218
318.07	30.481
318.43	31.667
318.80	32.008
319.16	32.910
319.53	32.004
319.89	33.465
320.26	32.389
320.62	34.905
320.99	33.299
321.35	35.355
321.72	36.345
322.08	37.160
322.45	39.289
322.81	38.802
323.18	40.236
323.54	38.610
323.91	39.630
324.27	40.723
324.64	41.573
325.00	40.785
325.37	43.251
325.73	41.976
326.10	42.779
326.46	44.933
326.83	45.932
327.19	45.336
327.56	46.655
327.92	49.472
328.29	48.036
328.65	49.528
329.01	49.265
329.38	49.493
329.74	49.197
330.11	50.139
330.47	51.670
330.84	51.250
331.20	53.802
331.56	51.574
331.93	51.872
332.29	52.887
332.66	51.855
333.02	53.625
333.38	52.796
333.75	53.755
334.11	51.656
334.48	54.760
334.84	53.480
335.20	56.359
335.57	53.672
335.93	54.923
336.29	53.683
336.66	55.586
337.02	56.784
337.38	55.556
337.75	55.455
338.11	56.087
338.47	56.843
338.84	56.192
339.20	55.759
339.56	56.606
339.93	55.864
340.29	56.422
340.65	56.989
341.02	57.890
341.38	56.460
341.74	57.155
342.11	56.239
342.47	59.431
342.83	58.651
343.20	58.014
343.56	58.870
343.92	58.370
344.28	58.155
344.65	58.377
345.01	58.686
345.37	58.621
345.73	58.326
346.10	57.808
346.46	58.537
346.82	58.101
347.19	56.525
347.55	59.900
347.91	59.223
348.27	59.499
348.63	59.455
349.00	58.737
349.36	60.682
349.72	61.194
350.08	60.082
350.45	59.936
350.81	59.136
351.17	59.935
351.53	59.755
351.89	58.216
352.26	59.200
352.62	60.242
352.98	59.277
353.34	59.662
353.70	60.841
354.07	59.274
354.43	58.847
354.79	61.107
355.15	59.683
355.51	59.889
355.87	59.871
356.24	58.891
356.60	60.792
356.96	59.524
357.32	58.706
357.68	60.047
358.04	60.178
358.40	60.531
358.77	61.563
359.13	60.448
359.49	60.169
359.85	60.218
360.21	61.643
360.57	59.755
360.93	61.422
361.29	59.819
361.66	60.972
362.02	62.576
362.38	61.310
362.74	61.998
363.10	62.002
363.46	63.454
363.82	61.983
364.18	61.033
364.54	60.515
364.90	58.925
365.26	61.572
365.62	61.460
365.98	62.390
366.35	62.637
366.71	62.749
367.07	61.611
367.43	62.185
367.79	61.343
368.15	60.517
368.51	62.127
368.87	61.522
369.23	62.671
369.59	62.682
369.95	62.903
370.31	64.234
370.67	61.940
371.03	59.671
371.39	61.926
371.75	61.685
372.11	63.124
372.47	62.500
372.83	61.959
373.19	62.268
373.55	62.094
373.91	61.483
374.27	63.218
374.63	63.963
374.99	63.475
375.35	63.579
375.71	63.287
376.07	63.272
376.42	62.585
376.78	62.617
377.14	62.762
377.50	62.815
377.86	63.922
378.22	62.348
378.58	63.910
378.94	62.508
379.30	63.381
379.66	63.386
380.02	61.925
380.38	62.386
380.74	62.418
381.09	65.153
381.45	63.914
381.81	63.541
382.17	63.515
382.53	63.773
382.89	64.218
383.25	64.717
383.61	64.939
383.97	62.921
384.32	62.539
384.68	64.396
385.04	63.480
385.40	63.037
385.76	63.396
386.12	65.006
386.48	65.326
386.83	63.855
387.19	64.408
387.55	65.558
387.91	62.836
388.27	62.210
388.62	64.758
388.98	62.124
389.34	63.335
389.70	64.823
390.06	64.128
390.42	62.953
390.77	65.010
391.13	62.673
391.49	65.330
391.85	65.107
392.20	62.272
392.56	64.018
392.92	63.124
393.28	63.443
393.64	63.964
393.99	64.326
394.35	63.631
394.71	63.921
395.07	62.162
395.42	62.295
395.78	63.583
396.14	63.556
396.50	64.997
396.85	63.039
397.21	63.471
397.57	62.445
397.92	62.313
398.28	62.126
398.64	60.663
399.00	63.262
399.35	62.302
399.71	62.033
400.07	64.329
400.42	62.607
400.78	63.074
401.14	60.678
401.49	62.180
401.85	62.096
402.21	61.807
402.57	63.188
402.92	61.418
403.28	63.158
403.63	61.980
403.99	62.755
404.35	61.711
404.70	60.595
405.06	60.517
405.42	60.659
405.77	61.766
406.13	61.059
406.49	60.450
406.84	61.064
407.20	62.011
407.55	61.108
407.91	60.695
408.27	58.891
408.62	60.738
408.98	59.211
409.34	61.338
409.69	59.755
410.05	59.667
410.40	59.383
410.76	59.349
411.11	60.312
411.47	60.092
411.83	60.766
412.18	60.232
412.54	59.301
412.89	58.559
413.25	59.928
413.60	59.627
413.96	58.160
414.31	59.512
414.67	58.563
415.03	57.923
415.38	58.616
415.74	58.436
416.09	59.438
416.45	58.677
416.80	57.237
417.16	59.254
417.51	58.095
417.87	57.366
418.22	59.391
418.58	58.930
418.93	59.498
419.29	56.082
419.64	59.106
420.00	57.368
420.35	57.672
420.71	58.505
421.06	58.011
421.42	56.911
421.77	57.052
422.12	57.151
422.48	57.336
422.83	56.381
423.19	56.659
423.54	57.731
423.90	56.184
424.25	58.094
424.61	57.772
424.96	56.272
425.31	57.135
425.67	57.160
426.02	57.597
426.38	55.917
426.73	57.990
427.09	58.038
427.44	56.647
427.79	56.983
428.15	56.371
428.50	57.117
428.85	56.450
429.21	55.122
429.56	57.305
429.92	54.905
430.27	53.734
430.62	54.104
430.98	54.830
431.33	55.468
431.68	55.154
432.04	55.003
432.39	53.851
432.74	53.758
433.10	56.494
433.45	54.600
433.80	54.382
434.16	54.515
434.51	54.086
434.86	55.575
435.22	54.795
435.57	54.024
435.92	54.371
436.28	53.906
436.63	53.223
436.98	53.187
437.34	53.358
437.69	54.919
438.04	53.732
438.39	52.841
438.75	54.645
439.10	53.367
439.45	53.987
439.81	53.823
440.16	55.463
440.51	53.672
440.86	54.743
441.22	52.715
441.57	53.091
441.92	53.725
442.27	54.047
442.63	53.694
442.98	53.475
443.33	51.809
443.68	51.989
444.03	52.409
444.39	52.287
444.74	52.731
445.09	53.675
445.44	52.877
445.79	53.687
446.15	51.762
446.50	51.747
446.85	52.179
447.20	53.128
447.55	52.344
447.91	52.905
448.26	52.419
448.61	52.677
448.96	52.553
449.31	51.387
449.66	51.800
450.02	51.911
450.37	51.393
450.72	51.031
451.07	52.215
451.42	51.436
451.77	51.236
452.12	49.940
452.47	50.676
452.83	50.177
453.18	50.411
453.53	52.023
453.88	51.670
454.23	49.170
454.58	51.008
454.93	51.675
455.28	48.571
455.63	50.651
455.98	50.812
456.34	50.000
456.69	50.635
457.04	50.662
457.39	50.668
457.74	49.516
458.09	49.382
458.44	48.917
458.79	49.244
459.14	49.485
459.49	49.731
459.84	49.408
460.19	49.697
460.54	48.961
460.89	49.886
461.24	49.752
461.59	48.397
461.94	48.679
462.29	49.879
462.64	49.900
462.99	49.831
463.34	48.401
463.69	47.490
464.04	48.850
464.39	47.968
464.74	47.362
465.09	49.283
465.44	48.009
465.79	46.429
466.14	48.803
466.49	47.269
466.84	47.472
467.19	47.434
467.54	47.382
467.89	46.936
468.24	46.594
468.59	48.254
468.94	46.286
469.29	46.820
469.64	47.847
469.99	47.863
470.34	44.983
470.68	46.234
471.03	46.214
471.38	46.933
471.73	46.499
472.08	46.608
472.43	46.577
472.78	45.305
473.13	46.054
473.48	45.798
473.83	45.890
474.17	45.207
474.52	44.544
474.87	45.818
475.22	45.088
475.57	46.245
475.92	44.926
476.27	45.111
476.61	45.370
476.96	44.395
477.31	45.592
477.66	45.169
478.01	45.199
478.36	43.519
478.70	45.079
479.05	44.725
479.40	45.946
479.75	43.170
480.10	41.987
480.45	43.600
480.79	45.670
481.14	45.082
481.49	44.236
481.84	43.388
482.19	43.826
482.53	44.365
482.88	43.103
483.23	43.522
483.58	43.113
483.92	43.320
484.27	42.343
484.62	43.209
484.97	43.242
485.31	41.438
485.66	40.059
486.01	40.797
486.36	40.661
486.70	41.712
487.05	42.752
487.40	41.856
487.75	41.746
488.09	42.398
488.44	42.813
488.79	42.996
489.13	43.069
489.48	42.454
489.83	42.018
490.17	41.303
490.52	41.016
490.87	41.509
491.22	41.834
491.56	41.556
491.91	40.010
492.26	42.100
492.60	40.307
492.95	41.515
493.30	40.840
493.64	41.356
493.99	40.918
494.34	41.068
494.68	41.048
495.03	39.075
495.37	41.217
495.72	41.191
496.07	40.829
496.41	40.377
496.76	40.304
497.11	39.916
497.45	39.905
497.80	41.221
498.14	40.238
498.49	40.376
498.84	40.220
499.18	39.608
499.53	40.278
499.87	39.056
500.22	39.862
500.56	40.141
500.91	39.408
501.26	38.754
501.60	39.105
501.95	38.865
502.29	39.564
502.64	38.610
502.98	38.579
503.33	39.049
503.67	38.024
504.02	39.687
504.36	39.189
504.71	39.293
505.06	38.601
505.40	38.883
505.75	38.814
506.09	38.571
506.44	37.988
506.78	38.878
507.13	38.314
507.47	37.702
507.82	38.462
508.16	38.933
508.51	38.090
508.85	38.148
509.19	37.733
509.54	38.499
509.88	36.893
510.23	38.085
510.57	37.039
510.92	36.194
511.26	37.261
511.61	38.614
511.95	38.247
512.30	37.916
512.64	36.895
512.98	37.002
513.33	37.997
513.67	36.669
514.02	38.272
514.36	37.714
514.70	38.403
515.05	37.897
515.39	37.367
515.74	38.623
516.08	38.075
516.42	37.515
516.77	36.864
517.11	36.855
517.46	37.223
517.80	36.472
518.14	36.007
518.49	36.719
518.83	37.485
519.17	35.597
519.52	36.530
519.86	36.615
520.20	36.452
520.55	35.960
520.89	36.888
521.23	36.225
521.58	36.972
521.92	36.410
522.26	37.020
522.61	36.753
522.95	36.954
523.29	35.959
523.64	35.070
523.98	36.358
524.32	35.116
524.66	36.812
525.01	36.299
525.35	35.710
525.69	35.286
526.04	34.722
526.38	36.316
526.72	33.421
527.06	35.798
527.41	34.894
527.75	34.853
528.09	35.880
528.43	35.449
528.78	35.314
529.12	36.065
529.46	34.568
529.80	35.782
530.15	36.766
530.49	35.421
530.83	35.226
531.17	35.326
531.51	35.773
531.86	34.126
532.20	35.351
532.54	34.717
532.88	34.908
533.22	36.022
533.57	34.010
533.91	34.465
534.25	34.766
534.59	34.317
534.93	34.047
535.27	33.629
535.62	33.377
535.96	34.181
536.30	33.707
536.64	34.873
536.98	33.449
537.32	34.566
537.66	34.502
538.01	35.245
538.35	33.356
538.69	32.889
539.03	32.809
539.37	34.724
539.71	33.674
540.05	32.858
540.39	33.587
540.73	33.333
541.07	34.738
541.42	33.737
541.76	34.205
542.10	32.416
542.44	34.121
542.78	33.104
543.12	32.761
543.46	33.241
543.80	33.518
544.14	32.510
544.48	32.445
544.82	33.630
545.16	32.855
545.50	33.311
545.84	32.790
546.18	34.043
546.52	33.453
546.86	33.142
547.20	32.690
547.54	31.307
547.88	33.152
548.22	32.347
548.56	33.113
548.90	32.749
549.24	32.507
549.58	32.793
549.92	31.451
550.26	33.260
550.60	32.639
550.94	32.636
551.28	33.230
551.62	33.308
551.96	32.256
552.30	31.652
552.64	32.158
552.98	31.997
553.32	33.381
553.66	31.422
554.00	32.701
554.34	32.644
554.68	32.375
555.02	32.664
555.36	31.788
555.69	31.355
556.03	31.335
556.37	30.890
556.71	31.191
557.05	31.767
557.39	31.970
557.73	31.409
558.07	32.051
558.41	31.470
558.75	31.878
559.08	31.994
559.42	32.143
559.76	31.785
560.10	31.269
560.44	31.050
560.78	31.259
561.12	30.959
561.45	31.061
561.79	32.143
562.13	30.589
562.47	31.439
562.81	32.421
563.15	30.395
563.48	32.390
563.82	31.984
564.16	32.591
564.50	30.203
564.84	31.459
565.17	31.254
565.51	31.284
565.85	31.207
566.19	31.300
566.52	31.635
566.86	31.491
567.20	29.826
567.54	29.927
567.88	31.166
568.21	31.561
568.55	30.978
568.89	30.544
569.23	31.006
569.56	30.429
569.90	30.857
570.24	29.736
570.57	30.545
570.91	31.230
571.25	30.319
571.59	30.115
571.92	29.926
572.26	29.861
572.60	30.450
572.93	30.499
573.27	29.875
573.61	29.803
573.95	29.956
574.28	29.926
574.62	29.087
574.96	29.943
575.29	29.480
575.63	29.153
575.97	29.602
576.30	29.547
576.64	29.219
576.98	29.241
577.31	29.786
577.65	29.771
577.98	29.945
578.32	29.635
578.66	28.519
578.99	29.621
579.33	29.103
579.67	29.775
580.00	30.253
580.34	29.478
580.67	29.525
581.01	29.995
581.35	28.704
581.68	29.207
582.02	28.262
582.35	28.877
582.69	29.684
583.02	29.225
583.36	29.643
583.70	30.348
584.03	30.442
584.37	30.576
584.70	29.890
585.04	29.249
585.37	28.894
585.71	28.684
586.04	28.719
586.38	29.288
586.72	29.125
587.05	29.896
587.39	29.718
587.72	29.661
588.06	29.698
588.39	29.991
588.73	29.548
589.06	29.909
589.40	29.934
589.73	30.376
590.07	30.098
590.40	29.954
590.73	30.807
591.07	29.559
591.40	29.475
591.74	29.457
592.07	29.406
592.41	29.417
592.74	29.032
593.08	28.082
593.41	28.171
593.75	28.557
594.08	29.077
594.41	29.658
594.75	28.702
595.08	28.604
595.42	28.819
595.75	29.027
596.09	29.242
596.42	28.524
596.75	29.618
597.09	29.203
597.42	28.546
597.75	28.722
598.09	28.791
598.42	28.204
598.76	28.571
599.09	28.325
599.42	27.814
599.76	28.781
600.09	28.243
600.42	28.241
600.76	28.195
601.09	27.939
601.42	27.889
601.76	28.900
602.09	28.342
602.42	28.770
602.76	28.396
603.09	28.447
603.42	28.637
603.76	27.742
604.09	27.744
604.42	28.469
604.76	28.749
605.09	28.428
605.42	27.901
605.75	28.284
606.09	27.856
606.42	27.398
606.75	28.485
607.09	28.835
607.42	27.647
607.75	27.176
608.08	27.898
608.42	27.227
608.75	29.157
609.08	28.500
609.41	28.528
609.75	27.974
610.08	28.507
610.41	26.957
610.74	28.328
611.07	28.786
611.41	27.504
611.74	28.358
612.07	27.944
612.40	28.118
612.73	28.475
613.07	28.009
613.40	28.446
613.73	27.700
614.06	27.880
614.39	28.032
614.72	27.507
615.06	28.045
615.39	27.402
615.72	27.018
616.05	28.156
616.38	26.952
616.71	28.073
617.05	27.610
617.38	28.033
617.71	27.862
618.04	28.762
618.37	28.184
618.70	28.911
619.03	28.750
619.36	27.931
619.69	28.279
620.03	27.538
620.36	28.469
620.69	28.194
621.02	27.446
621.35	28.548
621.68	29.592
622.01	28.167
622.34	28.492
622.67	28.707
623.00	26.876
623.33	27.668
623.66	28.272
623.99	27.231
624.32	28.745
624.65	26.767
624.99	26.862
625.32	27.369
625.65	28.594
625.98	28.284
626.31	27.515
626.64	28.510
626.97	29.668
627.30	28.459
627.63	28.336
627.96	27.583
628.29	28.307
628.62	27.040
628.95	28.657
629.28	26.714
629.61	26.820
629.94	28.837
630.26	25.889
630.59	28.616
630.92	28.821
631.25	27.487
631.58	28.194
631.91	26.974
632.24	25.688
632.57	27.727
632.90	27.284
633.23	27.294
633.56	27.204
633.89	27.990
634.22	28.148
