SpectraSuite Data File
++++++++++++++++++++++++++++++++++++
Date: Fri May 15 20:29:32 PDT 2015
User: schluterlab
Dark Spectrum Present: Yes
Reference Spectrum Present: Yes
Number of Sampled Component Spectra: 1
Spectrometers: USB2E3373
Integration Time (usec): 3000 (USB2E3373)
Spectra Averaged: 3 (USB2E3373)
Boxcar Smoothing: 0 (USB2E3373)
Correct for Electrical Dark: No (USB2E3373)
Strobe/Lamp Enabled: No (USB2E3373)
Correct for Detector Non-linearity: No (USB2E3373)
Correct for Stray Light: No (USB2E3373)
Number of Pixels in Processed Spectrum: 2048
>>>>>Begin Processed Spectral Data<<<<<
178.53	0.000
178.91	0.000
179.29	-50.000
179.67	-350.000
180.04	-42.857
180.42	-125.000
180.80	-400.000
181.18	266.667
181.56	100.000
181.94	200.000
182.31	400.000
182.69	-80.000
183.07	-566.667
183.45	-220.000
183.83	66.667
184.20	-36.364
184.58	144.444
184.96	75.000
185.34	-200.000
185.72	-600.000
186.09	69.231
186.47	-1400.000
186.85	-16.667
187.23	233.333
187.61	300.000
187.98	-500.000
188.36	11.111
188.74	-233.333
189.12	5.882
189.49	-16.667
189.87	0.000
190.25	7.143
190.63	100.000
191.00	-266.667
191.38	-5.263
191.76	100.000
192.14	-50.000
192.51	-100.000
192.89	33.333
193.27	14.286
193.65	116.667
194.02	81.818
194.40	20.000
194.78	-112.500
195.15	0.000
195.53	-125.000
195.91	275.000
196.29	-300.000
196.66	61.538
197.04	128.571
197.42	88.889
197.79	-166.667
198.17	-92.308
198.55	1400.000
198.92	-333.333
199.30	-200.000
199.68	-180.000
200.05	-433.333
200.43	0.000
200.81	-233.333
201.18	0.000
201.56	800.000
201.94	-250.000
202.31	-100.000
202.69	-240.000
203.07	100.000
203.44	1000.000
203.82	0.000
204.19	-14.286
204.57	-700.000
204.95	50.000
205.32	30.000
205.70	-57.143
206.08	-125.000
206.45	111.111
206.83	100.000
207.20	-100.000
207.58	1000.000
207.96	-266.667
208.33	-140.000
208.71	-200.000
209.08	-283.333
209.46	-800.000
209.84	20.000
210.21	-800.000
210.59	-85.714
210.96	-116.667
211.34	0.000
211.71	53.333
212.09	-128.571
212.46	-2000.000
212.84	0.000
213.22	80.000
213.59	800.000
213.97	-15.385
214.34	0.000
214.72	-183.333
215.09	400.000
215.47	0.000
215.84	-127.273
216.22	33.333
216.59	12.500
216.97	-300.000
217.34	-125.000
217.72	-20.000
218.09	-87.500
218.47	187.500
218.84	-200.000
219.22	-77.778
219.59	-20.000
219.97	500.000
220.34	-0.000
220.72	-28.571
221.09	-150.000
221.47	350.000
221.84	-300.000
222.22	-450.000
222.59	109.091
222.97	100.000
223.34	-166.667
223.72	-42.857
224.09	-47.619
224.46	21.429
224.84	433.333
225.21	-20.000
225.59	-73.333
225.96	-250.000
226.34	325.000
226.71	-85.714
227.08	-116.667
227.46	-37.500
227.83	-700.000
228.21	-11.111
228.58	-36.364
228.95	-50.000
229.33	170.000
229.70	50.000
230.08	-75.000
230.45	-100.000
230.82	-14.286
231.20	-73.333
231.57	42.857
231.95	-100.000
232.32	-70.000
232.69	64.286
233.07	66.667
233.44	-100.000
233.81	-100.000
234.19	11.111
234.56	41.176
234.93	250.000
235.31	325.000
235.68	0.000
236.05	0.000
236.43	-20.000
236.80	76.471
237.17	12.500
237.55	65.000
237.92	-29.630
238.29	-8.333
238.67	20.000
239.04	23.529
239.41	-24.390
239.79	40.000
240.16	34.146
240.53	31.579
240.91	26.087
241.28	14.286
241.65	17.857
242.02	31.507
242.40	23.333
242.77	23.729
243.14	15.152
243.51	15.000
243.89	48.276
244.26	24.138
244.63	28.571
245.00	24.742
245.38	35.052
245.75	23.596
246.12	31.897
246.49	30.579
246.87	36.538
247.24	29.412
247.61	34.211
247.98	32.520
248.36	33.125
248.73	34.211
249.10	25.325
249.47	24.051
249.84	37.908
250.22	33.529
250.59	30.065
250.96	32.394
251.33	27.907
251.70	35.882
252.08	33.503
252.45	29.703
252.82	36.683
253.19	29.954
253.56	32.243
253.94	36.486
254.31	30.435
254.68	34.211
255.05	29.528
255.42	32.314
255.79	35.907
256.16	37.743
256.54	32.836
256.91	31.559
257.28	32.714
257.65	33.708
258.02	32.270
258.39	35.354
258.76	35.165
259.14	36.877
259.51	27.508
259.88	32.646
260.25	30.392
260.62	36.458
260.99	32.203
261.36	33.562
261.73	30.696
262.10	34.954
262.47	31.595
262.85	31.661
263.22	33.538
263.59	34.268
263.96	38.199
264.33	36.970
264.70	34.821
265.07	28.571
265.44	32.011
265.81	35.593
266.18	33.060
266.55	33.676
266.92	36.010
267.29	34.726
267.66	33.760
268.03	34.817
268.40	33.420
268.77	34.225
269.14	32.374
269.51	34.961
269.88	35.411
270.25	30.612
270.62	30.732
270.99	33.504
271.36	32.763
271.73	35.446
272.10	31.630
272.47	33.806
272.84	35.644
273.21	33.411
273.58	34.458
273.95	31.121
274.32	30.254
274.69	31.674
275.06	33.259
275.43	31.066
275.80	29.360
276.17	30.345
276.54	30.621
276.91	32.895
277.28	31.878
277.65	32.645
278.02	30.638
278.39	33.698
278.76	31.656
279.13	30.083
279.50	34.244
279.87	31.965
280.23	30.753
280.60	31.774
280.97	31.717
281.34	31.731
281.71	31.006
282.08	29.039
282.45	30.528
282.82	31.660
283.19	34.236
283.56	31.792
283.92	32.448
284.29	31.154
284.66	33.333
285.03	30.059
285.40	31.947
285.77	30.756
286.14	30.144
286.51	33.764
286.87	28.702
287.24	30.018
287.61	31.041
287.98	30.877
288.35	28.076
288.72	31.173
289.08	27.951
289.45	29.525
289.82	28.497
290.19	28.840
290.56	28.473
290.93	26.768
291.29	28.043
291.66	28.189
292.03	28.389
292.40	27.258
292.77	28.389
293.13	25.812
293.50	25.341
293.87	27.328
294.24	27.202
294.60	24.292
294.97	26.488
295.34	27.147
295.71	24.441
296.08	26.158
296.44	24.609
296.81	23.611
297.18	25.942
297.55	26.152
297.91	23.836
298.28	25.462
298.65	22.931
299.02	24.124
299.38	22.709
299.75	23.586
300.12	23.953
300.48	24.111
300.85	24.081
301.22	22.727
301.59	23.553
301.95	24.810
302.32	24.643
302.69	21.891
303.05	22.649
303.42	22.665
303.79	23.598
304.15	23.178
304.52	21.403
304.89	21.988
305.25	22.155
305.62	22.287
305.99	21.754
306.35	22.428
306.72	21.147
307.09	22.235
307.45	21.699
307.82	21.528
308.19	22.880
308.55	21.374
308.92	21.242
309.29	22.235
309.65	19.268
310.02	20.902
310.38	21.186
310.75	21.639
311.12	20.667
311.48	20.361
311.85	20.628
312.22	21.835
312.58	20.701
312.95	19.530
313.31	21.636
313.68	19.058
314.05	20.612
314.41	20.206
314.78	20.825
315.14	22.713
315.51	21.118
315.87	20.287
316.24	21.739
316.61	21.654
316.97	20.437
317.34	20.605
317.70	21.128
318.07	21.058
318.43	21.176
318.80	19.981
319.16	20.898
319.53	21.747
319.89	21.260
320.26	21.964
320.62	21.966
320.99	19.833
321.35	22.405
321.72	20.561
322.08	21.148
322.45	21.320
322.81	20.236
323.18	19.921
323.54	20.849
323.91	20.058
324.27	21.289
324.64	22.004
325.00	21.442
325.37	21.120
325.73	19.855
326.10	21.798
326.46	22.332
326.83	20.997
327.19	20.227
327.56	21.199
327.92	20.951
328.29	20.179
328.65	21.226
329.01	20.129
329.38	20.645
329.74	19.452
330.11	20.297
330.47	19.666
330.84	19.808
331.20	21.198
331.56	19.352
331.93	20.822
332.29	21.082
332.66	19.910
333.02	20.167
333.38	19.615
333.75	21.612
334.11	19.338
334.48	20.580
334.84	19.963
335.20	19.122
335.57	20.218
335.93	18.970
336.29	20.534
336.66	19.437
337.02	19.238
337.38	19.907
337.75	19.364
338.11	21.100
338.47	20.803
338.84	19.593
339.20	19.470
339.56	20.275
339.93	20.233
340.29	19.725
340.65	20.520
341.02	18.794
341.38	19.558
341.74	18.021
342.11	18.977
342.47	20.552
342.83	18.945
343.20	19.077
343.56	19.130
343.92	19.486
344.28	20.154
344.65	19.257
345.01	19.274
345.37	19.765
345.73	19.331
346.10	19.241
346.46	18.755
346.82	18.576
347.19	18.454
347.55	19.048
347.91	18.285
348.27	18.513
348.63	19.932
349.00	19.278
349.36	18.786
349.72	18.988
350.08	18.770
350.45	19.393
350.81	17.857
351.17	18.485
351.53	19.755
351.89	17.671
352.26	17.520
352.62	20.242
352.98	17.269
353.34	18.680
353.70	20.874
354.07	19.355
354.43	18.575
354.79	18.745
355.15	19.524
355.51	19.225
355.87	18.447
356.24	18.108
356.60	17.866
356.96	18.413
357.32	18.850
357.68	18.139
358.04	17.932
358.40	17.926
358.77	17.703
359.13	19.215
359.49	17.334
359.85	17.941
360.21	17.863
360.57	18.592
360.93	18.533
361.29	17.069
361.66	18.809
362.02	19.394
362.38	18.431
362.74	18.168
363.10	17.682
363.46	18.681
363.82	19.008
364.18	17.417
364.54	17.353
364.90	17.706
365.26	17.904
365.62	19.416
365.98	17.815
366.35	19.155
366.71	17.664
367.07	18.723
367.43	17.757
367.79	18.021
368.15	18.378
368.51	17.480
368.87	17.157
369.23	17.329
369.59	17.566
369.95	17.815
370.31	18.064
370.67	17.313
371.03	17.177
371.39	16.776
371.75	17.216
372.11	17.689
372.47	17.899
372.83	17.246
373.19	18.830
373.55	17.617
373.91	17.495
374.27	18.285
374.63	18.090
374.99	17.801
375.35	18.942
375.71	17.692
376.07	16.573
376.42	17.823
376.78	18.121
377.14	18.348
377.50	17.862
377.86	17.336
378.22	17.294
378.58	18.590
378.94	17.076
379.30	17.342
379.66	17.618
380.02	16.432
380.38	16.616
380.74	16.876
381.09	17.791
381.45	17.003
381.81	16.841
382.17	17.766
382.53	18.176
382.89	17.200
383.25	18.233
383.61	17.866
383.97	17.206
384.32	17.573
384.68	17.152
385.04	16.422
385.40	15.993
385.76	16.604
386.12	18.305
386.48	17.816
386.83	16.931
387.19	16.911
387.55	17.754
387.91	16.809
388.27	16.545
388.62	17.181
388.98	16.636
389.34	17.614
389.70	17.340
390.06	16.614
390.42	17.098
390.77	17.135
391.13	16.583
391.49	17.012
391.85	16.699
392.20	17.765
392.56	16.211
392.92	17.322
393.28	16.745
393.64	16.877
393.99	17.743
394.35	17.331
394.71	16.731
395.07	16.342
395.42	17.001
395.78	17.590
396.14	16.772
396.50	17.311
396.85	17.128
397.21	17.481
397.57	17.429
397.92	17.076
398.28	17.184
398.64	16.867
399.00	17.607
399.35	16.591
399.71	16.772
400.07	16.929
400.42	17.075
400.78	16.779
401.14	16.999
401.49	17.510
401.85	16.819
402.21	17.349
402.57	17.937
402.92	15.872
403.28	17.794
403.63	17.087
403.99	17.156
404.35	18.613
404.70	16.786
405.06	16.216
405.42	16.967
405.77	16.328
406.13	16.938
406.49	16.696
406.84	16.626
407.20	17.219
407.55	16.742
407.91	16.243
408.27	16.635
408.62	18.277
408.98	17.437
409.34	18.092
409.69	17.248
410.05	16.872
410.40	17.284
410.76	17.732
411.11	17.687
411.47	16.700
411.83	16.510
412.18	16.795
412.54	16.542
412.89	17.488
413.25	17.208
413.60	16.770
413.96	16.748
414.31	16.585
414.67	16.677
415.03	17.111
415.38	17.232
415.74	17.850
416.09	17.113
416.45	17.758
416.80	16.523
417.16	17.196
417.51	17.988
417.87	17.666
418.22	17.617
418.58	17.860
418.93	18.558
419.29	16.261
419.64	16.850
420.00	17.695
420.35	17.254
420.71	17.436
421.06	17.127
421.42	17.668
421.77	18.324
422.12	16.742
422.48	17.650
422.83	17.227
423.19	17.607
423.54	16.990
423.90	16.902
424.25	17.049
424.61	17.013
424.96	16.841
425.31	17.678
425.67	16.315
426.02	17.432
426.38	17.846
426.73	17.070
427.09	17.722
427.44	17.235
427.79	17.973
428.15	17.718
428.50	17.020
428.85	17.076
429.21	17.827
429.56	18.275
429.92	17.565
430.27	17.544
430.62	17.146
430.98	17.038
431.33	17.140
431.68	17.582
432.04	18.111
432.39	17.228
432.74	16.897
433.10	17.931
433.45	17.563
433.80	17.237
434.16	17.008
434.51	17.097
434.86	17.015
435.22	17.667
435.57	17.405
435.92	17.545
436.28	17.889
436.63	17.228
436.98	16.976
437.34	17.786
437.69	18.306
438.04	17.037
438.39	16.799
438.75	17.851
439.10	17.431
439.45	17.407
439.81	16.758
440.16	17.755
440.51	18.149
440.86	18.429
441.22	16.968
441.57	18.322
441.92	18.048
442.27	17.239
442.63	18.576
442.98	18.380
443.33	17.585
443.68	17.613
444.03	18.182
444.39	17.806
444.74	18.283
445.09	18.151
445.44	17.265
445.79	18.669
446.15	18.502
446.50	17.360
446.85	17.375
447.20	18.092
447.55	18.304
447.91	17.654
448.26	18.042
448.61	18.653
448.96	18.244
449.31	17.688
449.66	17.654
450.02	17.627
450.37	17.724
450.72	17.411
451.07	18.418
451.42	17.978
451.77	18.385
452.12	17.165
452.47	17.579
452.83	17.256
453.18	18.406
453.53	17.762
453.88	17.547
454.23	17.517
454.58	17.947
454.93	18.879
455.28	17.270
455.63	18.165
455.98	18.821
456.34	18.008
456.69	18.806
457.04	19.030
457.39	17.679
457.74	18.198
458.09	17.069
458.44	17.905
458.79	17.983
459.14	18.535
459.49	18.567
459.84	18.895
460.19	18.993
460.54	17.604
460.89	17.955
461.24	17.826
461.59	18.112
461.94	17.673
462.29	17.612
462.64	19.070
462.99	17.942
463.34	17.455
463.69	17.889
464.04	17.857
464.39	17.890
464.74	17.607
465.09	17.530
465.44	18.061
465.79	17.971
466.14	17.731
466.49	17.711
466.84	18.739
467.19	18.586
467.54	17.369
467.89	18.699
468.24	18.248
468.59	19.302
468.94	18.159
469.29	17.639
469.64	17.498
469.99	18.080
470.34	16.997
470.68	19.463
471.03	19.816
471.38	17.832
471.73	18.417
472.08	17.639
472.43	17.651
472.78	16.929
473.13	19.184
473.48	18.502
473.83	18.991
474.17	18.718
474.52	17.996
474.87	17.879
475.22	18.243
475.57	18.464
475.92	18.376
476.27	18.277
476.61	19.271
476.96	18.126
477.31	17.902
477.66	17.921
478.01	17.238
478.36	17.647
478.70	18.434
479.05	18.681
479.40	18.442
479.75	17.675
480.10	18.740
480.45	18.050
480.79	19.285
481.14	19.211
481.49	18.276
481.84	19.112
482.19	17.961
482.53	18.369
482.88	18.473
483.23	18.522
483.58	18.821
483.92	17.764
484.27	18.368
484.62	18.467
484.97	17.289
485.31	17.666
485.66	18.807
486.01	18.955
486.36	18.678
486.70	19.009
487.05	18.941
487.40	18.459
487.75	18.113
488.09	17.553
488.44	18.226
488.79	18.005
489.13	17.909
489.48	18.127
489.83	17.982
490.17	18.202
490.52	18.568
490.87	17.353
491.22	18.625
491.56	18.074
491.91	18.212
492.26	18.668
492.60	18.426
492.95	19.183
493.30	18.661
493.64	19.450
493.99	18.696
494.34	17.524
494.68	18.143
495.03	17.470
495.37	18.548
495.72	18.425
496.07	18.976
496.41	18.208
496.76	18.240
497.11	17.839
497.45	19.093
497.80	18.416
498.14	18.977
498.49	18.080
498.84	19.012
499.18	18.323
499.53	18.204
499.87	18.093
500.22	18.447
500.56	18.104
500.91	18.273
501.26	17.598
501.60	18.347
501.95	19.020
502.29	18.450
502.64	18.533
502.98	18.500
503.33	17.147
503.67	18.361
504.02	19.062
504.36	19.594
504.71	18.232
505.06	18.520
505.40	18.325
505.75	18.711
506.09	18.601
506.44	18.634
506.78	18.061
507.13	18.304
507.47	17.232
507.82	17.521
508.16	18.384
508.51	19.203
508.85	18.681
509.19	18.361
509.54	18.874
509.88	18.123
510.23	18.289
510.57	19.241
510.92	17.058
511.26	18.331
511.61	19.252
511.95	18.849
512.30	18.958
512.64	18.753
512.98	18.248
513.33	19.194
513.67	18.249
514.02	19.108
514.36	19.429
514.70	19.580
515.05	19.448
515.39	19.185
515.74	19.581
516.08	19.366
516.42	18.905
516.77	19.368
517.11	19.228
517.46	19.390
517.80	19.249
518.14	18.983
518.49	19.231
518.83	18.651
519.17	18.557
519.52	19.183
519.86	19.088
520.20	19.259
520.55	18.699
520.89	19.573
521.23	19.253
521.58	19.621
521.92	19.679
522.26	18.933
522.61	19.805
522.95	19.338
523.29	18.933
523.64	20.203
523.98	20.609
524.32	18.943
524.66	19.334
525.01	20.000
525.35	20.220
525.69	18.721
526.04	19.312
526.38	20.363
526.72	18.116
527.06	19.715
527.41	20.251
527.75	19.437
528.09	19.269
528.43	19.986
528.78	19.934
529.12	20.387
529.46	18.908
529.80	19.506
530.15	20.000
530.49	19.731
530.83	20.246
531.17	20.349
531.51	20.793
531.86	18.967
532.20	19.346
532.54	19.469
532.88	19.849
533.22	20.228
533.57	20.052
533.91	19.843
534.25	20.703
534.59	21.039
534.93	19.950
535.27	18.782
535.62	19.572
535.96	21.070
536.30	21.174
536.64	20.055
536.98	19.512
537.32	20.484
537.66	20.898
538.01	20.629
538.35	19.972
538.69	20.706
539.03	20.232
539.37	20.256
539.71	20.245
540.05	19.348
540.39	20.706
540.73	19.874
541.07	20.028
541.42	20.094
541.76	21.060
542.10	20.096
542.44	20.431
542.78	19.615
543.12	19.643
543.46	21.419
543.80	19.986
544.14	19.693
544.48	20.320
544.82	19.891
545.16	20.560
545.50	21.295
545.84	20.963
546.18	20.993
546.52	20.764
546.86	20.920
547.20	20.601
547.54	19.788
547.88	21.603
548.22	20.644
548.56	21.240
548.90	21.631
549.24	19.421
549.58	21.157
549.92	21.801
550.26	20.952
550.60	20.149
550.94	21.210
551.28	20.943
551.62	20.769
551.96	20.000
552.30	20.395
552.64	20.592
552.98	20.745
553.32	19.544
553.66	21.335
554.00	21.095
554.34	21.123
554.68	20.649
555.02	22.024
555.36	21.316
555.69	20.659
556.03	19.914
556.37	20.712
556.71	21.155
557.05	20.507
557.39	19.926
557.73	20.540
558.07	22.021
558.41	21.363
558.75	21.902
559.08	20.252
559.42	21.190
559.76	21.537
560.10	21.713
560.44	21.072
560.78	20.769
561.12	20.945
561.45	21.715
561.79	20.728
562.13	21.008
562.47	20.072
562.81	21.542
563.15	20.945
563.48	20.792
563.82	21.277
564.16	21.588
564.50	20.203
564.84	21.151
565.17	20.993
565.51	21.721
565.85	20.782
566.19	21.286
566.52	21.247
566.86	21.787
567.20	20.984
567.54	21.168
567.88	21.558
568.21	21.776
568.55	21.304
568.89	21.561
569.23	21.618
569.56	21.541
569.90	22.737
570.24	22.106
570.57	21.964
570.91	22.342
571.25	20.914
571.59	21.613
571.92	20.770
572.26	21.679
572.60	21.860
572.93	20.709
573.27	20.658
573.61	21.152
573.95	21.436
574.28	20.869
574.62	21.637
574.96	21.117
575.29	20.949
575.63	20.912
575.97	20.792
576.30	21.001
576.64	20.530
576.98	21.441
577.31	21.406
577.65	20.940
577.98	21.407
578.32	21.314
578.66	20.739
578.99	20.987
579.33	20.535
579.67	20.490
580.00	21.342
580.34	20.896
580.67	20.153
581.01	21.206
581.35	21.167
581.68	21.630
582.02	21.802
582.35	21.226
582.69	21.426
583.02	21.299
583.36	20.984
583.70	20.846
584.03	20.934
584.37	21.626
584.70	20.769
585.04	20.518
585.37	21.007
585.71	21.353
586.04	20.978
586.38	21.179
586.72	21.463
587.05	21.462
587.39	21.806
587.72	21.569
588.06	21.533
588.39	21.589
588.73	20.849
589.06	22.016
589.40	20.843
589.73	22.015
590.07	21.752
590.40	21.556
590.73	22.323
591.07	21.332
591.40	21.282
591.74	21.538
592.07	21.336
592.41	22.041
592.74	21.904
593.08	21.202
593.41	22.208
593.75	21.753
594.08	21.524
594.41	21.689
594.75	21.565
595.08	21.642
595.42	22.378
595.75	21.029
596.09	21.501
596.42	21.455
596.75	21.004
597.09	21.868
597.42	21.093
597.75	21.438
598.09	21.412
598.42	21.029
598.76	21.193
599.09	21.795
599.42	21.675
599.76	21.068
600.09	21.569
600.42	21.797
600.76	20.951
601.09	21.450
601.42	21.230
601.76	21.596
602.09	21.452
602.42	22.157
602.76	21.944
603.09	21.719
603.42	22.366
603.76	21.613
604.09	21.426
604.42	21.743
604.76	21.851
605.09	21.938
605.42	21.896
605.75	21.716
606.09	21.911
606.42	21.560
606.75	21.818
607.09	21.363
607.42	21.533
607.75	21.092
608.08	21.204
608.42	20.877
608.75	21.880
609.08	21.475
609.41	21.827
609.75	21.522
610.08	21.917
610.41	21.014
610.74	21.112
611.07	21.860
611.41	22.366
611.74	22.495
612.07	21.467
612.40	21.882
612.73	20.904
613.07	21.766
613.40	22.265
613.73	21.377
614.06	21.536
614.39	21.771
614.72	21.345
615.06	21.397
615.39	21.616
615.72	21.421
616.05	21.006
616.38	21.538
616.71	20.979
617.05	22.051
617.38	22.753
617.71	22.075
618.04	22.159
618.37	22.699
618.70	22.112
619.03	21.528
619.36	20.912
619.69	22.365
620.03	22.133
620.36	22.318
620.69	21.485
621.02	21.254
621.35	21.328
621.68	21.259
622.01	22.500
622.34	21.229
622.67	22.397
623.00	22.129
623.33	22.485
623.66	21.391
623.99	22.163
624.32	22.205
624.65	21.203
624.99	22.348
625.32	21.304
625.65	23.016
625.98	22.724
626.31	21.363
626.64	22.444
626.97	22.251
627.30	23.030
627.63	21.924
627.96	21.833
628.29	20.537
628.62	22.321
628.95	20.541
629.28	22.480
629.61	20.937
629.94	22.190
630.26	21.146
630.59	21.644
630.92	21.846
631.25	20.923
631.58	22.797
631.91	20.943
632.24	22.362
632.57	22.045
632.90	21.352
