SpectraSuite Data File
++++++++++++++++++++++++++++++++++++
Date: Fri May 15 20:41:34 PDT 2015
User: schluterlab
Dark Spectrum Present: Yes
Reference Spectrum Present: Yes
Number of Sampled Component Spectra: 1
Spectrometers: USB2E3373
Integration Time (usec): 3000 (USB2E3373)
Spectra Averaged: 3 (USB2E3373)
Boxcar Smoothing: 0 (USB2E3373)
Correct for Electrical Dark: No (USB2E3373)
Strobe/Lamp Enabled: No (USB2E3373)
Correct for Detector Non-linearity: No (USB2E3373)
Correct for Stray Light: No (USB2E3373)
Number of Pixels in Processed Spectrum: 2048
>>>>>Begin Processed Spectral Data<<<<<
178.53	0.000
178.91	0.000
179.29	0.000
179.67	-400.000
180.04	-14.286
180.42	200.000
180.80	-900.000
181.18	-66.667
181.56	350.000
181.94	50.000
182.31	500.000
182.69	-60.000
183.07	-233.333
183.45	40.000
183.83	66.667
184.20	-9.091
184.58	77.778
184.96	50.000
185.34	33.333
185.72	-200.000
186.09	115.385
186.47	-100.000
186.85	133.333
187.23	166.667
187.61	1200.000
187.98	-233.333
188.36	100.000
188.74	33.333
189.12	29.412
189.49	16.667
189.87	0.000
190.25	-28.571
190.63	200.000
191.00	-300.000
191.38	-10.526
191.76	0.000
192.14	-25.000
192.51	350.000
192.89	88.889
193.27	-142.857
193.65	200.000
194.02	154.545
194.40	30.000
194.78	-125.000
195.15	-41.667
195.53	-162.500
195.91	200.000
196.29	-150.000
196.66	92.308
197.04	-0.000
197.42	44.444
197.79	-333.333
198.17	-161.538
198.55	2100.000
198.92	-200.000
199.30	500.000
199.68	20.000
200.05	-300.000
200.43	0.000
200.81	-233.333
201.18	-166.667
201.56	1300.000
201.94	-300.000
202.31	266.667
202.69	-180.000
203.07	225.000
203.44	300.000
203.82	0.000
204.19	0.000
204.57	-466.667
204.95	200.000
205.32	10.000
205.70	157.143
206.08	-250.000
206.45	111.111
206.83	50.000
207.20	-71.429
207.58	-0.000
207.96	-533.333
208.33	-200.000
208.71	-125.000
209.08	-216.667
209.46	-700.000
209.84	0.000
210.21	-1000.000
210.59	42.857
210.96	-50.000
211.34	125.000
211.71	100.000
212.09	-85.714
212.46	-1700.000
212.84	0.000
213.22	0.000
213.59	-200.000
213.97	53.846
214.34	9.091
214.72	-183.333
215.09	475.000
215.47	-23.077
215.84	-63.636
216.22	0.000
216.59	37.500
216.97	-350.000
217.34	-75.000
217.72	-80.000
218.09	-25.000
218.47	100.000
218.84	-1100.000
219.22	-122.222
219.59	-120.000
219.97	400.000
220.34	250.000
220.72	-228.571
221.09	-200.000
221.47	100.000
221.84	-500.000
222.22	-550.000
222.59	0.000
222.97	58.333
223.34	-333.333
223.72	-42.857
224.09	-4.762
224.46	32.143
224.84	733.333
225.21	80.000
225.59	-6.667
225.96	-150.000
226.34	300.000
226.71	0.000
227.08	116.667
227.46	100.000
227.83	-250.000
228.21	-44.444
228.58	45.455
228.95	-12.500
229.33	-60.000
229.70	12.500
230.08	-25.000
230.45	-100.000
230.82	100.000
231.20	-33.333
231.57	-21.429
231.95	28.571
232.32	-50.000
232.69	21.429
233.07	0.000
233.44	-120.000
233.81	-110.000
234.19	111.111
234.56	-23.529
234.93	400.000
235.31	-125.000
235.68	-20.000
236.05	-100.000
236.43	-50.000
236.80	17.647
237.17	28.125
237.55	-55.000
237.92	-11.111
238.29	-22.222
238.67	20.000
239.04	-11.765
239.41	-29.268
239.79	-36.667
240.16	9.756
240.53	-31.579
240.91	-13.043
241.28	4.762
241.65	16.071
242.02	5.479
242.40	-1.667
242.77	-1.695
243.14	-6.061
243.51	8.750
243.89	5.747
244.26	2.299
244.63	1.190
245.00	3.093
245.38	9.278
245.75	-4.494
246.12	-0.862
246.49	0.000
246.87	-5.769
247.24	0.840
247.61	-7.018
247.98	-6.504
248.36	9.375
248.73	0.658
249.10	8.442
249.47	3.797
249.84	3.268
250.22	-0.588
250.59	3.268
250.96	9.859
251.33	-0.581
251.70	2.941
252.08	1.015
252.45	6.436
252.82	-1.508
253.19	4.608
253.56	-7.477
253.94	4.054
254.31	0.870
254.68	4.825
255.05	3.937
255.42	-1.747
255.79	3.475
256.16	1.946
256.54	5.597
256.91	1.521
257.28	3.717
257.65	0.375
258.02	0.709
258.39	7.744
258.76	2.564
259.14	4.983
259.51	4.207
259.88	0.687
260.25	3.268
260.62	1.389
260.99	-0.339
261.36	0.342
261.73	3.797
262.10	5.775
262.47	3.681
262.85	2.821
263.22	4.308
263.59	4.673
263.96	2.174
264.33	1.515
264.70	-2.679
265.07	2.976
265.44	7.649
265.81	4.237
266.18	5.191
266.55	6.170
266.92	2.332
267.29	2.350
267.66	3.325
268.03	5.759
268.40	4.961
268.77	5.348
269.14	6.954
269.51	4.884
269.88	4.239
270.25	2.296
270.62	2.683
270.99	2.302
271.36	0.733
271.73	4.930
272.10	3.163
272.47	3.783
272.84	4.208
273.21	6.497
273.58	1.446
273.95	6.178
274.32	0.231
274.69	2.489
275.06	5.357
275.43	3.401
275.80	2.428
276.17	0.690
276.54	4.497
276.91	2.851
277.28	1.310
277.65	4.959
278.02	2.340
278.39	5.033
278.76	3.145
279.13	0.830
279.50	2.731
279.87	2.808
280.23	2.366
280.60	5.458
280.97	4.242
281.34	1.923
281.71	1.848
282.08	3.885
282.45	3.914
282.82	1.158
283.19	3.288
283.56	4.624
283.92	2.467
284.29	2.115
284.66	2.132
285.03	2.947
285.40	4.159
285.77	4.569
286.14	5.054
286.51	3.137
286.87	3.108
287.24	3.683
287.61	2.822
287.98	5.263
288.35	2.080
288.72	4.904
289.08	1.562
289.45	3.866
289.82	4.196
290.19	2.901
290.56	1.544
290.93	0.505
291.29	3.082
291.66	5.354
292.03	1.754
292.40	2.742
292.77	2.711
293.13	0.649
293.50	1.973
293.87	1.221
294.24	4.637
294.60	3.279
294.97	2.679
295.34	3.221
295.71	2.385
296.08	2.691
296.44	0.711
296.81	2.917
297.18	2.464
297.55	4.607
297.91	3.014
298.28	4.485
298.65	5.156
299.02	1.617
299.38	0.684
299.75	1.793
300.12	1.832
300.48	1.713
300.85	3.169
301.22	3.247
301.59	1.316
301.95	4.051
302.32	3.243
302.69	3.856
303.05	2.723
303.42	2.740
303.79	4.439
304.15	3.106
304.52	2.973
304.89	1.871
305.25	3.390
305.62	2.684
305.99	2.690
306.35	2.197
306.72	2.137
307.09	2.395
307.45	3.789
307.82	1.736
308.19	3.252
308.55	2.617
308.92	4.248
309.29	1.788
309.65	2.906
310.02	2.750
310.38	3.183
310.75	3.607
311.12	3.337
311.48	3.924
311.85	3.770
312.22	3.059
312.58	2.972
312.95	3.629
313.31	4.244
313.68	3.874
314.05	4.286
314.41	5.052
314.78	3.299
315.14	5.550
315.51	6.108
315.87	5.225
316.24	6.775
316.61	6.398
316.97	7.143
317.34	6.738
317.70	6.023
318.07	6.923
318.43	7.549
318.80	8.333
319.16	8.398
319.53	9.022
319.89	8.957
320.26	9.211
320.62	9.428
320.99	9.499
321.35	10.483
321.72	9.865
322.08	11.078
322.45	10.964
322.81	11.788
323.18	13.346
323.54	12.838
323.91	13.048
324.27	14.648
324.64	14.513
325.00	16.606
325.37	15.978
325.73	16.772
326.10	17.620
326.46	17.130
326.83	17.498
327.19	19.180
327.56	18.679
327.92	21.215
328.29	20.982
328.65	21.981
329.01	21.415
329.38	21.843
329.74	22.568
330.11	21.223
330.47	22.078
330.84	23.654
331.20	26.521
331.56	23.611
331.93	23.927
332.29	26.123
332.66	24.525
333.02	25.651
333.38	23.465
333.75	25.916
334.11	26.321
334.48	26.473
334.84	26.557
335.20	27.539
335.57	26.020
335.93	27.191
336.29	28.361
336.66	27.066
337.02	27.045
337.38	27.407
337.75	27.182
338.11	29.486
338.47	29.836
338.84	28.466
339.20	28.154
339.56	28.532
339.93	27.484
340.29	29.541
340.65	27.151
341.02	28.989
341.38	27.788
341.74	28.092
342.11	27.643
342.47	29.270
342.83	29.066
343.20	28.223
343.56	28.957
343.92	28.964
344.28	29.633
344.65	28.670
345.01	28.522
345.37	29.016
345.73	29.958
346.10	31.148
346.46	30.109
346.82	29.705
347.19	28.761
347.55	29.741
347.91	30.663
348.27	28.618
348.63	30.324
349.00	30.107
349.36	29.842
349.72	29.768
350.08	29.918
350.45	30.966
350.81	30.316
351.17	29.642
351.53	30.286
351.89	29.975
352.26	29.680
352.62	30.968
352.98	30.522
353.34	29.952
353.70	31.311
354.07	29.677
354.43	29.223
354.79	29.893
355.15	31.190
355.51	30.775
355.87	30.906
356.24	30.750
356.60	30.719
356.96	31.905
357.32	31.949
357.68	30.336
358.04	31.745
358.40	30.707
358.77	31.100
359.13	30.825
359.49	30.200
359.85	30.577
360.21	32.376
360.57	31.293
360.93	31.619
361.29	30.514
361.66	31.818
362.02	31.136
362.38	32.369
362.74	30.810
363.10	32.581
363.46	31.579
363.82	32.081
364.18	31.292
364.54	30.882
364.90	30.538
365.26	30.640
365.62	32.993
365.98	31.672
366.35	32.556
366.71	32.151
367.07	32.221
367.43	30.769
367.79	31.166
368.15	31.730
368.51	32.921
368.87	31.156
369.23	31.552
369.59	31.268
369.95	31.158
370.31	32.009
370.67	32.687
371.03	31.964
371.39	31.802
371.75	33.187
372.11	31.027
372.47	32.470
372.83	32.079
373.19	31.027
373.55	30.469
373.91	32.829
374.27	32.318
374.63	31.874
374.99	32.270
375.35	31.964
375.71	32.028
376.07	31.390
376.42	30.816
376.78	32.550
377.14	32.837
377.50	31.673
377.86	31.593
378.22	30.887
378.58	31.474
378.94	30.876
379.30	31.503
379.66	30.972
380.02	31.330
380.38	30.615
380.74	31.239
381.09	31.963
381.45	31.621
381.81	30.598
382.17	31.472
382.53	31.230
382.89	31.073
383.25	31.425
383.61	31.402
383.97	30.730
384.32	31.895
384.68	31.827
385.04	31.066
385.40	29.932
385.76	31.950
386.12	31.759
386.48	32.439
386.83	30.755
387.19	31.258
387.55	31.995
387.91	31.418
388.27	31.074
388.62	31.089
388.98	31.246
389.34	30.856
389.70	32.070
390.06	30.334
390.42	30.376
390.77	30.674
391.13	28.878
391.49	31.242
391.85	30.799
392.20	30.069
392.56	30.515
392.92	30.006
393.28	30.601
393.64	30.511
393.99	32.476
394.35	31.689
394.71	31.034
395.07	31.113
395.42	29.630
395.78	30.423
396.14	29.256
396.50	30.818
396.85	29.942
397.21	30.013
397.57	28.840
397.92	30.318
398.28	29.540
398.64	28.855
399.00	30.023
399.35	28.894
399.71	29.294
400.07	29.444
400.42	29.009
400.78	30.190
401.14	29.462
401.49	30.554
401.85	29.921
402.21	28.976
402.57	30.125
402.92	28.984
403.28	29.699
403.63	28.878
403.99	29.401
404.35	29.919
404.70	28.095
405.06	28.085
405.42	28.713
405.77	27.252
406.13	28.754
406.49	29.011
406.84	28.729
407.20	28.958
407.55	28.268
407.91	27.206
408.27	27.916
408.62	28.615
408.98	27.726
409.34	28.129
409.69	27.003
410.05	26.293
410.40	28.333
410.76	27.563
411.11	27.688
411.47	28.205
411.83	27.370
412.18	28.121
412.54	28.215
412.89	27.401
413.25	27.738
413.60	26.894
413.96	26.074
414.31	27.500
414.67	27.197
415.03	25.965
415.38	27.611
415.74	27.883
416.09	27.237
416.45	27.346
416.80	27.231
417.16	28.039
417.51	25.983
417.87	26.076
418.22	26.813
418.58	26.421
418.93	27.649
419.29	25.288
419.64	26.960
420.00	27.771
420.35	26.388
420.71	27.035
421.06	26.028
421.42	26.382
421.77	26.647
422.12	26.163
422.48	26.367
422.83	25.986
423.19	26.129
423.54	24.927
423.90	25.442
424.25	25.947
424.61	27.479
424.96	25.087
425.31	26.170
425.67	26.467
426.02	26.148
426.38	26.738
426.73	26.392
427.09	26.013
427.44	26.412
427.79	27.401
428.15	25.910
428.50	25.500
428.85	25.061
429.21	26.486
429.56	25.606
429.92	24.961
430.27	25.113
430.62	24.569
430.98	26.062
431.33	27.182
431.68	24.856
432.04	25.601
432.39	25.841
432.74	25.075
433.10	25.632
433.45	25.209
433.80	25.827
434.16	24.321
434.51	25.914
434.86	25.494
435.22	25.407
435.57	24.891
435.92	25.449
436.28	25.283
436.63	25.214
436.98	24.623
437.34	24.380
437.69	25.999
438.04	24.672
438.39	24.252
438.75	25.258
439.10	24.958
439.45	24.467
439.81	24.343
440.16	25.000
440.51	25.612
440.86	25.136
441.22	24.604
441.57	24.779
441.92	25.131
442.27	24.723
442.63	25.321
442.98	24.526
443.33	24.040
443.68	24.085
444.03	24.739
444.39	24.939
444.74	26.031
445.09	24.666
445.44	24.387
445.79	25.838
446.15	25.000
446.50	23.627
446.85	24.495
447.20	24.505
447.55	25.112
447.91	24.365
448.26	25.157
448.61	25.446
448.96	24.383
449.31	24.451
449.66	23.810
450.02	23.503
450.37	24.778
450.72	25.029
451.07	24.557
451.42	24.469
451.77	24.774
452.12	24.043
452.47	24.469
452.83	25.442
453.18	24.415
453.53	24.968
453.88	23.983
454.23	24.647
454.58	25.063
454.93	24.742
455.28	23.175
455.63	24.799
455.98	24.233
456.34	23.180
456.69	24.841
457.04	25.079
457.39	24.119
457.74	24.063
458.09	23.131
458.44	23.523
458.79	23.810
459.14	25.114
459.49	24.418
459.84	24.591
460.19	22.755
460.54	24.756
460.89	23.693
461.24	23.851
461.59	23.990
461.94	23.082
462.29	23.583
462.64	23.588
462.99	22.749
463.34	22.601
463.69	23.102
464.04	23.487
464.39	22.923
464.74	22.515
465.09	23.144
465.44	22.504
465.79	22.166
466.14	23.945
466.49	22.772
466.84	23.319
467.19	23.154
467.54	22.031
467.89	22.047
468.24	22.871
468.59	21.968
468.94	22.222
469.29	23.016
469.64	23.103
469.99	23.546
470.34	21.980
470.68	23.415
471.03	23.142
471.38	23.039
471.73	22.269
472.08	21.303
472.43	22.819
472.78	21.247
473.13	22.993
473.48	22.736
473.83	21.856
474.17	22.021
474.52	20.421
474.87	22.061
475.22	21.415
475.57	20.723
475.92	21.887
476.27	21.653
476.61	20.718
476.96	20.970
477.31	21.525
477.66	21.685
478.01	21.056
478.36	21.133
478.70	21.860
479.05	21.319
479.40	20.774
479.75	20.699
480.10	20.635
480.45	20.900
480.79	21.903
481.14	20.850
481.49	20.197
481.84	20.270
482.19	20.299
482.53	20.671
482.88	21.241
483.23	20.393
483.58	21.415
483.92	21.297
484.27	19.371
484.62	19.991
484.97	20.066
485.31	19.725
485.66	19.237
486.01	19.230
486.36	18.962
486.70	19.189
487.05	19.031
487.40	19.623
487.75	19.493
488.09	19.221
488.44	19.945
488.79	20.060
489.13	20.112
489.48	20.180
489.83	19.641
490.17	19.326
490.52	19.630
490.87	18.973
491.22	19.914
491.56	19.355
491.91	19.503
492.26	20.175
492.60	19.002
492.95	20.216
493.30	18.319
493.64	18.959
493.99	19.952
494.34	18.932
494.68	18.905
495.03	19.027
495.37	19.185
495.72	19.536
496.07	19.268
496.41	19.151
496.76	19.116
497.11	18.910
497.45	19.570
497.80	19.173
498.14	18.977
498.49	18.334
498.84	19.162
499.18	18.424
499.53	18.155
499.87	18.337
500.22	18.645
500.56	18.255
500.91	17.821
501.26	18.240
501.60	17.954
501.95	18.001
502.29	18.063
502.64	18.388
502.98	18.007
503.33	18.012
503.67	17.831
504.02	18.426
504.36	18.110
504.71	17.626
505.06	17.916
505.40	17.919
505.75	17.165
506.09	17.739
506.44	18.737
506.78	17.806
507.13	17.373
507.47	16.867
507.82	16.934
508.16	17.433
508.51	17.104
508.85	17.739
509.19	16.871
509.54	17.265
509.88	17.260
510.23	16.945
510.57	17.424
510.92	16.738
511.26	17.403
511.61	17.162
511.95	17.808
512.30	17.572
512.64	17.529
512.98	16.732
513.33	17.180
513.67	16.885
514.02	18.307
514.36	17.943
514.70	18.182
515.05	17.274
515.39	17.414
515.74	17.305
516.08	17.992
516.42	17.903
516.77	17.203
517.11	16.795
517.46	17.056
517.80	17.342
518.14	16.840
518.49	16.226
518.83	16.586
519.17	16.980
519.52	16.696
519.86	16.867
520.20	17.132
520.55	16.886
520.89	17.189
521.23	16.086
521.58	16.909
521.92	16.282
522.26	15.875
522.61	15.519
522.95	16.623
523.29	17.154
523.64	16.963
523.98	16.721
524.32	15.786
524.66	16.325
525.01	17.273
525.35	16.008
525.69	16.296
526.04	14.947
526.38	16.861
526.72	16.285
527.06	16.213
527.41	16.359
527.75	15.483
528.09	15.415
528.43	17.353
528.78	15.842
529.12	15.290
529.46	15.854
529.80	16.023
530.15	16.106
530.49	15.758
530.83	15.937
531.17	15.581
531.51	16.758
531.86	15.772
532.20	15.588
532.54	16.406
532.88	16.290
533.22	15.793
533.57	15.203
533.91	14.360
534.25	15.755
534.59	14.881
534.93	14.537
535.27	14.467
535.62	14.776
535.96	14.808
536.30	15.435
536.64	15.851
536.98	14.774
537.32	15.576
537.66	16.059
538.01	15.874
538.35	14.771
538.69	15.180
539.03	14.354
539.37	15.276
539.71	14.997
540.05	15.750
540.39	15.859
540.73	14.993
541.07	15.124
541.42	15.726
541.76	15.279
542.10	14.659
542.44	14.802
542.78	13.489
543.12	14.423
543.46	14.951
543.80	14.781
544.14	14.085
544.48	15.656
544.82	14.217
545.16	14.139
545.50	14.486
545.84	15.439
546.18	15.532
546.52	14.924
546.86	14.162
547.20	14.664
547.54	13.640
547.88	15.557
548.22	14.004
548.56	14.248
548.90	14.757
549.24	13.912
549.58	14.457
549.92	13.009
550.26	14.212
550.60	13.755
550.94	14.787
551.28	12.133
551.62	14.769
551.96	13.985
552.30	13.743
552.64	13.188
552.98	14.627
553.32	14.622
553.66	13.062
554.00	14.380
554.34	14.106
554.68	13.938
555.02	14.658
555.36	13.239
555.69	13.040
556.03	13.062
556.37	13.665
556.71	13.502
557.05	13.945
557.39	12.491
557.73	14.318
558.07	13.650
558.41	14.701
558.75	14.263
559.08	13.160
559.42	13.492
559.76	14.572
560.10	13.685
560.44	13.105
560.78	13.846
561.12	13.963
561.45	13.422
561.79	12.885
562.13	13.272
562.47	13.094
562.81	12.896
563.15	14.175
563.48	13.508
563.82	13.864
564.16	12.744
564.50	13.514
564.84	13.655
565.17	12.542
565.51	14.071
565.85	12.209
566.19	12.865
566.52	13.606
566.86	13.368
567.20	12.702
567.54	12.530
567.88	12.419
568.21	13.575
568.55	12.065
568.89	13.090
569.23	12.903
569.56	12.916
569.90	12.586
570.24	12.319
570.57	12.182
570.91	12.025
571.25	11.345
571.59	11.398
571.92	11.496
572.26	11.473
572.60	11.411
572.93	11.829
573.27	11.630
573.61	11.456
573.95	11.797
574.28	10.911
574.62	11.187
574.96	11.194
575.29	11.383
575.63	10.961
575.97	10.762
576.30	10.964
576.64	11.258
576.98	10.965
577.31	11.084
577.65	11.032
577.98	11.074
578.32	10.761
578.66	11.047
578.99	10.927
579.33	11.067
579.67	10.825
580.00	11.342
580.34	10.721
580.67	11.177
581.01	10.999
581.35	11.047
581.68	10.943
582.02	10.773
582.35	10.511
582.69	10.596
583.02	10.681
583.36	10.575
583.70	11.371
584.03	11.037
584.37	11.237
584.70	10.907
585.04	10.622
585.37	11.007
585.71	10.713
586.04	10.767
586.38	10.536
586.72	11.133
587.05	10.774
587.39	11.155
587.72	11.017
588.06	10.711
588.39	11.079
588.73	11.172
589.06	11.285
589.40	11.649
589.73	11.099
590.07	11.178
590.40	11.107
590.73	11.161
591.07	10.645
591.40	11.042
591.74	10.950
592.07	11.827
592.41	11.307
592.74	10.753
593.08	10.513
593.41	11.071
593.75	10.435
594.08	11.123
594.41	10.917
594.75	10.611
595.08	10.783
595.42	11.005
595.75	10.702
596.09	10.829
596.42	10.914
596.75	11.101
597.09	11.298
597.42	11.382
597.75	11.361
598.09	10.819
598.42	10.469
598.76	10.553
599.09	10.216
599.42	10.800
599.76	10.421
600.09	10.520
600.42	11.069
600.76	10.773
601.09	10.802
601.42	10.537
601.76	10.441
602.09	10.809
602.42	10.531
602.76	10.314
603.09	11.420
603.42	10.619
603.76	10.242
604.09	10.369
604.42	10.998
604.76	10.992
605.09	10.649
605.42	10.203
605.75	10.814
606.09	10.191
606.42	10.300
606.75	10.909
607.09	10.857
607.42	9.836
607.75	10.480
608.08	10.512
608.42	10.461
608.75	11.036
609.08	10.713
609.41	10.761
609.75	10.937
610.08	11.033
610.41	10.531
610.74	10.580
611.07	10.026
611.41	10.586
611.74	10.928
612.07	10.600
612.40	10.667
612.73	11.073
613.07	9.899
613.40	10.996
613.73	10.800
614.06	10.573
614.39	10.660
614.72	10.644
615.06	10.503
615.39	10.262
615.72	10.334
616.05	11.061
616.38	9.345
616.71	11.009
617.05	10.377
617.38	11.188
617.71	10.755
618.04	10.921
618.37	10.908
618.70	11.155
619.03	12.222
619.36	9.913
619.69	9.856
620.03	10.665
620.36	11.516
620.69	11.349
621.02	10.780
621.35	11.120
621.68	11.139
622.01	9.750
622.34	12.291
622.67	11.435
623.00	11.179
623.33	11.052
623.66	10.022
623.99	11.346
624.32	11.863
624.65	10.602
624.99	11.211
625.32	9.553
625.65	11.548
625.98	10.878
626.31	10.806
626.64	11.612
626.97	13.089
627.30	11.734
627.63	11.785
627.96	11.321
628.29	12.766
628.62	11.603
628.95	11.122
629.28	11.290
629.61	10.768
629.94	13.001
630.26	12.253
630.59	13.215
630.92	12.000
631.25	11.692
631.58	11.454
631.91	10.417
632.24	11.583
632.57	13.409
632.90	10.676
633.23	12.000
633.56	9.950
633.89	9.618
634.22	12.222
634.55	11.436
634.88	11.877
635.20	11.026
635.53	11.733
635.86	10.793
636.19	12.419
636.52	12.117
636.85	10.546
637.18	11.321
637.51	11.824
637.83	11.827
