SpectraSuite Data File
++++++++++++++++++++++++++++++++++++
Date: Fri May 15 21:12:43 PDT 2015
User: schluterlab
Dark Spectrum Present: Yes
Reference Spectrum Present: Yes
Number of Sampled Component Spectra: 1
Spectrometers: USB2E3373
Integration Time (usec): 3000 (USB2E3373)
Spectra Averaged: 3 (USB2E3373)
Boxcar Smoothing: 0 (USB2E3373)
Correct for Electrical Dark: No (USB2E3373)
Strobe/Lamp Enabled: No (USB2E3373)
Correct for Detector Non-linearity: No (USB2E3373)
Correct for Stray Light: No (USB2E3373)
Number of Pixels in Processed Spectrum: 2048
>>>>>Begin Processed Spectral Data<<<<<
178.53	0.000
178.91	0.000
179.29	175.000
179.67	-650.000
180.04	14.286
180.42	125.000
180.80	-800.000
181.18	200.000
181.56	150.000
181.94	0.000
182.31	100.000
182.69	-120.000
183.07	-366.667
183.45	-80.000
183.83	283.333
184.20	-72.727
184.58	233.333
184.96	150.000
185.34	333.333
185.72	-650.000
186.09	123.077
186.47	-1600.000
186.85	166.667
187.23	44.444
187.61	700.000
187.98	-200.000
188.36	11.111
188.74	-233.333
189.12	-11.765
189.49	-16.667
189.87	0.000
190.25	0.000
190.63	-150.000
191.00	-666.667
191.38	0.000
191.76	-50.000
192.14	75.000
192.51	-250.000
192.89	-66.667
193.27	-57.143
193.65	166.667
194.02	200.000
194.40	20.000
194.78	-37.500
195.15	-16.667
195.53	-150.000
195.91	275.000
196.29	-175.000
196.66	107.692
197.04	100.000
197.42	-177.778
197.79	-733.333
198.17	-53.846
198.55	1400.000
198.92	-100.000
199.30	0.000
199.68	40.000
200.05	-300.000
200.43	0.000
200.81	-300.000
201.18	-133.333
201.56	1100.000
201.94	-750.000
202.31	133.333
202.69	-320.000
203.07	175.000
203.44	-200.000
203.82	0.000
204.19	-21.429
204.57	-700.000
204.95	12.500
205.32	-110.000
205.70	-42.857
206.08	150.000
206.45	255.556
206.83	71.429
207.20	-142.857
207.58	1300.000
207.96	-533.333
208.33	0.000
208.71	-350.000
209.08	-266.667
209.46	-900.000
209.84	-220.000
210.21	-1100.000
210.59	-42.857
210.96	-183.333
211.34	-250.000
211.71	-6.667
212.09	-100.000
212.46	-1800.000
212.84	0.000
213.22	10.000
213.59	400.000
213.97	69.231
214.34	-45.455
214.72	-16.667
215.09	675.000
215.47	-15.385
215.84	-90.909
216.22	-500.000
216.59	0.000
216.97	-50.000
217.34	-100.000
217.72	-140.000
218.09	-25.000
218.47	75.000
218.84	-200.000
219.22	-88.889
219.59	-280.000
219.97	200.000
220.34	25.000
220.72	-42.857
221.09	-250.000
221.47	0.000
221.84	-600.000
222.22	-650.000
222.59	0.000
222.97	-8.333
223.34	-233.333
223.72	-28.571
224.09	14.286
224.46	-7.143
224.84	333.333
225.21	-30.000
225.59	26.667
225.96	-550.000
226.34	125.000
226.71	-85.714
227.08	-183.333
227.46	-137.500
227.83	-500.000
228.21	66.667
228.58	63.636
228.95	-112.500
229.33	120.000
229.70	6.250
230.08	25.000
230.45	-114.286
230.82	-42.857
231.20	-46.667
231.57	-28.571
231.95	-142.857
232.32	-60.000
232.69	-35.714
233.07	-300.000
233.44	0.000
233.81	10.000
234.19	-44.444
234.56	-23.529
234.93	450.000
235.31	25.000
235.68	-360.000
236.05	0.000
236.43	-20.000
236.80	17.647
237.17	-6.250
237.55	-45.000
237.92	-7.407
238.29	25.000
238.67	-30.000
239.04	5.882
239.41	-14.634
239.79	-63.333
240.16	-14.634
240.53	-21.053
240.91	-34.783
241.28	-9.524
241.65	1.786
242.02	-8.219
242.40	1.667
242.77	-3.390
243.14	-12.121
243.51	-1.250
243.89	6.897
244.26	-13.793
244.63	1.190
245.00	5.155
245.38	-3.093
245.75	-19.101
246.12	-8.621
246.49	-4.132
246.87	6.731
247.24	2.521
247.61	-8.772
247.98	-4.065
248.36	3.125
248.73	-0.658
249.10	-6.494
249.47	-3.797
249.84	-2.614
250.22	1.176
250.59	-3.922
250.96	6.103
251.33	-9.302
251.70	-0.588
252.08	4.061
252.45	-0.990
252.82	-1.508
253.19	-1.382
253.56	-5.140
253.94	1.351
254.31	1.304
254.68	-0.877
255.05	-1.181
255.42	-5.240
255.79	1.158
256.16	0.778
256.54	4.104
256.91	2.281
257.28	0.372
257.65	-2.247
258.02	-3.546
258.39	2.357
258.76	-0.366
259.14	1.329
259.51	-0.647
259.88	-3.093
260.25	-0.654
260.62	-2.083
260.99	1.356
261.36	-0.685
261.73	0.949
262.10	2.128
262.47	-1.840
262.85	0.000
263.22	0.000
263.59	-0.935
263.96	2.174
264.33	-0.606
264.70	-1.488
265.07	-1.190
265.44	1.700
265.81	0.565
266.18	0.546
266.55	2.571
266.92	2.332
267.29	1.828
267.66	-0.512
268.03	3.927
268.40	1.305
268.77	4.545
269.14	0.000
269.51	2.314
269.88	0.998
270.25	-0.765
270.62	-1.707
270.99	0.767
271.36	-1.956
271.73	2.347
272.10	-1.703
272.47	0.000
272.84	0.990
273.21	5.336
273.58	2.651
273.95	4.577
274.32	-2.771
274.69	-1.131
275.06	3.348
275.43	0.227
275.80	3.091
276.17	-0.230
276.54	1.071
276.91	1.316
277.28	0.655
277.65	1.240
278.02	1.277
278.39	0.219
278.76	-1.048
279.13	-0.830
279.50	1.471
279.87	1.944
280.23	-0.215
280.60	2.534
280.97	0.202
281.34	-0.769
281.71	4.107
282.08	0.204
282.45	-0.196
282.82	-0.386
283.19	0.774
283.56	-1.156
283.92	0.000
284.29	-0.192
284.66	0.388
285.03	0.982
285.40	1.134
285.77	-1.230
286.14	-0.361
286.51	1.661
286.87	0.000
287.24	2.578
287.61	-0.882
287.98	1.404
288.35	1.733
288.72	1.576
289.08	-1.042
289.45	1.230
289.82	3.147
290.19	-0.512
290.56	0.343
290.93	-0.842
291.29	0.924
291.66	1.417
292.03	0.797
292.40	0.161
292.77	1.276
293.13	-1.461
293.50	0.303
293.87	0.916
294.24	1.082
294.60	-0.745
294.97	1.042
295.34	0.460
295.71	0.149
296.08	1.345
296.44	-0.996
296.81	0.972
297.18	0.145
297.55	1.355
297.91	1.370
298.28	1.583
298.65	0.407
299.02	1.078
299.38	-1.642
299.75	0.414
300.12	-0.393
300.48	0.000
300.85	1.521
301.22	-0.130
301.59	0.263
301.95	0.759
302.32	1.427
302.69	1.244
303.05	0.124
303.42	1.245
303.79	1.051
304.15	1.912
304.52	0.119
304.89	-0.351
305.25	0.363
305.62	0.467
305.99	-0.702
306.35	0.578
306.72	0.000
307.09	1.254
307.45	1.148
307.82	0.579
308.19	1.742
308.55	1.636
308.92	1.307
309.29	-0.112
309.65	2.153
310.02	0.440
310.38	2.305
310.75	1.202
311.12	-0.431
311.48	1.273
311.85	0.314
312.22	0.105
312.58	1.486
312.95	1.814
313.31	0.828
313.68	0.838
314.05	0.816
314.41	1.856
314.78	1.649
315.14	1.953
315.51	2.277
315.87	2.459
316.24	3.539
316.61	3.248
316.97	3.472
317.34	4.590
317.70	4.207
318.07	4.808
318.43	4.020
318.80	4.830
319.16	5.664
319.53	5.508
319.89	5.413
320.26	5.972
320.62	7.623
320.99	8.038
321.35	7.708
321.72	9.969
322.08	9.668
322.45	10.254
322.81	11.198
323.18	11.384
323.54	11.680
323.91	13.437
324.27	15.430
324.64	15.824
325.00	15.785
325.37	17.264
325.73	17.135
326.10	19.255
326.46	21.704
326.83	20.297
327.19	22.406
327.56	23.545
327.92	25.000
328.29	22.589
328.65	26.792
329.01	25.827
329.38	27.742
329.74	26.440
330.11	29.194
330.47	28.664
330.84	29.904
331.20	33.650
331.56	30.185
331.93	32.055
332.29	31.622
332.66	33.846
333.02	33.457
333.38	33.364
333.75	35.714
334.11	32.945
334.48	35.811
334.84	36.722
335.20	36.322
335.57	36.809
335.93	37.398
336.29	38.858
336.66	37.784
337.02	38.197
337.38	37.037
337.75	38.727
338.11	39.315
338.47	39.964
338.84	40.850
339.20	40.585
339.56	40.642
339.93	39.928
340.29	41.009
340.65	40.591
341.02	41.755
341.38	40.973
341.74	40.194
342.11	42.028
342.47	41.637
342.83	41.003
343.20	42.509
343.56	42.522
343.92	42.161
344.28	44.236
344.65	42.832
345.01	43.907
345.37	42.977
345.73	43.933
346.10	44.607
346.46	45.080
346.82	41.899
347.19	44.638
347.55	45.363
347.91	45.227
348.27	43.654
348.63	47.189
349.00	43.314
349.36	44.722
349.72	45.688
350.08	46.721
350.45	45.172
350.81	45.598
351.17	45.033
351.53	46.857
351.89	44.591
352.26	47.600
352.62	47.016
352.98	46.426
353.34	45.008
353.70	47.330
354.07	45.645
354.43	47.158
354.79	47.069
355.15	47.302
355.51	47.785
355.87	48.301
356.24	48.206
356.60	45.998
356.96	48.810
357.32	47.843
357.68	48.006
358.04	47.981
358.40	47.910
358.77	49.442
359.13	50.120
359.49	47.227
359.85	49.532
360.21	49.282
360.57	49.273
360.93	48.714
361.29	49.849
361.66	50.235
362.02	50.227
362.38	51.790
362.74	50.416
363.10	51.392
363.46	51.594
363.82	50.338
364.18	50.406
364.54	51.250
364.90	50.394
365.26	50.291
365.62	51.971
365.98	51.686
366.35	51.712
366.71	52.328
367.07	51.089
367.43	51.761
367.79	51.943
368.15	51.113
368.51	53.168
368.87	52.118
369.23	51.191
369.59	52.915
369.95	52.273
370.31	51.373
370.67	52.910
371.03	53.249
371.39	51.787
371.75	53.919
372.11	52.282
372.47	53.550
372.83	52.732
373.19	51.569
373.55	52.202
373.91	52.844
374.27	52.658
374.63	53.266
374.99	53.333
375.35	52.994
375.71	52.937
376.07	54.424
376.42	52.041
376.78	53.557
377.14	53.351
377.50	53.586
377.86	52.945
378.22	53.159
378.58	54.487
378.94	54.505
379.30	53.587
379.66	53.981
380.02	52.361
380.38	52.465
380.74	53.321
381.09	54.110
381.45	53.700
381.81	54.473
382.17	53.046
382.53	53.154
382.89	54.677
383.25	55.134
383.61	53.476
383.97	54.540
384.32	53.158
384.68	53.003
385.04	53.431
385.40	53.703
385.76	54.088
386.12	54.075
386.48	55.300
386.83	52.822
387.19	54.518
387.55	54.266
387.91	54.218
388.27	52.869
388.62	54.311
388.98	54.328
389.34	53.779
389.70	55.935
390.06	52.738
390.42	53.951
390.77	53.891
391.13	53.342
391.49	54.075
391.85	54.646
392.20	53.672
392.56	52.320
392.92	53.200
393.28	52.830
393.64	53.333
393.99	54.608
394.35	52.815
394.71	53.831
395.07	53.426
395.42	52.823
395.78	52.964
396.14	53.594
396.50	53.012
396.85	53.187
397.21	52.757
397.57	51.411
397.92	53.086
398.28	53.678
398.64	51.687
399.00	53.330
399.35	52.370
399.71	52.556
400.07	53.144
400.42	52.081
400.78	54.011
401.14	52.874
401.49	52.174
401.85	51.920
402.21	51.325
402.57	52.375
402.92	50.816
403.28	52.444
403.63	52.459
403.99	52.551
404.35	52.655
404.70	50.119
405.06	50.823
405.42	51.896
405.77	52.237
406.13	52.095
406.49	51.451
406.84	52.506
407.20	51.896
407.55	49.839
407.91	51.604
408.27	50.733
408.62	51.569
408.98	50.154
409.34	51.549
409.69	50.646
410.05	50.308
410.40	50.802
410.76	50.483
411.11	50.938
411.47	50.427
411.83	49.843
412.18	51.094
412.54	49.438
412.89	49.261
413.25	49.940
413.60	48.634
413.96	48.957
414.31	49.817
414.67	50.417
415.03	49.601
415.38	50.326
415.74	50.684
416.09	50.033
416.45	50.034
416.80	49.042
417.16	50.345
417.51	50.633
417.87	49.348
418.22	49.870
418.58	48.896
418.93	48.589
419.29	47.631
419.64	49.320
420.00	49.118
420.35	48.060
420.71	48.299
421.06	49.724
421.42	47.596
421.77	47.803
422.12	49.035
422.48	48.511
422.83	48.434
423.19	47.743
423.54	47.208
423.90	47.880
424.25	48.565
424.61	47.001
424.96	47.909
425.31	48.816
425.67	49.120
426.02	48.704
426.38	48.716
426.73	48.184
427.09	47.911
427.44	48.471
427.79	47.613
428.15	48.058
428.50	47.789
428.85	47.174
429.21	47.482
429.56	47.925
429.92	46.430
430.27	45.815
430.62	46.367
430.98	47.452
431.33	46.688
431.68	45.788
432.04	46.954
432.39	46.207
432.74	46.182
433.10	47.701
433.45	46.416
433.80	46.605
434.16	45.042
434.51	47.151
434.86	46.748
435.22	45.990
435.57	46.351
435.92	46.108
436.28	45.200
436.63	46.435
436.98	44.380
437.34	44.828
437.69	46.869
438.04	45.698
438.39	44.716
438.75	46.691
439.10	46.463
439.45	45.040
439.81	45.076
440.16	45.368
440.51	45.612
440.86	48.459
441.22	45.023
441.57	45.254
441.92	45.908
442.27	46.009
442.63	44.968
442.98	45.663
443.33	44.519
443.68	44.297
444.03	44.958
444.39	44.417
444.74	46.321
445.09	46.269
445.44	44.558
445.79	44.817
446.15	44.163
446.50	44.426
446.85	44.846
447.20	43.691
447.55	45.145
447.91	43.768
448.26	44.508
448.61	45.250
448.96	44.521
449.31	44.046
449.66	43.844
450.02	43.297
450.37	44.458
450.72	42.440
451.07	44.620
451.42	42.946
451.77	43.279
452.12	42.105
452.47	43.142
452.83	44.111
453.18	42.948
453.53	43.236
453.88	42.927
454.23	43.331
454.58	43.640
454.93	43.621
455.28	42.222
455.63	43.087
455.98	43.175
456.34	43.359
456.69	42.630
457.04	42.785
457.39	42.041
457.74	42.443
458.09	41.848
458.44	42.130
458.79	41.232
459.14	42.677
459.49	42.925
459.84	42.245
460.19	41.808
460.54	41.259
460.89	42.045
461.24	41.366
461.59	41.330
461.94	40.692
462.29	41.737
462.64	41.329
462.99	42.722
463.34	40.890
463.69	40.669
464.04	42.010
464.39	40.570
464.74	40.123
465.09	40.861
465.44	41.027
465.79	39.909
466.14	40.935
466.49	40.426
466.84	40.095
467.19	41.427
467.54	39.655
467.89	40.114
468.24	40.633
468.59	39.683
468.94	39.238
469.29	39.279
469.64	40.807
469.99	40.224
470.34	39.727
470.68	40.492
471.03	39.207
471.38	40.086
471.73	40.126
472.08	39.077
472.43	39.799
472.78	39.548
473.13	39.796
473.48	39.023
473.83	39.103
474.17	40.155
474.52	38.928
474.87	40.727
475.22	38.316
475.57	38.566
475.92	38.947
476.27	39.523
476.61	38.542
476.96	38.260
477.31	39.156
477.66	37.640
478.01	38.798
478.36	38.344
478.70	38.499
479.05	38.681
479.40	38.580
479.75	38.113
480.10	37.583
480.45	37.700
480.79	39.225
481.14	38.781
481.49	36.700
481.84	37.452
482.19	37.044
482.53	37.362
482.88	37.709
483.23	36.900
483.58	37.170
483.92	36.786
484.27	36.509
484.62	37.158
484.97	36.070
485.31	35.766
485.66	34.686
486.01	34.649
486.36	34.301
486.70	35.279
487.05	35.828
487.40	35.522
487.75	35.408
488.09	34.951
488.44	35.695
488.79	35.674
489.13	35.256
489.48	36.212
489.83	36.099
490.17	35.506
490.52	35.520
490.87	35.447
491.22	36.103
491.56	35.152
491.91	34.943
492.26	35.683
492.60	35.653
492.95	35.908
493.30	35.760
493.64	36.493
493.99	34.976
494.34	34.466
494.68	35.619
495.03	34.599
495.37	35.132
495.72	35.437
496.07	35.122
496.41	34.151
496.76	34.823
497.11	33.489
497.45	34.558
497.80	35.621
498.14	35.022
498.49	33.875
498.84	34.032
499.18	34.488
499.53	34.276
499.87	33.366
500.22	34.075
500.56	33.888
500.91	34.639
501.26	34.157
501.60	33.153
501.95	34.110
502.29	32.785
502.64	33.736
502.98	34.090
503.33	34.006
503.67	33.494
504.02	33.529
504.36	34.240
504.71	33.333
505.06	32.964
505.40	33.147
505.75	33.557
506.09	33.097
506.44	33.522
506.78	32.551
507.13	32.575
507.47	32.689
507.82	33.013
508.16	32.594
508.51	32.634
508.85	32.967
509.19	31.879
509.54	31.796
509.88	31.931
510.23	32.706
510.57	32.817
510.92	30.810
511.26	32.242
511.61	32.838
511.95	32.110
512.30	32.095
512.64	31.664
512.98	31.668
513.33	32.121
513.67	31.325
514.02	32.666
514.36	32.171
514.70	32.925
515.05	32.315
515.39	31.700
515.74	32.216
516.08	31.381
516.42	32.450
516.77	33.060
517.11	31.869
517.46	32.496
517.80	32.360
518.14	31.721
518.49	30.469
518.83	32.199
519.17	31.716
519.52	30.965
519.86	30.972
520.20	30.863
520.55	30.644
520.89	31.556
521.23	31.602
521.58	32.366
521.92	30.833
522.26	31.945
522.61	31.169
522.95	31.854
523.29	32.402
523.64	32.084
523.98	31.173
524.32	30.284
524.66	30.538
525.01	30.649
525.35	31.108
525.69	29.562
526.04	30.489
526.38	31.907
526.72	30.412
527.06	30.480
527.41	30.541
527.75	29.290
528.09	30.764
528.43	31.533
528.78	29.241
529.12	29.290
529.46	28.915
529.80	29.766
530.15	30.363
530.49	30.168
530.83	30.848
531.17	29.819
531.51	30.233
531.86	29.436
532.20	30.271
532.54	29.816
532.88	29.637
533.22	30.040
533.57	29.292
533.91	28.133
534.25	29.883
534.59	28.865
534.93	28.508
535.27	28.046
535.62	29.034
535.96	28.898
536.30	29.749
536.64	29.359
536.98	27.526
537.32	29.018
537.66	29.593
538.01	29.371
538.35	28.363
538.69	28.762
539.03	27.956
539.37	27.658
539.71	28.357
540.05	28.853
540.39	29.501
540.73	29.149
541.07	27.555
541.42	29.368
541.76	29.456
542.10	27.254
542.44	28.700
542.78	26.979
543.12	28.091
543.46	28.512
543.80	27.620
544.14	27.570
544.48	27.715
544.82	27.136
545.16	29.303
545.50	27.503
545.84	28.683
546.18	28.865
546.52	28.118
546.86	28.325
547.20	28.398
547.54	26.643
547.88	26.834
548.22	26.627
548.56	27.770
548.90	26.887
549.24	26.860
549.58	27.856
549.92	26.162
550.26	27.692
550.60	27.509
550.94	28.006
551.28	28.130
551.62	27.308
551.96	26.617
552.30	26.901
552.64	25.670
552.98	26.160
553.32	27.318
553.66	26.415
554.00	26.569
554.34	26.957
554.68	25.959
555.02	27.009
555.36	26.477
555.69	25.788
556.03	24.911
556.37	25.979
556.71	25.921
557.05	26.249
557.39	24.907
557.73	26.537
558.07	26.395
558.41	26.417
558.75	26.734
559.08	25.138
559.42	26.111
559.76	26.181
560.10	25.765
560.44	25.689
560.78	25.385
561.12	24.612
561.45	26.423
561.79	25.000
562.13	25.976
562.47	24.820
562.81	26.729
563.15	26.728
563.48	26.025
563.82	25.326
564.16	25.418
564.50	24.122
564.84	26.037
565.17	24.547
565.51	25.137
565.85	25.240
566.19	25.796
566.52	25.402
566.86	24.679
567.20	24.907
567.54	24.878
567.88	24.487
568.21	24.378
568.55	24.293
568.89	25.000
569.23	24.314
569.56	23.730
569.90	23.914
570.24	23.818
570.57	22.655
570.91	23.667
571.25	22.887
571.59	22.423
571.92	22.489
572.26	22.011
572.60	22.512
572.93	22.529
573.27	22.539
573.61	22.285
573.95	22.037
574.28	21.849
574.62	21.714
574.96	21.865
575.29	21.302
575.63	21.379
575.97	21.713
576.30	21.170
576.64	21.113
576.98	21.776
577.31	21.430
577.65	21.812
577.98	21.682
578.32	21.251
578.66	20.954
578.99	20.753
579.33	21.284
579.67	21.347
580.00	21.215
580.34	21.493
580.67	21.167
581.01	20.749
581.35	21.339
581.68	20.606
582.02	20.609
582.35	20.631
582.69	20.997
583.02	20.957
583.36	20.937
583.70	21.625
584.03	21.740
584.37	22.078
584.70	21.071
585.04	20.207
585.37	20.934
585.71	20.588
586.04	20.777
586.38	20.699
586.72	20.660
587.05	20.971
587.39	20.939
587.72	21.077
588.06	20.786
588.39	20.649
588.73	21.154
589.06	21.070
589.40	20.878
589.73	21.796
590.07	21.186
590.40	21.478
590.73	21.870
591.07	20.908
591.40	20.659
591.74	21.493
592.07	21.104
592.41	21.422
592.74	20.908
593.08	20.433
593.41	20.527
593.75	19.954
594.08	19.945
594.41	20.924
594.75	20.305
595.08	20.356
595.42	20.537
595.75	20.391
596.09	21.032
596.42	20.091
596.75	20.870
597.09	20.774
597.42	20.912
597.75	20.385
598.09	19.602
598.42	20.713
598.76	20.506
599.09	20.152
599.42	20.008
599.76	19.865
600.09	19.457
600.42	19.977
600.76	19.837
601.09	19.618
601.42	19.898
601.76	20.127
602.09	19.678
602.42	20.472
602.76	20.161
603.09	20.598
603.42	20.694
603.76	19.718
604.09	20.292
604.42	20.178
604.76	20.650
605.09	20.384
605.42	19.955
605.75	19.702
606.09	18.769
606.42	19.141
606.75	19.134
607.09	19.912
607.42	19.229
607.75	18.917
608.08	19.137
608.42	18.958
608.75	19.759
609.08	20.229
609.41	19.949
609.75	20.212
610.08	19.571
610.41	18.647
610.74	19.259
611.07	19.793
611.41	20.291
611.74	20.309
612.07	19.593
612.40	19.748
612.73	19.548
613.07	19.629
613.40	20.241
613.73	19.530
614.06	20.367
614.39	20.079
614.72	19.608
615.06	19.609
615.39	18.450
615.72	17.761
616.05	19.665
616.38	18.348
616.71	18.838
617.05	19.765
617.38	19.862
617.71	19.937
618.04	19.683
618.37	20.555
618.70	20.462
619.03	20.486
619.36	18.886
619.69	20.697
620.03	20.380
620.36	19.886
620.69	20.128
621.02	19.113
621.35	20.000
621.68	20.153
622.01	20.083
622.34	21.468
622.67	19.874
623.00	20.291
623.33	19.436
623.66	19.297
623.99	19.818
624.32	20.608
624.65	18.346
624.99	19.413
625.32	19.257
625.65	20.110
625.98	19.903
626.31	18.953
626.64	20.537
626.97	21.030
627.30	19.877
627.63	19.671
627.96	19.856
628.29	19.149
628.62	21.534
628.95	20.842
629.28	20.161
629.61	19.541
629.94	20.919
630.26	18.083
630.59	19.979
630.92	21.333
631.25	17.846
631.58	21.696
631.91	20.395
632.24	20.413
632.57	19.773
632.90	20.641
633.23	21.176
633.56	19.647
633.89	21.085
634.22	22.222
634.55	21.347
634.88	19.923
635.20	19.103
635.53	20.933
635.86	18.986
636.19	20.440
