SpectraSuite Data File
++++++++++++++++++++++++++++++++++++
Date: Fri May 15 20:48:00 PDT 2015
User: schluterlab
Dark Spectrum Present: Yes
Reference Spectrum Present: Yes
Number of Sampled Component Spectra: 1
Spectrometers: USB2E3373
Integration Time (usec): 3000 (USB2E3373)
Spectra Averaged: 3 (USB2E3373)
Boxcar Smoothing: 0 (USB2E3373)
Correct for Electrical Dark: No (USB2E3373)
Strobe/Lamp Enabled: No (USB2E3373)
Correct for Detector Non-linearity: No (USB2E3373)
Correct for Stray Light: No (USB2E3373)
Number of Pixels in Processed Spectrum: 2048
>>>>>Begin Processed Spectral Data<<<<<
178.53	0.000
178.91	0.000
179.29	125.000
179.67	-50.000
180.04	-0.000
180.42	-50.000
180.80	-200.000
181.18	266.667
181.56	150.000
181.94	150.000
182.31	400.000
182.69	-80.000
183.07	-133.333
183.45	-200.000
183.83	300.000
184.20	27.273
184.58	222.222
184.96	100.000
185.34	66.667
185.72	-450.000
186.09	84.615
186.47	-1000.000
186.85	133.333
187.23	211.111
187.61	1300.000
187.98	-600.000
188.36	100.000
188.74	-166.667
189.12	47.059
189.49	11.111
189.87	0.000
190.25	64.286
190.63	200.000
191.00	-300.000
191.38	0.000
191.76	300.000
192.14	125.000
192.51	-400.000
192.89	-33.333
193.27	28.571
193.65	200.000
194.02	163.636
194.40	10.000
194.78	-250.000
195.15	-25.000
195.53	-62.500
195.91	300.000
196.29	-250.000
196.66	169.231
197.04	157.143
197.42	-33.333
197.79	-666.667
198.17	-23.077
198.55	1800.000
198.92	-333.333
199.30	100.000
199.68	-40.000
200.05	-66.667
200.43	0.000
200.81	66.667
201.18	0.000
201.56	1100.000
201.94	-650.000
202.31	100.000
202.69	-160.000
203.07	300.000
203.44	300.000
203.82	0.000
204.19	-14.286
204.57	-466.667
204.95	37.500
205.32	20.000
205.70	-171.429
206.08	50.000
206.45	222.222
206.83	28.571
207.20	-128.571
207.58	600.000
207.96	-333.333
208.33	-80.000
208.71	-125.000
209.08	-216.667
209.46	-400.000
209.84	-200.000
210.21	-500.000
210.59	-28.571
210.96	-16.667
211.34	-150.000
211.71	60.000
212.09	-157.143
212.46	-1900.000
212.84	0.000
213.22	-30.000
213.59	250.000
213.97	61.538
214.34	-18.182
214.72	-133.333
215.09	450.000
215.47	30.769
215.84	-163.636
216.22	33.333
216.59	-62.500
216.97	300.000
217.34	-200.000
217.72	-140.000
218.09	0.000
218.47	137.500
218.84	-800.000
219.22	-111.111
219.59	-260.000
219.97	166.667
220.34	275.000
220.72	-14.286
221.09	-150.000
221.47	-600.000
221.84	-600.000
222.22	-600.000
222.59	36.364
222.97	-8.333
223.34	-333.333
223.72	-85.714
224.09	-19.048
224.46	28.571
224.84	666.667
225.21	-40.000
225.59	-20.000
225.96	-100.000
226.34	275.000
226.71	57.143
227.08	-233.333
227.46	-112.500
227.83	-450.000
228.21	11.111
228.58	9.091
228.95	-37.500
229.33	140.000
229.70	-37.500
230.08	-125.000
230.45	14.286
230.82	100.000
231.20	-60.000
231.57	78.571
231.95	-71.429
232.32	-180.000
232.69	0.000
233.07	-133.333
233.44	-160.000
233.81	-100.000
234.19	55.556
234.56	-52.941
234.93	750.000
235.31	100.000
235.68	-260.000
236.05	-92.308
236.43	10.000
236.80	-35.294
237.17	25.000
237.55	-20.000
237.92	7.407
238.29	8.333
238.67	43.333
239.04	0.000
239.41	-24.390
239.79	-10.000
240.16	4.878
240.53	5.263
240.91	-10.870
241.28	15.873
241.65	33.929
242.02	16.438
242.40	6.667
242.77	20.339
243.14	33.333
243.51	17.500
243.89	22.989
244.26	24.138
244.63	20.238
245.00	20.619
245.38	11.340
245.75	7.865
246.12	19.828
246.49	28.926
246.87	24.038
247.24	15.966
247.61	20.175
247.98	19.512
248.36	21.250
248.73	28.289
249.10	18.831
249.47	22.152
249.84	21.569
250.22	19.412
250.59	15.033
250.96	23.474
251.33	17.442
251.70	21.765
252.08	20.305
252.45	21.782
252.82	21.608
253.19	20.737
253.56	19.159
253.94	23.874
254.31	21.739
254.68	29.386
255.05	20.866
255.42	23.144
255.79	24.324
256.16	24.125
256.54	23.507
256.91	24.335
257.28	23.048
257.65	21.723
258.02	23.404
258.39	22.559
258.76	26.007
259.14	25.581
259.51	25.243
259.88	22.680
260.25	20.588
260.62	24.306
260.99	20.000
261.36	22.260
261.73	22.468
262.10	26.748
262.47	23.313
262.85	24.138
263.22	20.923
263.59	23.053
263.96	26.398
264.33	24.242
264.70	25.595
265.07	24.107
265.44	23.796
265.81	20.621
266.18	26.776
266.55	25.964
266.92	25.389
267.29	23.499
267.66	26.087
268.03	24.869
268.40	21.149
268.77	25.936
269.14	23.261
269.51	24.679
269.88	21.945
270.25	22.704
270.62	25.366
270.99	22.762
271.36	22.738
271.73	25.117
272.10	23.358
272.47	23.168
272.84	23.762
273.21	24.594
273.58	24.337
273.95	22.883
274.32	23.095
274.69	21.493
275.06	25.893
275.43	22.902
275.80	24.945
276.17	23.218
276.54	22.698
276.91	25.877
277.28	22.271
277.65	23.554
278.02	23.191
278.39	22.757
278.76	20.545
279.13	21.369
279.50	23.739
279.87	24.622
280.23	20.215
280.60	23.977
280.97	24.646
281.34	22.308
281.71	23.614
282.08	22.495
282.45	22.701
282.82	22.780
283.19	23.985
283.56	24.663
283.92	22.011
284.29	21.923
284.66	22.287
285.03	21.022
285.40	22.684
285.77	18.805
286.14	21.480
286.51	22.694
286.87	22.121
287.24	21.731
287.61	22.575
287.98	24.386
288.35	22.184
288.72	23.818
289.08	18.229
289.45	21.441
289.82	21.678
290.19	19.113
290.56	22.642
290.93	19.697
291.29	18.952
291.66	19.685
292.03	17.065
292.40	19.677
292.77	17.863
293.13	18.182
293.50	18.665
293.87	18.473
294.24	18.083
294.60	18.480
294.97	18.006
295.34	16.258
295.71	19.672
296.08	16.442
296.44	18.634
296.81	16.528
297.18	18.116
297.55	18.564
297.91	17.945
298.28	18.865
298.65	17.775
299.02	16.307
299.38	15.595
299.75	15.310
300.12	16.361
300.48	18.182
300.85	16.730
301.22	16.623
301.59	17.368
301.95	17.215
302.32	18.288
302.69	17.164
303.05	16.584
303.42	16.314
303.79	16.939
304.15	18.638
304.52	15.339
304.89	15.205
305.25	15.738
305.62	15.286
305.99	16.959
306.35	16.416
306.72	14.173
307.09	16.648
307.45	15.844
307.82	14.468
308.19	16.609
308.55	15.485
308.92	16.776
309.29	15.307
309.65	15.285
310.02	16.062
310.38	15.477
310.75	16.612
311.12	15.931
311.48	15.907
311.85	16.021
312.22	15.717
312.58	15.605
312.95	15.688
313.31	14.907
313.68	16.021
314.05	15.306
314.41	15.876
314.78	16.392
315.14	17.883
315.51	17.081
315.87	16.496
316.24	17.189
316.61	15.846
316.97	17.659
317.34	16.992
317.70	17.017
318.07	16.731
318.43	17.745
318.80	17.992
319.16	19.629
319.53	18.898
319.89	18.799
320.26	18.219
320.62	20.060
320.99	17.745
321.35	20.349
321.72	20.768
322.08	20.242
322.45	20.609
322.81	20.334
323.18	20.805
323.54	21.236
323.91	20.058
324.27	21.680
324.64	22.566
325.00	21.807
325.37	23.875
325.73	22.665
326.10	23.615
326.46	24.126
326.83	25.459
327.19	25.719
327.56	26.064
327.92	25.528
328.29	26.786
328.65	26.415
329.01	26.746
329.38	27.834
329.74	26.440
330.11	27.062
330.47	26.345
330.84	27.500
331.20	28.232
331.56	26.759
331.93	28.311
332.29	29.056
332.66	27.059
333.02	29.275
333.38	26.123
333.75	28.755
334.11	27.842
334.48	28.649
334.84	29.212
335.20	29.186
335.57	28.286
335.93	28.997
336.29	29.466
336.66	28.065
337.02	29.089
337.38	28.704
337.75	30.545
338.11	29.396
338.47	29.836
338.84	29.852
339.20	30.439
339.56	30.092
339.93	30.170
340.29	30.826
340.65	30.376
341.02	30.408
341.38	29.823
341.74	30.035
342.11	29.029
342.47	30.160
342.83	29.412
343.20	29.094
343.56	30.174
343.92	29.938
344.28	30.828
344.65	29.188
345.01	29.818
345.37	29.773
345.73	30.209
346.10	30.198
346.46	30.614
346.82	30.196
347.19	29.676
347.55	29.825
347.91	29.126
348.27	29.830
348.63	30.664
349.00	29.861
349.36	30.091
349.72	30.514
350.08	29.754
350.45	30.646
350.81	30.316
351.17	29.397
351.53	31.020
351.89	29.975
352.26	29.680
352.62	31.532
352.98	30.763
353.34	29.791
353.70	30.421
354.07	29.032
354.43	30.264
354.79	30.140
355.15	31.111
355.51	30.775
355.87	30.502
356.24	30.995
356.60	29.992
356.96	32.302
357.32	30.911
357.68	30.023
358.04	30.937
358.40	31.029
358.77	31.579
359.13	30.424
359.49	30.354
359.85	31.357
360.21	31.260
360.57	31.064
360.93	32.148
361.29	30.438
361.66	30.956
362.02	31.742
362.38	31.226
362.74	31.491
363.10	32.506
363.46	32.543
363.82	33.659
364.18	31.734
364.54	30.147
364.90	31.971
365.26	32.314
365.62	34.088
365.98	32.258
366.35	32.993
366.71	33.629
367.07	33.745
367.43	31.776
367.79	33.004
368.15	32.089
368.51	32.921
368.87	31.945
369.23	30.686
369.59	33.236
369.95	32.478
370.31	33.309
370.67	32.090
371.03	32.412
371.39	33.479
371.75	33.333
372.11	32.739
372.47	33.950
372.83	32.718
373.19	33.096
373.55	31.986
373.91	33.621
374.27	33.168
374.63	33.668
374.99	32.199
375.35	32.521
375.71	33.217
376.07	33.848
376.42	34.762
376.78	34.430
377.14	34.056
377.50	34.130
377.86	33.601
378.22	34.716
378.58	35.256
378.94	34.594
379.30	34.498
379.66	35.235
380.02	34.457
380.38	34.023
380.74	33.992
381.09	35.521
381.45	35.657
381.81	35.349
382.17	36.041
382.53	34.728
382.89	34.777
383.25	35.283
383.61	36.829
383.97	35.302
384.32	35.460
384.68	35.542
385.04	35.846
385.40	35.408
385.76	37.421
386.12	35.770
386.48	36.143
386.83	36.652
387.19	36.203
387.55	36.449
387.91	37.225
388.27	35.958
388.62	36.186
388.98	36.648
389.34	36.790
389.70	36.482
390.06	36.879
390.42	36.269
390.77	37.410
391.13	36.570
391.49	38.098
391.85	36.907
392.20	38.669
392.56	38.144
392.92	38.579
393.28	37.205
393.64	37.477
393.99	38.370
394.35	38.710
394.71	39.208
395.07	38.529
395.42	38.676
395.78	39.479
396.14	38.146
396.50	39.949
396.85	37.733
397.21	39.787
397.57	39.749
397.92	38.646
398.28	40.172
398.64	37.651
399.00	39.278
399.35	38.826
399.71	39.403
400.07	39.964
400.42	39.290
400.78	40.416
401.14	39.443
401.49	40.798
401.85	40.280
402.21	39.578
402.57	41.187
402.92	39.900
403.28	40.727
403.63	41.047
403.99	41.008
404.35	40.475
404.70	40.357
405.06	40.247
405.42	40.336
405.77	40.790
406.13	41.036
406.49	41.267
406.84	42.298
407.20	41.481
407.55	40.889
407.91	40.909
408.27	41.300
408.62	41.908
408.98	41.282
409.34	41.884
409.69	41.990
410.05	39.778
410.40	41.173
410.76	42.823
411.11	42.312
411.47	41.683
411.83	41.996
412.18	42.986
412.54	42.260
412.89	41.318
413.25	41.637
413.60	41.863
413.96	41.656
414.31	43.049
414.67	42.656
415.03	43.076
415.38	42.102
415.74	42.476
416.09	44.219
416.45	43.552
416.80	43.886
417.16	43.232
417.51	43.105
417.87	43.025
418.22	42.746
418.58	44.348
418.93	44.828
419.29	42.382
419.64	42.320
420.00	45.403
420.35	43.045
420.71	43.742
421.06	43.339
421.42	44.892
421.77	44.451
422.12	44.154
422.48	44.126
422.83	43.619
423.19	45.034
423.54	44.327
423.90	44.170
424.25	44.489
424.61	44.982
424.96	45.122
425.31	46.332
425.67	45.716
426.02	45.289
426.38	45.961
426.73	46.368
427.09	46.076
427.44	44.647
427.79	45.787
428.15	45.813
428.50	46.457
428.85	46.130
429.21	46.746
429.56	46.361
429.92	45.249
430.27	46.366
430.62	45.635
430.98	45.860
431.33	45.846
431.68	45.474
432.04	46.115
432.39	45.693
432.74	46.001
433.10	47.586
433.45	47.073
433.80	46.198
434.16	45.596
434.51	47.312
434.86	46.922
435.22	46.999
435.57	48.035
435.92	46.886
436.28	46.810
436.63	47.176
436.98	46.813
437.34	48.397
437.69	47.943
438.04	47.236
438.39	47.221
438.75	48.816
439.10	48.217
439.45	48.935
439.81	47.278
440.16	49.584
440.51	48.657
440.86	49.789
441.22	46.776
441.57	48.179
441.92	47.954
442.27	48.947
442.63	49.090
442.98	47.961
443.33	47.078
443.68	47.851
444.03	47.938
444.39	49.188
444.74	48.829
445.09	48.942
445.44	49.288
445.79	49.562
446.15	48.183
446.50	48.808
446.85	48.884
447.20	49.218
447.55	47.768
447.91	48.900
448.26	49.061
448.61	48.532
448.96	49.168
449.31	48.844
449.66	48.955
450.02	49.287
450.37	48.844
450.72	49.141
451.07	50.823
451.42	48.939
451.77	49.307
452.12	48.385
452.47	48.422
452.83	48.528
453.18	49.336
453.53	49.431
453.88	49.666
454.23	49.416
454.58	50.819
454.93	49.613
455.28	47.429
455.63	50.031
455.98	49.970
456.34	49.553
456.69	51.080
457.04	50.914
457.39	49.453
457.74	50.060
458.09	49.029
458.44	50.263
458.79	49.636
459.14	49.142
459.49	50.209
459.84	50.479
460.19	49.029
460.54	49.756
460.89	50.000
461.24	49.689
461.59	50.297
461.94	49.182
462.29	51.025
462.64	50.963
462.99	51.456
463.34	51.669
463.69	51.351
464.04	50.969
464.39	51.001
464.74	50.000
465.09	50.717
465.44	50.721
465.79	49.490
466.14	50.798
466.49	49.971
466.84	50.803
467.19	50.063
467.54	49.106
467.89	51.674
468.24	50.426
468.59	50.603
468.94	51.238
469.29	50.689
469.64	51.880
469.99	52.908
470.34	52.628
470.68	53.020
471.03	52.442
471.38	53.566
471.73	52.451
472.08	52.917
472.43	53.020
472.78	51.542
473.13	54.014
473.48	52.117
473.83	51.370
474.17	51.943
474.52	51.946
474.87	51.758
475.22	52.715
475.57	51.553
475.92	52.880
476.27	52.328
476.61	53.356
476.96	50.920
477.31	51.866
477.66	52.191
478.01	52.049
478.36	52.015
478.70	52.692
479.05	51.978
479.40	51.934
479.75	52.555
480.10	52.279
480.45	51.950
480.79	53.172
481.14	53.074
481.49	51.773
481.84	53.041
482.19	52.947
482.53	52.038
482.88	52.267
483.23	52.447
483.58	53.538
483.92	52.614
484.27	50.684
484.62	51.995
484.97	50.249
485.31	50.000
485.66	47.877
486.01	47.476
486.36	47.605
486.70	47.658
487.05	48.515
487.40	50.259
487.75	49.127
488.09	49.845
488.44	50.550
488.79	50.840
489.13	51.482
489.48	52.159
489.83	52.063
490.17	52.494
490.52	53.672
490.87	51.411
491.22	53.629
491.56	52.372
491.91	52.725
492.26	53.573
492.60	53.503
492.95	55.140
493.30	52.711
493.64	54.322
493.99	53.671
494.34	53.301
494.68	53.524
495.03	53.528
495.37	53.582
495.72	54.619
496.07	53.707
496.41	53.632
496.76	53.662
497.11	53.470
497.45	53.031
497.80	54.541
498.14	53.651
498.49	55.206
498.84	53.743
499.18	54.116
499.53	53.968
499.87	53.891
500.22	53.610
500.56	54.261
500.91	53.966
501.26	54.523
501.60	54.993
501.95	54.003
502.29	54.044
502.64	54.295
502.98	54.267
503.33	53.698
503.67	53.301
504.02	54.545
504.36	55.468
504.71	54.444
505.06	54.555
505.40	53.807
505.75	55.464
506.09	54.587
506.44	55.236
506.78	54.643
507.13	56.929
507.47	54.935
507.82	54.434
508.16	56.260
508.51	55.929
508.85	56.201
509.19	56.892
509.54	56.032
509.88	55.394
510.23	56.267
510.57	56.708
510.92	54.851
511.26	57.229
511.61	56.766
511.95	57.808
512.30	57.095
512.64	56.928
512.98	58.057
513.33	57.918
513.67	56.794
514.02	59.325
514.36	58.229
514.70	59.441
515.05	59.636
515.39	59.563
515.74	60.599
516.08	59.833
516.42	60.601
516.77	60.737
517.11	59.763
517.46	59.665
517.80	59.595
518.14	60.563
518.49	59.916
518.83	59.721
519.17	59.369
519.52	59.562
519.86	60.324
520.20	61.422
520.55	59.099
520.89	60.979
521.23	60.671
521.58	62.461
521.92	61.346
522.26	60.703
522.61	61.429
522.95	63.642
523.29	62.897
523.64	63.215
523.98	62.865
524.32	60.954
524.66	63.700
525.01	63.571
525.35	62.929
525.69	63.030
526.04	61.839
526.38	63.035
526.72	62.721
527.06	62.711
527.41	62.335
527.75	63.874
528.09	63.588
528.43	64.754
528.78	63.960
529.12	62.710
529.46	62.703
529.80	62.571
530.15	63.894
530.49	64.175
530.83	64.706
531.17	62.794
531.51	63.543
531.86	63.562
532.20	62.491
532.54	64.329
532.88	65.708
533.22	63.911
533.57	62.713
533.91	63.708
534.25	64.583
534.59	62.091
534.93	61.800
535.27	61.548
535.62	62.022
535.96	61.905
536.30	63.127
536.64	64.783
536.98	63.693
537.32	64.936
537.66	63.043
538.01	64.895
538.35	63.523
538.69	63.116
539.03	63.158
539.37	63.863
539.71	62.645
540.05	62.254
540.39	63.781
540.73	64.714
541.07	63.812
541.42	64.718
541.76	63.386
542.10	63.730
542.44	62.543
542.78	62.147
543.12	63.118
543.46	64.743
543.80	63.983
544.14	61.615
544.48	63.025
544.82	62.953
545.16	64.344
545.50	63.351
545.84	65.014
546.18	63.972
546.52	64.456
546.86	63.264
547.20	64.735
547.54	63.180
547.88	63.519
548.22	61.604
548.56	61.346
548.90	62.803
549.24	61.846
549.58	63.117
549.92	62.402
550.26	64.249
550.60	66.022
550.94	65.123
551.28	64.451
551.62	66.154
551.96	65.188
552.30	64.327
552.64	63.540
552.98	64.557
553.32	63.623
553.66	64.369
554.00	65.474
554.34	65.510
554.68	64.749
555.02	63.393
555.36	64.772
555.69	64.396
556.03	61.456
556.37	62.989
556.71	64.332
557.05	65.175
557.39	62.900
557.73	64.918
558.07	67.044
558.41	65.544
558.75	65.082
559.08	66.667
559.42	66.270
559.76	66.293
560.10	64.220
560.44	63.812
560.78	63.217
561.12	63.117
561.45	65.074
561.79	63.235
562.13	64.940
562.47	63.237
562.81	63.184
563.15	62.835
563.48	64.144
563.82	64.585
564.16	63.370
564.50	60.946
564.84	62.450
565.17	63.514
565.51	64.071
565.85	63.443
566.19	63.263
566.52	63.003
566.86	61.697
567.20	61.706
567.54	61.496
567.88	61.511
568.21	61.369
568.55	60.217
568.89	60.883
569.23	58.835
569.56	56.961
569.90	57.450
570.24	55.341
570.57	57.091
570.91	55.455
571.25	54.357
571.59	54.064
571.92	52.652
572.26	53.955
572.60	53.364
572.93	53.530
573.27	53.636
573.61	53.401
573.95	53.441
574.28	52.701
574.62	51.589
574.96	52.182
575.29	51.413
575.63	50.998
575.97	52.101
576.30	52.038
576.64	51.444
576.98	52.149
577.31	52.396
577.65	51.858
577.98	51.564
578.32	50.991
578.66	50.054
578.99	51.380
579.33	51.361
579.67	51.602
580.00	51.291
580.34	51.692
580.67	51.162
581.01	51.537
581.35	51.141
581.68	50.561
582.02	49.881
582.35	49.879
582.69	50.740
583.02	50.609
583.36	51.455
583.70	52.362
584.03	52.766
584.37	53.190
584.70	51.923
585.04	50.959
585.37	51.179
585.71	51.469
586.04	51.362
586.38	51.054
586.72	52.253
587.05	52.831
587.39	52.306
587.72	53.144
588.06	52.339
588.39	52.065
588.73	53.114
589.06	54.371
589.40	53.439
589.73	54.472
590.07	55.476
590.40	55.070
590.73	54.819
591.07	54.919
591.40	55.476
591.74	55.656
592.07	56.818
592.41	55.124
592.74	54.281
593.08	51.973
593.41	52.521
593.75	52.895
594.08	52.455
594.41	52.074
594.75	54.504
595.08	53.954
595.42	53.515
595.75	53.924
596.09	54.574
596.42	54.444
596.75	55.107
597.09	54.487
597.42	54.833
597.75	55.428
598.09	54.233
598.42	54.377
598.76	53.368
599.09	53.405
599.42	52.217
599.76	52.897
600.09	53.507
600.42	52.388
600.76	51.820
601.09	52.481
601.42	51.743
601.76	53.513
602.09	53.507
602.42	55.476
602.76	54.160
603.09	54.527
603.42	56.564
603.76	53.992
604.09	53.544
604.42	53.723
604.76	55.185
605.09	55.622
605.42	54.402
605.75	54.203
606.09	53.503
606.42	52.961
606.75	54.199
607.09	54.022
607.42	53.655
607.75	54.307
608.08	53.594
608.42	53.632
608.75	55.566
609.08	55.207
609.41	54.924
609.75	56.099
610.08	56.365
610.41	54.155
610.74	53.925
611.07	57.106
611.41	56.098
611.74	55.970
612.07	55.193
612.40	55.689
612.73	57.910
613.07	56.974
613.40	56.346
613.73	56.128
614.06	56.873
614.39	56.402
614.72	54.734
615.06	55.587
615.39	55.349
615.72	55.705
616.05	55.307
616.38	56.638
616.71	56.636
617.05	56.949
617.38	57.637
617.71	57.296
618.04	58.603
618.37	57.125
618.70	57.228
619.03	60.139
619.36	59.334
619.69	59.818
620.03	61.286
620.36	60.515
620.69	58.030
621.02	58.869
621.35	62.988
621.68	61.990
622.01	62.250
622.34	60.335
622.67	60.568
623.00	59.418
623.33	60.137
623.66	60.434
623.99	59.455
624.32	60.532
624.65	58.195
624.99	60.873
625.32	58.681
625.65	60.644
625.98	60.677
626.31	61.430
626.64	62.738
626.97	63.176
627.30	62.172
627.63	62.392
627.96	63.522
628.29	63.090
628.62	65.585
628.95	64.729
629.28	65.323
629.61	65.105
629.94	63.930
630.26	63.142
630.59	66.389
630.92	65.026
631.25	63.487
631.58	67.070
631.91	66.009
632.24	65.596
632.57	68.750
632.90	67.972
