SpectraSuite Data File
++++++++++++++++++++++++++++++++++++
Date: Fri May 15 20:49:58 PDT 2015
User: schluterlab
Dark Spectrum Present: Yes
Reference Spectrum Present: Yes
Number of Sampled Component Spectra: 1
Spectrometers: USB2E3373
Integration Time (usec): 3000 (USB2E3373)
Spectra Averaged: 3 (USB2E3373)
Boxcar Smoothing: 0 (USB2E3373)
Correct for Electrical Dark: No (USB2E3373)
Strobe/Lamp Enabled: No (USB2E3373)
Correct for Detector Non-linearity: No (USB2E3373)
Correct for Stray Light: No (USB2E3373)
Number of Pixels in Processed Spectrum: 2048
>>>>>Begin Processed Spectral Data<<<<<
178.53	0.000
178.91	0.000
179.29	12.500
179.67	-100.000
180.04	57.143
180.42	125.000
180.80	-1400.000
181.18	300.000
181.56	350.000
181.94	0.000
182.31	900.000
182.69	-180.000
183.07	-200.000
183.45	-220.000
183.83	200.000
184.20	36.364
184.58	166.667
184.96	100.000
185.34	300.000
185.72	-700.000
186.09	100.000
186.47	-400.000
186.85	283.333
187.23	200.000
187.61	-700.000
187.98	-200.000
188.36	-55.556
188.74	-166.667
189.12	41.176
189.49	16.667
189.87	0.000
190.25	-64.286
190.63	300.000
191.00	-333.333
191.38	5.263
191.76	-150.000
192.14	-25.000
192.51	-500.000
192.89	-211.111
193.27	-100.000
193.65	133.333
194.02	163.636
194.40	20.000
194.78	-225.000
195.15	-33.333
195.53	-137.500
195.91	50.000
196.29	-100.000
196.66	130.769
197.04	257.143
197.42	-44.444
197.79	-566.667
198.17	-123.077
198.55	2000.000
198.92	-166.667
199.30	200.000
199.68	-300.000
200.05	-433.333
200.43	0.000
200.81	-133.333
201.18	-333.333
201.56	1000.000
201.94	150.000
202.31	66.667
202.69	-100.000
203.07	300.000
203.44	-1100.000
203.82	0.000
204.19	42.857
204.57	-500.000
204.95	137.500
205.32	30.000
205.70	-71.429
206.08	-125.000
206.45	55.556
206.83	100.000
207.20	-14.286
207.58	-500.000
207.96	-333.333
208.33	-50.000
208.71	-150.000
209.08	-150.000
209.46	-1300.000
209.84	-180.000
210.21	-900.000
210.59	-100.000
210.96	-66.667
211.34	-325.000
211.71	20.000
212.09	-85.714
212.46	-1800.000
212.84	0.000
213.22	20.000
213.59	650.000
213.97	30.769
214.34	109.091
214.72	50.000
215.09	475.000
215.47	-15.385
215.84	-27.273
216.22	-333.333
216.59	-25.000
216.97	150.000
217.34	-175.000
217.72	-200.000
218.09	62.500
218.47	225.000
218.84	-900.000
219.22	-55.556
219.59	0.000
219.97	400.000
220.34	300.000
220.72	-114.286
221.09	-200.000
221.47	-450.000
221.84	-750.000
222.22	-1000.000
222.59	18.182
222.97	-66.667
223.34	-100.000
223.72	-64.286
224.09	-4.762
224.46	17.857
224.84	633.333
225.21	-70.000
225.59	6.667
225.96	-500.000
226.34	375.000
226.71	-142.857
227.08	-133.333
227.46	12.500
227.83	-300.000
228.21	-155.556
228.58	-9.091
228.95	-62.500
229.33	190.000
229.70	-6.250
230.08	-125.000
230.45	-142.857
230.82	-42.857
231.20	13.333
231.57	-14.286
231.95	-100.000
232.32	10.000
232.69	-7.143
233.07	66.667
233.44	-340.000
233.81	-90.000
234.19	-111.111
234.56	-23.529
234.93	700.000
235.31	-100.000
235.68	-220.000
236.05	-100.000
236.43	-50.000
236.80	11.765
237.17	0.000
237.55	-15.000
237.92	-29.630
238.29	-30.556
238.67	-26.667
239.04	-8.824
239.41	-48.780
239.79	-23.333
240.16	9.756
240.53	-7.895
240.91	-6.522
241.28	0.000
241.65	-3.571
242.02	-2.740
242.40	6.667
242.77	-16.949
243.14	-12.121
243.51	-1.250
243.89	6.897
244.26	-2.299
244.63	-1.190
245.00	3.093
245.38	6.186
245.75	-10.112
246.12	-0.862
246.49	0.826
246.87	12.500
247.24	-5.042
247.61	-11.404
247.98	-3.252
248.36	1.875
248.73	6.579
249.10	3.896
249.47	1.266
249.84	8.497
250.22	4.118
250.59	0.000
250.96	10.329
251.33	-4.070
251.70	8.235
252.08	2.538
252.45	7.426
252.82	1.508
253.19	7.834
253.56	2.804
253.94	6.306
254.31	4.348
254.68	5.263
255.05	6.693
255.42	0.873
255.79	7.722
256.16	5.447
256.54	10.448
256.91	5.703
257.28	4.461
257.65	2.996
258.02	1.418
258.39	9.764
258.76	7.692
259.14	6.977
259.51	5.502
259.88	5.498
260.25	2.941
260.62	7.986
260.99	5.763
261.36	4.110
261.73	2.848
262.10	6.383
262.47	5.215
262.85	3.448
263.22	5.538
263.59	8.100
263.96	9.627
264.33	6.061
264.70	4.762
265.07	1.488
265.44	7.082
265.81	8.475
266.18	5.738
266.55	7.198
266.92	7.513
267.29	4.700
267.66	8.696
268.03	4.974
268.40	5.483
268.77	6.952
269.14	6.715
269.51	6.684
269.88	3.491
270.25	4.082
270.62	4.634
270.99	3.069
271.36	5.134
271.73	7.512
272.10	6.569
272.47	6.856
272.84	5.446
273.21	7.657
273.58	5.542
273.95	5.034
274.32	5.312
274.69	3.394
275.06	4.241
275.43	5.896
275.80	5.298
276.17	4.598
276.54	6.424
276.91	8.333
277.28	4.367
277.65	6.612
278.02	8.085
278.39	5.470
278.76	5.870
279.13	2.490
279.50	7.563
279.87	7.775
280.23	4.086
280.60	7.407
280.97	6.263
281.34	6.923
281.71	7.803
282.08	4.499
282.45	6.262
282.82	4.440
283.19	8.124
283.56	3.854
283.92	4.364
284.29	5.192
284.66	4.845
285.03	4.126
285.40	5.860
285.77	4.569
286.14	7.220
286.51	5.535
286.87	5.302
287.24	6.446
287.61	4.762
287.98	8.070
288.35	5.546
288.72	7.706
289.08	2.604
289.45	6.678
289.82	5.594
290.19	4.096
290.56	5.146
290.93	6.397
291.29	4.160
291.66	6.457
292.03	4.625
292.40	5.000
292.77	3.987
293.13	3.734
293.50	1.366
293.87	4.427
294.24	4.637
294.60	4.024
294.97	6.399
295.34	3.221
295.71	4.918
296.08	5.531
296.44	2.560
296.81	4.722
297.18	2.899
297.55	5.556
297.91	4.521
298.28	5.145
298.65	4.749
299.02	5.391
299.38	3.694
299.75	4.138
300.12	4.712
300.48	5.138
300.85	4.816
301.22	4.935
301.59	4.605
301.95	5.823
302.32	5.966
302.69	4.478
303.05	5.198
303.42	5.853
303.79	5.491
304.15	5.257
304.52	3.448
304.89	4.211
305.25	3.632
305.62	3.967
305.99	4.912
306.35	4.855
306.72	4.499
307.09	4.219
307.45	4.707
307.82	5.093
308.19	5.691
308.55	5.453
308.92	6.100
309.29	2.458
309.65	4.844
310.02	5.391
310.38	4.610
310.75	5.683
311.12	4.521
311.48	5.196
311.85	5.026
312.22	4.747
312.58	5.839
312.95	4.803
313.31	4.865
313.68	5.759
314.05	5.204
314.41	6.598
314.78	5.876
315.14	6.578
315.51	6.211
315.87	6.455
316.24	7.078
316.61	7.677
316.97	7.738
317.34	8.301
317.70	7.457
318.07	7.692
318.43	7.745
318.80	7.576
319.16	8.301
319.53	9.877
319.89	8.465
320.26	9.919
320.62	10.532
320.99	8.559
321.35	10.689
321.72	12.046
322.08	11.682
322.45	12.386
322.81	12.770
323.18	11.580
323.54	12.355
323.91	13.242
324.27	14.551
324.64	14.700
325.00	15.055
325.37	15.519
325.73	15.413
326.10	14.623
326.46	15.874
326.83	16.623
327.19	17.611
327.56	17.202
327.92	17.606
328.29	17.411
328.65	19.057
329.01	18.199
329.38	19.908
329.74	18.602
330.11	18.814
330.47	19.388
330.84	19.135
331.20	20.817
331.56	20.833
331.93	20.639
332.29	22.090
332.66	20.633
333.02	20.911
333.38	19.890
333.75	20.604
334.11	21.755
334.48	21.487
334.84	21.245
335.20	22.507
335.57	22.665
335.93	23.758
336.29	22.376
336.66	22.252
337.02	21.561
337.38	21.667
337.75	21.818
338.11	24.797
338.47	23.905
338.84	22.551
339.20	22.395
339.56	23.761
339.93	24.082
340.29	23.761
340.65	23.746
341.02	22.606
341.38	23.009
341.74	22.615
342.11	22.964
342.47	24.199
342.83	24.740
343.20	23.606
343.56	24.174
343.92	22.764
344.28	23.655
344.65	23.489
345.01	23.336
345.37	23.717
345.73	24.184
346.10	24.159
346.46	24.979
346.82	23.977
347.19	22.444
347.55	24.728
347.91	24.757
348.27	23.040
348.63	25.639
349.00	23.708
349.36	24.356
349.72	25.290
350.08	25.000
350.45	24.501
350.81	24.834
351.17	24.104
351.53	25.796
351.89	23.369
352.26	24.000
352.62	24.677
352.98	23.936
353.34	23.994
353.70	25.324
354.07	23.468
354.43	24.500
354.79	23.699
355.15	25.476
355.51	25.554
355.87	25.000
356.24	23.409
356.60	25.384
356.96	25.476
357.32	25.319
357.68	23.925
358.04	24.717
358.40	24.437
358.77	25.199
359.13	25.620
359.49	25.270
359.85	25.429
360.21	25.040
360.57	24.943
360.93	24.584
361.29	24.245
361.66	25.627
362.02	25.152
362.38	25.590
362.74	25.889
363.10	25.207
363.46	25.204
363.82	25.770
364.18	25.830
364.54	24.706
364.90	25.735
365.26	24.818
365.62	25.036
365.98	24.633
366.35	26.220
366.71	26.386
367.07	25.835
367.43	25.881
367.79	26.148
368.15	25.628
368.51	26.001
368.87	25.341
369.23	25.126
369.59	25.875
369.95	25.513
370.31	26.662
370.67	26.493
371.03	26.214
371.39	26.550
371.75	25.055
372.11	25.820
372.47	26.479
372.83	26.402
373.19	27.318
373.55	26.498
373.91	26.350
374.27	26.931
374.63	26.274
374.99	26.099
375.35	25.139
375.71	26.084
376.07	25.772
376.42	25.646
376.78	26.376
377.14	25.931
377.50	25.564
377.86	26.573
378.22	25.590
378.58	26.154
378.94	25.961
379.30	25.452
379.66	25.643
380.02	24.954
380.38	25.502
380.74	25.793
381.09	26.135
381.45	24.954
381.81	25.478
382.17	25.127
382.53	25.921
382.89	25.235
383.25	25.576
383.61	26.463
383.97	25.143
384.32	25.954
384.68	25.820
385.04	25.429
385.40	25.327
385.76	25.346
386.12	26.003
386.48	26.054
386.83	25.174
387.19	25.336
387.55	25.471
387.91	25.183
388.27	25.458
388.62	26.935
388.98	24.862
389.34	25.484
389.70	26.290
390.06	24.858
390.42	24.417
390.77	25.180
391.13	24.779
391.49	24.903
391.85	25.731
392.20	24.859
392.56	24.476
392.92	24.956
393.28	24.705
393.64	24.505
393.99	25.768
394.35	24.478
394.71	24.585
395.07	24.576
395.42	24.894
395.78	24.430
396.14	24.590
396.50	24.921
396.85	24.662
397.21	24.311
397.57	23.950
397.92	24.086
398.28	23.678
398.64	23.614
399.00	23.928
399.35	24.266
399.71	23.492
400.07	24.063
400.42	23.195
400.78	24.189
401.14	24.198
401.49	24.955
401.85	23.827
402.21	23.072
402.57	24.188
402.92	23.212
403.28	22.995
403.63	23.266
403.99	22.321
404.35	23.298
404.70	22.262
405.06	22.973
405.42	23.120
405.77	22.952
406.13	22.177
406.49	22.262
406.84	23.533
407.20	22.697
407.55	22.151
407.91	21.992
408.27	21.670
408.62	23.385
408.98	22.489
409.34	22.429
409.69	22.739
410.05	21.613
410.40	22.099
410.76	22.256
411.11	22.438
411.47	22.419
411.83	21.532
412.18	22.072
412.54	21.598
412.89	21.613
413.25	22.082
413.60	21.615
413.96	21.472
414.31	22.500
414.67	21.167
415.03	21.039
415.38	20.953
415.74	21.433
416.09	21.816
416.45	21.472
416.80	21.348
417.16	21.892
417.51	22.052
417.87	20.535
418.22	21.567
418.58	22.007
418.93	21.881
419.29	20.166
419.64	20.544
420.00	21.222
420.35	20.955
420.71	20.899
421.06	20.933
421.42	20.493
421.77	20.636
422.12	19.864
422.48	20.411
422.83	20.650
423.19	20.598
423.54	19.929
423.90	20.377
424.25	21.068
424.61	21.053
424.96	20.441
425.31	20.797
425.67	20.012
426.02	21.143
426.38	21.039
426.73	20.400
427.09	20.506
427.44	20.412
427.79	20.742
428.15	20.631
428.50	20.715
428.85	20.025
429.21	21.053
429.56	21.078
429.92	20.185
430.27	21.053
430.62	19.916
430.98	20.594
431.33	19.821
431.68	20.042
432.04	19.899
432.39	20.023
432.74	19.122
433.10	21.322
433.45	20.191
433.80	19.965
434.16	18.947
434.51	20.430
434.86	20.441
435.22	19.742
435.57	19.838
435.92	20.419
436.28	18.903
436.63	20.308
436.98	20.046
437.34	19.298
437.69	20.274
438.04	18.860
438.39	20.342
438.75	18.822
439.10	20.034
439.45	19.963
439.81	19.755
440.16	19.834
440.51	20.537
440.86	20.363
441.22	19.174
441.57	20.751
441.92	19.465
442.27	19.235
442.63	20.717
442.98	20.448
443.33	19.699
443.68	19.841
444.03	20.020
444.39	18.987
444.74	19.509
445.09	19.933
445.44	20.114
445.79	20.010
446.15	19.714
446.50	19.468
446.85	20.510
447.20	19.552
447.55	20.759
447.91	19.741
448.26	19.465
448.61	20.207
448.96	19.621
449.31	19.538
449.66	19.222
450.02	19.452
450.37	18.731
450.72	18.671
451.07	20.823
451.42	19.039
451.77	18.626
452.12	18.660
452.47	18.416
452.83	19.022
453.18	19.165
453.53	19.469
453.88	19.551
454.23	18.439
454.58	20.529
454.93	19.716
455.28	17.206
455.63	19.405
455.98	20.505
456.34	18.519
456.69	18.742
457.04	19.975
457.39	18.712
457.74	18.017
458.09	17.540
458.44	18.315
458.79	18.263
459.14	18.707
459.49	18.149
459.84	18.669
460.19	18.447
460.54	19.193
460.89	18.295
461.24	18.571
461.59	19.181
461.94	17.358
462.29	18.275
462.64	18.538
462.99	18.348
463.34	17.803
463.69	17.761
464.04	17.857
464.39	17.708
464.74	17.669
465.09	18.465
465.44	18.061
465.79	16.667
466.14	17.959
466.49	16.964
466.84	18.144
467.19	18.023
467.54	17.625
467.89	17.688
468.24	17.579
468.59	17.143
468.94	17.651
469.29	17.311
469.64	18.319
469.99	17.940
470.34	16.655
470.68	18.419
471.03	17.693
471.38	16.904
471.73	16.457
472.08	17.096
472.43	16.242
472.78	16.107
473.13	17.007
473.48	17.850
473.83	16.999
474.17	16.645
474.52	16.146
474.87	16.788
475.22	15.619
475.57	16.770
475.92	17.060
476.27	17.520
476.61	16.319
476.96	15.226
477.31	16.712
477.66	16.685
478.01	16.395
478.36	16.013
478.70	16.150
479.05	17.198
479.40	15.792
479.75	15.537
480.10	16.078
480.45	15.750
480.79	16.314
481.14	16.291
481.49	16.108
481.84	15.396
482.19	14.920
482.53	16.211
482.88	16.420
483.23	15.019
483.58	15.991
483.92	15.295
484.27	15.588
484.62	15.688
484.97	14.925
485.31	14.993
485.66	14.240
486.01	14.398
486.36	14.021
486.70	14.595
487.05	14.429
487.40	14.607
487.75	14.451
488.09	14.679
488.44	14.993
488.79	14.681
489.13	14.944
489.48	14.408
489.83	14.933
490.17	14.876
490.52	14.873
490.87	14.484
491.22	15.330
491.56	14.326
491.91	14.245
492.26	15.119
492.60	15.259
492.95	16.085
493.30	14.656
493.64	15.029
493.99	15.266
494.34	13.981
494.68	14.333
495.03	14.550
495.37	14.917
495.72	14.589
496.07	14.341
496.41	13.962
496.76	14.279
497.11	14.765
497.45	14.845
497.80	15.136
498.14	15.549
498.49	14.017
498.84	14.920
499.18	15.010
499.53	14.633
499.87	13.327
500.22	13.650
500.56	14.019
500.91	14.157
501.26	13.791
501.60	13.822
501.95	13.634
502.29	14.140
502.64	14.286
502.98	13.468
503.33	14.265
503.67	14.120
504.02	13.881
504.36	14.102
504.71	14.293
505.06	14.041
505.40	13.604
505.75	14.485
506.09	13.735
506.44	13.655
506.78	13.929
507.13	13.806
507.47	12.950
507.82	13.568
508.16	13.471
508.51	13.694
508.85	13.762
509.19	13.784
509.54	14.048
509.88	13.592
510.23	13.663
510.57	13.896
510.92	12.527
511.26	12.821
511.61	13.256
511.95	13.808
512.30	13.415
512.64	13.634
512.98	13.700
513.33	13.878
513.67	13.644
514.02	13.902
514.36	14.514
514.70	13.928
515.05	14.101
515.39	13.164
515.74	13.892
516.08	14.047
516.42	14.252
516.77	14.511
517.11	13.591
517.46	13.764
517.80	13.766
518.14	12.676
518.49	13.101
518.83	13.183
519.17	13.402
519.52	14.446
519.86	13.205
520.20	13.730
520.55	12.570
520.89	14.241
521.23	13.553
521.58	13.754
521.92	13.654
522.26	13.403
522.61	14.221
522.95	14.768
523.29	13.723
523.64	14.104
523.98	13.804
524.32	12.500
524.66	13.124
525.01	13.247
525.35	13.804
525.69	12.862
526.04	12.698
526.38	14.527
526.72	12.950
527.06	13.424
527.41	13.720
527.75	12.131
528.09	13.754
528.43	13.369
528.78	12.805
529.12	13.484
529.46	12.736
529.80	13.300
530.15	13.399
530.49	12.391
530.83	13.201
531.17	12.021
531.51	13.475
531.86	12.169
532.20	11.900
532.54	13.002
532.88	14.031
533.22	12.769
533.57	13.041
533.91	12.337
534.25	11.914
534.59	12.508
534.93	11.957
535.27	11.739
535.62	11.990
535.96	12.068
536.30	13.456
536.64	13.990
536.98	11.847
537.32	13.158
537.66	13.184
538.01	12.867
538.35	11.720
538.69	12.450
539.03	12.509
539.37	12.786
539.71	12.815
540.05	12.016
540.39	13.019
540.73	12.901
541.07	12.776
541.42	13.239
541.76	13.696
542.10	12.113
542.44	13.134
542.78	11.700
543.12	12.088
543.46	13.352
543.80	12.838
544.14	11.415
544.48	12.325
544.82	11.825
545.16	12.705
545.50	11.549
545.84	12.252
546.18	12.624
546.52	12.257
546.86	11.790
547.20	12.303
547.54	11.731
547.88	12.772
548.22	11.506
548.56	11.675
548.90	12.534
549.24	12.259
549.58	12.271
549.92	11.723
550.26	13.407
550.60	10.929
550.94	11.650
551.28	12.442
551.62	12.154
551.96	12.105
552.30	11.477
552.64	10.790
552.98	11.955
553.32	11.912
553.66	11.176
554.00	11.898
554.34	12.777
554.68	12.168
555.02	11.682
555.36	12.341
555.69	11.062
556.03	11.278
556.37	11.174
556.71	12.202
557.05	11.409
557.39	11.599
557.73	11.319
558.07	12.670
558.41	11.409
558.75	12.081
559.08	12.451
559.42	11.111
559.76	11.369
560.10	12.003
560.44	10.648
560.78	12.098
561.12	11.495
561.45	11.736
561.79	11.134
562.13	11.994
562.47	11.871
562.81	11.960
563.15	11.707
563.48	11.740
563.82	11.874
564.16	11.351
564.50	11.959
564.84	11.714
565.17	11.469
565.51	11.954
565.85	11.523
566.19	11.538
566.52	10.858
566.86	11.889
567.20	11.083
567.54	11.375
567.88	11.072
568.21	11.652
568.55	10.815
568.89	11.088
569.23	10.592
569.56	10.771
569.90	10.191
570.24	10.197
570.57	10.036
570.91	11.014
571.25	9.865
571.59	9.748
571.92	9.600
572.26	9.300
572.60	9.798
572.93	10.072
573.27	9.843
573.61	9.726
573.95	9.640
574.28	9.296
574.62	9.509
574.96	9.200
575.29	9.440
575.63	8.629
575.97	8.918
576.30	9.446
576.64	8.980
576.98	9.344
577.31	9.167
577.65	9.427
577.98	9.637
578.32	9.030
578.66	8.919
578.99	9.125
579.33	9.293
579.67	9.160
580.00	9.342
580.34	9.328
580.67	9.224
581.01	9.582
581.35	8.979
581.68	9.171
582.02	8.901
582.35	8.728
582.69	8.901
583.02	9.037
583.36	9.581
583.70	9.579
584.03	9.480
584.37	9.656
584.70	9.231
585.04	8.938
585.37	9.066
585.71	9.084
586.04	8.901
586.38	8.829
586.72	9.469
587.05	9.561
587.39	9.813
587.72	9.513
588.06	9.438
588.39	9.285
588.73	9.646
589.06	9.915
589.40	9.817
589.73	9.602
590.07	10.347
590.40	9.791
590.73	9.638
591.07	10.008
591.40	10.018
591.74	9.955
592.07	10.668
592.41	10.336
592.74	9.877
593.08	8.802
593.41	9.687
593.75	9.650
594.08	8.960
594.41	9.571
594.75	9.122
595.08	9.837
595.42	8.944
595.75	9.651
596.09	9.773
596.42	9.756
596.75	10.036
597.09	10.251
597.42	9.575
597.75	9.757
598.09	10.005
598.42	9.702
598.76	9.352
599.09	9.135
599.42	9.360
599.76	9.368
600.09	9.427
600.42	9.401
600.76	9.398
601.09	9.504
601.42	9.440
601.76	9.329
602.09	9.695
602.42	9.983
602.76	9.508
603.09	9.842
603.42	10.117
603.76	9.355
604.09	9.072
604.42	10.025
604.76	10.191
605.09	10.192
605.42	9.481
605.75	9.457
606.09	9.682
606.42	9.675
606.75	9.697
607.09	10.154
607.42	9.659
607.75	9.369
608.08	9.389
608.42	10.005
608.75	9.735
609.08	9.268
609.41	10.254
609.75	10.030
610.08	10.185
610.41	9.227
610.74	10.093
611.07	10.233
611.41	10.431
611.74	10.021
612.07	9.047
612.40	10.777
612.73	10.226
613.07	10.180
613.40	10.886
613.73	9.289
614.06	10.629
614.39	10.321
614.72	9.244
615.06	10.112
615.39	9.279
615.72	9.903
616.05	9.832
616.38	9.117
616.71	9.297
617.05	9.697
617.38	9.177
617.71	10.000
618.04	10.222
618.37	11.034
618.70	10.561
619.03	11.389
619.36	10.275
619.69	10.311
620.03	11.541
620.36	10.944
620.69	10.778
621.02	10.627
621.35	11.369
621.68	10.799
622.01	11.583
622.34	10.934
622.67	11.041
623.00	11.332
623.33	11.433
623.66	10.845
623.99	9.834
624.32	11.331
624.65	9.398
624.99	10.008
625.32	10.159
625.65	11.783
625.98	11.039
626.31	10.973
626.64	11.785
626.97	11.431
627.30	10.158
627.63	12.218
627.96	10.512
628.29	11.841
628.62	11.799
628.95	9.920
629.28	11.694
629.61	11.167
629.94	11.339
630.26	10.968
630.59	12.175
630.92	11.897
631.25	10.974
631.58	12.004
631.91	11.294
632.24	9.862
632.57	11.818
632.90	11.625
633.23	12.941
633.56	11.587
633.89	12.084
634.22	13.704
634.55	12.071
634.88	11.877
635.20	12.051
635.53	12.000
635.86	10.273
636.19	11.384
636.52	11.352
636.85	11.911
637.18	10.692
637.51	12.830
637.83	11.958
638.16	13.643
638.49	10.763
638.82	13.816
639.15	12.212
