SpectraSuite Data File
++++++++++++++++++++++++++++++++++++
Date: Fri May 15 20:44:02 PDT 2015
User: schluterlab
Dark Spectrum Present: Yes
Reference Spectrum Present: Yes
Number of Sampled Component Spectra: 1
Spectrometers: USB2E3373
Integration Time (usec): 3000 (USB2E3373)
Spectra Averaged: 3 (USB2E3373)
Boxcar Smoothing: 0 (USB2E3373)
Correct for Electrical Dark: No (USB2E3373)
Strobe/Lamp Enabled: No (USB2E3373)
Correct for Detector Non-linearity: No (USB2E3373)
Correct for Stray Light: No (USB2E3373)
Number of Pixels in Processed Spectrum: 2048
>>>>>Begin Processed Spectral Data<<<<<
178.53	0.000
178.91	0.000
179.29	62.500
179.67	-650.000
180.04	100.000
180.42	225.000
180.80	0.000
181.18	100.000
181.56	500.000
181.94	250.000
182.31	800.000
182.69	20.000
183.07	-300.000
183.45	-160.000
183.83	266.667
184.20	-72.727
184.58	66.667
184.96	125.000
185.34	66.667
185.72	-300.000
186.09	107.692
186.47	-700.000
186.85	83.333
187.23	177.778
187.61	800.000
187.98	-433.333
188.36	-33.333
188.74	-200.000
189.12	52.941
189.49	44.444
189.87	0.000
190.25	71.429
190.63	0.000
191.00	-33.333
191.38	0.000
191.76	100.000
192.14	-25.000
192.51	-250.000
192.89	-44.444
193.27	28.571
193.65	233.333
194.02	136.364
194.40	30.000
194.78	-175.000
195.15	-41.667
195.53	-87.500
195.91	425.000
196.29	25.000
196.66	61.538
197.04	42.857
197.42	-44.444
197.79	-333.333
198.17	-69.231
198.55	1100.000
198.92	-133.333
199.30	-200.000
199.68	-80.000
200.05	-300.000
200.43	0.000
200.81	33.333
201.18	-333.333
201.56	600.000
201.94	-50.000
202.31	200.000
202.69	-220.000
203.07	350.000
203.44	-300.000
203.82	0.000
204.19	42.857
204.57	-333.333
204.95	112.500
205.32	-30.000
205.70	57.143
206.08	-75.000
206.45	300.000
206.83	64.286
207.20	-228.571
207.58	-400.000
207.96	-233.333
208.33	-100.000
208.71	-125.000
209.08	-316.667
209.46	-300.000
209.84	-120.000
210.21	-1500.000
210.59	142.857
210.96	0.000
211.34	-75.000
211.71	40.000
212.09	-200.000
212.46	-1500.000
212.84	0.000
213.22	-10.000
213.59	350.000
213.97	84.615
214.34	100.000
214.72	0.000
215.09	175.000
215.47	69.231
215.84	72.727
216.22	-433.333
216.59	-50.000
216.97	-150.000
217.34	50.000
217.72	-380.000
218.09	62.500
218.47	112.500
218.84	-200.000
219.22	-22.222
219.59	-300.000
219.97	566.667
220.34	300.000
220.72	-142.857
221.09	-125.000
221.47	-100.000
221.84	-200.000
222.22	-700.000
222.59	-9.091
222.97	8.333
223.34	-100.000
223.72	7.143
224.09	28.571
224.46	-7.143
224.84	433.333
225.21	-70.000
225.59	-20.000
225.96	-500.000
226.34	400.000
226.71	-28.571
227.08	100.000
227.46	-62.500
227.83	-1000.000
228.21	11.111
228.58	9.091
228.95	0.000
229.33	60.000
229.70	18.750
230.08	-75.000
230.45	71.429
230.82	-14.286
231.20	33.333
231.57	57.143
231.95	57.143
232.32	-110.000
232.69	-28.571
233.07	-200.000
233.44	-60.000
233.81	-20.000
234.19	-55.556
234.56	0.000
234.93	200.000
235.31	-25.000
235.68	-280.000
236.05	-107.692
236.43	-10.000
236.80	5.882
237.17	0.000
237.55	-50.000
237.92	7.407
238.29	33.333
238.67	23.333
239.04	29.412
239.41	-19.512
239.79	-10.000
240.16	19.512
240.53	2.632
240.91	-6.522
241.28	19.048
241.65	25.000
242.02	32.877
242.40	13.333
242.77	27.119
243.14	18.182
243.51	18.750
243.89	22.989
244.26	20.690
244.63	23.810
245.00	21.649
245.38	24.742
245.75	10.112
246.12	11.207
246.49	20.661
246.87	28.846
247.24	17.647
247.61	22.807
247.98	26.829
248.36	20.625
248.73	19.079
249.10	21.429
249.47	18.354
249.84	25.490
250.22	20.000
250.59	18.301
250.96	30.516
251.33	16.279
251.70	24.706
252.08	20.812
252.45	28.218
252.82	18.090
253.19	24.424
253.56	19.626
253.94	28.378
254.31	21.739
254.68	23.684
255.05	25.197
255.42	27.511
255.79	24.710
256.16	22.179
256.54	27.239
256.91	23.574
257.28	23.420
257.65	23.221
258.02	21.631
258.39	25.589
258.76	26.007
259.14	26.910
259.51	26.214
259.88	28.179
260.25	22.876
260.62	28.472
260.99	22.373
261.36	22.603
261.73	22.468
262.10	26.748
262.47	19.939
262.85	26.959
263.22	25.538
263.59	25.857
263.96	25.155
264.33	24.242
264.70	22.917
265.07	22.024
265.44	24.363
265.81	25.141
266.18	24.590
266.55	24.165
266.92	22.280
267.29	25.326
267.66	24.041
268.03	25.393
268.40	26.893
268.77	28.342
269.14	24.940
269.51	23.393
269.88	22.943
270.25	22.704
270.62	21.707
270.99	23.529
271.36	23.472
271.73	25.352
272.10	23.601
272.47	25.768
272.84	26.733
273.21	28.306
273.58	25.783
273.95	28.146
274.32	23.095
274.69	22.851
275.06	26.562
275.43	22.902
275.80	24.724
276.17	24.828
276.54	25.910
276.91	22.807
277.28	25.546
277.65	23.347
278.02	23.191
278.39	25.821
278.76	23.480
279.13	20.747
279.50	23.950
279.87	25.702
280.23	24.516
280.60	25.536
280.97	25.657
281.34	24.038
281.71	26.694
282.08	23.722
282.45	22.309
282.82	22.587
283.19	23.404
283.56	22.736
283.92	21.063
284.29	21.731
284.66	22.674
285.03	26.130
285.40	21.928
285.77	20.738
286.14	22.744
286.51	27.306
286.87	21.572
287.24	23.573
287.61	20.811
287.98	22.456
288.35	20.104
288.72	23.117
289.08	22.222
289.45	22.320
289.82	22.727
290.19	20.307
290.56	20.755
290.93	22.391
291.29	21.263
291.66	22.205
292.03	20.255
292.40	20.323
292.77	18.979
293.13	19.643
293.50	17.754
293.87	19.389
294.24	18.547
294.60	17.437
294.97	20.833
295.34	18.558
295.71	18.778
296.08	18.685
296.44	18.350
296.81	17.778
297.18	18.696
297.55	19.106
297.91	17.260
298.28	18.734
298.65	17.368
299.02	19.137
299.38	16.005
299.75	17.241
300.12	15.183
300.48	16.996
300.85	17.744
301.22	16.364
301.59	16.711
301.95	18.861
302.32	17.510
302.69	16.915
303.05	16.955
303.42	17.559
303.79	17.640
304.15	17.085
304.52	16.171
304.89	16.140
305.25	15.860
305.62	15.169
305.99	15.789
306.35	16.532
306.72	16.085
307.09	14.937
307.45	15.844
307.82	14.583
308.19	16.144
308.55	15.812
308.92	17.102
309.29	14.637
309.65	13.778
310.02	16.062
310.38	14.929
310.75	16.721
311.12	15.823
311.48	16.649
311.85	15.707
312.22	15.401
312.58	14.968
312.95	14.408
313.31	15.942
313.68	14.660
314.05	15.306
314.41	16.598
314.78	15.979
315.14	15.930
315.51	16.046
315.87	16.189
316.24	16.684
316.61	15.945
316.97	17.262
317.34	15.820
317.70	15.870
318.07	15.962
318.43	16.667
318.80	15.720
319.16	15.723
319.53	16.334
319.89	17.323
320.26	17.510
320.62	16.951
320.99	15.658
321.35	16.033
321.72	18.172
322.08	16.717
322.45	17.157
322.81	16.503
323.18	17.664
323.54	17.181
323.91	17.819
324.27	18.262
324.64	20.037
325.00	19.252
325.37	19.651
325.73	17.226
326.10	19.164
326.46	19.910
326.83	19.773
327.19	19.704
327.56	19.896
327.92	20.335
328.29	19.554
328.65	19.811
329.01	19.577
329.38	19.908
329.74	19.830
330.11	21.779
330.47	18.646
330.84	19.615
331.20	21.293
331.56	19.167
331.93	22.100
332.29	20.898
332.66	22.172
333.02	21.747
333.38	20.532
333.75	21.520
334.11	20.322
334.48	22.212
334.84	21.429
335.20	20.952
335.57	20.399
335.93	21.771
336.29	21.363
336.66	20.345
337.02	21.654
337.38	21.574
337.75	22.818
338.11	21.280
338.47	22.080
338.84	22.089
339.20	21.481
339.56	21.560
339.93	21.486
340.29	22.569
340.65	21.953
341.02	21.720
341.38	20.885
341.74	20.495
342.11	20.971
342.47	21.085
342.83	21.886
343.20	21.777
343.56	21.478
343.92	20.638
344.28	21.264
344.65	21.675
345.01	19.706
345.37	20.353
345.73	21.757
346.10	22.606
346.46	21.447
346.82	20.622
347.19	21.862
347.55	21.888
347.91	21.926
348.27	19.806
348.63	21.295
349.00	19.770
349.36	21.779
349.72	22.056
350.08	21.885
350.45	21.389
350.81	21.429
351.17	20.928
351.53	21.469
351.89	20.892
352.26	21.200
352.62	21.855
352.98	21.124
353.34	21.739
353.70	22.249
354.07	20.887
354.43	21.537
354.79	19.901
355.15	21.746
355.51	22.152
355.87	21.117
356.24	20.147
356.60	21.504
356.96	21.825
357.32	20.927
357.68	20.563
358.04	20.436
358.40	21.302
358.77	21.691
359.13	21.137
359.49	20.955
359.85	20.983
360.21	20.494
360.57	22.341
360.93	20.575
361.29	21.526
361.66	21.395
362.02	21.894
362.38	21.325
362.74	21.726
363.10	22.649
363.46	21.201
363.82	21.938
364.18	21.697
364.54	21.544
364.90	22.939
365.26	21.543
365.62	22.701
365.98	22.141
366.35	23.744
366.71	22.395
367.07	21.626
367.43	22.933
367.79	23.110
368.15	21.823
368.51	22.287
368.87	20.962
369.23	21.372
369.59	22.376
369.95	22.361
370.31	22.977
370.67	22.388
371.03	21.434
371.39	21.736
371.75	23.004
372.11	22.183
372.47	21.746
372.83	22.640
373.19	22.682
373.55	21.877
373.91	22.534
374.27	21.545
374.63	22.326
374.99	22.553
375.35	21.100
375.71	22.587
376.07	22.823
376.42	22.585
376.78	22.953
377.14	22.952
377.50	22.112
377.86	22.892
378.22	22.719
378.58	21.859
378.94	22.180
379.30	22.333
379.66	23.009
380.02	22.502
380.38	21.363
380.74	22.142
381.09	22.822
381.45	21.774
381.81	22.517
382.17	22.335
382.53	22.174
382.89	22.159
383.25	22.962
383.61	23.110
383.97	22.032
384.32	22.076
384.68	22.539
385.04	21.814
385.40	22.340
385.76	23.019
386.12	23.351
386.48	22.478
386.83	22.575
387.19	23.565
387.55	23.149
387.91	22.677
388.27	21.673
388.62	22.530
388.98	23.204
389.34	22.673
389.70	23.182
390.06	21.460
390.42	22.733
390.77	22.041
391.13	22.888
391.49	22.251
391.85	22.287
392.20	22.285
392.56	23.013
392.92	22.783
393.28	22.936
393.64	22.342
393.99	23.072
394.35	22.391
394.71	22.542
395.07	22.564
395.42	22.708
395.78	22.541
396.14	22.383
396.50	23.018
396.85	22.215
397.21	22.118
397.57	21.881
397.92	22.049
398.28	23.046
398.64	21.446
399.00	23.138
399.35	22.009
399.71	21.654
400.07	22.370
400.42	21.665
400.78	22.290
401.14	22.626
401.49	22.275
401.85	22.060
402.21	23.133
402.57	23.688
402.92	21.957
403.28	22.619
403.63	23.266
403.99	22.003
404.35	22.548
404.70	22.679
405.06	22.209
405.42	22.001
405.77	21.499
406.13	20.896
406.49	21.255
406.84	22.249
407.20	22.517
407.55	21.185
407.91	22.861
408.27	22.881
408.62	21.969
408.98	22.859
409.34	21.933
409.69	21.770
410.05	22.106
410.40	21.420
410.76	21.894
411.11	22.062
411.47	22.222
411.83	20.967
412.18	23.037
412.54	21.785
412.89	21.860
413.25	22.142
413.60	21.925
413.96	21.779
414.31	22.378
414.67	22.130
415.03	22.703
415.38	21.410
415.74	21.564
416.09	22.730
416.45	22.350
416.80	21.084
417.16	23.688
417.51	22.585
417.87	21.447
418.22	21.632
418.58	22.676
418.93	23.323
419.29	21.191
419.64	21.646
420.00	22.922
420.35	22.149
420.71	22.175
421.06	21.854
421.42	21.274
421.77	21.965
422.12	21.793
422.48	22.090
422.83	22.506
423.19	22.178
423.54	21.576
423.90	21.731
424.25	22.273
424.61	22.399
424.96	21.893
425.31	23.975
425.67	22.770
426.02	23.380
426.38	22.793
426.73	22.760
427.09	23.101
427.44	22.412
427.79	22.510
428.15	22.573
428.50	22.290
428.85	21.806
429.21	22.524
429.56	22.264
429.92	22.907
430.27	21.654
430.62	21.955
430.98	21.762
431.33	22.555
431.68	21.769
432.04	22.191
432.39	22.133
432.74	22.249
433.10	23.391
433.45	22.820
433.80	21.764
434.16	21.607
434.51	22.581
434.86	22.764
435.22	21.929
435.57	23.206
435.92	22.335
436.28	21.884
436.63	22.019
436.98	22.306
437.34	22.263
437.69	23.733
438.04	22.450
438.39	22.114
438.75	22.404
439.10	22.581
439.45	23.128
439.81	22.752
440.16	22.803
440.51	23.881
440.86	23.927
441.22	22.455
441.57	22.627
441.92	23.190
442.27	23.614
442.63	23.769
442.98	23.492
443.33	22.371
443.68	22.546
444.03	22.901
444.39	23.020
444.74	24.025
445.09	21.993
445.44	22.507
445.79	23.569
446.15	23.568
446.50	22.296
446.85	23.964
447.20	23.201
447.55	23.884
447.91	22.899
448.26	23.847
448.61	24.180
448.96	23.752
449.31	23.642
449.66	23.461
450.02	23.388
450.37	22.703
450.72	23.654
451.07	23.165
451.42	24.220
451.77	23.448
452.12	22.608
452.47	22.988
452.83	24.028
453.18	23.529
453.53	23.578
453.88	24.226
454.23	24.216
454.58	25.000
454.93	24.162
455.28	22.921
455.63	24.117
455.98	24.233
456.34	23.691
456.69	23.952
457.04	24.134
457.39	24.423
457.74	23.035
458.09	23.484
458.44	23.347
458.79	23.754
459.14	24.371
459.49	24.418
459.84	24.422
460.19	23.483
460.54	24.450
460.89	24.148
461.24	24.534
461.59	23.278
461.94	23.836
462.29	24.367
462.64	24.983
462.99	24.035
463.34	23.922
463.69	24.131
464.04	24.516
464.39	24.560
464.74	23.374
465.09	24.080
465.44	24.639
465.79	23.639
466.14	25.086
466.49	23.634
466.84	23.974
467.19	25.031
467.54	24.330
467.89	23.942
468.24	24.392
468.59	25.270
468.94	24.698
469.29	24.918
469.64	25.496
469.99	24.877
470.34	24.437
470.68	26.771
471.03	24.558
471.38	24.893
471.73	25.980
472.08	24.559
472.43	25.705
472.78	23.989
473.13	24.626
473.48	25.212
473.83	24.346
474.17	25.972
474.52	25.463
474.87	26.424
475.22	26.236
475.57	25.522
475.92	25.891
476.27	26.601
476.61	24.942
476.96	24.986
477.31	26.176
477.66	25.112
478.01	26.053
478.36	24.510
478.70	25.612
479.05	25.604
479.40	26.550
479.75	25.287
480.10	25.141
480.45	25.950
480.79	26.687
481.14	26.844
481.49	24.631
481.84	26.062
482.19	25.772
482.53	25.899
482.88	25.489
483.23	25.768
483.58	26.368
483.92	25.847
484.27	25.205
484.62	25.549
484.97	25.332
485.31	25.108
485.66	23.778
486.01	24.062
486.36	23.769
486.70	24.108
487.05	24.548
487.40	24.457
487.75	24.732
488.09	24.938
488.44	24.966
488.79	25.364
489.13	25.801
489.48	25.994
489.83	26.726
490.17	25.618
490.52	25.912
490.87	26.284
491.22	26.122
491.56	26.613
491.91	25.191
492.26	26.398
492.60	26.536
492.95	26.709
493.30	25.403
493.64	26.375
493.99	26.232
494.34	26.068
494.68	26.238
495.03	26.229
495.37	26.202
495.72	27.108
496.07	27.024
496.41	26.038
496.76	25.979
497.11	25.803
497.45	27.924
497.80	26.741
498.14	26.379
498.49	26.105
498.84	27.096
499.18	27.259
499.53	26.984
499.87	26.216
500.22	26.212
500.56	27.786
500.91	26.606
501.26	26.990
501.60	26.660
501.95	25.813
502.29	26.973
502.64	26.593
502.98	27.479
503.33	26.513
503.67	27.711
504.02	27.908
504.36	28.006
504.71	27.374
505.06	28.384
505.40	28.274
505.75	28.093
506.09	27.572
506.44	29.004
506.78	28.980
507.13	28.490
507.47	27.781
507.82	28.579
508.16	28.420
508.51	29.224
508.85	28.938
509.19	29.218
509.54	29.437
509.88	28.587
510.23	29.962
510.57	29.182
510.92	29.424
511.26	30.333
511.61	30.913
511.95	30.027
512.30	29.712
512.64	30.217
512.98	30.601
513.33	31.561
513.67	30.642
514.02	32.037
514.36	32.514
514.70	32.110
515.05	32.432
515.39	32.822
515.74	32.515
516.08	32.038
516.42	33.451
516.77	33.353
517.11	33.650
517.46	33.872
517.80	34.088
518.14	33.864
518.49	34.075
518.83	33.779
519.17	33.475
519.52	34.399
519.86	35.114
520.20	34.143
520.55	35.272
520.89	36.700
521.23	35.592
521.58	37.539
521.92	36.474
522.26	35.198
522.61	37.078
522.95	37.947
523.29	37.294
523.64	37.166
523.98	37.395
524.32	37.371
524.66	39.117
525.01	37.597
525.35	38.820
525.69	38.316
526.04	37.434
526.38	40.013
526.72	37.279
527.06	38.327
527.41	38.786
527.75	39.611
528.09	38.804
528.43	40.783
528.78	38.614
529.12	40.516
529.46	39.636
529.80	40.342
530.15	41.584
530.49	40.943
530.83	40.903
531.17	40.497
531.51	40.561
531.86	41.264
532.20	40.710
532.54	42.478
532.88	41.752
533.22	41.062
533.57	41.022
533.91	40.862
534.25	42.318
534.59	41.758
534.93	41.032
535.27	39.150
535.62	41.218
535.96	41.292
536.30	41.953
536.64	41.626
536.98	41.742
537.32	42.603
537.66	43.548
538.01	42.168
538.35	42.718
538.69	42.277
539.03	42.105
539.37	42.732
539.71	42.195
540.05	42.498
540.39	43.144
540.73	43.166
541.07	42.749
541.42	43.078
541.76	42.602
542.10	42.533
542.44	43.155
542.78	41.707
543.12	42.582
543.46	44.367
543.80	42.956
544.14	41.121
544.48	42.771
544.82	43.677
545.16	44.262
545.50	42.857
545.84	44.122
546.18	43.688
546.52	43.403
546.86	42.991
547.20	43.205
547.54	42.403
547.88	43.139
548.22	41.946
548.56	42.084
548.90	42.857
549.24	42.906
549.58	42.948
549.92	43.460
550.26	43.077
550.60	43.271
550.94	44.063
551.28	43.740
551.62	45.000
551.96	43.609
552.30	43.275
552.64	42.454
552.98	44.093
553.32	43.153
553.66	43.396
554.00	43.358
554.34	44.978
554.68	43.437
555.02	45.461
555.36	43.306
555.69	42.491
556.03	42.184
556.37	42.776
556.71	43.827
557.05	44.594
557.39	43.420
557.73	44.378
558.07	44.947
558.41	45.636
558.75	43.882
559.08	43.893
559.42	46.032
559.76	44.676
560.10	44.266
560.44	43.187
560.78	42.657
561.12	44.006
561.45	43.710
561.79	43.557
562.13	43.364
562.47	42.302
562.81	43.228
563.15	43.441
563.48	43.494
563.82	44.338
564.16	42.549
564.50	41.959
564.84	43.307
565.17	42.186
565.51	44.877
565.85	43.827
566.19	43.767
566.52	43.097
566.86	43.316
567.20	42.902
567.54	42.214
567.88	42.882
568.21	42.647
568.55	41.522
568.89	41.222
569.23	40.299
569.56	39.755
569.90	39.829
570.24	38.147
570.57	39.127
570.91	38.376
571.25	37.422
571.59	37.745
571.92	36.741
572.26	37.017
572.60	37.457
572.93	37.088
573.27	36.897
573.61	37.679
573.95	36.974
574.28	36.229
574.62	35.978
574.96	36.225
575.29	36.143
575.63	35.268
575.97	35.592
576.30	36.576
576.64	36.424
576.98	36.551
577.31	36.299
577.65	36.009
577.98	35.904
578.32	35.162
578.66	34.816
578.99	35.026
579.33	35.848
579.67	35.478
580.00	35.747
580.34	36.294
580.67	35.485
581.01	36.119
581.35	35.487
581.68	34.796
582.02	34.483
582.35	34.968
582.69	35.080
583.02	34.993
583.36	35.463
583.70	36.267
584.03	36.419
584.37	36.618
584.70	35.604
585.04	35.363
585.37	35.799
585.71	34.683
586.04	35.350
586.38	35.369
586.72	36.241
587.05	36.337
587.39	36.092
587.72	35.921
588.06	35.815
588.39	36.400
588.73	36.233
589.06	36.562
589.40	36.536
589.73	37.422
590.07	37.424
590.40	37.732
590.73	38.180
591.07	37.617
591.40	37.578
591.74	37.738
592.07	38.404
592.41	38.428
592.74	37.276
593.08	35.557
593.41	35.947
593.75	35.558
594.08	35.736
594.41	36.463
594.75	36.031
595.08	36.549
595.42	36.695
595.75	37.739
596.09	36.474
596.42	37.164
596.75	36.501
597.09	37.221
597.42	37.624
597.75	37.242
598.09	37.030
598.42	36.597
598.76	36.594
599.09	36.258
599.42	35.392
599.76	35.591
600.09	35.671
600.42	35.519
600.76	35.958
601.09	35.420
601.42	34.900
601.76	35.808
602.09	35.809
602.42	37.110
602.76	36.248
603.09	37.251
603.42	36.538
603.76	35.685
604.09	36.290
604.42	36.210
604.76	37.339
605.09	37.706
605.42	36.795
605.75	36.165
606.09	36.093
606.42	35.530
606.75	36.450
607.09	35.956
607.42	35.977
607.75	37.078
608.08	36.164
608.42	36.729
608.75	36.675
609.08	37.120
609.41	37.157
609.75	36.845
610.08	37.094
610.41	36.184
610.74	36.324
611.07	37.209
611.41	36.949
611.74	37.527
612.07	35.814
612.40	36.597
612.73	37.458
613.07	36.895
613.40	36.761
613.73	37.045
614.06	37.618
614.39	36.548
614.72	37.031
615.06	37.095
615.39	36.245
615.72	35.576
616.05	36.927
616.38	35.499
616.71	38.043
617.05	37.986
617.38	38.969
617.71	37.547
618.04	38.032
618.37	38.588
618.70	37.492
619.03	38.194
619.36	37.771
619.69	39.803
620.03	39.664
620.36	39.557
620.69	37.259
621.02	38.991
621.35	41.245
621.68	42.007
622.01	40.833
622.34	39.346
622.67	39.826
623.00	39.816
623.33	38.643
623.66	38.369
623.99	37.821
624.32	38.783
624.65	38.722
624.99	38.977
625.32	38.135
625.65	39.120
625.98	39.484
626.31	38.321
626.64	40.035
626.97	40.750
627.30	39.930
627.63	41.075
627.96	41.330
628.29	40.148
628.62	40.413
628.95	39.880
629.28	41.633
629.61	40.179
629.94	42.131
630.26	40.119
630.59	43.704
630.92	41.538
631.25	41.231
631.58	42.511
631.91	40.680
632.24	41.858
632.57	43.409
632.90	43.298
633.23	43.059
633.56	43.829
