SpectraSuite Data File
++++++++++++++++++++++++++++++++++++
Date: Fri May 15 20:45:38 PDT 2015
User: schluterlab
Dark Spectrum Present: Yes
Reference Spectrum Present: Yes
Number of Sampled Component Spectra: 1
Spectrometers: USB2E3373
Integration Time (usec): 3000 (USB2E3373)
Spectra Averaged: 3 (USB2E3373)
Boxcar Smoothing: 0 (USB2E3373)
Correct for Electrical Dark: No (USB2E3373)
Strobe/Lamp Enabled: No (USB2E3373)
Correct for Detector Non-linearity: No (USB2E3373)
Correct for Stray Light: No (USB2E3373)
Number of Pixels in Processed Spectrum: 2048
>>>>>Begin Processed Spectral Data<<<<<
178.53	0.000
178.91	0.000
179.29	100.000
179.67	-100.000
180.04	-71.429
180.42	-150.000
180.80	-500.000
181.18	233.333
181.56	700.000
181.94	50.000
182.31	-300.000
182.69	-40.000
183.07	-266.667
183.45	-240.000
183.83	133.333
184.20	0.000
184.58	33.333
184.96	-50.000
185.34	-66.667
185.72	-300.000
186.09	146.154
186.47	-500.000
186.85	250.000
187.23	155.556
187.61	100.000
187.98	-100.000
188.36	-77.778
188.74	-600.000
189.12	0.000
189.49	-16.667
189.87	0.000
190.25	-28.571
190.63	-350.000
191.00	-266.667
191.38	-31.579
191.76	-100.000
192.14	175.000
192.51	650.000
192.89	-44.444
193.27	-71.429
193.65	300.000
194.02	218.182
194.40	70.000
194.78	-37.500
195.15	25.000
195.53	-175.000
195.91	125.000
196.29	-50.000
196.66	84.615
197.04	185.714
197.42	-77.778
197.79	-466.667
198.17	-115.385
198.55	900.000
198.92	-433.333
199.30	-300.000
199.68	-200.000
200.05	-400.000
200.43	0.000
200.81	-166.667
201.18	0.000
201.56	600.000
201.94	-200.000
202.31	-133.333
202.69	-80.000
203.07	175.000
203.44	100.000
203.82	0.000
204.19	7.143
204.57	-533.333
204.95	225.000
205.32	10.000
205.70	14.286
206.08	-25.000
206.45	122.222
206.83	85.714
207.20	-171.429
207.58	600.000
207.96	-266.667
208.33	-230.000
208.71	-150.000
209.08	-166.667
209.46	600.000
209.84	-120.000
210.21	-700.000
210.59	-114.286
210.96	-16.667
211.34	-300.000
211.71	26.667
212.09	-85.714
212.46	-1200.000
212.84	0.000
213.22	40.000
213.59	450.000
213.97	7.692
214.34	36.364
214.72	0.000
215.09	325.000
215.47	-69.231
215.84	-36.364
216.22	-233.333
216.59	-87.500
216.97	-50.000
217.34	-275.000
217.72	-160.000
218.09	12.500
218.47	212.500
218.84	-500.000
219.22	44.444
219.59	40.000
219.97	266.667
220.34	225.000
220.72	-14.286
221.09	-200.000
221.47	0.000
221.84	-400.000
222.22	-1150.000
222.59	-72.727
222.97	8.333
223.34	-366.667
223.72	-78.571
224.09	33.333
224.46	14.286
224.84	700.000
225.21	-10.000
225.59	-33.333
225.96	-450.000
226.34	225.000
226.71	-57.143
227.08	-216.667
227.46	-37.500
227.83	-450.000
228.21	-22.222
228.58	0.000
228.95	-100.000
229.33	150.000
229.70	-56.250
230.08	-187.500
230.45	71.429
230.82	-157.143
231.20	-6.667
231.57	-21.429
231.95	-100.000
232.32	-140.000
232.69	-21.429
233.07	166.667
233.44	-200.000
233.81	0.000
234.19	-22.222
234.56	-29.412
234.93	-0.000
235.31	-100.000
235.68	-280.000
236.05	-30.769
236.43	-65.000
236.80	0.000
237.17	18.750
237.55	-20.000
237.92	-37.037
238.29	19.444
238.67	-10.000
239.04	-20.588
239.41	-31.707
239.79	-26.667
240.16	4.878
240.53	-15.789
240.91	-10.870
241.28	3.175
241.65	16.071
242.02	17.808
242.40	11.667
242.77	13.559
243.14	4.545
243.51	15.000
243.89	18.391
244.26	6.897
244.63	16.667
245.00	9.278
245.38	16.495
245.75	5.618
246.12	3.448
246.49	8.264
246.87	11.538
247.24	11.765
247.61	0.000
247.98	11.382
248.36	13.125
248.73	17.105
249.10	11.039
249.47	20.253
249.84	11.111
250.22	12.941
250.59	13.072
250.96	18.779
251.33	8.721
251.70	12.941
252.08	11.168
252.45	13.366
252.82	15.578
253.19	13.825
253.56	10.748
253.94	21.622
254.31	16.087
254.68	17.982
255.05	11.417
255.42	12.227
255.79	12.741
256.16	13.619
256.54	17.910
256.91	13.688
257.28	14.126
257.65	14.232
258.02	13.830
258.39	15.825
258.76	14.286
259.14	14.618
259.51	13.916
259.88	15.464
260.25	13.072
260.62	16.319
260.99	12.881
261.36	12.671
261.73	12.975
262.10	16.109
262.47	12.270
262.85	14.734
263.22	13.538
263.59	14.642
263.96	16.460
264.33	15.455
264.70	13.095
265.07	12.500
265.44	17.280
265.81	16.384
266.18	15.027
266.55	13.625
266.92	12.176
267.29	19.060
267.66	17.391
268.03	14.398
268.40	16.188
268.77	19.519
269.14	13.429
269.51	17.224
269.88	15.711
270.25	12.500
270.62	14.390
270.99	13.811
271.36	12.225
271.73	15.962
272.10	14.355
272.47	15.603
272.84	12.871
273.21	16.705
273.58	14.940
273.95	15.561
274.32	15.242
274.69	14.480
275.06	13.170
275.43	13.832
275.80	13.907
276.17	14.253
276.54	14.133
276.91	15.351
277.28	15.284
277.65	15.702
278.02	17.021
278.39	13.786
278.76	13.627
279.13	12.656
279.50	15.336
279.87	14.687
280.23	14.194
280.60	15.595
280.97	15.758
281.34	15.385
281.71	15.811
282.08	14.110
282.45	11.937
282.82	14.865
283.19	14.120
283.56	15.222
283.92	13.093
284.29	12.115
284.66	13.566
285.03	11.591
285.40	12.665
285.77	13.005
286.14	15.343
286.51	15.498
286.87	13.346
287.24	13.260
287.61	14.815
287.98	15.263
288.35	12.478
288.72	15.061
289.08	13.194
289.45	15.114
289.82	15.210
290.19	13.311
290.56	13.379
290.93	12.121
291.29	12.943
291.66	13.228
292.03	13.557
292.40	14.355
292.77	12.919
293.13	11.201
293.50	11.381
293.87	12.824
294.24	11.901
294.60	11.624
294.97	12.202
295.34	11.810
295.71	13.413
296.08	10.762
296.44	10.669
296.81	11.111
297.18	10.145
297.55	12.873
297.91	10.685
298.28	13.720
298.65	11.262
299.02	11.590
299.38	8.755
299.75	10.621
300.12	10.340
300.48	10.804
300.85	10.266
301.22	12.338
301.59	11.184
301.95	10.000
302.32	14.656
302.69	10.448
303.05	10.149
303.42	11.831
303.79	12.033
304.15	13.381
304.52	10.464
304.89	10.409
305.25	11.138
305.62	9.685
305.99	11.111
306.35	11.561
306.72	10.574
307.09	10.604
307.45	11.137
307.82	11.111
308.19	11.382
308.55	10.796
308.92	11.656
309.29	11.955
309.65	11.087
310.02	11.441
310.38	11.306
310.75	11.913
311.12	12.056
311.48	11.771
311.85	12.565
312.22	11.709
312.58	11.996
312.95	11.206
313.31	12.008
313.68	12.042
314.05	11.939
314.41	13.608
314.78	12.680
315.14	13.155
315.51	13.147
315.87	14.652
316.24	14.257
316.61	15.059
316.97	15.179
317.34	15.625
317.70	15.679
318.07	15.962
318.43	16.471
318.80	15.814
319.16	16.211
319.53	17.759
319.89	16.339
320.26	17.915
320.62	18.455
320.99	16.910
321.35	17.780
321.72	18.276
322.08	19.335
322.45	20.711
322.81	18.271
323.18	19.038
323.54	20.270
323.91	19.961
324.27	20.410
324.64	21.067
325.00	20.347
325.37	21.763
325.73	20.399
326.10	22.616
326.46	22.601
326.83	23.447
327.19	22.406
327.56	23.197
327.92	24.296
328.29	23.482
328.65	25.094
329.01	23.897
329.38	24.516
329.74	23.135
330.11	23.818
330.47	23.469
330.84	22.308
331.20	25.665
331.56	23.889
331.93	26.119
332.29	24.290
332.66	25.520
333.02	25.465
333.38	23.831
333.75	24.908
334.11	24.261
334.48	26.564
334.84	26.740
335.20	25.984
335.57	25.113
335.93	26.197
336.29	26.151
336.66	26.703
337.02	23.978
337.38	24.815
337.75	26.545
338.11	26.240
338.47	26.825
338.84	26.340
339.20	25.411
339.56	26.422
339.93	26.321
340.29	26.239
340.65	24.821
341.02	25.798
341.38	26.814
341.74	23.233
342.11	25.303
342.47	26.779
342.83	26.038
343.20	25.784
343.56	26.348
343.92	25.598
344.28	25.961
344.65	24.870
345.01	26.016
345.37	24.727
345.73	25.858
346.10	26.833
346.46	24.558
346.82	25.859
347.19	24.106
347.55	24.896
347.91	26.861
348.27	25.141
348.63	25.554
349.00	24.528
349.36	25.021
349.72	25.539
350.08	25.574
350.45	25.379
350.81	23.837
351.17	23.779
351.53	25.469
351.89	25.599
352.26	24.560
352.62	25.403
352.98	24.498
353.34	23.027
353.70	24.757
354.07	25.000
354.43	24.339
354.79	25.021
355.15	25.317
355.51	25.237
355.87	25.566
356.24	24.633
356.60	24.091
356.96	24.921
357.32	24.042
357.68	23.925
358.04	24.960
358.40	23.232
358.77	24.641
359.13	24.339
359.49	24.576
359.85	24.415
360.21	25.040
360.57	25.478
360.93	24.433
361.29	22.281
361.66	25.235
362.02	24.318
362.38	24.676
362.74	24.451
363.10	25.959
363.46	24.907
363.82	25.620
364.18	24.502
364.54	25.000
364.90	24.803
365.26	23.217
365.62	25.401
365.98	24.267
366.35	24.982
366.71	25.647
367.07	26.125
367.43	24.587
367.79	25.088
368.15	24.192
368.51	25.419
368.87	25.700
369.23	23.682
369.59	25.219
369.95	24.707
370.31	25.000
370.67	24.925
371.03	24.944
371.39	26.039
371.75	25.495
372.11	26.106
372.47	24.630
372.83	25.692
373.19	25.464
373.55	24.404
373.91	24.910
374.27	25.372
374.63	26.346
374.99	25.461
375.35	25.279
375.71	26.713
376.07	25.562
376.42	25.306
376.78	25.503
377.14	26.269
377.50	25.432
377.86	26.238
378.22	25.846
378.58	25.833
378.94	26.087
379.30	25.452
379.66	26.834
380.02	25.935
380.38	26.172
380.74	26.391
381.09	26.810
381.45	25.443
381.81	25.725
382.17	26.459
382.53	26.546
382.89	26.930
383.25	26.945
383.61	26.951
383.97	26.730
384.32	27.330
384.68	27.121
385.04	25.123
385.40	25.576
385.76	27.736
386.12	27.814
386.48	27.522
386.83	27.013
387.19	26.618
387.55	26.725
387.91	26.161
388.27	26.679
388.62	27.816
388.98	27.010
389.34	26.921
389.70	27.160
390.06	26.432
390.42	27.332
390.77	27.469
391.13	26.986
391.49	27.878
391.85	27.875
392.20	27.244
392.56	26.828
392.92	27.540
393.28	27.653
393.64	27.267
393.99	28.464
394.35	27.641
394.71	28.097
395.07	27.027
395.42	27.930
395.78	28.013
396.14	26.734
396.50	27.901
396.85	27.495
397.21	27.820
397.57	27.524
397.92	27.801
398.28	27.356
398.64	26.566
399.00	28.160
399.35	26.411
399.71	26.939
400.07	27.751
400.42	27.907
400.78	28.230
401.14	27.647
401.49	28.648
401.85	27.849
402.21	28.012
402.57	27.375
402.92	25.847
403.28	28.195
403.63	28.121
403.99	27.105
404.35	28.420
404.70	27.143
405.06	26.792
405.42	28.092
405.77	26.438
406.13	27.357
406.49	27.472
406.84	27.323
407.20	27.574
407.55	27.624
407.91	27.874
408.27	27.470
408.62	27.877
408.98	27.726
409.34	27.076
409.69	26.938
410.05	25.924
410.40	27.407
410.76	27.624
411.11	26.375
411.47	28.534
411.83	25.989
412.18	27.477
412.54	26.280
412.89	26.601
413.25	27.377
413.60	26.957
413.96	26.687
414.31	27.012
414.67	26.620
415.03	28.162
415.38	26.762
415.74	27.362
416.09	27.890
416.45	27.076
416.80	26.702
417.16	26.865
417.51	27.249
417.87	26.336
418.22	27.396
418.58	27.090
418.93	27.273
419.29	25.480
419.64	27.155
420.00	27.330
420.35	26.388
420.71	26.488
421.06	27.072
421.42	26.683
421.77	26.012
422.12	26.788
422.48	26.421
422.83	26.740
423.19	27.652
423.54	26.396
423.90	27.032
424.25	27.268
424.61	26.438
424.96	26.829
425.31	26.863
425.67	26.408
426.02	27.208
426.38	26.550
426.73	27.119
427.09	27.089
427.44	26.412
427.79	26.458
428.15	27.306
428.50	26.529
428.85	25.921
429.21	27.391
429.56	27.170
429.92	25.886
430.27	26.366
430.62	25.823
430.98	26.327
431.33	26.814
431.68	26.269
432.04	26.998
432.39	26.412
432.74	25.195
433.10	27.586
433.45	26.284
433.80	27.684
434.16	26.150
434.51	26.720
434.86	26.713
435.22	26.809
435.57	26.825
435.92	25.988
436.28	25.462
436.63	26.583
436.98	26.246
437.34	26.134
437.69	27.072
438.04	25.698
438.39	26.329
438.75	26.897
439.10	26.146
439.45	26.172
439.81	26.239
440.16	26.900
440.51	27.403
440.86	27.251
441.22	26.414
441.57	27.152
441.92	26.705
442.27	26.718
442.63	27.570
442.98	26.364
443.33	26.656
443.68	26.207
444.03	26.428
444.39	26.119
444.74	27.146
445.09	27.171
445.44	26.838
445.79	26.715
446.15	25.936
446.50	26.733
446.85	27.046
447.20	25.965
447.55	26.283
447.91	26.622
448.26	26.352
448.61	27.231
448.96	26.965
449.31	25.838
449.66	26.016
450.02	26.355
450.37	25.845
450.72	26.632
451.07	26.582
451.42	25.905
451.77	27.185
452.12	26.136
452.47	25.241
452.83	26.443
453.18	25.364
453.53	25.727
453.88	26.169
454.23	26.245
454.58	26.763
454.93	26.418
455.28	24.889
455.63	26.906
455.98	25.977
456.34	26.692
456.69	26.684
457.04	26.843
457.39	26.428
457.74	27.025
458.09	25.015
458.44	25.863
458.79	25.826
459.14	26.316
459.49	26.985
459.84	26.622
460.19	25.971
460.54	26.100
460.89	27.216
461.24	25.528
461.59	25.594
461.94	26.541
462.29	26.779
462.64	26.711
462.99	26.134
463.34	26.426
463.69	25.611
464.04	26.453
464.39	25.288
464.74	26.380
465.09	26.263
465.44	26.255
465.79	25.454
466.14	25.599
466.49	25.704
466.84	26.591
467.19	26.158
467.54	25.351
467.89	25.648
468.24	26.156
468.59	25.905
468.94	25.016
469.29	25.967
469.64	26.179
469.99	26.489
470.34	25.939
470.68	26.846
471.03	26.822
471.38	27.033
471.73	27.031
472.08	25.441
472.43	25.973
472.78	25.360
473.13	25.034
473.48	25.081
473.83	25.592
474.17	26.231
474.52	25.590
474.87	26.061
475.22	25.686
475.57	25.466
475.92	26.385
476.27	26.484
476.61	25.463
476.96	24.707
477.31	25.041
477.66	25.056
478.01	24.930
478.36	24.728
478.70	25.938
479.05	25.330
479.40	25.225
479.75	25.078
480.10	25.346
480.45	24.700
480.79	25.327
481.14	25.717
481.49	24.877
481.84	25.434
482.19	24.977
482.53	25.276
482.88	24.964
483.23	24.520
483.58	25.377
483.92	24.831
484.27	24.339
484.62	24.697
484.97	23.881
485.31	24.277
485.66	23.160
486.01	23.807
486.36	24.286
486.70	24.360
487.05	24.347
487.40	24.586
487.75	24.479
488.09	24.382
488.44	24.381
488.79	24.206
489.13	24.800
489.48	24.925
489.83	23.991
490.17	23.955
490.52	24.296
490.87	23.970
491.22	23.973
491.56	24.573
491.91	23.423
492.26	25.036
492.60	24.712
492.95	25.578
493.30	23.889
493.64	24.509
493.99	24.155
494.34	24.515
494.68	23.524
495.03	23.893
495.37	24.043
495.72	24.079
496.07	24.732
496.41	24.151
496.76	24.275
497.11	23.568
497.45	25.203
497.80	24.622
498.14	25.335
498.49	23.768
498.84	24.152
499.18	24.096
499.53	24.405
499.87	23.346
500.22	23.492
500.56	24.508
500.91	24.347
501.26	23.875
501.60	23.414
501.95	23.872
502.29	24.116
502.64	23.938
502.98	23.976
503.33	22.574
503.67	24.434
504.02	23.705
504.36	23.850
504.71	24.242
505.06	23.704
505.40	23.147
505.75	23.505
506.09	23.872
506.44	24.435
506.78	24.286
507.13	24.302
507.47	23.655
507.82	23.451
508.16	23.508
508.51	23.347
508.85	23.653
509.19	23.789
509.54	24.182
509.88	23.409
510.23	23.400
510.57	23.143
510.92	22.708
511.26	23.513
511.61	24.202
511.95	23.781
512.30	23.115
512.64	24.374
512.98	23.245
513.33	23.951
513.67	23.138
514.02	23.799
514.36	24.343
514.70	24.417
515.05	24.207
515.39	24.439
515.74	24.850
516.08	23.849
516.42	23.734
516.77	23.757
517.11	24.510
517.46	23.339
517.80	23.659
518.14	23.637
518.49	23.918
518.83	23.329
519.17	23.226
519.52	23.564
519.86	23.049
520.20	23.086
520.55	22.827
520.89	24.216
521.23	24.509
521.58	24.038
521.92	24.359
522.26	23.162
522.61	24.026
522.95	23.709
523.29	23.507
523.64	23.888
523.98	24.044
524.32	23.260
524.66	24.328
525.01	23.896
525.35	25.016
525.69	23.098
526.04	23.810
526.38	23.865
526.72	24.068
527.06	23.606
527.41	24.604
527.75	22.654
528.09	22.591
528.43	24.713
528.78	22.838
529.12	23.742
529.46	23.457
529.80	23.053
530.15	23.828
530.49	23.300
530.83	23.735
531.17	23.506
531.51	23.256
531.86	22.502
532.20	22.825
532.54	23.077
532.88	23.751
533.22	22.782
533.57	23.460
533.91	23.499
534.25	23.568
534.59	23.797
534.93	23.033
535.27	23.096
535.62	22.618
535.96	24.397
536.30	23.945
536.64	22.674
536.98	22.857
537.32	24.182
537.66	23.562
538.01	23.566
538.35	23.717
538.69	23.702
539.03	23.035
539.37	23.015
539.71	23.517
540.05	22.064
540.39	24.030
540.73	23.501
541.07	23.619
541.42	22.715
541.76	22.643
542.10	22.505
542.44	23.836
542.78	22.918
543.12	22.253
543.46	23.018
543.80	23.456
544.14	21.829
544.48	22.785
544.82	24.402
545.16	23.361
545.50	23.097
545.84	23.159
546.18	23.759
546.52	23.288
546.86	22.214
547.20	22.675
547.54	22.403
547.88	22.826
548.22	22.748
548.56	22.230
548.90	22.911
549.24	22.658
549.58	21.932
549.92	22.802
550.26	22.637
550.60	23.048
550.94	22.554
551.28	22.179
551.62	23.538
551.96	22.406
552.30	22.368
552.64	22.708
552.98	21.941
553.32	22.254
553.66	22.787
554.00	22.117
554.34	22.157
554.68	21.976
555.02	22.321
555.36	21.990
555.69	21.465
556.03	22.056
556.37	21.993
556.71	23.105
557.05	22.222
557.39	21.933
557.73	22.264
558.07	22.172
558.41	22.358
558.75	22.136
559.08	22.695
559.42	21.825
559.76	21.297
560.10	21.254
560.44	22.115
560.78	22.448
561.12	21.791
561.45	22.488
561.79	22.549
562.13	21.647
562.47	22.374
562.81	21.758
563.15	22.285
563.48	22.984
563.82	23.267
564.16	21.448
564.50	22.432
564.84	22.088
565.17	21.127
565.51	22.473
565.85	21.742
566.19	21.088
566.52	22.319
566.86	21.915
567.20	21.357
567.54	21.533
567.88	21.675
568.21	22.002
568.55	21.033
568.89	21.817
569.23	22.003
569.56	21.497
569.90	22.006
570.24	20.990
570.57	21.418
570.91	21.785
571.25	21.638
571.59	20.959
571.92	21.304
572.26	21.135
572.60	21.116
572.93	21.399
573.27	21.129
573.61	21.360
573.95	20.754
574.28	20.657
574.62	20.849
574.96	20.893
575.29	20.419
575.63	20.601
575.97	20.710
576.30	20.804
576.64	20.901
576.98	20.644
577.31	21.086
577.65	21.055
577.98	20.985
578.32	20.730
578.66	20.159
578.99	20.590
579.33	19.885
579.67	20.641
580.00	20.430
580.34	20.622
580.67	20.351
581.01	20.725
581.35	20.478
581.68	20.350
582.02	20.756
582.35	20.390
582.69	20.491
583.02	20.444
583.36	21.008
583.70	21.158
584.03	21.435
584.37	21.062
584.70	20.962
585.04	20.311
585.37	20.541
585.71	20.415
586.04	20.071
586.38	20.405
586.72	20.086
587.05	21.028
587.39	20.716
587.72	21.022
588.06	20.454
588.39	20.678
588.73	20.055
589.06	20.874
589.40	20.221
589.73	20.993
590.07	21.073
590.40	20.820
590.73	21.623
591.07	20.271
591.40	20.570
591.74	20.452
592.07	20.547
592.41	21.157
592.74	20.510
593.08	20.468
593.41	20.329
593.75	20.183
594.08	20.426
594.41	20.852
594.75	20.420
595.08	20.696
595.42	20.685
595.75	20.466
596.09	20.680
596.42	20.959
596.75	20.648
597.09	20.911
597.42	20.641
597.75	20.568
598.09	20.462
598.42	20.532
598.76	19.691
599.09	20.072
599.42	19.629
599.76	19.977
600.09	20.098
600.42	19.901
600.76	19.279
601.09	19.237
601.42	19.702
601.76	19.770
602.09	19.926
602.42	20.725
602.76	20.416
603.09	20.473
603.42	20.987
603.76	19.718
604.09	19.279
604.42	20.347
604.76	20.160
605.09	20.567
605.42	20.226
605.75	19.702
606.09	20.000
606.42	19.975
606.75	20.303
607.09	19.868
607.42	19.406
607.75	19.538
608.08	19.542
608.42	20.192
608.75	20.482
609.08	20.578
609.41	20.254
609.75	19.909
610.08	20.170
610.41	19.275
610.74	19.698
611.07	20.155
611.41	20.861
611.74	20.309
612.07	19.647
612.40	19.858
612.73	19.831
613.07	20.641
613.40	21.061
613.73	19.586
614.06	20.256
614.39	19.346
614.72	19.272
615.06	19.274
615.39	19.596
615.72	19.483
616.05	19.721
616.38	19.544
616.71	20.306
617.05	19.456
617.38	19.296
617.71	20.000
618.04	20.825
618.37	21.501
618.70	20.066
619.03	20.208
619.36	19.537
619.69	20.925
620.03	21.183
620.36	20.029
620.69	20.057
621.02	20.107
621.35	20.083
621.68	20.493
622.01	20.333
622.34	20.910
622.67	19.716
623.00	19.908
623.33	19.893
623.66	20.419
623.99	20.424
624.32	20.456
624.65	19.699
624.99	20.015
625.32	20.015
625.65	20.346
625.98	20.387
626.31	19.368
626.64	20.797
626.97	21.117
627.30	20.315
627.63	19.757
627.96	19.317
628.29	20.259
628.62	20.846
628.95	20.441
629.28	19.052
629.61	18.843
629.94	21.896
630.26	19.368
630.59	20.708
630.92	20.205
631.25	19.590
631.58	20.154
631.91	18.969
632.24	17.546
632.57	20.682
632.90	17.794
633.23	21.412
