SpectraSuite Data File
++++++++++++++++++++++++++++++++++++
Date: Fri May 15 20:39:42 PDT 2015
User: schluterlab
Dark Spectrum Present: Yes
Reference Spectrum Present: Yes
Number of Sampled Component Spectra: 1
Spectrometers: USB2E3373
Integration Time (usec): 3000 (USB2E3373)
Spectra Averaged: 3 (USB2E3373)
Boxcar Smoothing: 0 (USB2E3373)
Correct for Electrical Dark: No (USB2E3373)
Strobe/Lamp Enabled: No (USB2E3373)
Correct for Detector Non-linearity: No (USB2E3373)
Correct for Stray Light: No (USB2E3373)
Number of Pixels in Processed Spectrum: 2048
>>>>>Begin Processed Spectral Data<<<<<
178.53	0.000
178.91	0.000
179.29	62.500
179.67	-850.000
180.04	-42.857
180.42	150.000
180.80	-1100.000
181.18	-266.667
181.56	450.000
181.94	100.000
182.31	400.000
182.69	-60.000
183.07	-366.667
183.45	-20.000
183.83	300.000
184.20	-90.909
184.58	122.222
184.96	-25.000
185.34	-133.333
185.72	-100.000
186.09	146.154
186.47	-1000.000
186.85	116.667
187.23	77.778
187.61	-600.000
187.98	-200.000
188.36	77.778
188.74	-133.333
189.12	17.647
189.49	38.889
189.87	0.000
190.25	28.571
190.63	50.000
191.00	-433.333
191.38	-15.789
191.76	-50.000
192.14	125.000
192.51	400.000
192.89	-77.778
193.27	-114.286
193.65	200.000
194.02	100.000
194.40	140.000
194.78	-112.500
195.15	-25.000
195.53	-112.500
195.91	325.000
196.29	-125.000
196.66	69.231
197.04	57.143
197.42	-33.333
197.79	-666.667
198.17	-46.154
198.55	1900.000
198.92	-433.333
199.30	-1400.000
199.68	-20.000
200.05	-333.333
200.43	0.000
200.81	-333.333
201.18	-100.000
201.56	500.000
201.94	-100.000
202.31	100.000
202.69	-180.000
203.07	75.000
203.44	200.000
203.82	0.000
204.19	14.286
204.57	-333.333
204.95	37.500
205.32	-40.000
205.70	14.286
206.08	-25.000
206.45	77.778
206.83	71.429
207.20	-214.286
207.58	800.000
207.96	-533.333
208.33	-110.000
208.71	-225.000
209.08	-150.000
209.46	0.000
209.84	140.000
210.21	-100.000
210.59	85.714
210.96	-50.000
211.34	-75.000
211.71	13.333
212.09	-142.857
212.46	-2300.000
212.84	0.000
213.22	20.000
213.59	400.000
213.97	15.385
214.34	0.000
214.72	0.000
215.09	350.000
215.47	-46.154
215.84	-54.545
216.22	-333.333
216.59	12.500
216.97	-50.000
217.34	-150.000
217.72	-300.000
218.09	-125.000
218.47	125.000
218.84	400.000
219.22	33.333
219.59	-140.000
219.97	466.667
220.34	225.000
220.72	28.571
221.09	-100.000
221.47	200.000
221.84	-700.000
222.22	-550.000
222.59	72.727
222.97	100.000
223.34	-266.667
223.72	42.857
224.09	19.048
224.46	-10.714
224.84	500.000
225.21	-30.000
225.59	20.000
225.96	-500.000
226.34	150.000
226.71	-28.571
227.08	-33.333
227.46	50.000
227.83	-800.000
228.21	-55.556
228.58	-54.545
228.95	0.000
229.33	80.000
229.70	50.000
230.08	-37.500
230.45	-128.571
230.82	-85.714
231.20	-60.000
231.57	35.714
231.95	-42.857
232.32	-140.000
232.69	50.000
233.07	33.333
233.44	40.000
233.81	-120.000
234.19	44.444
234.56	47.059
234.93	400.000
235.31	-50.000
235.68	-400.000
236.05	-23.077
236.43	-60.000
236.80	-29.412
237.17	-3.125
237.55	15.000
237.92	-14.815
238.29	25.000
238.67	16.667
239.04	-5.882
239.41	-29.268
239.79	-10.000
240.16	31.707
240.53	13.158
240.91	-2.174
241.28	4.762
241.65	16.071
242.02	27.397
242.40	15.000
242.77	15.254
243.14	1.515
243.51	20.000
243.89	28.736
244.26	12.644
244.63	8.333
245.00	20.619
245.38	14.433
245.75	4.494
246.12	11.207
246.49	23.967
246.87	14.423
247.24	7.563
247.61	0.877
247.98	12.195
248.36	16.250
248.73	11.184
249.10	11.688
249.47	15.823
249.84	17.647
250.22	21.176
250.59	20.915
250.96	22.066
251.33	15.698
251.70	12.941
252.08	18.782
252.45	14.851
252.82	14.573
253.19	16.129
253.56	10.280
253.94	18.468
254.31	19.130
254.68	21.053
255.05	14.567
255.42	18.341
255.79	14.672
256.16	21.401
256.54	19.403
256.91	18.631
257.28	17.100
257.65	14.607
258.02	17.021
258.39	18.182
258.76	15.751
259.14	16.611
259.51	21.683
259.88	17.869
260.25	16.340
260.62	19.097
260.99	12.203
261.36	17.123
261.73	21.519
262.10	16.717
262.47	15.951
262.85	19.749
263.22	20.000
263.59	16.511
263.96	19.565
264.33	17.879
264.70	16.071
265.07	16.071
265.44	20.397
265.81	20.339
266.18	18.306
266.55	16.710
266.92	18.653
267.29	18.538
267.66	18.926
268.03	18.586
268.40	17.493
268.77	20.053
269.14	19.664
269.51	19.023
269.88	16.708
270.25	15.306
270.62	17.317
270.99	17.391
271.36	16.870
271.73	17.840
272.10	18.735
272.47	16.548
272.84	18.564
273.21	19.954
273.58	17.831
273.95	19.680
274.32	15.935
274.69	13.801
275.06	20.313
275.43	17.234
275.80	17.881
276.17	18.621
276.54	17.559
276.91	17.982
277.28	17.031
277.65	20.455
278.02	18.936
278.39	18.381
278.76	18.868
279.13	15.560
279.50	19.748
279.87	18.575
280.23	16.989
280.60	20.078
280.97	16.566
281.34	16.154
281.71	19.918
282.08	16.155
282.45	18.787
282.82	16.216
283.19	17.795
283.56	16.570
283.92	14.231
284.29	15.962
284.66	15.891
285.03	17.878
285.40	15.879
285.77	16.696
286.14	17.509
286.51	19.557
286.87	16.636
287.24	18.232
287.61	12.522
287.98	17.895
288.35	16.811
288.72	17.513
289.08	14.931
289.45	15.466
289.82	15.385
290.19	15.358
290.56	13.894
290.93	17.172
291.29	14.022
291.66	15.433
292.03	14.195
292.40	15.968
292.77	14.354
293.13	12.987
293.50	14.416
293.87	15.725
294.24	14.065
294.60	14.754
294.97	15.774
295.34	12.423
295.71	14.903
296.08	13.602
296.44	11.664
296.81	13.611
297.18	12.029
297.55	14.499
297.91	13.014
298.28	13.456
298.65	13.433
299.02	13.477
299.38	11.491
299.75	12.414
300.12	10.995
300.48	13.439
300.85	13.435
301.22	11.299
301.59	13.421
301.95	15.570
302.32	14.008
302.69	11.816
303.05	11.510
303.42	13.076
303.79	12.383
304.15	12.067
304.52	10.702
304.89	12.398
305.25	11.380
305.62	10.618
305.99	12.281
306.35	11.561
306.72	11.361
307.09	11.745
307.45	11.711
307.82	13.194
308.19	12.544
308.55	12.868
308.92	13.290
309.29	11.732
309.65	11.518
310.02	9.681
310.38	12.184
310.75	12.678
311.12	11.733
311.48	12.513
311.85	12.147
312.22	12.025
312.58	12.951
312.95	11.633
313.31	10.041
313.68	12.775
314.05	12.143
314.41	12.268
314.78	12.371
315.14	13.669
315.51	13.251
315.87	13.115
316.24	13.246
316.61	13.287
316.97	13.790
317.34	14.063
317.70	13.289
318.07	13.462
318.43	15.294
318.80	14.867
319.16	15.332
319.53	15.480
319.89	15.256
320.26	15.992
320.62	17.051
320.99	16.284
321.35	17.472
321.72	19.003
322.08	17.825
322.45	19.594
322.81	19.155
323.18	17.763
323.54	20.656
323.91	21.032
324.27	20.508
324.64	21.536
325.00	20.894
325.37	22.590
325.73	21.396
326.10	23.070
326.46	23.677
326.83	25.109
327.19	24.324
327.56	25.195
327.92	25.352
328.29	25.446
328.65	25.377
329.01	25.460
329.38	26.912
329.74	25.685
330.11	29.101
330.47	27.551
330.84	28.173
331.20	30.894
331.56	28.611
331.93	28.584
332.29	29.331
332.66	29.593
333.02	28.253
333.38	28.323
333.75	31.777
334.11	28.648
334.48	31.369
334.84	29.945
335.20	30.924
335.57	30.009
335.93	30.714
336.29	30.847
336.66	30.881
337.02	31.134
337.38	31.667
337.75	31.545
338.11	30.929
338.47	33.212
338.84	32.348
339.20	31.444
339.56	31.193
339.93	32.408
340.29	32.477
340.65	33.244
341.02	32.624
341.38	32.655
341.74	32.686
342.11	32.409
342.47	32.473
342.83	32.958
343.20	32.927
343.56	32.870
343.92	34.721
344.28	34.330
344.65	32.988
345.01	33.103
345.37	33.305
345.73	33.138
346.10	32.701
346.46	32.969
346.82	33.061
347.19	32.835
347.55	34.169
347.91	33.981
348.27	33.791
348.63	33.901
349.00	33.798
349.36	33.832
349.72	34.577
350.08	33.607
350.45	33.998
350.81	33.472
351.17	34.121
351.53	34.612
351.89	33.939
352.26	34.480
352.62	34.194
352.98	33.735
353.34	33.494
353.70	34.951
354.07	34.839
354.43	34.668
354.79	35.095
355.15	33.571
355.51	35.522
355.87	34.466
356.24	35.073
356.60	35.085
356.96	36.270
357.32	35.942
357.68	35.106
358.04	34.814
358.40	35.932
358.77	35.247
359.13	36.749
359.49	35.670
359.85	35.803
360.21	36.364
360.57	35.425
360.93	36.384
361.29	35.045
361.66	36.364
362.02	36.288
362.38	36.329
362.74	35.579
363.10	37.998
363.46	35.656
363.82	36.739
364.18	36.458
364.54	36.985
364.90	37.061
365.26	36.754
365.62	37.591
365.98	36.950
366.35	38.019
366.71	37.768
367.07	38.824
367.43	38.677
367.79	38.092
368.15	36.971
368.51	37.946
368.87	37.186
369.23	37.329
369.59	38.921
369.95	39.736
370.31	38.584
370.67	38.134
371.03	38.387
371.39	38.877
371.75	38.462
372.11	38.231
372.47	38.757
372.83	37.686
373.19	39.087
373.55	38.700
373.91	38.949
374.27	40.113
374.63	39.483
374.99	38.369
375.35	40.390
375.71	39.510
376.07	39.817
376.42	38.639
376.78	39.396
377.14	40.217
377.50	40.903
377.86	40.629
378.22	40.077
378.58	40.705
378.94	40.580
379.30	39.925
379.66	40.627
380.02	40.650
380.38	40.049
380.74	40.575
381.09	40.368
381.45	40.734
381.81	41.641
382.17	40.419
382.53	40.287
382.89	42.373
383.25	42.066
383.61	41.524
383.97	40.889
384.32	40.588
384.68	42.167
385.04	40.625
385.40	40.884
385.76	42.075
386.12	43.208
386.48	42.656
386.83	41.598
387.19	42.002
387.55	43.852
387.91	43.215
388.27	41.209
388.62	43.298
388.98	42.296
389.34	42.848
389.70	43.816
390.06	41.221
390.42	41.516
390.77	42.642
391.13	42.812
391.49	42.109
391.85	42.365
392.20	42.624
392.56	42.784
392.92	42.572
393.28	42.512
393.64	42.222
393.99	43.574
394.35	41.809
394.71	43.295
395.07	42.803
395.42	42.866
395.78	42.736
396.14	43.064
396.50	42.930
396.85	42.820
397.21	42.419
397.57	42.633
397.92	43.020
398.28	42.989
398.64	41.867
399.00	42.946
399.35	41.479
399.71	42.447
400.07	43.229
400.42	42.289
400.78	42.621
401.14	42.529
401.49	43.121
401.85	42.413
402.21	42.530
402.57	42.875
402.92	41.970
403.28	42.356
403.63	42.623
403.99	43.240
404.35	42.161
404.70	42.262
405.06	42.186
405.42	42.014
405.77	41.952
406.13	43.073
406.49	41.208
406.84	42.115
407.20	41.963
407.55	41.919
407.91	41.444
408.27	43.850
408.62	41.662
408.98	42.452
409.34	42.255
409.69	41.925
410.05	41.626
410.40	41.975
410.76	41.978
411.11	41.250
411.47	41.815
411.83	41.431
412.18	43.179
412.54	42.072
412.89	41.071
413.25	42.238
413.60	41.056
413.96	40.307
414.31	40.854
414.67	41.180
415.03	41.345
415.38	40.078
415.74	41.694
416.09	41.150
416.45	40.783
416.80	41.837
417.16	42.127
417.51	40.906
417.87	40.482
418.22	40.933
418.58	40.268
418.93	41.630
419.29	38.988
419.64	39.598
420.00	42.380
420.35	40.597
420.71	41.191
421.06	41.375
421.42	39.964
421.77	40.520
422.12	40.863
422.48	39.632
422.83	39.965
423.19	40.463
423.54	38.801
423.90	39.458
424.25	40.241
424.61	40.024
424.96	38.908
425.31	40.497
425.67	40.669
426.02	39.753
426.38	40.952
426.73	40.375
427.09	40.190
427.44	41.059
427.79	38.480
428.15	39.563
428.50	40.218
428.85	38.329
429.21	40.238
429.56	39.569
429.92	39.548
430.27	38.596
430.62	38.787
430.98	38.694
431.33	38.591
431.68	38.148
432.04	38.625
432.39	38.448
432.74	37.823
433.10	38.908
433.45	38.471
433.80	37.841
434.16	38.670
434.51	38.710
434.86	38.560
435.22	38.811
435.57	38.490
435.92	37.126
436.28	38.521
436.63	38.049
436.98	38.470
437.34	38.234
437.69	39.177
438.04	38.348
438.39	38.057
438.75	38.676
439.10	38.031
439.45	38.223
439.81	38.226
440.16	39.192
440.51	38.507
440.86	39.517
441.22	37.896
441.57	37.748
441.92	39.087
442.27	39.745
442.63	38.651
442.98	39.058
443.33	37.284
443.68	37.560
444.03	38.202
444.39	38.367
444.74	38.685
445.09	38.641
445.44	38.348
445.79	38.834
446.15	37.335
446.50	36.938
446.85	37.301
447.20	37.278
447.55	37.388
447.91	36.210
448.26	38.133
448.61	37.536
448.96	36.489
449.31	38.092
449.66	36.527
450.02	37.365
450.37	38.174
450.72	36.770
451.07	37.025
451.42	37.765
451.77	37.914
452.12	35.108
452.47	36.188
452.83	36.808
453.18	36.812
453.53	37.042
453.88	37.644
454.23	36.079
454.58	37.154
454.93	36.856
455.28	36.063
455.63	36.454
455.98	36.801
456.34	36.015
456.69	36.468
457.04	37.051
457.39	36.391
457.74	36.457
458.09	34.667
458.44	35.869
458.79	35.518
459.14	36.098
459.49	36.119
459.84	35.815
460.19	35.376
460.54	35.758
460.89	36.080
461.24	35.839
461.59	35.451
461.94	34.277
462.29	34.801
462.64	35.880
462.99	34.326
463.34	35.396
463.69	35.006
464.04	35.291
464.39	33.535
464.74	33.926
465.09	34.373
465.44	34.449
465.79	33.957
466.14	35.291
466.49	34.445
466.84	34.087
467.19	33.730
467.54	33.142
467.89	34.176
468.24	33.212
468.59	33.841
468.94	33.841
469.29	34.557
469.64	33.903
469.99	34.478
470.34	33.106
470.68	34.079
471.03	33.263
471.38	33.452
471.73	33.193
472.08	33.718
472.43	32.617
472.78	31.940
473.13	32.993
473.48	33.746
473.83	31.756
474.17	32.513
474.52	32.227
474.87	32.000
475.22	32.886
475.57	32.524
475.92	32.858
476.27	32.305
476.61	33.044
476.96	31.958
477.31	32.125
477.66	31.798
478.01	31.724
478.36	32.244
478.70	32.191
479.05	32.802
479.40	31.797
479.75	30.865
480.10	31.388
480.45	31.050
480.79	31.370
481.14	32.275
481.49	30.246
481.84	30.598
482.19	30.215
482.53	31.463
482.88	30.883
483.23	30.518
483.58	30.849
483.92	29.574
484.27	29.809
484.62	31.197
484.97	29.934
485.31	30.455
485.66	29.312
486.01	29.326
486.36	29.094
486.70	29.658
487.05	29.774
487.40	30.041
487.75	28.845
488.09	28.152
488.44	28.267
488.79	28.390
489.13	28.766
489.48	29.414
489.83	28.834
490.17	29.393
490.52	28.591
490.87	28.598
491.22	29.322
491.56	28.558
491.91	28.776
492.26	28.439
492.60	28.215
492.95	29.464
493.30	28.139
493.64	28.536
493.99	28.309
494.34	27.621
494.68	27.286
495.03	27.397
495.37	28.214
495.72	28.470
496.07	28.341
496.41	28.821
496.76	27.499
497.11	26.875
497.45	27.876
497.80	28.052
498.14	27.372
498.49	27.120
498.84	27.445
499.18	27.661
499.53	27.034
499.87	26.897
500.22	27.844
500.56	27.635
500.91	26.606
501.26	27.632
501.60	27.103
501.95	27.123
502.29	27.651
502.64	27.172
502.98	27.923
503.33	26.081
503.67	26.602
504.02	26.931
504.36	27.363
504.71	26.768
505.06	25.264
505.40	26.142
505.75	26.546
506.09	26.812
506.44	26.848
506.78	26.837
507.13	26.732
507.47	26.371
507.82	25.801
508.16	25.990
508.51	26.495
508.85	26.269
509.19	26.716
509.54	26.113
509.88	25.620
510.23	26.304
510.57	26.403
510.92	24.147
511.26	26.459
511.61	25.688
511.95	25.863
512.30	25.333
512.64	25.654
512.98	25.211
513.33	25.518
513.67	24.844
514.02	26.602
514.36	26.114
514.70	26.224
515.05	26.263
515.39	25.443
515.74	26.347
516.08	26.181
516.42	26.031
516.77	26.214
517.11	26.053
517.46	25.793
517.80	25.328
518.14	25.720
518.49	24.339
518.83	25.577
519.17	24.924
519.52	25.518
519.86	24.790
520.20	25.638
520.55	25.266
520.89	25.659
521.23	24.129
521.58	25.363
521.92	24.808
522.26	25.114
522.61	24.545
522.95	25.629
523.29	25.032
523.64	25.222
523.98	24.692
524.32	24.742
524.66	25.288
525.01	26.039
525.35	24.498
525.69	24.040
526.04	24.868
526.38	26.329
526.72	24.984
527.06	24.643
527.41	24.670
527.75	24.330
528.09	24.850
528.43	25.523
528.78	23.894
529.12	25.161
529.46	24.301
529.80	25.459
530.15	23.630
530.49	25.185
530.83	24.487
531.17	24.446
531.51	24.282
531.86	23.046
532.20	23.521
532.54	24.438
532.88	25.051
533.22	24.059
533.57	24.377
533.91	23.238
534.25	24.349
534.59	23.669
534.93	22.782
535.27	24.429
535.62	23.461
535.96	23.614
536.30	24.208
536.64	24.466
536.98	23.972
537.32	24.609
537.66	24.404
538.01	23.357
538.35	23.578
538.69	23.369
539.03	22.625
539.37	23.351
539.71	23.313
540.05	22.946
540.39	23.407
540.73	22.664
541.07	22.997
541.42	23.656
541.76	23.469
542.10	23.262
542.44	23.002
542.78	21.198
543.12	22.665
543.46	23.157
543.80	22.068
544.14	21.696
544.48	21.919
544.82	23.513
545.16	22.609
545.50	23.231
545.84	22.875
546.18	23.333
546.52	22.855
546.86	21.855
547.20	23.033
547.54	21.696
547.88	22.554
548.22	22.156
548.56	21.702
548.90	22.102
549.24	22.107
549.58	22.990
549.92	21.801
550.26	21.245
550.60	22.230
550.94	22.106
551.28	21.484
551.62	21.692
551.96	22.256
552.30	23.319
552.64	22.285
552.98	21.941
553.32	21.826
553.66	21.771
554.00	22.336
554.34	21.713
554.68	20.649
555.02	23.065
555.36	22.289
555.69	20.586
556.03	22.198
556.37	20.854
556.71	20.722
557.05	21.551
557.39	20.595
557.73	20.615
558.07	20.664
558.41	20.827
558.75	21.434
559.08	21.355
559.42	21.270
559.76	21.377
560.10	20.948
560.44	20.774
560.78	20.979
561.12	20.945
561.45	21.363
561.79	21.359
562.13	21.008
562.47	20.647
562.81	21.902
563.15	21.368
563.48	21.641
563.82	22.100
564.16	20.195
564.50	21.014
564.84	21.888
565.17	20.724
565.51	21.858
565.85	20.713
566.19	20.027
566.52	20.912
566.86	22.237
567.20	19.988
567.54	21.107
567.88	21.851
568.21	21.324
568.55	21.087
568.89	21.201
569.23	20.462
569.56	20.228
569.90	20.909
570.24	19.687
570.57	20.000
570.91	20.425
571.25	20.092
571.59	20.554
571.92	19.467
572.26	19.746
572.60	19.969
572.93	19.423
573.27	19.624
573.61	20.048
573.95	19.607
574.28	19.147
574.62	19.756
574.96	19.471
575.29	19.359
575.63	19.202
575.97	19.002
576.30	18.949
576.64	18.781
576.98	19.048
577.31	19.391
577.65	19.518
577.98	19.189
578.32	19.374
578.66	18.848
578.99	19.443
579.33	18.786
579.67	18.824
580.00	19.038
580.34	19.279
580.67	18.620
581.01	19.260
581.35	18.971
581.68	19.012
582.02	18.994
582.35	19.146
582.69	19.166
583.02	18.650
583.36	19.423
583.70	19.496
584.03	19.210
584.37	19.678
584.70	18.819
585.04	18.705
585.37	18.771
585.71	18.662
586.04	18.608
586.38	18.298
586.72	19.254
587.05	19.064
587.39	19.625
587.72	18.945
588.06	18.821
588.39	19.083
588.73	19.322
589.06	19.211
589.40	19.737
589.73	19.533
590.07	18.656
590.40	19.350
590.73	18.822
591.07	19.211
591.40	19.501
591.74	19.457
592.07	19.295
592.41	19.832
592.74	19.395
593.08	18.372
593.41	18.320
593.75	19.071
594.08	18.503
594.41	18.959
594.75	18.321
595.08	18.540
595.42	18.992
595.75	18.438
596.09	18.335
596.42	18.603
596.75	18.339
597.09	19.362
597.42	18.925
597.75	19.011
598.09	18.742
598.42	18.637
598.76	18.404
599.09	18.389
599.42	18.113
599.76	18.284
600.09	18.363
600.42	18.120
600.76	18.499
601.09	17.939
601.42	18.331
601.76	18.261
602.09	18.441
602.42	19.124
602.76	17.912
603.09	18.854
603.42	19.273
603.76	17.944
604.09	17.821
604.42	18.147
604.76	18.647
605.09	18.830
605.42	18.826
605.75	17.732
606.09	18.217
606.42	18.557
606.75	17.706
607.09	18.330
607.42	18.077
607.75	18.517
608.08	17.520
608.42	18.273
608.75	19.036
609.08	18.435
609.41	18.985
609.75	18.901
610.08	17.723
610.41	18.406
610.74	18.528
611.07	17.261
611.41	18.578
611.74	18.710
612.07	18.148
612.40	18.545
612.73	18.531
613.07	17.998
613.40	18.873
613.73	17.012
614.06	18.364
614.39	18.443
614.72	17.759
615.06	18.771
615.39	18.614
615.72	17.384
616.05	18.268
616.38	18.177
616.71	18.104
617.05	18.468
617.38	18.290
617.71	18.365
618.04	19.111
618.37	18.537
618.70	19.208
619.03	19.792
619.36	18.162
619.69	18.575
620.03	18.700
620.36	18.383
620.69	18.915
621.02	17.890
621.35	19.419
621.68	18.537
622.01	19.083
622.34	17.957
622.67	19.085
623.00	18.224
623.33	18.216
623.66	18.399
623.99	19.818
624.32	18.935
624.65	17.368
624.99	18.811
625.32	17.892
625.65	18.617
625.98	19.339
626.31	18.537
626.64	18.718
626.97	19.197
627.30	19.527
627.63	18.284
627.96	19.137
628.29	18.409
628.62	19.567
628.95	18.537
629.28	19.859
629.61	18.843
629.94	18.866
630.26	19.368
630.59	18.522
630.92	17.231
631.25	18.154
631.58	20.374
631.91	18.969
632.24	18.807
632.57	17.841
632.90	19.573
633.23	19.765
