SpectraSuite Data File
++++++++++++++++++++++++++++++++++++
Date: Fri May 15 20:51:21 PDT 2015
User: schluterlab
Dark Spectrum Present: Yes
Reference Spectrum Present: Yes
Number of Sampled Component Spectra: 1
Spectrometers: USB2E3373
Integration Time (usec): 3000 (USB2E3373)
Spectra Averaged: 3 (USB2E3373)
Boxcar Smoothing: 0 (USB2E3373)
Correct for Electrical Dark: No (USB2E3373)
Strobe/Lamp Enabled: No (USB2E3373)
Correct for Detector Non-linearity: No (USB2E3373)
Correct for Stray Light: No (USB2E3373)
Number of Pixels in Processed Spectrum: 2048
>>>>>Begin Processed Spectral Data<<<<<
178.53	0.000
178.91	0.000
179.29	50.000
179.67	-600.000
180.04	-71.429
180.42	0.000
180.80	-700.000
181.18	-100.000
181.56	350.000
181.94	-400.000
182.31	1100.000
182.69	-100.000
183.07	-366.667
183.45	-160.000
183.83	333.333
184.20	-45.455
184.58	166.667
184.96	-25.000
185.34	200.000
185.72	-150.000
186.09	76.923
186.47	-1200.000
186.85	183.333
187.23	111.111
187.61	400.000
187.98	-100.000
188.36	-22.222
188.74	-366.667
189.12	35.294
189.49	50.000
189.87	0.000
190.25	21.429
190.63	250.000
191.00	33.333
191.38	15.789
191.76	0.000
192.14	175.000
192.51	300.000
192.89	-55.556
193.27	-14.286
193.65	166.667
194.02	163.636
194.40	-50.000
194.78	-150.000
195.15	-8.333
195.53	-162.500
195.91	375.000
196.29	0.000
196.66	23.077
197.04	100.000
197.42	-55.556
197.79	-166.667
198.17	-76.923
198.55	1600.000
198.92	-200.000
199.30	500.000
199.68	-180.000
200.05	-200.000
200.43	0.000
200.81	-233.333
201.18	-366.667
201.56	1100.000
201.94	-100.000
202.31	66.667
202.69	-200.000
203.07	-25.000
203.44	-900.000
203.82	0.000
204.19	-35.714
204.57	-400.000
204.95	75.000
205.32	0.000
205.70	-100.000
206.08	-175.000
206.45	211.111
206.83	42.857
207.20	0.000
207.58	-0.000
207.96	0.000
208.33	-90.000
208.71	-150.000
209.08	-100.000
209.46	-800.000
209.84	-40.000
210.21	-1800.000
210.59	42.857
210.96	-116.667
211.34	0.000
211.71	40.000
212.09	-85.714
212.46	-1700.000
212.84	0.000
213.22	30.000
213.59	350.000
213.97	0.000
214.34	18.182
214.72	33.333
215.09	325.000
215.47	69.231
215.84	-18.182
216.22	66.667
216.59	-37.500
216.97	-150.000
217.34	-275.000
217.72	-260.000
218.09	-12.500
218.47	75.000
218.84	-800.000
219.22	-44.444
219.59	-100.000
219.97	166.667
220.34	250.000
220.72	28.571
221.09	-275.000
221.47	-50.000
221.84	-250.000
222.22	-550.000
222.59	36.364
222.97	41.667
223.34	-400.000
223.72	-107.143
224.09	9.524
224.46	3.571
224.84	300.000
225.21	-60.000
225.59	-40.000
225.96	-100.000
226.34	375.000
226.71	-100.000
227.08	-133.333
227.46	25.000
227.83	-600.000
228.21	44.444
228.58	-27.273
228.95	-50.000
229.33	-50.000
229.70	-25.000
230.08	-112.500
230.45	-85.714
230.82	-128.571
231.20	-6.667
231.57	0.000
231.95	-114.286
232.32	-30.000
232.69	0.000
233.07	233.333
233.44	-80.000
233.81	-70.000
234.19	-66.667
234.56	-23.529
234.93	500.000
235.31	50.000
235.68	-280.000
236.05	-76.923
236.43	-15.000
236.80	58.824
237.17	3.125
237.55	-15.000
237.92	-33.333
238.29	-11.111
238.67	33.333
239.04	20.588
239.41	-2.439
239.79	20.000
240.16	19.512
240.53	26.316
240.91	0.000
241.28	11.111
241.65	16.071
242.02	27.397
242.40	31.667
242.77	-3.390
243.14	9.091
243.51	23.750
243.89	40.230
244.26	10.345
244.63	36.905
245.00	18.557
245.38	34.021
245.75	21.348
246.12	14.655
246.49	31.405
246.87	36.538
247.24	24.370
247.61	18.421
247.98	17.886
248.36	22.500
248.73	30.921
249.10	18.182
249.47	25.949
249.84	21.569
250.22	25.294
250.59	20.261
250.96	29.577
251.33	29.651
251.70	31.176
252.08	27.919
252.45	25.248
252.82	32.663
253.19	29.493
253.56	21.028
253.94	31.982
254.31	29.130
254.68	30.263
255.05	25.984
255.42	34.061
255.79	30.116
256.16	26.459
256.54	30.224
256.91	24.335
257.28	26.766
257.65	29.213
258.02	27.305
258.39	31.987
258.76	32.234
259.14	31.229
259.51	27.184
259.88	30.928
260.25	27.778
260.62	33.333
260.99	30.847
261.36	26.370
261.73	28.797
262.10	29.787
262.47	26.687
262.85	28.213
263.22	25.846
263.59	28.349
263.96	30.435
264.33	28.788
264.70	25.298
265.07	27.976
265.44	32.861
265.81	32.486
266.18	29.781
266.55	30.334
266.92	28.497
267.29	28.721
267.66	27.621
268.03	30.890
268.40	26.893
268.77	32.888
269.14	28.058
269.51	26.992
269.88	25.686
270.25	27.296
270.62	30.000
270.99	27.621
271.36	28.362
271.73	26.995
272.10	30.170
272.47	27.896
272.84	27.723
273.21	28.770
273.58	29.157
273.95	28.833
274.32	26.559
274.69	27.149
275.06	27.679
275.43	25.397
275.80	28.918
276.17	25.977
276.54	28.480
276.91	27.412
277.28	25.983
277.65	29.339
278.02	29.362
278.39	27.352
278.76	27.463
279.13	24.481
279.50	28.571
279.87	26.350
280.23	26.882
280.60	30.799
280.97	27.273
281.34	25.769
281.71	28.337
282.08	24.744
282.45	25.049
282.82	30.502
283.19	28.820
283.56	26.782
283.92	26.186
284.29	26.346
284.66	24.612
285.03	26.130
285.40	24.008
285.77	25.483
286.14	29.061
286.51	26.937
286.87	25.411
287.24	27.440
287.61	25.220
287.98	25.263
288.35	24.263
288.72	25.744
289.08	25.174
289.45	27.768
289.82	24.825
290.19	23.208
290.56	24.014
290.93	22.896
291.29	22.188
291.66	26.929
292.03	22.329
292.40	23.387
292.77	22.488
293.13	20.455
293.50	20.941
293.87	22.137
294.24	23.029
294.60	21.461
294.97	22.173
295.34	22.086
295.71	21.461
296.08	20.329
296.44	19.346
296.81	21.250
297.18	21.159
297.55	22.493
297.91	19.863
298.28	21.108
298.65	21.438
299.02	21.159
299.38	17.237
299.75	19.310
300.12	20.157
300.48	19.763
300.85	20.913
301.22	20.390
301.59	20.000
301.95	20.000
302.32	20.882
302.69	19.900
303.05	17.946
303.42	20.050
303.79	19.393
304.15	20.072
304.52	18.549
304.89	18.480
305.25	17.797
305.62	17.736
305.99	17.661
306.35	18.382
306.72	17.323
307.09	18.586
307.45	18.485
307.82	17.245
308.19	18.235
308.55	17.666
308.92	19.281
309.29	18.547
309.65	17.869
310.02	19.362
310.38	18.661
310.75	18.689
311.12	17.330
311.48	17.922
311.85	17.801
312.22	17.194
312.58	18.047
312.95	16.329
313.31	17.184
313.68	17.592
314.05	18.163
314.41	18.763
314.78	18.557
315.14	19.116
315.51	19.462
315.87	18.033
316.24	19.009
316.61	18.406
316.97	18.254
317.34	18.555
317.70	18.642
318.07	18.558
318.43	18.725
318.80	19.034
319.16	20.605
319.53	18.898
319.89	20.177
320.26	19.534
320.62	20.963
320.99	19.937
321.35	19.836
321.72	21.599
322.08	21.047
322.45	22.437
322.81	22.692
323.18	22.080
323.54	22.490
323.91	23.369
324.27	23.145
324.64	25.000
325.00	23.449
325.37	24.977
325.73	23.481
326.10	24.705
326.46	25.919
326.83	26.334
327.19	26.591
327.56	26.412
327.92	27.377
328.29	27.411
328.65	30.660
329.01	28.860
329.38	29.401
329.74	28.990
330.11	29.008
330.47	28.757
330.84	30.288
331.20	33.175
331.56	31.944
331.93	31.689
332.29	32.264
332.66	32.851
333.02	32.807
333.38	31.347
333.75	33.608
334.11	32.677
334.48	32.820
334.84	33.425
335.20	32.296
335.57	33.454
335.93	33.062
336.29	34.254
336.66	32.788
337.02	34.294
337.38	34.352
337.75	33.727
338.11	35.528
338.47	35.128
338.84	34.750
339.20	34.552
339.56	35.872
339.93	35.721
340.29	35.688
340.65	35.932
341.02	35.638
341.38	36.106
341.74	35.689
342.11	34.142
342.47	36.032
342.83	35.727
343.20	36.498
343.56	36.087
343.92	34.987
344.28	37.062
344.65	35.147
345.01	35.350
345.37	36.669
345.73	36.904
346.10	37.446
346.46	36.838
346.82	35.679
347.19	35.079
347.55	37.093
347.91	34.628
348.27	35.166
348.63	35.605
349.00	34.947
349.36	36.825
349.72	37.313
350.08	36.148
350.45	36.153
350.81	35.797
351.17	36.401
351.53	35.347
351.89	35.425
352.26	35.760
352.62	35.887
352.98	36.225
353.34	36.715
353.70	37.136
354.07	36.532
354.43	36.349
354.79	37.490
355.15	37.381
355.51	35.997
355.87	36.327
356.24	35.889
356.60	36.136
356.96	36.984
357.32	36.821
357.68	36.122
358.04	36.187
358.40	36.495
358.77	36.683
359.13	37.310
359.49	36.210
359.85	37.129
360.21	37.321
360.57	37.567
360.93	38.200
361.29	37.387
361.66	38.009
362.02	38.333
362.38	38.385
362.74	36.866
363.10	37.773
363.46	37.064
363.82	39.068
364.18	36.974
364.54	38.162
364.90	38.351
365.26	38.282
365.62	38.686
365.98	37.830
366.35	37.509
366.71	38.729
367.07	39.187
367.43	36.880
367.79	38.657
368.15	38.047
368.51	40.204
368.87	37.042
369.23	37.978
369.59	39.577
369.95	38.783
370.31	38.873
370.67	39.552
371.03	38.088
371.39	39.679
371.75	39.853
372.11	37.803
372.47	39.719
372.83	39.390
373.19	38.659
373.55	38.989
373.91	39.309
374.27	38.909
374.63	39.627
374.99	38.440
375.35	39.206
375.71	40.629
376.07	39.537
376.42	39.660
376.78	39.866
377.14	39.269
377.50	39.575
377.86	40.897
378.22	40.651
378.58	40.513
378.94	41.336
379.30	40.923
379.66	41.066
380.02	40.895
380.38	40.231
380.74	41.173
381.09	42.147
381.45	41.529
381.81	42.196
382.17	41.497
382.53	41.661
382.89	42.185
383.25	41.942
383.61	41.890
383.97	42.095
384.32	42.089
384.68	42.353
385.04	42.034
385.40	41.942
385.76	44.277
386.12	42.561
386.48	43.487
386.83	43.500
387.19	42.979
387.55	43.601
387.91	43.276
388.27	42.735
388.62	44.116
388.98	44.506
389.34	43.848
389.70	44.375
390.06	44.116
390.42	44.819
390.77	45.062
391.13	44.388
391.49	44.567
391.85	45.094
392.20	46.139
392.56	45.455
392.92	45.332
393.28	45.224
393.64	44.444
393.99	46.834
394.35	46.300
394.71	46.935
395.07	44.375
395.42	45.477
395.78	47.883
396.14	46.280
396.50	47.178
396.85	47.585
397.21	46.554
397.57	45.141
397.92	47.753
398.28	46.494
398.64	45.783
399.00	47.178
399.35	47.009
399.71	47.387
400.07	47.944
400.42	46.695
400.78	48.500
401.14	49.062
401.49	49.077
401.85	46.862
402.21	48.554
402.57	50.062
402.92	48.432
403.28	49.499
403.63	50.063
403.99	48.278
404.35	50.281
404.70	48.690
405.06	48.884
405.42	49.845
405.77	49.448
406.13	49.476
406.49	49.023
406.84	51.222
407.20	52.258
407.55	50.483
407.91	50.869
408.27	49.841
408.62	51.508
408.98	51.017
409.34	50.743
409.69	50.581
410.05	50.739
410.40	51.173
410.76	52.352
411.11	52.000
411.47	52.926
411.83	51.977
412.18	52.896
412.54	51.935
412.89	51.970
413.25	52.888
413.60	51.925
413.96	51.104
414.31	52.744
414.67	52.662
415.03	53.063
415.38	51.240
415.74	53.420
416.09	55.062
416.45	52.532
416.80	52.875
417.16	55.663
417.51	53.564
417.87	53.911
418.22	54.469
418.58	56.120
418.93	54.357
419.29	53.521
419.64	54.763
420.00	56.675
420.35	55.104
420.71	56.926
421.06	55.433
421.42	56.851
421.77	55.723
422.12	56.186
422.48	55.550
422.83	55.510
423.19	56.264
423.54	55.850
423.90	56.125
424.25	57.692
424.61	56.977
424.96	56.330
425.31	58.521
425.67	57.336
426.02	58.422
426.38	59.487
426.73	58.414
427.09	59.177
427.44	59.765
427.79	58.986
428.15	58.920
428.50	59.237
428.85	59.459
429.21	59.310
429.56	58.976
429.92	58.295
430.27	59.499
430.62	59.226
430.98	58.758
431.33	59.411
431.68	59.184
432.04	60.313
432.39	59.669
432.74	59.952
433.10	61.437
433.45	60.096
433.80	61.637
434.16	59.169
434.51	60.161
434.86	61.789
435.22	60.404
435.57	62.321
435.92	61.198
436.28	61.956
436.63	61.894
436.98	60.545
437.34	61.948
437.69	63.387
438.04	61.652
438.39	62.431
438.75	64.845
439.10	62.762
439.45	64.516
439.81	63.547
440.16	65.499
440.51	64.896
440.86	64.955
441.22	62.330
441.57	64.294
441.92	63.379
442.27	64.856
442.63	65.739
442.98	64.159
443.33	63.829
443.68	64.456
444.03	65.226
444.39	64.584
444.74	65.775
445.09	66.203
445.44	66.097
445.79	66.529
446.15	65.859
446.50	64.781
446.85	67.269
447.20	66.006
447.55	66.295
447.91	66.836
448.26	65.509
448.61	67.185
448.96	68.732
449.31	66.936
449.66	67.015
450.02	66.914
450.37	68.346
450.72	67.182
451.07	68.608
451.42	67.291
451.77	67.872
452.12	67.644
452.47	67.804
452.83	68.198
453.18	68.627
453.53	69.406
453.88	69.217
454.23	68.470
454.58	70.781
454.93	68.943
455.28	68.254
455.63	68.568
455.98	70.054
456.34	69.285
456.69	69.377
457.04	70.006
457.39	70.292
457.74	68.924
458.09	67.863
458.44	69.339
458.79	69.244
459.14	69.451
459.49	69.552
459.84	69.994
460.19	70.267
460.54	70.110
460.89	70.455
461.24	68.696
461.59	70.962
461.94	70.377
462.29	71.472
462.64	72.625
462.99	71.090
463.34	70.932
463.69	71.300
464.04	71.126
464.39	70.831
464.74	70.429
465.09	71.179
465.44	70.744
465.79	69.444
466.14	70.924
466.49	71.190
466.84	71.981
467.19	71.464
467.54	70.051
467.89	71.636
468.24	70.985
468.59	73.460
468.94	71.683
469.29	71.869
469.64	72.180
469.99	74.212
470.34	73.515
470.68	74.124
471.03	74.452
471.38	73.252
471.73	73.529
472.08	73.338
472.43	73.691
472.78	72.584
473.13	72.857
473.48	73.225
473.83	71.669
474.17	73.575
474.52	72.431
474.87	72.061
475.22	73.642
475.57	72.840
475.92	73.505
476.27	74.098
476.61	73.669
476.96	71.612
477.31	73.229
477.66	74.438
478.01	74.565
478.36	73.203
478.70	75.095
479.05	73.297
479.40	73.556
479.75	72.732
480.10	72.709
480.45	73.800
480.79	74.874
481.14	75.461
481.49	73.399
481.84	75.338
482.19	74.181
482.53	74.532
482.88	74.511
483.23	73.273
483.58	73.585
483.92	72.652
484.27	73.747
484.62	73.689
484.97	72.512
485.31	70.484
485.66	67.840
486.01	67.217
486.36	66.450
486.70	69.135
487.05	70.672
487.40	71.251
487.75	71.408
488.09	72.157
488.44	72.524
488.79	73.739
489.13	74.079
489.48	75.075
489.83	74.484
490.17	73.258
490.52	74.734
490.87	73.207
491.22	76.313
491.56	74.905
491.91	73.327
492.26	76.616
492.60	74.472
492.95	76.045
493.30	75.721
493.64	75.589
493.99	75.024
494.34	75.437
494.68	75.286
495.03	74.453
495.37	76.104
495.72	75.416
496.07	75.415
496.41	75.708
496.76	75.081
497.11	75.221
497.45	75.895
497.80	77.094
498.14	75.509
498.49	76.689
498.84	76.148
499.18	77.661
499.53	76.290
499.87	75.486
500.22	76.607
500.56	77.206
500.91	76.305
501.26	75.383
501.60	75.603
501.95	76.662
502.29	76.804
502.64	76.689
502.98	76.369
503.33	74.592
503.67	76.145
504.02	76.393
504.36	77.140
504.71	75.909
505.06	76.145
505.40	76.142
505.75	77.990
506.09	75.621
506.44	77.156
506.78	78.163
507.13	77.249
507.47	77.859
507.82	77.297
508.16	77.602
508.51	78.751
508.85	78.702
509.19	79.031
509.54	79.196
509.88	79.126
510.23	78.375
510.57	77.392
510.92	77.612
511.26	78.069
511.61	78.878
511.95	78.904
512.30	79.823
512.64	78.798
512.98	79.113
513.33	80.078
513.67	80.387
514.02	81.064
514.36	80.000
514.70	80.361
515.05	81.257
515.39	80.519
515.74	83.174
516.08	81.829
516.42	82.744
516.77	81.627
517.11	81.662
517.46	82.525
517.80	80.572
518.14	81.568
518.49	81.370
518.83	81.896
519.17	80.837
519.52	81.824
519.86	82.113
520.20	82.017
520.55	83.365
520.89	82.811
521.23	82.457
521.58	83.218
521.92	82.628
522.26	83.800
522.61	84.416
522.95	85.166
523.29	82.402
523.64	83.227
523.98	83.474
524.32	82.603
524.66	82.714
525.01	84.870
525.35	83.798
525.69	85.118
526.04	84.656
526.38	84.630
526.72	82.799
527.06	83.528
527.41	83.839
527.75	83.579
528.09	84.784
528.43	84.537
528.78	84.620
529.12	83.161
529.46	85.770
529.80	82.964
530.15	83.102
530.49	85.185
530.83	86.389
531.17	84.083
531.51	84.952
531.86	86.472
532.20	84.969
532.54	83.935
532.88	87.543
533.22	85.417
533.57	83.748
533.91	83.551
534.25	84.766
534.59	82.809
534.93	81.372
535.27	82.424
535.62	83.863
535.96	83.040
536.30	82.718
536.64	85.389
536.98	84.111
537.32	87.198
537.66	87.167
538.01	85.245
538.35	83.911
538.69	82.290
539.03	82.638
539.37	84.926
539.71	84.049
540.05	83.503
540.39	84.972
540.73	84.658
541.07	85.704
541.42	83.938
541.76	84.997
542.10	85.272
542.44	86.171
542.78	83.207
543.12	85.852
543.46	84.562
543.80	84.455
544.14	82.109
544.48	83.877
544.82	84.826
545.16	86.339
545.50	83.778
545.84	87.748
546.18	85.816
546.52	86.446
546.86	84.615
547.20	86.624
547.54	84.806
547.88	84.307
548.22	82.840
548.56	83.311
548.90	84.636
549.24	84.504
549.58	85.684
549.92	84.346
550.26	85.714
550.60	88.104
550.94	87.752
551.28	86.476
551.62	88.000
551.96	87.594
552.30	85.892
552.64	85.966
552.98	84.248
553.32	84.308
553.66	86.357
554.00	86.642
554.34	87.149
554.68	85.177
555.02	87.426
555.36	87.659
555.69	85.421
556.03	84.582
556.37	83.986
556.71	87.220
557.05	87.174
557.39	86.171
557.73	86.732
558.07	88.688
558.41	86.907
558.75	89.088
559.08	88.495
559.42	88.333
559.76	88.951
560.10	87.080
560.44	86.895
560.78	83.776
561.12	85.472
561.45	86.156
561.79	85.084
562.13	86.870
562.47	86.835
562.81	86.095
563.15	85.261
563.48	87.270
563.82	87.028
564.16	86.699
564.50	85.473
564.84	85.341
565.17	86.251
565.51	87.227
565.85	87.654
566.19	85.809
566.52	86.126
566.86	86.311
567.20	84.122
567.54	86.436
567.88	85.764
568.21	84.276
568.55	83.152
568.89	83.008
569.23	82.378
569.56	79.291
569.90	80.512
570.24	76.740
570.57	78.800
570.91	78.459
571.25	75.600
571.59	75.273
571.92	73.956
572.26	76.147
572.60	76.031
572.93	75.777
573.27	76.301
573.61	74.851
573.95	75.860
574.28	73.888
574.62	73.786
574.96	73.124
575.29	72.892
575.63	72.350
575.97	73.651
576.30	74.079
576.64	73.669
576.98	73.951
577.31	73.925
577.65	73.601
577.98	72.337
578.32	72.221
578.66	71.803
578.99	73.584
579.33	73.245
579.67	73.328
580.00	73.848
580.34	74.303
580.67	73.591
581.01	74.039
581.35	72.481
581.68	71.994
582.02	72.344
582.35	71.996
582.69	73.198
583.02	72.976
583.36	73.646
583.70	75.623
584.03	75.869
584.37	76.793
584.70	74.643
585.04	73.187
585.37	73.833
585.71	73.932
586.04	73.449
586.38	74.340
586.72	75.438
587.05	75.881
587.39	75.426
587.72	77.037
588.06	75.118
588.39	74.623
588.73	76.801
589.06	77.886
589.40	77.152
589.73	77.583
590.07	77.832
590.40	78.793
590.73	79.901
591.07	79.050
591.40	78.540
591.74	80.271
592.07	80.659
592.41	79.417
592.74	77.459
593.08	75.655
593.41	76.474
593.75	76.186
594.08	75.489
594.41	76.055
594.75	76.679
595.08	78.055
595.42	77.107
595.75	78.783
596.09	78.225
596.42	79.330
596.75	79.396
597.09	79.226
597.42	79.765
597.75	79.753
598.09	78.904
598.42	78.023
598.76	77.392
599.09	77.644
599.42	75.635
599.76	75.470
600.09	75.339
600.42	76.042
600.76	76.560
601.09	76.069
601.42	75.362
601.76	77.888
602.09	78.507
602.42	79.444
602.76	78.862
603.09	79.236
603.42	79.891
603.76	77.540
604.09	78.372
604.42	78.849
604.76	78.193
605.09	79.707
605.42	79.142
605.75	79.028
606.09	77.197
606.42	78.148
606.75	77.229
607.09	77.758
607.42	77.758
607.75	78.686
608.08	77.179
608.42	78.026
608.75	80.482
609.08	80.618
609.41	81.066
609.75	80.040
610.08	79.930
610.41	78.116
610.74	78.986
611.07	81.447
611.41	81.526
611.74	81.610
612.07	80.300
612.40	81.947
612.73	82.316
613.07	81.271
613.40	80.252
613.73	83.044
614.06	80.356
614.39	82.516
614.72	80.056
615.06	81.229
615.39	79.694
615.72	79.656
616.05	82.402
616.38	80.684
616.71	82.813
617.05	81.223
617.38	82.527
617.71	83.585
618.04	83.556
618.37	84.489
618.70	85.281
619.03	86.111
619.36	85.311
619.69	86.808
620.03	88.240
620.36	84.120
620.69	84.011
621.02	86.086
621.35	90.207
621.68	89.711
622.01	90.083
622.34	88.348
622.67	86.278
623.00	86.524
623.33	87.195
623.66	84.443
623.99	84.947
624.32	85.779
624.65	85.038
624.99	86.531
625.32	85.671
625.65	88.295
625.98	89.283
626.31	87.448
626.64	89.688
626.97	89.354
627.30	89.142
627.63	89.515
627.96	90.476
628.29	90.472
628.62	92.035
628.95	90.882
629.28	93.044
629.61	93.220
629.94	92.571
630.26	92.490
630.59	96.046
630.92	93.333
631.25	91.487
631.58	96.586
631.91	94.846
632.24	96.789
632.57	96.364
632.90	96.085
633.23	96.235
