SpectraSuite Data File
++++++++++++++++++++++++++++++++++++
Date: Fri May 15 20:59:51 PDT 2015
User: schluterlab
Dark Spectrum Present: Yes
Reference Spectrum Present: Yes
Number of Sampled Component Spectra: 1
Spectrometers: USB2E3373
Integration Time (usec): 3000 (USB2E3373)
Spectra Averaged: 3 (USB2E3373)
Boxcar Smoothing: 0 (USB2E3373)
Correct for Electrical Dark: No (USB2E3373)
Strobe/Lamp Enabled: No (USB2E3373)
Correct for Detector Non-linearity: No (USB2E3373)
Correct for Stray Light: No (USB2E3373)
Number of Pixels in Processed Spectrum: 2048
>>>>>Begin Processed Spectral Data<<<<<
178.53	0.000
178.91	0.000
179.29	37.500
179.67	-450.000
180.04	71.429
180.42	175.000
180.80	-600.000
181.18	366.667
181.56	350.000
181.94	-100.000
182.31	-300.000
182.69	-40.000
183.07	-433.333
183.45	60.000
183.83	50.000
184.20	-18.182
184.58	144.444
184.96	-125.000
185.34	166.667
185.72	-750.000
186.09	69.231
186.47	-800.000
186.85	150.000
187.23	166.667
187.61	-500.000
187.98	-433.333
188.36	-111.111
188.74	-400.000
189.12	11.765
189.49	55.556
189.87	0.000
190.25	14.286
190.63	-50.000
191.00	-333.333
191.38	31.579
191.76	-100.000
192.14	100.000
192.51	-600.000
192.89	-44.444
193.27	-85.714
193.65	233.333
194.02	218.182
194.40	50.000
194.78	-100.000
195.15	-100.000
195.53	-112.500
195.91	375.000
196.29	-200.000
196.66	123.077
197.04	157.143
197.42	-133.333
197.79	-266.667
198.17	-123.077
198.55	1400.000
198.92	-233.333
199.30	-500.000
199.68	-140.000
200.05	-366.667
200.43	0.000
200.81	100.000
201.18	0.000
201.56	900.000
201.94	-150.000
202.31	33.333
202.69	-180.000
203.07	225.000
203.44	0.000
203.82	0.000
204.19	14.286
204.57	-433.333
204.95	187.500
205.32	-70.000
205.70	-28.571
206.08	-325.000
206.45	188.889
206.83	71.429
207.20	-100.000
207.58	700.000
207.96	-533.333
208.33	-170.000
208.71	-275.000
209.08	-200.000
209.46	-1400.000
209.84	-20.000
210.21	-1300.000
210.59	-57.143
210.96	-16.667
211.34	-150.000
211.71	40.000
212.09	-42.857
212.46	-1300.000
212.84	0.000
213.22	-50.000
213.59	200.000
213.97	-7.692
214.34	-72.727
214.72	0.000
215.09	550.000
215.47	-7.692
215.84	-72.727
216.22	-33.333
216.59	-100.000
216.97	100.000
217.34	-150.000
217.72	-120.000
218.09	50.000
218.47	112.500
218.84	-1500.000
219.22	-100.000
219.59	-100.000
219.97	633.333
220.34	275.000
220.72	-128.571
221.09	125.000
221.47	-400.000
221.84	-350.000
222.22	-1000.000
222.59	-72.727
222.97	25.000
223.34	-66.667
223.72	-21.429
224.09	33.333
224.46	0.000
224.84	600.000
225.21	-40.000
225.59	0.000
225.96	-200.000
226.34	575.000
226.71	42.857
227.08	-50.000
227.46	-37.500
227.83	-1050.000
228.21	55.556
228.58	-9.091
228.95	-75.000
229.33	180.000
229.70	12.500
230.08	-87.500
230.45	-42.857
230.82	-57.143
231.20	-80.000
231.57	21.429
231.95	-28.571
232.32	-100.000
232.69	-7.143
233.07	-66.667
233.44	-240.000
233.81	0.000
234.19	-11.111
234.56	-52.941
234.93	300.000
235.31	75.000
235.68	-240.000
236.05	-23.077
236.43	0.000
236.80	41.176
237.17	9.375
237.55	-10.000
237.92	3.704
238.29	22.222
238.67	33.333
239.04	32.353
239.41	9.756
239.79	-6.667
240.16	34.146
240.53	10.526
240.91	30.435
241.28	30.159
241.65	16.071
242.02	38.356
242.40	40.000
242.77	45.763
243.14	30.303
243.51	32.500
243.89	32.184
244.26	10.345
244.63	39.286
245.00	20.619
245.38	29.897
245.75	26.966
246.12	24.138
246.49	30.579
246.87	31.731
247.24	23.529
247.61	28.947
247.98	21.951
248.36	23.750
248.73	27.632
249.10	30.519
249.47	31.646
249.84	33.333
250.22	26.471
250.59	38.562
250.96	30.516
251.33	27.907
251.70	32.941
252.08	36.548
252.45	29.703
252.82	34.171
253.19	32.719
253.56	23.364
253.94	30.180
254.31	35.217
254.68	39.035
255.05	31.890
255.42	30.568
255.79	35.907
256.16	33.463
256.54	35.821
256.91	28.897
257.28	28.625
257.65	31.086
258.02	27.660
258.39	37.037
258.76	31.502
259.14	36.545
259.51	30.421
259.88	31.959
260.25	34.314
260.62	35.764
260.99	31.525
261.36	31.507
261.73	31.329
262.10	32.827
262.47	30.368
262.85	32.288
263.22	30.769
263.59	33.956
263.96	36.957
264.33	32.727
264.70	32.440
265.07	34.524
265.44	32.295
265.81	33.333
266.18	33.060
266.55	31.877
266.92	30.829
267.29	34.465
267.66	31.458
268.03	30.105
268.40	32.376
268.77	34.492
269.14	34.293
269.51	34.447
269.88	34.663
270.25	33.673
270.62	32.927
270.99	30.946
271.36	32.029
271.73	32.864
272.10	35.280
272.47	35.225
272.84	30.446
273.21	30.858
273.58	34.217
273.95	31.579
274.32	31.871
274.69	32.353
275.06	34.152
275.43	31.293
275.80	33.554
276.17	33.333
276.54	31.049
276.91	34.868
277.28	31.441
277.65	32.645
278.02	32.979
278.39	31.291
278.76	33.124
279.13	27.178
279.50	33.403
279.87	34.773
280.23	29.462
280.60	29.240
280.97	31.515
281.34	29.231
281.71	34.086
282.08	31.493
282.45	31.703
282.82	29.923
283.19	31.721
283.56	30.250
283.92	28.653
284.29	30.577
284.66	31.202
285.03	29.862
285.40	30.246
285.77	30.756
286.14	31.227
286.51	30.074
286.87	28.702
287.24	31.676
287.61	29.453
287.98	28.947
288.35	27.903
288.72	28.371
289.08	27.778
289.45	28.822
289.82	29.196
290.19	29.352
290.56	28.645
290.93	29.461
291.29	24.499
291.66	27.087
292.03	25.678
292.40	24.839
292.77	26.635
293.13	24.675
293.50	25.645
293.87	26.565
294.24	26.584
294.60	27.273
294.97	27.232
295.34	24.693
295.71	26.379
296.08	23.916
296.44	21.337
296.81	26.528
297.18	24.203
297.55	26.152
297.91	23.425
298.28	24.538
298.65	23.745
299.02	24.124
299.38	21.751
299.75	22.483
300.12	23.691
300.48	23.057
300.85	22.687
301.22	22.857
301.59	23.553
301.95	24.177
302.32	22.827
302.69	21.642
303.05	22.896
303.42	23.039
303.79	21.028
304.15	24.014
304.52	22.592
304.89	21.404
305.25	20.460
305.62	19.953
305.99	21.637
306.35	20.809
306.72	20.810
307.09	21.779
307.45	20.781
307.82	21.759
308.19	22.416
308.55	21.483
308.92	21.242
309.29	21.229
309.65	22.067
310.02	20.792
310.38	21.186
310.75	22.842
311.12	21.851
311.48	21.527
311.85	22.408
312.22	22.152
312.58	21.868
312.95	22.625
313.31	22.050
313.68	22.513
314.05	23.367
314.41	23.814
314.78	23.093
315.14	23.741
315.51	21.636
315.87	23.566
316.24	25.177
316.61	24.016
316.97	23.909
317.34	24.512
317.70	25.908
318.07	23.365
318.43	25.490
318.80	25.189
319.16	26.953
319.53	26.971
319.89	25.689
320.26	27.126
320.62	27.482
320.99	26.514
321.35	28.058
321.72	28.764
322.08	28.298
322.45	28.426
322.81	28.880
323.18	29.048
323.54	28.475
323.91	29.211
324.27	29.199
324.64	30.337
325.00	30.839
325.37	31.680
325.73	31.006
326.10	31.698
326.46	31.659
326.83	33.071
327.19	33.217
327.56	33.102
327.92	33.363
328.29	33.571
328.65	34.811
329.01	32.445
329.38	33.641
329.74	33.805
330.11	34.476
330.47	34.416
330.84	35.000
331.20	36.122
331.56	34.630
331.93	35.616
332.29	35.747
332.66	34.842
333.02	35.409
333.38	34.830
333.75	36.172
334.11	35.273
334.48	35.539
334.84	35.531
335.20	34.492
335.57	35.358
335.93	36.314
336.29	34.254
336.66	35.786
337.02	34.944
337.38	34.259
337.75	36.273
338.11	35.618
338.47	35.858
338.84	36.784
339.20	36.472
339.56	36.055
339.93	34.646
340.29	37.248
340.65	37.455
341.02	35.284
341.38	35.841
341.74	33.657
342.11	34.489
342.47	36.477
342.83	36.073
343.20	35.192
343.56	35.478
343.92	35.695
344.28	35.781
344.65	34.974
345.01	34.486
345.37	34.987
345.73	36.736
346.10	36.238
346.46	36.669
346.82	35.106
347.19	34.497
347.55	36.174
347.91	35.437
348.27	35.893
348.63	36.371
349.00	34.454
349.36	35.578
349.72	36.153
350.08	35.820
350.45	34.557
350.81	34.302
351.17	34.283
351.53	35.510
351.89	36.003
352.26	34.240
352.62	36.129
352.98	35.502
353.34	34.944
353.70	35.194
354.07	35.081
354.43	34.908
354.79	35.425
355.15	35.556
355.51	36.155
355.87	35.113
356.24	34.176
356.60	34.762
356.96	35.794
357.32	34.665
357.68	34.949
358.04	35.057
358.40	35.129
358.77	35.327
359.13	34.347
359.49	34.052
359.85	35.101
360.21	35.167
360.57	35.272
360.93	35.174
361.29	34.743
361.66	35.658
362.02	35.909
362.38	35.872
362.74	34.368
363.10	36.193
363.46	35.878
363.82	35.763
364.18	35.351
364.54	34.632
364.90	34.910
365.26	35.444
365.62	35.547
365.98	34.824
366.35	35.980
366.71	35.846
367.07	35.559
367.43	34.364
367.79	35.406
368.15	35.391
368.51	33.358
368.87	34.817
369.23	34.079
369.59	34.840
369.95	35.264
370.31	35.477
370.67	36.194
371.03	33.906
371.39	35.084
371.75	33.700
372.11	34.094
372.47	34.837
372.83	34.493
373.19	35.449
373.55	35.235
373.91	34.557
374.27	36.074
374.63	34.961
374.99	35.035
375.35	35.167
375.71	35.385
376.07	34.902
376.42	34.218
376.78	34.966
377.14	35.342
377.50	35.458
377.86	34.873
378.22	33.504
378.58	35.321
378.94	34.531
379.30	34.498
379.66	35.862
380.02	35.500
380.38	33.293
380.74	34.590
381.09	34.601
381.45	34.312
381.81	34.917
382.17	34.835
382.53	35.540
382.89	34.965
383.25	35.221
383.61	35.366
383.97	34.794
384.32	34.522
384.68	35.170
385.04	34.804
385.40	34.661
385.76	35.157
386.12	35.317
386.48	35.121
386.83	35.764
387.19	34.799
387.55	36.324
387.91	34.597
388.27	33.028
388.62	35.997
388.98	33.517
389.34	35.041
389.70	35.364
390.06	34.487
390.42	34.974
390.77	34.859
391.13	34.048
391.49	35.382
391.85	34.958
392.20	33.898
392.56	33.694
392.92	34.703
393.28	35.495
393.64	34.414
393.99	35.047
394.35	34.156
394.71	35.121
395.07	33.690
395.42	33.394
395.78	35.440
396.14	34.489
396.50	35.384
396.85	34.449
397.21	34.962
397.57	34.734
397.92	33.972
398.28	34.713
398.64	33.193
399.00	34.142
399.35	34.029
399.71	33.199
400.07	35.248
400.42	34.333
400.78	35.028
401.14	35.088
401.49	34.663
401.85	33.760
402.21	33.916
402.57	33.562
402.92	32.622
403.28	33.584
403.63	34.552
403.99	33.291
404.35	33.354
404.70	33.512
405.06	32.667
405.42	32.815
405.77	32.714
406.13	33.236
406.49	32.386
406.84	33.802
407.20	33.594
407.55	33.290
407.91	33.556
408.27	32.441
408.62	33.169
408.98	33.580
409.34	33.147
409.69	33.140
410.05	33.251
410.40	33.210
410.76	32.871
411.11	33.375
411.47	33.399
411.83	31.764
412.18	33.655
412.54	32.834
412.89	32.574
413.25	32.852
413.60	33.106
413.96	31.595
414.31	32.622
414.67	32.906
415.03	31.691
415.38	32.245
415.74	32.834
416.09	32.724
416.45	33.221
416.80	32.320
417.16	33.011
417.51	32.512
417.87	32.660
418.22	32.578
418.58	32.241
418.93	32.727
419.29	31.050
419.64	31.886
420.00	32.305
420.35	31.821
420.71	32.868
421.06	32.413
421.42	32.091
421.77	31.503
422.12	31.612
422.48	31.565
422.83	31.961
423.19	31.546
423.54	31.452
423.90	32.097
424.25	31.401
424.61	32.007
424.96	32.578
425.31	31.889
425.67	32.688
426.02	31.802
426.38	32.123
426.73	32.264
427.09	32.658
427.44	31.647
427.79	31.232
428.15	31.796
428.50	31.981
428.85	30.528
429.21	31.749
429.56	32.561
429.92	31.176
430.27	31.830
430.62	31.208
430.98	31.263
431.33	31.703
431.68	30.979
432.04	31.526
432.39	32.173
432.74	29.946
433.10	31.897
433.45	30.884
433.80	30.934
434.16	31.025
434.51	30.914
434.86	31.359
435.22	31.520
435.57	31.129
435.92	31.377
436.28	30.411
436.63	32.516
436.98	30.591
437.34	31.639
437.69	31.366
438.04	31.282
438.39	30.544
438.75	31.633
439.10	31.636
439.45	32.623
439.81	31.498
440.16	31.651
440.51	31.642
440.86	33.051
441.22	31.448
441.57	30.905
441.92	31.584
442.27	32.095
442.63	31.959
442.98	31.476
443.33	30.607
443.68	31.406
444.03	31.942
444.39	31.677
444.74	32.163
445.09	31.626
445.44	31.282
445.79	32.182
446.15	31.112
446.50	29.839
446.85	31.881
447.20	31.648
447.55	32.310
447.91	31.810
448.26	32.726
448.61	32.412
448.96	33.620
449.31	31.965
449.66	31.533
450.02	32.744
450.37	32.899
450.72	30.355
451.07	32.468
451.42	31.773
451.77	32.550
452.12	31.220
452.47	30.715
452.83	32.332
453.18	31.499
453.53	32.301
453.88	31.755
454.23	31.407
454.58	32.683
454.93	32.603
455.28	31.429
455.63	31.494
455.98	32.051
456.34	32.375
456.69	31.321
457.04	32.829
457.39	32.321
457.74	32.164
458.09	30.959
458.44	31.656
458.79	31.036
459.14	33.181
459.49	32.060
459.84	32.318
460.19	31.735
460.54	31.540
460.89	32.500
461.24	31.988
461.59	32.007
461.94	32.264
462.29	31.544
462.64	33.488
462.99	33.108
463.34	31.224
463.69	31.725
464.04	31.174
464.39	31.716
464.74	32.945
465.09	32.127
465.44	31.448
465.79	32.483
466.14	32.269
466.49	31.282
466.84	32.362
467.19	32.416
467.54	32.695
467.89	32.154
468.24	31.387
468.59	32.063
468.94	31.810
469.29	32.787
469.64	32.536
469.99	33.146
470.34	31.877
470.68	32.140
471.03	31.989
471.38	32.311
471.73	31.723
472.08	32.090
472.43	31.946
472.78	31.323
473.13	30.816
473.48	32.052
473.83	32.067
474.17	31.995
474.52	31.908
474.87	32.121
475.22	31.361
475.57	31.677
475.92	32.200
476.27	33.353
476.61	33.044
476.96	31.679
477.31	32.666
477.66	32.135
478.01	32.117
478.36	31.699
478.70	32.735
479.05	32.088
479.40	32.962
479.75	32.013
480.10	32.360
480.45	31.850
480.79	32.578
481.14	32.787
481.49	30.690
481.84	31.757
482.19	31.244
482.53	31.655
482.88	32.124
483.23	31.910
483.58	31.415
483.92	31.801
484.27	31.905
484.62	32.093
484.97	30.556
485.31	30.347
485.66	29.312
486.01	29.699
486.36	30.028
486.70	30.144
487.05	31.159
487.40	31.024
487.75	30.789
488.09	30.006
488.44	30.743
488.79	30.519
489.13	31.010
489.48	31.637
489.83	31.614
490.17	31.281
490.52	31.824
490.87	30.541
491.22	32.139
491.56	30.313
491.91	31.262
492.26	32.086
492.60	31.814
492.95	33.251
493.30	31.265
493.64	31.778
493.99	31.884
494.34	31.019
494.68	32.048
495.03	30.998
495.37	31.698
495.72	31.348
496.07	31.902
496.41	32.264
496.76	31.092
497.11	31.346
497.45	31.790
497.80	32.038
498.14	30.502
498.49	31.742
498.84	31.886
499.18	31.677
499.53	32.391
499.87	31.615
500.22	31.454
500.56	31.871
500.91	31.576
501.26	32.032
501.60	31.530
501.95	32.023
502.29	32.107
502.64	31.902
502.98	31.574
503.33	30.932
503.67	30.699
504.02	31.965
504.36	32.608
504.71	31.010
505.06	31.253
505.40	31.777
505.75	31.959
506.09	31.475
506.44	32.598
506.78	31.735
507.13	32.627
507.47	31.332
507.82	31.784
508.16	31.273
508.51	32.634
508.85	32.810
509.19	31.613
509.54	32.922
509.88	31.230
510.23	32.060
510.57	32.496
510.92	31.077
511.26	33.061
511.61	33.388
511.95	31.945
512.30	32.483
512.64	32.332
512.98	33.071
513.33	33.576
513.67	32.860
514.02	32.838
514.36	34.000
514.70	32.751
515.05	34.195
515.39	33.589
515.74	34.371
516.08	32.576
516.42	34.276
516.77	34.348
517.11	33.175
517.46	33.154
517.80	33.850
518.14	34.905
518.49	33.834
518.83	34.083
519.17	32.201
519.52	33.748
519.86	33.373
520.20	34.022
520.55	33.709
520.89	34.379
521.23	33.819
521.58	35.079
521.92	34.359
522.26	33.962
522.61	33.766
522.95	35.563
523.29	34.498
523.64	34.625
523.98	35.386
524.32	32.603
524.66	34.635
525.01	35.000
525.35	35.126
525.69	34.882
526.04	34.524
526.38	35.279
526.72	34.336
527.06	33.787
527.41	34.763
527.75	34.249
528.09	33.621
528.43	35.989
528.78	34.851
529.12	34.839
529.46	34.698
529.80	35.275
530.15	35.710
530.49	34.478
530.83	35.499
531.17	34.788
531.51	34.337
531.86	35.078
532.20	35.351
532.54	35.058
532.88	35.524
533.22	35.215
533.57	35.190
533.91	35.444
534.25	35.221
534.59	35.151
534.93	34.424
535.27	34.327
535.62	34.284
535.96	35.029
536.30	34.960
536.64	35.768
536.98	34.216
537.32	35.989
537.66	34.993
538.01	35.594
538.35	34.743
538.69	35.419
539.03	34.040
539.37	35.734
539.71	34.901
540.05	34.284
540.39	34.972
540.73	35.146
541.07	35.083
541.42	35.081
541.76	34.962
542.10	35.513
542.44	34.399
542.78	33.517
543.12	33.791
543.46	35.188
543.80	34.351
544.14	33.778
544.48	33.844
544.82	34.313
545.16	35.724
545.50	35.047
545.84	35.269
546.18	35.390
546.52	35.040
546.86	34.004
547.20	34.979
547.54	34.770
547.88	33.832
548.22	33.794
548.56	35.224
548.90	34.367
549.24	34.642
549.58	34.133
549.92	33.238
550.26	35.238
550.60	34.572
550.94	35.400
551.28	34.699
551.62	35.385
551.96	35.263
552.30	34.576
552.64	33.216
552.98	33.544
553.32	34.165
553.66	34.543
554.00	35.547
554.34	35.524
554.68	33.923
555.02	35.640
555.36	35.153
555.69	33.626
556.03	34.118
556.37	33.950
556.71	33.574
557.05	35.645
557.39	32.714
557.73	35.832
558.07	35.520
558.41	33.997
558.75	34.684
559.08	35.225
559.42	35.397
559.76	35.068
560.10	34.939
560.44	33.582
560.78	34.266
561.12	35.049
561.45	35.840
561.79	34.314
562.13	34.989
562.47	34.604
562.81	34.222
563.15	33.780
563.48	33.946
563.82	34.729
564.16	34.471
564.50	32.905
564.84	32.999
565.17	32.126
565.51	35.383
565.85	35.117
566.19	33.820
566.52	34.383
566.86	34.126
567.20	33.624
567.54	33.820
567.88	33.861
568.21	34.615
568.55	33.913
568.89	33.111
569.23	32.788
569.56	32.443
569.90	33.171
570.24	32.601
570.57	32.000
570.91	32.485
571.25	31.569
571.59	31.174
571.92	30.993
572.26	30.797
572.60	30.791
572.93	30.938
573.27	30.846
573.61	30.907
573.95	30.939
574.28	30.694
574.62	30.079
574.96	29.818
575.29	30.389
575.63	29.930
575.97	30.388
576.30	30.250
576.64	29.483
576.98	30.631
577.31	30.499
577.65	30.550
577.98	30.727
578.32	30.115
578.66	29.830
578.99	29.972
579.33	30.127
579.67	30.129
580.00	29.873
580.34	29.975
580.67	29.896
581.01	29.947
581.35	29.953
581.68	29.896
582.02	29.675
582.35	29.768
582.69	29.568
583.02	29.930
583.36	29.832
583.70	30.452
584.03	30.664
584.37	30.745
584.70	29.973
585.04	29.845
585.37	30.074
585.71	29.622
586.04	29.904
586.38	30.061
586.72	30.416
587.05	30.445
587.39	30.724
587.72	30.426
588.06	30.030
588.39	30.789
588.73	30.647
589.06	30.724
589.40	30.868
589.73	30.194
590.07	30.551
590.40	31.618
590.73	31.549
591.07	31.595
591.40	31.745
591.74	31.855
592.07	31.957
592.41	31.360
592.74	31.223
593.08	30.283
593.41	30.774
593.75	30.422
594.08	29.935
594.41	30.531
594.75	30.267
595.08	30.193
595.42	31.211
595.75	31.205
596.09	30.414
596.42	30.426
596.75	31.350
597.09	30.797
597.42	31.075
597.75	31.516
598.09	30.874
598.42	30.641
598.76	31.188
599.09	30.849
599.42	30.239
599.76	30.436
600.09	29.977
600.42	30.516
600.76	29.458
601.09	29.924
601.42	30.200
601.76	30.290
602.09	29.662
602.42	30.750
602.76	30.178
603.09	30.897
603.42	31.271
603.76	30.363
604.09	29.931
604.42	30.795
604.76	31.375
605.09	30.622
605.42	30.609
605.75	30.998
606.09	30.701
606.42	30.442
606.75	30.519
607.09	30.549
607.42	29.818
607.75	30.151
608.08	29.964
608.42	31.019
608.75	30.506
609.08	31.440
609.41	31.066
609.75	31.200
610.08	30.754
610.41	29.903
610.74	31.253
611.07	31.421
611.41	31.085
611.74	31.130
612.07	30.942
612.40	31.072
612.73	31.073
613.07	31.384
613.40	31.400
613.73	30.778
614.06	31.219
614.39	30.852
614.72	30.812
615.06	31.173
615.39	31.004
615.72	30.624
616.05	30.335
616.38	29.858
616.71	30.581
617.05	30.821
617.38	31.364
617.71	31.132
618.04	31.873
618.37	31.778
618.70	30.825
619.03	32.014
619.36	31.693
619.69	33.510
620.03	34.186
620.36	31.974
620.69	32.405
621.02	33.257
621.35	32.448
621.68	32.908
622.01	33.750
622.34	32.482
622.67	34.069
623.00	32.542
623.33	33.841
623.66	32.311
623.99	32.678
624.32	32.700
624.65	31.353
624.99	33.183
625.32	31.691
625.65	33.857
625.98	33.441
626.31	32.835
626.64	33.189
626.97	33.857
627.30	32.750
627.63	33.276
627.96	33.154
628.29	32.470
628.62	33.727
628.95	32.766
629.28	34.677
629.61	34.098
629.94	33.822
630.26	33.300
630.59	33.819
630.92	33.333
631.25	33.231
631.58	35.022
631.91	33.443
632.24	34.518
632.57	35.795
632.90	33.808
