SpectraSuite Data File
++++++++++++++++++++++++++++++++++++
Date: Fri May 15 20:52:24 PDT 2015
User: schluterlab
Dark Spectrum Present: Yes
Reference Spectrum Present: Yes
Number of Sampled Component Spectra: 1
Spectrometers: USB2E3373
Integration Time (usec): 3000 (USB2E3373)
Spectra Averaged: 3 (USB2E3373)
Boxcar Smoothing: 0 (USB2E3373)
Correct for Electrical Dark: No (USB2E3373)
Strobe/Lamp Enabled: No (USB2E3373)
Correct for Detector Non-linearity: No (USB2E3373)
Correct for Stray Light: No (USB2E3373)
Number of Pixels in Processed Spectrum: 2048
>>>>>Begin Processed Spectral Data<<<<<
178.53	0.000
178.91	0.000
179.29	87.500
179.67	-750.000
180.04	142.857
180.42	175.000
180.80	-600.000
181.18	100.000
181.56	400.000
181.94	450.000
182.31	-100.000
182.69	-100.000
183.07	-100.000
183.45	-20.000
183.83	66.667
184.20	27.273
184.58	255.556
184.96	50.000
185.34	-200.000
185.72	-350.000
186.09	107.692
186.47	-800.000
186.85	183.333
187.23	166.667
187.61	600.000
187.98	-33.333
188.36	-100.000
188.74	-100.000
189.12	41.176
189.49	27.778
189.87	0.000
190.25	21.429
190.63	100.000
191.00	-300.000
191.38	-21.053
191.76	150.000
192.14	25.000
192.51	-200.000
192.89	-66.667
193.27	-157.143
193.65	300.000
194.02	72.727
194.40	100.000
194.78	-112.500
195.15	-83.333
195.53	-100.000
195.91	350.000
196.29	-150.000
196.66	176.923
197.04	185.714
197.42	55.556
197.79	-433.333
198.17	-115.385
198.55	800.000
198.92	-366.667
199.30	0.000
199.68	-60.000
200.05	-233.333
200.43	0.000
200.81	-366.667
201.18	66.667
201.56	1200.000
201.94	-200.000
202.31	166.667
202.69	-80.000
203.07	125.000
203.44	0.000
203.82	0.000
204.19	0.000
204.57	-466.667
204.95	137.500
205.32	70.000
205.70	-28.571
206.08	-50.000
206.45	66.667
206.83	7.143
207.20	-57.143
207.58	600.000
207.96	-500.000
208.33	0.000
208.71	-150.000
209.08	-183.333
209.46	-900.000
209.84	-240.000
210.21	-1900.000
210.59	-142.857
210.96	-50.000
211.34	-150.000
211.71	-13.333
212.09	-100.000
212.46	-900.000
212.84	0.000
213.22	150.000
213.59	400.000
213.97	46.154
214.34	-18.182
214.72	-116.667
215.09	375.000
215.47	-7.692
215.84	-9.091
216.22	-566.667
216.59	25.000
216.97	-600.000
217.34	-100.000
217.72	-100.000
218.09	-50.000
218.47	187.500
218.84	-200.000
219.22	55.556
219.59	20.000
219.97	566.667
220.34	275.000
220.72	28.571
221.09	-175.000
221.47	-150.000
221.84	-900.000
222.22	-650.000
222.59	-18.182
222.97	33.333
223.34	-300.000
223.72	21.429
224.09	14.286
224.46	-17.857
224.84	266.667
225.21	60.000
225.59	6.667
225.96	-550.000
226.34	125.000
226.71	-114.286
227.08	-133.333
227.46	37.500
227.83	-350.000
228.21	33.333
228.58	63.636
228.95	-150.000
229.33	180.000
229.70	-18.750
230.08	-75.000
230.45	-100.000
230.82	-57.143
231.20	-6.667
231.57	92.857
231.95	0.000
232.32	-120.000
232.69	-64.286
233.07	-33.333
233.44	-100.000
233.81	-100.000
234.19	-88.889
234.56	-47.059
234.93	200.000
235.31	-50.000
235.68	-460.000
236.05	-46.154
236.43	-75.000
236.80	-41.176
237.17	-3.125
237.55	-40.000
237.92	-18.519
238.29	13.889
238.67	-20.000
239.04	0.000
239.41	-24.390
239.79	-26.667
240.16	0.000
240.53	-44.737
240.91	-23.913
241.28	1.587
241.65	7.143
242.02	-2.740
242.40	5.000
242.77	0.000
243.14	-15.152
243.51	0.000
243.89	1.149
244.26	-17.241
244.63	-15.476
245.00	1.031
245.38	1.031
245.75	-15.730
246.12	-5.172
246.49	-4.132
246.87	-8.654
247.24	-2.521
247.61	-7.018
247.98	-4.878
248.36	-8.125
248.73	2.632
249.10	-5.195
249.47	-9.494
249.84	-1.961
250.22	-4.706
250.59	-10.458
250.96	2.817
251.33	-6.395
251.70	-1.765
252.08	1.523
252.45	1.485
252.82	-0.503
253.19	0.922
253.56	-3.271
253.94	3.604
254.31	-1.304
254.68	0.877
255.05	-3.150
255.42	0.000
255.79	-1.158
256.16	-2.335
256.54	2.612
256.91	0.000
257.28	-1.859
257.65	-4.869
258.02	-4.610
258.39	1.347
258.76	-0.366
259.14	-0.332
259.51	-0.971
259.88	-1.718
260.25	-0.654
260.62	-1.736
260.99	-4.407
261.36	-6.164
261.73	-3.481
262.10	0.000
262.47	-1.840
262.85	-2.194
263.22	-1.538
263.59	0.312
263.96	0.311
264.33	0.909
264.70	-2.381
265.07	-3.274
265.44	-0.850
265.81	0.282
266.18	-0.273
266.55	2.314
266.92	-0.777
267.29	2.611
267.66	1.535
268.03	-1.571
268.40	-1.305
268.77	0.535
269.14	0.240
269.51	0.000
269.88	0.748
270.25	-2.296
270.62	-0.976
270.99	-2.302
271.36	-2.689
271.73	-0.235
272.10	-0.487
272.47	3.310
272.84	-2.475
273.21	1.392
273.58	0.964
273.95	1.373
274.32	-2.771
274.69	-1.131
275.06	0.223
275.43	0.000
275.80	-0.883
276.17	-3.908
276.54	-0.214
276.91	-1.974
277.28	-1.965
277.65	1.860
278.02	-0.638
278.39	-3.063
278.76	-1.258
279.13	-4.564
279.50	-2.101
279.87	0.216
280.23	-1.075
280.60	1.559
280.97	-1.414
281.34	0.192
281.71	-1.027
282.08	-1.227
282.45	-4.110
282.82	-1.931
283.19	-0.774
283.56	-1.349
283.92	-3.985
284.29	-0.769
284.66	-1.357
285.03	-2.750
285.40	-1.134
285.77	-0.879
286.14	-0.722
286.51	1.661
286.87	-1.280
287.24	-1.473
287.61	-1.411
287.98	1.228
288.35	-1.213
288.72	0.175
289.08	0.174
289.45	-0.879
289.82	-0.175
290.19	-0.683
290.56	-1.372
290.93	-2.189
291.29	-0.616
291.66	1.732
292.03	-0.478
292.40	0.323
292.77	0.000
293.13	-3.571
293.50	-1.062
293.87	-0.305
294.24	-0.464
294.60	0.149
294.97	0.595
295.34	-1.687
295.71	-0.894
296.08	-0.897
296.44	-2.845
296.81	-1.389
297.18	0.000
297.55	1.491
297.91	0.685
298.28	2.770
298.65	-0.814
299.02	-0.943
299.38	-2.189
299.75	-1.241
300.12	-1.047
300.48	-0.791
300.85	-1.141
301.22	-1.039
301.59	-1.184
301.95	1.519
302.32	0.908
302.69	0.000
303.05	-0.619
303.42	0.623
303.79	0.234
304.15	0.239
304.52	-2.021
304.89	-0.117
305.25	-0.969
305.62	-0.467
305.99	-1.404
306.35	-1.272
306.72	-1.237
307.09	0.114
307.45	0.918
307.82	-1.273
308.19	0.465
308.55	0.981
308.92	1.089
309.29	-1.676
309.65	-0.753
310.02	-0.440
310.38	0.439
310.75	0.000
311.12	-1.076
311.48	0.106
311.85	0.733
312.22	-1.477
312.58	-0.743
312.95	-1.067
313.31	-1.242
313.68	-0.838
314.05	-1.429
314.41	0.000
314.78	-0.309
315.14	0.514
315.51	-0.311
315.87	-0.820
316.24	0.202
316.61	0.000
316.97	-0.198
317.34	-0.195
317.70	-0.191
318.07	1.058
318.43	-0.098
318.80	-0.663
319.16	-0.098
319.53	0.570
319.89	-0.098
320.26	-0.101
320.62	0.100
320.99	-1.357
321.35	0.000
321.72	0.208
322.08	0.000
322.45	-0.102
322.81	-0.295
323.18	-0.687
323.54	-0.676
323.91	-1.753
324.27	-0.781
324.64	0.843
325.00	-0.091
325.37	0.459
325.73	-0.272
326.10	0.000
326.46	1.794
326.83	0.525
327.19	0.436
327.56	0.261
327.92	0.792
328.29	0.357
328.65	-0.377
329.01	-0.276
329.38	0.184
329.74	-1.039
330.11	0.093
330.47	-0.093
330.84	-0.481
331.20	0.951
331.56	-0.093
331.93	0.365
332.29	0.733
332.66	-0.452
333.02	0.372
333.38	-0.825
333.75	1.007
334.11	-0.179
334.48	1.088
334.84	0.275
335.20	0.457
335.57	0.816
335.93	0.632
336.29	0.645
336.66	-0.363
337.02	0.093
337.38	0.185
337.75	0.091
338.11	0.631
338.47	0.547
338.84	-0.185
339.20	-0.091
339.56	1.193
339.93	0.716
340.29	0.734
340.65	0.717
341.02	0.266
341.38	0.177
341.74	0.088
342.11	0.000
342.47	0.534
342.83	1.644
343.20	0.697
343.56	0.696
343.92	1.063
344.28	1.366
344.65	0.086
345.01	-0.086
345.37	0.168
345.73	1.255
346.10	0.259
346.46	0.336
346.82	0.736
347.19	0.416
347.55	0.251
347.91	1.214
348.27	0.485
348.63	0.852
349.00	-0.164
349.36	1.081
349.72	0.995
350.08	1.066
350.45	1.995
350.81	-0.332
351.17	0.081
351.53	1.714
351.89	0.743
352.26	1.040
352.62	0.484
352.98	1.526
353.34	0.483
353.70	1.618
354.07	0.887
354.43	0.801
354.79	0.083
355.15	1.508
355.51	1.028
355.87	0.000
356.24	0.000
356.60	0.566
356.96	1.349
357.32	0.479
357.68	-0.156
358.04	0.404
358.40	0.643
358.77	1.276
359.13	0.881
359.49	-0.462
359.85	0.546
360.21	0.957
360.57	1.301
360.93	1.135
361.29	-0.076
361.66	1.803
362.02	0.303
362.38	0.762
362.74	0.227
363.10	1.279
363.46	0.519
363.82	2.179
364.18	0.738
364.54	0.368
364.90	0.645
365.26	-0.073
365.62	1.168
365.98	1.173
366.35	1.384
366.71	0.591
367.07	1.161
367.43	0.359
367.79	1.060
368.15	0.215
368.51	0.510
368.87	0.287
369.23	0.000
369.59	1.020
369.95	0.440
370.31	1.012
370.67	0.373
371.03	0.448
371.39	0.656
371.75	0.147
372.11	0.856
372.47	0.814
372.83	1.207
373.19	1.427
373.55	0.794
373.91	0.288
374.27	0.567
374.63	1.436
374.99	0.213
375.35	0.348
375.71	0.000
376.07	1.124
376.42	0.748
376.78	1.074
377.14	0.812
377.50	0.398
377.86	1.071
378.22	0.766
378.58	0.577
378.94	0.693
379.30	0.749
379.66	0.690
380.02	0.061
380.38	0.122
380.74	0.658
381.09	1.595
381.45	0.245
381.81	0.740
382.17	0.952
382.53	0.625
382.89	0.063
383.25	1.182
383.61	0.793
383.97	0.317
384.32	0.375
384.68	0.495
385.04	-0.429
385.40	-0.062
385.76	0.755
386.12	0.776
386.48	0.702
386.83	0.254
387.19	1.099
387.55	0.627
387.91	0.733
388.27	0.427
388.62	0.629
388.98	0.859
389.34	0.437
389.70	1.181
390.06	0.818
390.42	0.518
390.77	0.719
391.13	-0.063
391.49	0.388
391.85	0.780
392.20	0.439
392.56	0.254
392.92	0.822
393.28	0.413
393.64	0.300
393.99	1.254
394.35	-0.253
394.71	0.766
395.07	0.629
395.42	0.668
395.78	-0.130
396.14	0.694
396.50	1.015
396.85	0.386
397.21	0.376
397.57	0.439
397.92	0.779
398.28	0.575
398.64	0.241
399.00	1.016
399.35	-0.056
399.71	0.460
400.07	0.967
400.42	0.061
400.78	0.919
401.14	0.605
401.49	1.251
401.85	0.609
402.21	1.205
402.57	0.750
402.92	0.063
403.28	0.752
403.63	0.820
403.99	0.383
404.35	0.375
404.70	0.536
405.06	0.176
405.42	0.559
405.77	0.232
406.13	0.116
406.49	0.296
406.84	0.367
407.20	0.602
407.55	0.580
407.91	0.602
408.27	0.765
408.62	0.738
408.98	0.678
409.34	1.177
409.69	0.452
410.05	0.062
410.40	-0.062
410.76	0.784
411.11	0.562
411.47	0.723
411.83	0.188
412.18	0.000
412.54	0.811
412.89	0.246
413.25	0.722
413.60	0.373
413.96	0.675
414.31	1.037
414.67	0.449
415.03	0.266
415.38	0.392
415.74	0.717
416.09	1.176
416.45	0.540
416.80	0.793
417.16	0.414
417.51	1.199
417.87	1.239
418.22	0.712
418.58	0.067
418.93	1.755
419.29	-0.448
419.64	-0.130
420.00	1.134
420.35	1.194
420.71	1.033
421.06	-0.061
421.42	1.262
421.77	1.329
422.12	0.681
422.48	1.191
422.83	0.812
423.19	0.903
423.54	-0.118
423.90	0.294
424.25	0.746
424.61	0.490
424.96	1.161
425.31	0.751
425.67	1.056
426.02	1.060
426.38	0.689
426.73	0.182
427.09	0.696
427.44	1.353
427.79	0.648
428.15	1.699
428.50	0.848
428.85	-0.123
429.21	0.566
429.56	1.024
429.92	1.335
430.27	1.704
430.62	-0.314
430.98	0.318
431.33	1.420
431.68	0.733
432.04	0.056
432.39	0.342
432.74	0.782
433.10	1.322
433.45	0.836
433.80	0.290
434.16	0.222
434.51	0.860
434.86	0.813
435.22	1.346
435.57	0.561
435.92	0.539
436.28	0.298
436.63	1.084
436.98	0.406
437.34	0.060
437.69	0.954
438.04	0.741
438.39	0.244
438.75	0.850
439.10	0.736
439.45	0.913
439.81	0.183
440.16	0.297
440.51	1.373
440.86	1.813
441.22	0.848
441.57	0.055
441.92	1.312
442.27	0.610
442.63	1.392
442.98	1.264
443.33	1.113
443.68	1.008
444.03	1.242
444.39	1.181
444.74	1.338
445.09	0.668
445.44	0.627
445.79	1.599
446.15	1.156
446.50	0.610
446.85	1.010
447.20	0.469
447.55	1.060
447.91	0.846
448.26	0.968
448.61	1.151
448.96	0.861
449.31	0.462
449.66	0.290
450.02	0.685
450.37	0.652
450.72	1.031
451.07	1.203
451.42	0.811
451.77	1.085
452.12	1.077
452.47	0.386
452.83	0.883
453.18	0.443
453.53	0.948
453.88	0.607
454.23	0.860
454.58	1.700
454.93	1.740
455.28	0.254
455.63	1.798
455.98	0.842
456.34	1.086
456.69	0.953
457.04	1.953
457.39	0.608
457.74	0.302
458.09	0.471
458.44	-0.410
458.79	0.840
459.14	1.259
459.49	1.970
459.84	1.297
460.19	1.032
460.54	0.856
460.89	1.193
461.24	0.807
461.59	1.485
461.94	0.503
462.29	1.448
462.64	1.196
462.99	1.693
463.34	0.209
463.69	0.129
464.04	1.574
464.39	0.728
464.74	0.798
465.09	1.560
465.44	1.154
465.79	1.134
466.14	1.197
466.49	1.438
466.84	1.487
467.19	1.001
467.54	1.341
467.89	0.316
468.24	1.156
468.59	1.460
468.94	0.508
469.29	1.836
469.64	1.777
469.99	1.261
470.34	-0.068
470.68	1.566
471.03	1.769
471.38	0.571
471.73	0.840
472.08	1.628
472.43	-0.134
472.78	0.617
473.13	1.020
473.48	0.651
473.83	1.121
474.17	1.425
474.52	0.830
474.87	1.455
475.22	1.220
475.57	1.412
475.92	0.987
476.27	1.222
476.61	0.926
476.96	0.781
477.31	1.460
477.66	1.517
478.01	0.898
478.36	1.144
478.70	1.088
479.05	1.264
479.40	1.908
479.75	1.043
480.10	1.126
480.45	1.000
480.79	1.208
481.14	1.639
481.49	0.640
481.84	1.014
482.19	1.310
482.53	1.103
482.88	1.002
483.23	1.536
483.58	1.651
483.92	1.258
484.27	1.732
484.62	1.165
484.97	0.995
485.31	1.301
485.66	1.558
486.01	1.591
486.36	1.285
486.70	1.441
487.05	1.206
487.40	1.267
487.75	0.986
488.09	1.143
488.44	1.100
488.79	1.382
489.13	1.402
489.48	1.368
489.83	1.031
490.17	1.124
490.52	0.970
490.87	1.573
491.22	1.194
491.56	0.806
491.91	1.052
492.26	1.313
492.60	1.248
492.95	1.525
493.30	0.684
493.64	0.884
493.99	1.643
494.34	1.214
494.68	1.286
495.03	0.827
495.37	1.129
495.72	1.565
496.07	1.805
496.41	1.557
496.76	1.290
497.11	0.885
497.45	1.480
497.80	1.160
498.14	1.391
498.49	1.117
498.84	1.347
499.18	1.004
499.53	1.091
499.87	0.778
500.22	1.236
500.56	1.261
500.91	1.004
501.26	1.186
501.60	0.836
501.95	1.019
502.29	1.017
502.64	1.593
502.98	1.233
503.33	1.105
503.67	1.253
504.02	1.613
504.36	1.781
504.71	1.313
505.06	1.258
505.40	0.914
505.75	1.134
506.09	0.811
506.44	2.105
506.78	1.020
507.13	1.603
507.47	0.470
507.82	0.374
508.16	0.951
508.51	1.417
508.85	1.308
509.19	0.479
509.54	1.448
509.88	0.971
510.23	0.538
510.57	1.176
510.92	0.640
511.26	1.146
511.61	1.650
511.95	1.096
512.30	1.275
512.64	1.781
512.98	0.393
513.33	1.343
513.67	0.910
514.02	2.174
514.36	1.314
514.70	1.690
515.05	0.940
515.39	1.594
515.74	1.796
516.08	1.375
516.42	1.472
516.77	1.521
517.11	0.890
517.46	1.436
517.80	1.371
518.14	1.286
518.49	1.322
518.83	0.911
519.17	0.485
519.52	1.184
519.86	1.080
520.20	1.337
520.55	0.438
520.89	1.882
521.23	0.887
521.58	2.334
521.92	1.538
522.26	0.846
522.61	1.429
522.95	1.987
523.29	1.398
523.64	2.287
523.98	1.944
524.32	0.064
524.66	1.985
525.01	1.818
525.35	2.009
525.69	0.471
526.04	0.529
526.38	2.075
526.72	0.654
527.06	1.038
527.41	1.451
527.75	1.340
528.09	1.130
528.43	1.958
528.78	0.594
529.12	1.806
529.46	0.390
529.80	1.837
530.15	1.518
530.49	0.741
530.83	0.821
531.17	1.478
531.51	0.889
531.86	1.428
532.20	0.209
532.54	1.293
532.88	1.643
533.22	2.016
533.57	0.524
533.91	1.240
534.25	1.953
534.59	1.539
534.93	1.133
535.27	0.444
535.62	1.296
535.96	1.631
536.30	1.649
536.64	1.103
536.98	0.836
537.32	2.063
537.66	2.314
538.01	0.769
538.35	1.526
538.69	1.864
539.03	1.162
539.37	1.548
539.71	1.227
540.05	1.154
540.39	1.662
540.73	1.185
541.07	2.072
541.42	2.285
541.76	1.858
542.10	1.789
542.44	1.251
542.78	0.619
543.12	1.030
543.46	2.017
543.80	1.249
544.14	0.601
544.48	1.932
544.82	1.367
545.16	2.459
545.50	1.869
545.84	1.558
546.18	1.277
546.52	0.865
546.86	1.366
547.20	1.788
547.54	1.131
547.88	1.834
548.22	1.644
548.56	1.385
548.90	1.954
549.24	1.446
549.58	1.410
549.92	0.858
550.26	2.198
550.60	1.190
550.94	1.643
551.28	1.082
551.62	1.692
551.96	1.353
552.30	0.950
552.64	1.551
552.98	1.195
553.32	1.854
553.66	0.508
554.00	0.803
554.34	1.773
554.68	1.549
555.02	1.711
555.36	2.094
555.69	0.586
556.03	1.285
556.37	0.925
556.71	1.300
557.05	1.193
557.39	0.892
557.73	1.274
558.07	1.282
558.41	1.302
558.75	1.325
559.08	1.182
559.42	0.794
559.76	0.881
560.10	0.765
560.44	0.670
560.78	2.168
561.12	1.551
561.45	1.546
561.79	1.751
562.13	1.278
562.47	0.288
562.81	1.585
563.15	1.551
563.48	0.919
563.82	1.235
564.16	1.393
564.50	0.811
564.84	2.410
565.17	1.543
565.51	1.298
565.85	1.715
566.19	1.260
566.52	0.871
566.86	1.671
567.20	1.059
567.54	1.217
567.88	1.113
568.21	1.527
568.55	1.087
568.89	1.078
569.23	1.059
569.56	1.226
569.90	1.746
570.24	1.824
570.57	1.273
570.91	1.882
571.25	1.381
571.59	1.401
571.92	1.156
572.26	1.147
572.60	1.457
572.93	1.726
573.27	1.348
573.61	1.730
573.95	1.529
574.28	1.404
574.62	1.373
574.96	1.820
575.29	1.464
575.63	1.347
575.97	1.355
576.30	1.265
576.64	1.325
576.98	1.467
577.31	1.303
577.65	1.399
577.98	1.585
578.32	1.439
578.66	1.075
578.99	1.544
579.33	1.774
579.67	1.716
580.00	1.570
580.34	1.343
580.67	1.360
581.01	1.273
581.35	1.507
581.68	1.555
582.02	1.395
582.35	1.504
582.69	1.422
583.02	1.495
583.36	1.325
583.70	1.636
584.03	1.501
584.37	1.496
584.70	1.538
585.04	1.451
585.37	1.597
585.71	1.407
586.04	1.160
586.38	1.200
586.72	1.435
587.05	1.329
587.39	1.733
587.72	1.558
588.06	1.605
588.39	1.737
588.73	1.435
589.06	1.598
589.40	1.659
589.73	1.716
590.07	2.002
590.40	1.625
590.73	1.647
591.07	1.527
591.40	1.158
591.74	1.267
592.07	2.134
592.41	1.943
592.74	1.832
593.08	1.188
593.41	1.647
593.75	1.178
594.08	1.476
594.41	1.710
594.75	1.374
595.08	1.740
595.42	1.251
595.75	1.352
596.09	1.290
596.42	1.240
596.75	1.954
597.09	1.230
597.42	1.220
597.75	1.374
598.09	1.720
598.42	0.993
598.76	1.115
599.09	1.522
599.42	1.250
599.76	1.806
600.09	1.772
600.42	1.630
600.76	1.523
601.09	0.611
601.42	1.528
601.76	1.429
602.09	1.774
602.42	1.769
602.76	1.188
603.09	1.495
603.42	1.171
603.76	0.726
604.09	0.932
604.42	1.607
604.76	1.602
605.09	1.280
605.42	1.309
605.75	1.051
606.09	1.656
606.42	1.585
606.75	1.558
607.09	2.022
607.42	1.462
607.75	1.377
608.08	1.393
608.42	1.690
608.75	1.639
609.08	0.947
609.41	1.371
609.75	1.310
610.08	1.697
610.41	1.063
610.74	1.414
611.07	1.137
611.41	1.297
611.74	1.759
612.07	2.034
612.40	1.696
612.73	0.452
613.07	1.406
613.40	2.462
613.73	0.895
614.06	2.115
614.39	1.636
614.72	1.232
615.06	0.950
615.39	1.528
615.72	1.076
616.05	1.676
616.38	0.912
616.71	1.101
617.05	1.544
617.38	1.131
617.71	1.195
618.04	1.206
618.37	2.207
618.70	1.254
619.03	2.986
619.36	1.230
619.69	1.137
620.03	1.461
620.36	1.216
620.69	1.642
621.02	1.529
621.35	1.494
621.68	1.956
622.01	1.167
622.34	1.596
622.67	1.972
623.00	1.531
623.33	1.601
623.66	0.972
623.99	1.589
624.32	1.369
624.65	1.128
624.99	1.806
625.32	0.758
625.65	2.592
625.98	1.289
626.31	1.413
626.64	1.300
626.97	1.483
627.30	1.664
627.63	1.820
627.96	1.078
628.29	0.925
628.62	1.868
628.95	0.902
629.28	1.915
629.61	1.795
629.94	2.444
630.26	2.964
630.59	0.208
630.92	1.436
631.25	0.923
631.58	0.991
631.91	-0.110
632.24	-0.459
632.57	1.818
632.90	-0.356
633.23	2.000
633.56	0.756
633.89	1.233
634.22	1.481
634.55	0.127
634.88	1.916
635.20	2.179
635.53	1.067
635.86	0.650
636.19	2.070
636.52	1.531
636.85	-0.868
637.18	0.881
637.51	0.377
637.83	1.051
638.16	3.547
638.49	-0.545
638.82	1.184
639.15	-0.814
639.48	1.513
639.81	1.255
640.13	0.577
640.46	2.041
640.79	0.000
641.12	0.591
641.45	2.402
641.77	2.519
642.10	1.738
642.43	1.447
642.76	1.155
643.09	0.323
643.41	-0.162
643.74	-0.165
644.07	2.299
644.40	0.676
644.73	1.926
645.05	2.181
645.38	0.529
645.71	0.532
646.04	0.359
646.36	0.887
646.69	3.777
647.02	2.079
647.35	1.493
647.67	1.097
648.00	0.746
648.33	3.072
648.66	0.508
648.98	-0.838
649.31	-0.165
649.64	1.099
649.96	0.972
650.29	2.896
650.62	0.855
650.94	0.741
651.27	0.559
651.60	2.162
651.92	3.322
652.25	-0.533
652.58	2.500
652.90	1.029
653.23	-0.336
653.56	1.184
653.88	0.859
654.21	-0.525
