SpectraSuite Data File
++++++++++++++++++++++++++++++++++++
Date: Fri May 15 21:06:01 PDT 2015
User: schluterlab
Dark Spectrum Present: Yes
Reference Spectrum Present: Yes
Number of Sampled Component Spectra: 1
Spectrometers: USB2E3373
Integration Time (usec): 3000 (USB2E3373)
Spectra Averaged: 3 (USB2E3373)
Boxcar Smoothing: 0 (USB2E3373)
Correct for Electrical Dark: No (USB2E3373)
Strobe/Lamp Enabled: No (USB2E3373)
Correct for Detector Non-linearity: No (USB2E3373)
Correct for Stray Light: No (USB2E3373)
Number of Pixels in Processed Spectrum: 2048
>>>>>Begin Processed Spectral Data<<<<<
178.53	0.000
178.91	0.000
179.29	137.500
179.67	-650.000
180.04	28.571
180.42	50.000
180.80	-900.000
181.18	300.000
181.56	50.000
181.94	-200.000
182.31	1000.000
182.69	-80.000
183.07	-433.333
183.45	-120.000
183.83	283.333
184.20	-45.455
184.58	77.778
184.96	-100.000
185.34	300.000
185.72	-800.000
186.09	130.769
186.47	-700.000
186.85	250.000
187.23	122.222
187.61	-500.000
187.98	-300.000
188.36	-55.556
188.74	-333.333
189.12	-52.941
189.49	-11.111
189.87	0.000
190.25	50.000
190.63	150.000
191.00	-166.667
191.38	-26.316
191.76	100.000
192.14	75.000
192.51	-300.000
192.89	-88.889
193.27	-114.286
193.65	166.667
194.02	90.909
194.40	-20.000
194.78	-187.500
195.15	0.000
195.53	-75.000
195.91	350.000
196.29	0.000
196.66	69.231
197.04	114.286
197.42	66.667
197.79	-633.333
198.17	-76.923
198.55	1900.000
198.92	-433.333
199.30	-500.000
199.68	-80.000
200.05	-566.667
200.43	0.000
200.81	66.667
201.18	0.000
201.56	1000.000
201.94	50.000
202.31	66.667
202.69	-240.000
203.07	225.000
203.44	-800.000
203.82	0.000
204.19	7.143
204.57	-433.333
204.95	37.500
205.32	-50.000
205.70	28.571
206.08	-125.000
206.45	244.444
206.83	-14.286
207.20	-128.571
207.58	1300.000
207.96	-100.000
208.33	40.000
208.71	-25.000
209.08	-166.667
209.46	-1100.000
209.84	-160.000
210.21	-1100.000
210.59	-42.857
210.96	-216.667
211.34	125.000
211.71	73.333
212.09	-185.714
212.46	-1300.000
212.84	0.000
213.22	120.000
213.59	600.000
213.97	53.846
214.34	45.455
214.72	-283.333
215.09	400.000
215.47	0.000
215.84	-90.909
216.22	-133.333
216.59	-87.500
216.97	50.000
217.34	25.000
217.72	-260.000
218.09	0.000
218.47	175.000
218.84	-300.000
219.22	-55.556
219.59	-120.000
219.97	400.000
220.34	300.000
220.72	0.000
221.09	-350.000
221.47	-200.000
221.84	-350.000
222.22	-450.000
222.59	27.273
222.97	91.667
223.34	-166.667
223.72	-42.857
224.09	-33.333
224.46	0.000
224.84	800.000
225.21	-40.000
225.59	-6.667
225.96	-650.000
226.34	250.000
226.71	-100.000
227.08	-100.000
227.46	-12.500
227.83	-450.000
228.21	-66.667
228.58	-27.273
228.95	-212.500
229.33	110.000
229.70	-31.250
230.08	-187.500
230.45	-100.000
230.82	-57.143
231.20	6.667
231.57	-7.143
231.95	-14.286
232.32	-50.000
232.69	35.714
233.07	-100.000
233.44	-60.000
233.81	-70.000
234.19	22.222
234.56	-64.706
234.93	300.000
235.31	-75.000
235.68	-320.000
236.05	-53.846
236.43	-25.000
236.80	23.529
237.17	18.750
237.55	-15.000
237.92	3.704
238.29	-19.444
238.67	0.000
239.04	-47.059
239.41	-2.439
239.79	-16.667
240.16	2.439
240.53	2.632
240.91	8.696
241.28	9.524
241.65	23.214
242.02	21.918
242.40	13.333
242.77	8.475
243.14	-9.091
243.51	3.750
243.89	25.287
244.26	3.448
244.63	9.524
245.00	11.340
245.38	14.433
245.75	-4.494
246.12	13.793
246.49	13.223
246.87	16.346
247.24	6.723
247.61	6.140
247.98	20.325
248.36	13.750
248.73	11.184
249.10	13.636
249.47	13.291
249.84	14.379
250.22	12.353
250.59	14.379
250.96	16.432
251.33	9.302
251.70	11.176
252.08	20.812
252.45	14.851
252.82	17.588
253.19	15.668
253.56	13.551
253.94	15.315
254.31	12.609
254.68	19.298
255.05	11.811
255.42	14.847
255.79	16.216
256.16	12.840
256.54	15.299
256.91	15.970
257.28	17.100
257.65	15.730
258.02	13.475
258.39	17.845
258.76	19.780
259.14	18.937
259.51	17.476
259.88	17.526
260.25	14.706
260.62	19.444
260.99	13.559
261.36	10.616
261.73	14.557
262.10	18.845
262.47	15.337
262.85	18.182
263.22	12.923
263.59	15.888
263.96	16.460
264.33	16.061
264.70	17.262
265.07	13.690
265.44	19.263
265.81	15.819
266.18	15.847
266.55	15.938
266.92	20.207
267.29	14.883
267.66	16.113
268.03	14.921
268.40	16.449
268.77	20.588
269.14	14.868
269.51	15.681
269.88	14.214
270.25	15.561
270.62	14.634
270.99	16.624
271.36	16.381
271.73	16.667
272.10	16.058
272.47	16.785
272.84	15.347
273.21	19.722
273.58	16.386
273.95	15.561
274.32	13.395
274.69	14.253
275.06	18.080
275.43	17.914
275.80	15.673
276.17	12.644
276.54	17.773
276.91	16.009
277.28	14.629
277.65	17.562
278.02	16.383
278.39	17.068
278.76	16.352
279.13	14.523
279.50	16.597
279.87	14.255
280.23	14.839
280.60	14.815
280.97	16.364
281.34	15.000
281.71	16.016
282.08	13.497
282.45	14.286
282.82	14.479
283.19	13.153
283.56	17.919
283.92	16.129
284.29	15.000
284.66	15.504
285.03	15.521
285.40	14.367
285.77	14.236
286.14	15.343
286.51	17.528
286.87	14.260
287.24	16.206
287.61	14.462
287.98	15.088
288.35	16.984
288.72	16.988
289.08	13.542
289.45	14.763
289.82	14.336
290.19	15.529
290.56	13.551
290.93	14.478
291.29	14.484
291.66	14.803
292.03	14.514
292.40	15.323
292.77	13.876
293.13	11.526
293.50	11.533
293.87	13.435
294.24	11.128
294.60	14.009
294.97	13.244
295.34	12.730
295.71	13.264
296.08	11.958
296.44	11.522
296.81	12.917
297.18	13.478
297.55	15.041
297.91	13.288
298.28	13.852
298.65	12.212
299.02	12.668
299.38	9.029
299.75	10.483
300.12	10.995
300.48	11.726
300.85	11.027
301.22	11.688
301.59	11.316
301.95	12.911
302.32	12.581
302.69	12.687
303.05	13.366
303.42	11.083
303.79	13.668
304.15	12.067
304.52	9.988
304.89	10.058
305.25	10.654
305.62	10.268
305.99	10.526
306.35	10.636
306.72	11.024
307.09	11.174
307.45	11.137
307.82	11.458
308.19	11.963
308.55	11.014
308.92	11.656
309.29	11.732
309.65	10.764
310.02	11.661
310.38	11.745
310.75	11.585
311.12	11.733
311.48	11.241
311.85	11.832
312.22	11.181
312.58	11.465
312.95	10.886
313.31	11.077
313.68	12.147
314.05	11.429
314.41	12.371
314.78	13.196
315.14	13.566
315.51	13.665
315.87	13.320
316.24	13.852
316.61	14.272
316.97	14.881
317.34	14.258
317.70	14.723
318.07	14.423
318.43	13.922
318.80	14.489
319.16	15.430
319.53	15.575
319.89	15.748
320.26	15.891
320.62	15.948
320.99	17.223
321.35	17.266
321.72	18.172
322.08	18.228
322.45	17.665
322.81	18.369
323.18	19.136
323.54	18.822
323.91	19.961
324.27	19.727
324.64	21.816
325.00	19.891
325.37	23.232
325.73	22.847
326.10	21.980
326.46	23.139
326.83	23.447
327.19	23.801
327.56	24.414
327.92	24.560
328.29	24.911
328.65	24.811
329.01	24.632
329.38	26.359
329.74	26.440
330.11	26.599
330.47	26.716
330.84	27.596
331.20	28.042
331.56	27.778
331.93	27.580
332.29	28.414
332.66	28.597
333.02	29.275
333.38	28.231
333.75	28.846
334.11	28.469
334.48	29.646
334.84	29.029
335.20	28.820
335.57	28.558
335.93	29.449
336.29	28.821
336.66	29.609
337.02	29.089
337.38	28.796
337.75	29.273
338.11	30.658
338.47	31.022
338.84	29.390
339.20	29.982
339.56	30.275
339.93	30.439
340.29	31.193
340.65	32.079
341.02	30.053
341.38	30.000
341.74	29.947
342.11	30.243
342.47	30.516
342.83	30.623
343.20	30.575
343.56	30.522
343.92	31.621
344.28	31.341
344.65	30.915
345.01	30.596
345.37	30.782
345.73	31.046
346.10	29.767
346.46	29.941
346.82	29.787
347.19	29.759
347.55	31.161
347.91	30.259
348.27	30.477
348.63	31.090
349.00	29.861
349.36	30.756
349.72	30.846
350.08	29.754
350.45	30.567
350.81	30.648
351.17	29.967
351.53	31.184
351.89	30.058
352.26	29.280
352.62	30.242
352.98	29.317
353.34	29.308
353.70	30.987
354.07	30.323
354.43	30.104
354.79	30.223
355.15	29.921
355.51	31.171
355.87	30.259
356.24	29.119
356.60	29.992
356.96	31.349
357.32	29.952
357.68	30.102
358.04	30.048
358.40	30.466
358.77	30.861
359.13	30.504
359.49	30.123
359.85	30.421
360.21	30.702
360.57	30.681
360.93	31.694
361.29	29.758
361.66	30.643
362.02	30.227
362.38	30.998
362.74	29.069
363.10	30.700
363.46	29.948
363.82	31.255
364.18	30.480
364.54	29.265
364.90	29.391
365.26	29.476
365.62	31.752
365.98	30.572
366.35	31.100
366.71	30.155
367.07	30.334
367.43	29.978
367.79	29.965
368.15	29.361
368.51	30.153
368.87	30.725
369.23	29.675
369.59	30.248
369.95	30.792
370.31	31.214
370.67	30.896
371.03	29.276
371.39	29.103
371.75	29.890
372.11	29.672
372.47	30.843
372.83	29.737
373.19	30.171
373.55	30.108
373.91	29.878
374.27	30.546
374.63	30.581
374.99	30.000
375.35	30.641
375.71	30.070
376.07	29.846
376.42	30.612
376.78	30.872
377.14	29.384
377.50	31.009
377.86	31.325
378.22	29.100
378.58	29.936
378.94	29.175
379.30	29.008
379.66	29.843
380.02	29.185
380.38	29.763
380.74	29.743
381.09	30.368
381.45	30.214
381.81	29.858
382.17	30.203
382.53	30.481
382.89	31.011
383.25	29.683
383.61	29.756
383.97	28.762
384.32	29.206
384.68	30.031
385.04	29.105
385.40	29.620
385.76	30.881
386.12	31.113
386.48	30.460
386.83	29.677
387.19	29.853
387.55	29.235
387.91	30.012
388.27	28.632
388.62	30.145
388.98	29.834
389.34	29.544
389.70	30.827
390.06	29.578
390.42	30.570
390.77	29.889
391.13	29.634
391.49	29.690
391.85	28.265
392.20	28.562
392.56	29.243
392.92	29.771
393.28	28.774
393.64	28.889
393.99	31.223
394.35	28.653
394.71	29.885
395.07	27.970
395.42	28.233
395.78	29.967
396.14	28.436
396.50	29.106
396.85	29.620
397.21	28.195
397.57	28.589
397.92	28.700
398.28	29.310
398.64	28.434
399.00	29.402
399.35	28.217
399.71	28.202
400.07	27.872
400.42	28.274
400.78	28.230
401.14	28.252
401.49	27.457
401.85	28.032
402.21	28.554
402.57	28.438
402.92	27.164
403.28	28.822
403.63	27.743
403.99	27.870
404.35	28.795
404.70	27.381
405.06	27.615
405.42	27.657
405.77	27.310
406.13	27.008
406.49	28.301
406.84	28.056
407.20	27.815
407.55	28.203
407.91	26.939
408.27	27.533
408.62	27.077
408.98	27.480
409.34	27.447
409.69	26.421
410.05	27.032
410.40	26.914
410.76	27.503
411.11	26.938
411.47	27.482
411.83	26.868
412.18	27.735
412.54	27.278
412.89	25.862
413.25	27.076
413.60	26.832
413.96	26.871
414.31	27.866
414.67	25.978
415.03	26.631
415.38	26.762
415.74	27.362
416.09	26.323
416.45	26.199
416.80	26.305
417.16	27.348
417.51	26.116
417.87	25.619
418.22	26.490
418.58	26.689
418.93	25.956
419.29	25.864
419.64	26.766
420.00	26.637
420.35	25.910
420.71	27.217
421.06	27.440
421.42	27.284
421.77	26.590
422.12	26.107
422.48	26.475
422.83	26.160
423.19	26.411
423.54	25.397
423.90	26.443
424.25	25.890
424.61	25.826
424.96	25.726
425.31	27.556
425.67	26.056
426.02	27.150
426.38	27.051
426.73	27.300
427.09	26.582
427.44	26.118
427.79	26.400
428.15	26.760
428.50	26.408
428.85	25.737
429.21	26.372
429.56	26.900
429.92	26.091
430.27	25.714
430.62	24.830
430.98	26.380
431.33	26.236
431.68	26.269
432.04	26.942
432.39	25.043
432.74	25.616
433.10	27.414
433.45	26.225
433.80	25.827
434.16	25.097
434.51	26.237
434.86	26.132
435.22	26.304
435.57	26.388
435.92	26.347
436.28	25.164
436.63	25.328
436.98	25.724
437.34	25.106
437.69	26.893
438.04	25.983
438.39	25.351
438.75	26.290
439.10	26.203
439.45	26.050
439.81	25.627
440.16	26.128
440.51	25.672
440.86	27.251
441.22	25.792
441.57	26.380
441.92	26.653
442.27	25.776
442.63	27.623
442.98	26.307
443.33	26.266
443.68	25.729
444.03	26.776
444.39	26.168
444.74	26.867
445.09	26.225
445.44	26.097
445.79	26.612
446.15	26.211
446.50	25.180
446.85	25.983
447.20	25.808
447.55	27.176
447.91	26.227
448.26	26.522
448.61	26.598
448.96	26.678
449.31	26.821
449.66	26.190
450.02	26.868
450.37	26.200
450.72	26.002
451.07	26.582
451.42	25.843
451.77	26.281
452.12	25.778
452.47	26.336
452.83	26.207
453.18	26.945
453.53	26.422
453.88	26.472
454.23	26.552
454.58	26.385
454.93	26.289
455.28	24.952
455.63	26.596
455.98	26.518
456.34	25.734
456.69	25.794
457.04	26.969
457.39	26.428
457.74	26.481
458.09	25.839
458.44	25.980
458.79	25.210
459.14	27.174
459.49	26.507
459.84	26.114
460.19	25.546
460.54	26.895
460.89	25.909
461.24	26.273
461.59	25.594
461.94	25.031
462.29	26.357
462.64	27.375
462.99	24.848
463.34	24.270
463.69	25.225
464.04	26.150
464.39	25.591
464.74	24.724
465.09	25.702
465.44	26.255
465.79	24.943
466.14	25.884
466.49	25.072
466.84	25.996
467.19	25.907
467.54	26.373
467.89	25.395
468.24	25.426
468.59	25.587
468.94	25.714
469.29	25.770
469.64	25.222
469.99	26.209
470.34	24.369
470.68	26.771
471.03	25.053
471.38	25.535
471.73	25.840
472.08	25.170
472.43	24.832
472.78	24.743
473.13	25.782
473.48	25.277
473.83	25.778
474.17	24.870
474.52	24.888
474.87	25.030
475.22	24.222
475.57	24.901
475.92	25.617
476.27	24.680
476.61	25.405
476.96	25.209
477.31	25.473
477.66	24.494
478.01	25.379
478.36	24.455
478.70	25.122
479.05	25.549
479.40	25.331
479.75	24.713
480.10	25.294
480.45	24.850
480.79	25.076
481.14	25.051
481.49	24.039
481.84	23.842
482.19	24.275
482.53	24.940
482.88	24.582
483.23	24.088
483.58	24.292
483.92	24.105
484.27	23.883
484.62	24.249
484.97	23.632
485.31	23.338
485.66	22.407
486.01	22.569
486.36	22.601
486.70	23.459
487.05	23.610
487.40	23.785
487.75	23.634
488.09	23.455
488.44	23.281
488.79	24.019
489.13	24.399
489.48	24.027
489.83	24.484
490.17	23.596
490.52	24.388
490.87	23.600
491.22	24.117
491.56	23.767
491.91	23.375
492.26	24.404
492.60	23.369
492.95	24.889
493.30	23.693
493.64	24.312
493.99	24.541
494.34	23.641
494.68	23.286
495.03	23.260
495.37	23.503
495.72	23.725
496.07	23.902
496.41	23.113
496.76	23.261
497.11	23.801
497.45	23.819
497.80	23.915
498.14	23.000
498.49	23.057
498.84	23.553
499.18	23.394
499.53	22.966
499.87	23.054
500.22	23.096
500.56	22.995
500.91	23.645
501.26	23.529
501.60	23.119
501.95	23.096
502.29	22.518
502.64	23.263
502.98	22.348
503.33	22.142
503.67	22.361
504.02	22.874
504.36	23.305
504.71	22.626
505.06	22.547
505.40	22.893
505.75	23.196
506.09	22.808
506.44	22.639
506.78	23.112
507.13	22.699
507.47	21.880
507.82	22.650
508.16	22.610
508.51	22.141
508.85	23.234
509.19	23.576
509.54	23.324
509.88	22.168
510.23	22.431
510.57	22.288
510.92	21.642
511.26	22.095
511.61	21.727
511.95	23.233
512.30	22.450
512.64	22.705
512.98	21.729
513.33	22.328
513.67	21.887
514.02	23.169
514.36	22.857
514.70	23.485
515.05	23.032
515.39	21.606
515.74	23.593
516.08	22.833
516.42	23.557
516.77	22.996
517.11	23.145
517.46	22.202
517.80	21.752
518.14	21.984
518.49	22.656
518.83	21.871
519.17	21.286
519.52	22.143
519.86	21.729
520.20	21.932
520.55	21.326
520.89	22.961
521.23	21.976
521.58	22.965
521.92	21.859
522.26	22.511
522.61	23.182
522.95	22.980
523.29	22.999
523.64	22.808
523.98	22.748
524.32	21.649
524.66	22.087
525.01	22.662
525.35	22.165
525.69	21.818
526.04	20.767
526.38	23.152
526.72	21.844
527.06	21.466
527.41	22.493
527.75	21.582
528.09	22.126
528.43	23.700
528.78	21.452
529.12	21.355
529.46	21.053
529.80	22.039
530.15	21.914
530.49	20.606
530.83	22.093
531.17	20.752
531.51	21.614
531.86	20.734
532.20	21.086
532.54	21.239
532.88	21.766
533.22	21.573
533.57	22.084
533.91	20.627
534.25	22.331
534.59	20.975
534.93	20.453
535.27	20.368
535.62	20.933
535.96	21.331
536.30	21.834
536.64	21.089
536.98	20.139
537.32	21.764
537.66	21.669
538.01	20.769
538.35	20.666
538.69	20.639
539.03	21.121
539.37	20.727
539.71	20.995
540.05	20.842
540.39	21.330
540.73	21.967
541.07	21.064
541.42	21.035
541.76	19.959
542.10	20.853
542.44	20.153
542.78	20.096
543.12	20.742
543.46	21.001
543.80	21.374
544.14	20.093
544.48	20.919
544.82	20.437
545.16	21.516
545.50	21.362
545.84	21.034
546.18	20.851
546.52	20.981
546.86	21.352
547.20	20.672
547.54	19.435
547.88	21.060
548.22	19.724
548.56	20.646
548.90	21.698
549.24	20.248
549.58	19.817
549.92	19.514
550.26	20.879
550.60	20.669
550.94	20.687
551.28	20.479
551.62	20.538
551.96	20.752
552.30	20.102
552.64	20.522
552.98	19.620
553.32	20.970
553.66	19.303
554.00	19.927
554.34	21.418
554.68	20.133
555.02	20.536
555.36	18.848
555.69	19.414
556.03	20.771
556.37	19.431
556.71	19.639
557.05	19.239
557.39	20.818
557.73	18.291
558.07	20.136
558.41	18.989
558.75	20.109
559.08	20.016
559.42	19.206
559.76	19.616
560.10	19.343
560.44	19.136
560.78	19.441
561.12	19.535
561.45	19.677
561.79	19.608
562.13	20.369
562.47	19.137
562.81	19.957
563.15	19.535
563.48	19.943
563.82	19.012
564.16	19.777
564.50	19.392
564.84	19.880
565.17	19.182
565.51	19.877
565.85	19.547
566.19	19.496
566.52	19.504
566.86	19.987
567.20	18.555
567.54	19.039
567.88	19.098
568.21	19.457
568.55	18.370
568.89	19.199
569.23	18.681
569.56	18.651
569.90	18.879
570.24	19.278
570.57	18.873
570.91	19.031
571.25	18.218
571.59	18.094
571.92	18.044
572.26	17.633
572.60	18.295
572.93	18.607
573.27	17.900
573.61	18.616
573.95	17.613
574.28	17.956
574.62	17.340
574.96	17.627
575.29	17.945
575.63	17.362
575.97	17.457
576.30	17.796
576.64	17.536
576.98	18.662
577.31	17.842
577.65	17.592
577.98	18.216
578.32	17.977
578.66	17.064
578.99	17.525
579.33	17.412
579.67	17.613
580.00	17.646
580.34	17.736
580.67	17.409
581.01	17.963
581.35	17.614
581.68	17.359
582.02	17.434
582.35	17.697
582.69	17.569
583.02	17.304
583.36	17.743
583.70	17.783
584.03	17.932
584.37	17.984
584.70	17.857
585.04	17.306
585.37	17.101
585.71	17.625
586.04	17.776
586.38	17.365
586.72	17.590
587.05	17.966
587.39	17.640
587.72	17.879
588.06	17.935
588.39	17.345
588.73	17.949
589.06	17.841
589.40	17.905
589.73	18.510
590.07	18.353
590.40	18.344
590.73	18.987
591.07	17.769
591.40	17.765
591.74	17.828
592.07	18.553
592.41	18.286
592.74	17.802
593.08	16.801
593.41	17.364
593.75	17.501
594.08	17.130
594.41	17.467
594.75	17.519
595.08	17.404
595.42	17.814
595.75	17.950
596.09	17.435
596.42	18.148
596.75	17.895
597.09	18.132
597.42	17.841
597.75	18.049
598.09	17.248
598.42	17.915
598.76	17.117
599.09	17.628
599.42	17.279
599.76	17.532
600.09	17.345
600.42	17.210
600.76	17.051
601.09	16.489
601.42	16.960
601.76	17.705
602.09	17.327
602.42	17.987
602.76	17.572
603.09	17.276
603.42	18.060
603.76	17.258
604.09	17.173
604.42	17.766
604.76	17.445
605.09	17.230
605.42	17.968
605.75	17.294
606.09	17.325
606.42	16.972
606.75	17.143
607.09	17.714
607.42	17.058
607.75	16.874
608.08	16.532
608.42	17.908
608.75	17.783
609.08	17.040
609.41	18.173
609.75	17.692
610.08	17.124
610.41	16.908
610.74	17.796
611.07	17.881
611.41	17.488
611.74	18.337
612.07	17.291
612.40	17.998
612.73	17.232
613.07	17.323
613.40	17.670
613.73	16.900
614.06	17.418
614.39	17.936
614.72	17.311
615.06	17.095
615.39	17.303
615.72	16.523
616.05	17.654
616.38	17.664
616.71	17.798
617.05	17.974
617.38	17.725
617.71	17.421
618.04	17.651
618.37	18.096
618.70	18.086
619.03	18.889
619.36	17.583
619.69	17.741
620.03	18.627
620.36	17.597
620.69	18.701
621.02	18.425
621.35	19.170
621.68	18.282
622.01	17.083
622.34	18.516
622.67	18.060
623.00	17.841
623.33	17.454
623.66	18.474
623.99	16.868
624.32	18.023
624.65	17.970
624.99	17.381
625.32	17.589
625.65	18.460
625.98	19.178
626.31	15.794
626.64	18.111
626.97	19.634
627.30	18.564
627.63	17.764
627.96	18.598
628.29	19.426
628.62	19.469
628.95	19.138
629.28	17.540
629.61	17.547
629.94	19.159
630.26	18.083
630.59	19.147
630.92	18.462
631.25	16.513
631.58	18.833
631.91	17.544
632.24	19.381
632.57	18.636
632.90	16.607
633.23	19.412
