SpectraSuite Data File
++++++++++++++++++++++++++++++++++++
Date: Fri May 15 20:57:07 PDT 2015
User: schluterlab
Dark Spectrum Present: Yes
Reference Spectrum Present: Yes
Number of Sampled Component Spectra: 1
Spectrometers: USB2E3373
Integration Time (usec): 3000 (USB2E3373)
Spectra Averaged: 3 (USB2E3373)
Boxcar Smoothing: 0 (USB2E3373)
Correct for Electrical Dark: No (USB2E3373)
Strobe/Lamp Enabled: No (USB2E3373)
Correct for Detector Non-linearity: No (USB2E3373)
Correct for Stray Light: No (USB2E3373)
Number of Pixels in Processed Spectrum: 2048
>>>>>Begin Processed Spectral Data<<<<<
178.53	0.000
178.91	0.000
179.29	25.000
179.67	-600.000
180.04	-14.286
180.42	75.000
180.80	-500.000
181.18	300.000
181.56	250.000
181.94	-250.000
182.31	1100.000
182.69	100.000
183.07	-300.000
183.45	-220.000
183.83	250.000
184.20	9.091
184.58	144.444
184.96	-225.000
185.34	66.667
185.72	-250.000
186.09	69.231
186.47	-700.000
186.85	-0.000
187.23	122.222
187.61	900.000
187.98	-200.000
188.36	55.556
188.74	-266.667
189.12	64.706
189.49	38.889
189.87	0.000
190.25	-14.286
190.63	100.000
191.00	-166.667
191.38	-26.316
191.76	400.000
192.14	-0.000
192.51	-350.000
192.89	-11.111
193.27	-14.286
193.65	200.000
194.02	90.909
194.40	-10.000
194.78	-162.500
195.15	-66.667
195.53	-75.000
195.91	175.000
196.29	-100.000
196.66	146.154
197.04	157.143
197.42	-66.667
197.79	-300.000
198.17	-69.231
198.55	1600.000
198.92	-466.667
199.30	-800.000
199.68	0.000
200.05	-200.000
200.43	0.000
200.81	-233.333
201.18	33.333
201.56	900.000
201.94	-300.000
202.31	-300.000
202.69	-20.000
203.07	75.000
203.44	100.000
203.82	0.000
204.19	28.571
204.57	-33.333
204.95	-12.500
205.32	-30.000
205.70	28.571
206.08	-75.000
206.45	177.778
206.83	64.286
207.20	-14.286
207.58	800.000
207.96	133.333
208.33	-10.000
208.71	250.000
209.08	-250.000
209.46	-1500.000
209.84	-180.000
210.21	-300.000
210.59	100.000
210.96	-66.667
211.34	0.000
211.71	13.333
212.09	-114.286
212.46	-600.000
212.84	0.000
213.22	30.000
213.59	600.000
213.97	-30.769
214.34	-27.273
214.72	-133.333
215.09	400.000
215.47	46.154
215.84	-9.091
216.22	-300.000
216.59	-62.500
216.97	350.000
217.34	50.000
217.72	-120.000
218.09	50.000
218.47	125.000
218.84	-700.000
219.22	-33.333
219.59	-100.000
219.97	300.000
220.34	300.000
220.72	-57.143
221.09	-250.000
221.47	300.000
221.84	-750.000
222.22	-450.000
222.59	72.727
222.97	25.000
223.34	-400.000
223.72	-42.857
224.09	23.810
224.46	17.857
224.84	433.333
225.21	40.000
225.59	40.000
225.96	-350.000
226.34	225.000
226.71	-114.286
227.08	-100.000
227.46	0.000
227.83	-550.000
228.21	-44.444
228.58	0.000
228.95	-50.000
229.33	140.000
229.70	-12.500
230.08	-25.000
230.45	-14.286
230.82	-57.143
231.20	6.667
231.57	21.429
231.95	0.000
232.32	-100.000
232.69	64.286
233.07	100.000
233.44	0.000
233.81	-80.000
234.19	-22.222
234.56	11.765
234.93	400.000
235.31	50.000
235.68	-220.000
236.05	-84.615
236.43	-15.000
236.80	-82.353
237.17	3.125
237.55	60.000
237.92	-14.815
238.29	0.000
238.67	10.000
239.04	0.000
239.41	-29.268
239.79	20.000
240.16	14.634
240.53	7.895
240.91	15.217
241.28	20.635
241.65	17.857
242.02	26.027
242.40	30.000
242.77	1.695
243.14	3.030
243.51	11.250
243.89	37.931
244.26	22.989
244.63	17.857
245.00	15.464
245.38	18.557
245.75	13.483
246.12	14.655
246.49	10.744
246.87	15.385
247.24	14.286
247.61	2.632
247.98	16.260
248.36	17.500
248.73	17.763
249.10	18.182
249.47	12.658
249.84	15.686
250.22	20.588
250.59	18.301
250.96	15.493
251.33	12.209
251.70	20.588
252.08	20.305
252.45	18.317
252.82	20.603
253.19	24.424
253.56	13.084
253.94	20.270
254.31	23.478
254.68	24.123
255.05	19.685
255.42	17.904
255.79	19.305
256.16	22.568
256.54	21.269
256.91	23.954
257.28	20.818
257.65	19.476
258.02	18.440
258.39	18.855
258.76	20.147
259.14	18.937
259.51	17.476
259.88	17.526
260.25	20.915
260.62	20.139
260.99	20.678
261.36	17.466
261.73	17.089
262.10	22.796
262.47	20.552
262.85	17.555
263.22	20.615
263.59	19.938
263.96	19.876
264.33	20.606
264.70	18.452
265.07	19.048
265.44	20.680
265.81	19.492
266.18	15.847
266.55	20.823
266.92	19.171
267.29	21.149
267.66	17.647
268.03	19.634
268.40	18.538
268.77	21.658
269.14	21.343
269.51	21.851
269.88	17.706
270.25	18.878
270.62	20.976
270.99	18.414
271.36	18.093
271.73	15.728
272.10	20.438
272.47	20.567
272.84	18.564
273.21	21.810
273.58	21.446
273.95	20.366
274.32	18.938
274.69	19.683
275.06	19.643
275.43	20.862
275.80	19.426
276.17	18.851
276.54	18.201
276.91	19.298
277.28	21.179
277.65	19.835
278.02	20.213
278.39	19.256
278.76	20.964
279.13	18.050
279.50	19.958
279.87	21.382
280.23	19.140
280.60	19.883
280.97	19.596
281.34	18.846
281.71	20.329
282.08	16.564
282.45	18.004
282.82	19.691
283.19	17.795
283.56	19.075
283.92	17.837
284.29	20.192
284.66	18.411
285.03	16.896
285.40	18.147
285.77	15.817
286.14	17.329
286.51	18.450
286.87	18.282
287.24	17.680
287.61	18.695
287.98	20.526
288.35	17.504
288.72	17.688
289.08	16.840
289.45	19.332
289.82	17.657
290.19	16.382
290.56	17.496
290.93	16.835
291.29	17.874
291.66	17.323
292.03	17.703
292.40	16.613
292.77	15.470
293.13	15.747
293.50	15.478
293.87	15.267
294.24	14.838
294.60	15.052
294.97	16.815
295.34	15.031
295.71	14.605
296.08	15.994
296.44	13.371
296.81	14.306
297.18	13.188
297.55	16.802
297.91	14.795
298.28	15.303
298.65	13.569
299.02	13.342
299.38	12.038
299.75	15.724
300.12	12.958
300.48	13.834
300.85	14.449
301.22	13.117
301.59	13.289
301.95	13.924
302.32	14.527
302.69	13.308
303.05	14.109
303.42	12.204
303.79	14.836
304.15	13.142
304.52	12.010
304.89	13.333
305.25	12.712
305.62	13.069
305.99	13.918
306.35	11.329
306.72	12.148
307.09	13.341
307.45	13.203
307.82	13.079
308.19	14.634
308.55	12.541
308.92	14.379
309.29	11.508
309.65	12.056
310.02	13.641
310.38	12.733
310.75	13.880
311.12	13.132
311.48	12.619
311.85	12.042
312.22	11.076
312.58	12.951
312.95	11.953
313.31	12.422
313.68	12.251
314.05	12.245
314.41	13.918
314.78	12.268
315.14	13.566
315.51	12.422
315.87	13.832
316.24	12.235
316.61	15.256
316.97	12.897
317.34	13.477
317.70	13.480
318.07	14.808
318.43	12.843
318.80	13.542
319.16	14.063
319.53	14.530
319.89	13.976
320.26	13.866
320.62	14.845
320.99	12.839
321.35	14.594
321.72	14.330
322.08	14.703
322.45	15.736
322.81	14.440
323.18	14.033
323.54	12.741
323.91	14.898
324.27	15.039
324.64	14.794
325.00	15.420
325.37	15.886
325.73	14.325
326.10	14.623
326.46	16.771
326.83	15.748
327.19	15.780
327.56	16.855
327.92	16.021
328.29	15.536
328.65	16.698
329.01	15.441
329.38	17.143
329.74	15.297
330.11	17.146
330.47	14.935
330.84	14.904
331.20	17.586
331.56	15.185
331.93	16.712
332.29	16.865
332.66	15.566
333.02	15.985
333.38	16.224
333.75	17.674
334.11	16.204
334.48	16.319
334.84	17.308
335.20	15.737
335.57	15.594
335.93	16.531
336.29	16.943
336.66	16.530
337.02	15.613
337.38	15.926
337.75	17.000
338.11	17.313
338.47	15.967
338.84	17.098
339.20	15.814
339.56	16.330
339.93	17.010
340.29	16.239
340.65	17.204
341.02	16.578
341.38	16.372
341.74	15.548
342.11	16.464
342.47	15.836
342.83	17.128
343.20	15.331
343.56	16.348
343.92	16.298
344.28	17.421
344.65	17.185
345.01	14.693
345.37	16.484
345.73	16.318
346.10	15.703
346.46	16.484
346.82	16.612
347.19	15.960
347.55	17.293
347.91	16.586
348.27	16.492
348.63	16.951
349.00	15.094
349.36	16.043
349.72	16.501
350.08	15.656
350.45	16.999
350.81	15.449
351.17	15.879
351.53	16.571
351.89	16.433
352.26	15.760
352.62	16.613
352.98	15.823
353.34	15.620
353.70	16.748
354.07	15.565
354.43	17.214
354.79	16.598
355.15	17.143
355.51	16.139
355.87	15.291
356.24	14.845
356.60	15.764
356.96	16.587
357.32	14.936
357.68	15.950
358.04	14.701
358.40	17.042
358.77	16.029
359.13	16.253
359.49	15.100
359.85	14.977
360.21	16.268
360.57	16.450
360.93	15.658
361.29	14.653
361.66	16.693
362.02	16.061
362.38	15.537
362.74	15.140
363.10	16.704
363.46	14.900
363.82	16.078
364.18	16.605
364.54	14.485
364.90	15.699
365.26	14.993
365.62	16.715
365.98	16.202
366.35	16.387
366.71	15.817
367.07	15.312
367.43	15.528
367.79	15.265
368.15	15.865
368.51	16.096
368.87	16.009
369.23	15.884
369.59	14.723
369.95	16.202
370.31	15.824
370.67	15.896
371.03	15.459
371.39	15.828
371.75	15.971
372.11	15.763
372.47	15.902
372.83	15.188
373.19	16.334
373.55	15.162
373.91	15.839
374.27	15.946
374.63	16.655
374.99	15.532
375.35	15.460
375.71	16.014
376.07	16.222
376.42	15.306
376.78	16.107
377.14	15.572
377.50	15.471
377.86	15.863
378.22	15.699
378.58	15.769
378.94	15.501
379.30	16.032
379.66	16.364
380.02	14.899
380.38	15.277
380.74	15.081
381.09	16.196
381.45	15.719
381.81	15.793
382.17	15.990
382.53	14.866
382.89	15.443
383.25	16.428
383.61	16.646
383.97	15.492
384.32	15.322
384.68	14.799
385.04	15.135
385.40	14.686
385.76	15.346
386.12	15.136
386.48	16.156
386.83	15.663
387.19	16.422
387.55	16.311
387.91	15.587
388.27	15.263
388.62	15.796
388.98	15.470
389.34	15.490
389.70	15.600
390.06	14.978
390.42	16.062
390.77	15.893
391.13	15.322
391.49	14.166
391.85	16.439
392.20	14.564
392.56	15.512
392.92	14.915
393.28	15.566
393.64	14.775
393.99	16.301
394.35	15.244
394.71	15.517
395.07	16.279
395.42	14.633
395.78	15.505
396.14	15.637
396.50	16.233
396.85	15.776
397.21	15.727
397.57	15.987
397.92	15.398
398.28	14.943
398.64	14.699
399.00	16.084
399.35	14.334
399.71	15.393
400.07	16.203
400.42	14.871
400.78	15.554
401.14	14.943
401.49	15.664
401.85	15.783
402.21	15.542
402.57	15.500
402.92	15.056
403.28	15.664
403.63	16.267
403.99	14.860
404.35	14.616
404.70	15.476
405.06	15.629
405.42	15.103
405.77	14.701
406.13	14.785
406.49	15.512
406.84	15.220
407.20	15.774
407.55	14.102
407.91	14.238
408.27	15.233
408.62	15.692
408.98	15.157
409.34	15.675
409.69	15.245
410.05	15.456
410.40	15.185
410.76	15.139
411.11	14.687
411.47	15.648
411.83	14.187
412.18	14.479
412.54	13.983
412.89	14.717
413.25	15.644
413.60	15.155
413.96	14.663
414.31	14.939
414.67	15.074
415.03	14.714
415.38	15.144
415.74	15.114
416.09	15.545
416.45	15.327
416.80	15.532
417.16	14.986
417.51	16.123
417.87	13.885
418.22	14.767
418.58	14.515
418.93	16.050
419.29	13.700
419.64	14.517
420.00	14.987
420.35	14.925
420.71	14.459
421.06	14.365
421.42	15.264
421.77	14.509
422.12	15.153
422.48	14.564
422.83	14.559
423.19	15.406
423.54	14.462
423.90	14.488
424.25	15.270
424.61	14.749
424.96	14.286
425.31	14.789
425.67	14.730
426.02	15.312
426.38	14.402
426.73	15.678
427.09	15.000
427.44	15.882
427.79	15.085
428.15	15.170
428.50	13.992
428.85	14.435
429.21	14.714
429.56	14.447
429.92	14.741
430.27	14.887
430.62	13.957
430.98	13.694
431.33	14.879
431.68	14.704
432.04	14.645
432.39	14.147
432.74	14.793
433.10	15.230
433.45	14.217
433.80	14.858
434.16	14.072
434.51	15.269
434.86	13.937
435.22	14.302
435.57	14.410
435.92	14.431
436.28	14.192
436.63	14.147
436.98	13.499
437.34	14.035
437.69	14.073
438.04	14.074
438.39	13.500
438.75	14.997
439.10	14.092
439.45	14.181
439.81	13.823
440.16	14.133
440.51	14.925
440.86	15.166
441.22	13.971
441.57	13.576
441.92	14.428
442.27	14.690
442.63	14.722
442.98	14.762
443.33	14.469
443.68	14.164
444.03	14.555
444.39	14.412
444.74	14.548
445.09	14.588
445.44	14.302
445.79	15.369
446.15	14.537
446.50	13.533
446.85	13.921
447.20	13.712
447.55	14.955
447.91	13.649
448.26	15.083
448.61	14.450
448.96	14.400
449.31	14.798
449.66	14.692
450.02	14.775
450.37	14.286
450.72	13.975
451.07	14.367
451.42	13.920
451.77	13.924
452.12	14.115
452.47	13.780
452.83	13.840
453.18	13.852
453.53	14.539
453.88	14.208
454.23	13.706
454.58	13.917
454.93	14.755
455.28	13.651
455.63	14.135
455.98	14.612
456.34	13.921
456.69	14.422
457.04	15.123
457.39	14.642
457.74	14.087
458.09	13.891
458.44	14.102
458.79	13.501
459.14	15.103
459.49	14.388
459.84	14.664
460.19	14.078
460.54	14.181
460.89	13.693
461.24	13.540
461.59	13.955
461.94	13.899
462.29	14.596
462.64	15.548
462.99	14.895
463.34	13.908
463.69	14.286
464.04	13.862
464.39	13.705
464.74	14.601
465.09	14.286
465.44	14.599
465.79	13.265
466.14	13.740
466.49	13.456
466.84	13.980
467.19	14.643
467.54	13.538
467.89	14.150
468.24	13.564
468.59	14.222
468.94	14.349
469.29	13.705
469.64	13.944
469.99	14.576
470.34	13.447
470.68	14.691
471.03	13.942
471.38	13.695
471.73	13.796
472.08	13.433
472.43	13.557
472.78	13.228
473.13	14.082
473.48	13.681
473.83	12.827
474.17	13.860
474.52	13.593
474.87	13.636
475.22	13.118
475.57	14.003
475.92	13.659
476.27	14.726
476.61	13.889
476.96	12.995
477.31	13.737
477.66	13.090
478.01	13.363
478.36	13.072
478.70	14.084
479.05	14.341
479.40	14.414
479.75	13.712
480.10	13.108
480.45	13.250
480.79	14.602
481.14	14.498
481.49	12.906
481.84	13.900
482.19	13.190
482.53	14.005
482.88	13.652
483.23	13.676
483.58	13.774
483.92	12.730
484.27	13.309
484.62	13.088
484.97	12.604
485.31	13.186
485.66	13.219
486.01	13.298
486.36	13.420
486.70	13.820
487.05	14.005
487.40	13.857
487.75	13.408
488.09	13.535
488.44	14.271
488.79	13.784
489.13	13.862
489.48	12.997
489.83	13.453
490.17	13.483
490.52	13.025
490.87	12.633
491.22	13.372
491.56	13.425
491.91	13.145
492.26	13.709
492.60	13.148
492.95	14.707
493.30	13.141
493.64	12.770
493.99	13.430
494.34	12.864
494.68	13.143
495.03	12.749
495.37	13.395
495.72	13.327
496.07	13.659
496.41	12.925
496.76	12.943
497.11	12.576
497.45	13.413
497.80	13.471
498.14	12.916
498.49	13.306
498.84	13.623
499.18	12.801
499.53	12.946
499.87	12.597
500.22	12.611
500.56	13.565
500.91	12.048
501.26	11.913
501.60	12.346
501.95	13.295
502.29	12.930
502.64	13.658
502.98	13.123
503.33	12.824
503.67	12.771
504.02	12.757
504.36	13.211
504.71	12.677
505.06	13.488
505.40	13.452
505.75	13.144
506.09	12.620
506.44	13.090
506.78	13.724
507.13	13.133
507.47	12.428
507.82	12.607
508.16	12.995
508.51	13.484
508.85	12.716
509.19	12.294
509.54	12.332
509.88	12.621
510.23	12.856
510.57	12.186
510.92	11.940
511.26	12.220
511.61	13.696
511.95	12.712
512.30	12.528
512.64	12.855
512.98	12.072
513.33	13.430
513.67	12.678
514.02	13.501
514.36	13.314
514.70	12.646
515.05	13.337
515.39	12.692
515.74	13.593
516.08	11.835
516.42	13.310
516.77	13.692
517.11	13.175
517.46	12.507
517.80	13.051
518.14	12.002
518.49	12.981
518.83	12.637
519.17	12.068
519.52	12.315
519.86	11.645
520.20	12.515
520.55	12.320
520.89	13.300
521.23	11.780
521.58	13.565
521.92	12.885
522.26	12.362
522.61	12.857
522.95	12.715
523.29	13.151
523.64	12.516
523.98	12.962
524.32	12.436
524.66	12.612
525.01	13.182
525.35	13.221
525.69	11.717
526.04	12.434
526.38	14.462
526.72	12.034
527.06	13.294
527.41	14.116
527.75	12.466
528.09	12.425
528.43	13.302
528.78	12.541
529.12	13.097
529.46	12.346
529.80	13.870
530.15	12.343
530.49	12.256
530.83	13.953
531.17	12.089
531.51	13.475
531.86	12.780
532.20	11.900
532.54	13.002
532.88	12.799
533.22	12.500
533.57	12.910
533.91	12.859
534.25	13.672
534.59	12.893
534.93	12.020
535.27	12.119
535.62	12.767
535.96	13.503
536.30	13.259
536.64	12.130
536.98	12.962
537.32	12.945
537.66	13.815
538.01	13.357
538.35	12.205
538.69	12.983
539.03	12.577
539.37	13.661
539.71	12.543
540.05	13.306
540.39	12.604
540.73	14.365
541.07	12.983
541.42	13.642
541.76	12.595
542.10	12.526
542.44	12.370
542.78	11.425
543.12	11.195
543.46	13.282
543.80	12.630
544.14	12.417
544.48	12.392
544.82	12.714
545.16	13.115
545.50	12.884
545.84	12.890
546.18	12.553
546.52	12.329
546.86	12.868
547.20	12.732
547.54	11.873
547.88	12.840
548.22	11.571
548.56	12.137
548.90	13.679
549.24	11.915
549.58	13.047
549.92	11.508
550.26	12.381
550.60	12.639
550.94	12.845
551.28	12.287
551.62	12.385
551.96	13.459
552.30	12.135
552.64	11.566
552.98	12.025
553.32	12.553
553.66	11.466
554.00	11.825
554.34	12.851
554.68	12.463
555.02	12.202
555.36	12.715
555.69	11.868
556.03	12.063
556.37	11.815
556.71	11.552
557.05	11.633
557.39	11.896
557.73	11.319
558.07	13.198
558.41	11.868
558.75	12.315
559.08	11.742
559.42	11.349
559.76	11.689
560.10	12.691
560.44	11.839
560.78	12.168
561.12	11.213
561.45	13.141
561.79	12.325
562.13	12.491
562.47	11.871
562.81	12.248
563.15	12.130
563.48	12.659
563.82	11.805
564.16	12.047
564.50	12.838
564.84	12.517
565.17	11.066
565.51	13.183
565.85	12.346
566.19	13.329
566.52	12.466
566.86	13.046
567.20	12.453
567.54	11.861
567.88	13.240
568.21	13.009
568.55	12.609
568.89	12.988
569.23	13.240
569.56	12.391
569.90	13.114
570.24	12.914
570.57	12.582
570.91	13.454
571.25	13.121
571.59	13.236
571.92	12.593
572.26	12.772
572.60	12.403
572.93	12.520
573.27	12.163
573.61	12.530
573.95	13.026
574.28	12.791
574.62	12.713
574.96	12.815
575.29	12.771
575.63	12.542
575.97	12.713
576.30	12.764
576.64	12.424
576.98	12.999
577.31	12.509
577.65	13.119
577.98	13.039
578.32	12.826
578.66	12.594
578.99	13.056
579.33	12.516
579.67	12.238
580.00	12.987
580.34	12.687
580.67	12.611
581.01	12.752
581.35	12.769
581.68	12.970
582.02	12.865
582.35	12.721
582.69	12.894
583.02	12.989
583.36	12.704
583.70	13.266
584.03	13.094
584.37	13.439
584.70	12.912
585.04	12.358
585.37	12.752
585.71	12.540
586.04	12.506
586.38	12.563
586.72	12.855
587.05	13.027
587.39	12.357
587.72	12.849
588.06	13.009
588.39	13.045
588.73	12.912
589.06	13.144
589.40	13.031
589.73	12.742
590.07	13.029
590.40	13.119
590.73	13.015
591.07	13.062
591.40	12.378
591.74	12.534
592.07	12.848
592.41	13.118
592.74	12.386
593.08	12.120
593.41	12.685
593.75	12.856
594.08	12.633
594.41	12.482
594.75	11.985
595.08	12.940
595.42	12.624
595.75	12.843
596.09	12.823
596.42	12.939
596.75	13.144
597.09	13.121
597.42	12.918
597.75	12.964
598.09	12.947
598.42	12.184
598.76	12.613
599.09	12.179
599.42	12.391
599.76	12.566
600.09	12.745
600.42	12.547
600.76	12.147
601.09	12.099
601.42	12.103
601.76	12.664
602.09	12.665
602.42	12.637
602.76	13.158
603.09	12.583
603.42	12.834
603.76	12.097
604.09	12.191
604.42	13.029
604.76	12.951
605.09	12.706
605.42	12.867
605.75	12.303
606.09	12.569
606.42	12.469
606.75	12.814
607.09	13.055
607.42	12.229
607.75	12.522
608.08	12.084
608.42	12.974
608.75	13.060
609.08	12.706
609.41	12.183
609.75	12.198
610.08	12.182
610.41	12.222
610.74	12.628
611.07	12.403
611.41	12.766
611.74	13.593
612.07	11.456
612.40	11.980
612.73	12.655
613.07	12.317
613.40	13.239
613.73	11.975
614.06	11.909
614.39	11.957
614.72	12.045
615.06	12.235
615.39	12.009
615.72	12.271
616.05	12.849
616.38	12.023
616.71	12.049
617.05	12.724
617.38	12.319
617.71	12.893
618.04	11.619
618.37	13.619
618.70	13.003
619.03	12.847
619.36	13.097
619.69	11.676
620.03	13.221
620.36	12.947
620.69	12.491
621.02	12.920
621.35	12.531
621.68	11.990
622.01	13.000
622.34	11.413
622.67	12.224
623.00	12.481
623.33	12.652
623.66	11.444
623.99	12.632
624.32	11.939
624.65	11.955
624.99	12.415
625.32	11.676
625.65	13.119
625.98	12.571
626.31	11.638
626.64	11.872
626.97	12.827
627.30	13.573
627.63	11.958
627.96	11.950
628.29	13.321
628.62	11.799
628.95	12.525
629.28	11.794
629.61	11.565
629.94	13.196
630.26	12.451
630.59	11.967
630.92	11.692
631.25	11.795
631.58	11.674
631.91	12.500
632.24	12.156
632.57	12.159
632.90	11.151
633.23	12.706
633.56	12.091
