SpectraSuite Data File
++++++++++++++++++++++++++++++++++++
Date: Fri May 15 21:09:31 PDT 2015
User: schluterlab
Dark Spectrum Present: Yes
Reference Spectrum Present: Yes
Number of Sampled Component Spectra: 1
Spectrometers: USB2E3373
Integration Time (usec): 3000 (USB2E3373)
Spectra Averaged: 3 (USB2E3373)
Boxcar Smoothing: 0 (USB2E3373)
Correct for Electrical Dark: No (USB2E3373)
Strobe/Lamp Enabled: No (USB2E3373)
Correct for Detector Non-linearity: No (USB2E3373)
Correct for Stray Light: No (USB2E3373)
Number of Pixels in Processed Spectrum: 2048
>>>>>Begin Processed Spectral Data<<<<<
178.53	0.000
178.91	0.000
179.29	-12.500
179.67	-400.000
180.04	71.429
180.42	50.000
180.80	-800.000
181.18	266.667
181.56	350.000
181.94	-50.000
182.31	-500.000
182.69	-40.000
183.07	-200.000
183.45	20.000
183.83	216.667
184.20	90.909
184.58	55.556
184.96	25.000
185.34	166.667
185.72	-450.000
186.09	69.231
186.47	-900.000
186.85	-33.333
187.23	77.778
187.61	-100.000
187.98	-66.667
188.36	-11.111
188.74	-133.333
189.12	35.294
189.49	0.000
189.87	0.000
190.25	21.429
190.63	150.000
191.00	-166.667
191.38	10.526
191.76	200.000
192.14	25.000
192.51	-100.000
192.89	-22.222
193.27	-157.143
193.65	116.667
194.02	127.273
194.40	30.000
194.78	-87.500
195.15	-8.333
195.53	-137.500
195.91	225.000
196.29	-275.000
196.66	84.615
197.04	114.286
197.42	11.111
197.79	-466.667
198.17	-123.077
198.55	1400.000
198.92	-466.667
199.30	-100.000
199.68	-160.000
200.05	-66.667
200.43	0.000
200.81	-166.667
201.18	-233.333
201.56	1500.000
201.94	-300.000
202.31	200.000
202.69	-360.000
203.07	125.000
203.44	-200.000
203.82	0.000
204.19	-35.714
204.57	-633.333
204.95	75.000
205.32	10.000
205.70	-71.429
206.08	-225.000
206.45	211.111
206.83	114.286
207.20	-214.286
207.58	300.000
207.96	0.000
208.33	-140.000
208.71	-100.000
209.08	-116.667
209.46	-400.000
209.84	-260.000
210.21	-600.000
210.59	42.857
210.96	16.667
211.34	150.000
211.71	46.667
212.09	-28.571
212.46	-1700.000
212.84	0.000
213.22	110.000
213.59	300.000
213.97	69.231
214.34	72.727
214.72	-200.000
215.09	375.000
215.47	-53.846
215.84	-27.273
216.22	-500.000
216.59	-75.000
216.97	50.000
217.34	-25.000
217.72	-320.000
218.09	-25.000
218.47	162.500
218.84	-800.000
219.22	-33.333
219.59	-120.000
219.97	466.667
220.34	250.000
220.72	0.000
221.09	-100.000
221.47	50.000
221.84	-150.000
222.22	-600.000
222.59	-54.545
222.97	100.000
223.34	0.000
223.72	-57.143
224.09	19.048
224.46	-7.143
224.84	233.333
225.21	-70.000
225.59	-13.333
225.96	-250.000
226.34	300.000
226.71	-57.143
227.08	-50.000
227.46	-125.000
227.83	-300.000
228.21	-22.222
228.58	-9.091
228.95	-100.000
229.33	150.000
229.70	18.750
230.08	-37.500
230.45	57.143
230.82	28.571
231.20	-33.333
231.57	114.286
231.95	-57.143
232.32	-110.000
232.69	57.143
233.07	-33.333
233.44	100.000
233.81	-20.000
234.19	111.111
234.56	-17.647
234.93	550.000
235.31	0.000
235.68	-180.000
236.05	23.077
236.43	-50.000
236.80	-35.294
237.17	34.375
237.55	-40.000
237.92	29.630
238.29	8.333
238.67	30.000
239.04	-5.882
239.41	-34.146
239.79	10.000
240.16	0.000
240.53	15.789
240.91	21.739
241.28	26.984
241.65	19.643
242.02	30.137
242.40	28.333
242.77	16.949
243.14	18.182
243.51	10.000
243.89	22.989
244.26	14.943
244.63	28.571
245.00	16.495
245.38	36.082
245.75	23.596
246.12	21.552
246.49	27.273
246.87	25.000
247.24	12.605
247.61	14.912
247.98	17.886
248.36	18.125
248.73	28.289
249.10	12.338
249.47	20.886
249.84	15.686
250.22	24.706
250.59	19.608
250.96	25.352
251.33	22.674
251.70	30.000
252.08	23.350
252.45	23.267
252.82	24.121
253.19	23.963
253.56	18.692
253.94	22.072
254.31	25.652
254.68	25.877
255.05	24.409
255.42	22.271
255.79	27.799
256.16	29.572
256.54	23.507
256.91	24.335
257.28	21.933
257.65	20.225
258.02	18.440
258.39	25.253
258.76	23.810
259.14	26.578
259.51	19.417
259.88	23.368
260.25	24.510
260.62	22.222
260.99	23.051
261.36	23.288
261.73	21.835
262.10	23.404
262.47	24.847
262.85	21.003
263.22	23.077
263.59	26.480
263.96	25.466
264.33	24.242
264.70	27.083
265.07	22.321
265.44	23.513
265.81	23.729
266.18	29.235
266.55	23.907
266.92	25.907
267.29	25.849
267.66	25.064
268.03	23.037
268.40	24.282
268.77	27.807
269.14	23.741
269.51	23.136
269.88	23.441
270.25	24.745
270.62	23.415
270.99	23.274
271.36	23.472
271.73	26.526
272.10	24.818
272.47	25.059
272.84	22.525
273.21	26.450
273.58	25.783
273.95	25.172
274.32	21.016
274.69	21.493
275.06	24.107
275.43	20.181
275.80	23.620
276.17	22.989
276.54	24.411
276.91	22.368
277.28	23.362
277.65	24.380
278.02	22.553
278.39	23.632
278.76	21.593
279.13	19.502
279.50	23.529
279.87	22.678
280.23	23.441
280.60	22.612
280.97	25.657
281.34	20.000
281.71	22.382
282.08	22.495
282.45	20.548
282.82	23.359
283.19	23.985
283.56	21.387
283.92	22.011
284.29	23.077
284.66	19.380
285.03	22.986
285.40	20.983
285.77	22.320
286.14	22.744
286.51	21.587
286.87	20.293
287.24	23.573
287.61	21.340
287.98	23.684
288.35	20.451
288.72	22.067
289.08	21.007
289.45	22.847
289.82	23.776
290.19	19.454
290.56	19.554
290.93	20.875
291.29	19.723
291.66	21.260
292.03	19.458
292.40	20.161
292.77	20.415
293.13	17.045
293.50	18.665
293.87	20.305
294.24	19.011
294.60	19.523
294.97	19.345
295.34	18.712
295.71	17.735
296.08	18.984
296.44	15.932
296.81	17.361
297.18	19.420
297.55	19.783
297.91	18.493
298.28	18.470
298.65	16.689
299.02	17.655
299.38	15.732
299.75	17.793
300.12	16.885
300.48	16.206
300.85	16.984
301.22	16.494
301.59	16.842
301.95	18.228
302.32	17.250
302.69	16.791
303.05	18.564
303.42	17.310
303.79	17.757
304.15	17.563
304.52	16.052
304.89	17.310
305.25	18.160
305.62	15.986
305.99	15.439
306.35	15.838
306.72	15.298
307.09	16.990
307.45	16.418
307.82	17.014
308.19	17.886
308.55	17.121
308.92	18.301
309.29	16.089
309.65	16.469
310.02	16.062
310.38	16.026
310.75	18.251
311.12	17.438
311.48	16.861
311.85	16.754
312.22	17.511
312.58	17.728
312.95	17.503
313.31	19.048
313.68	18.429
314.05	17.959
314.41	18.969
314.78	19.278
315.14	19.219
315.51	20.807
315.87	19.980
316.24	21.941
316.61	20.768
316.97	20.337
317.34	21.875
317.70	20.841
318.07	22.019
318.43	22.059
318.80	22.727
319.16	23.730
319.53	25.071
319.89	25.000
320.26	25.101
320.62	26.981
320.99	26.827
321.35	26.310
321.72	28.245
322.08	29.204
322.45	29.645
322.81	30.059
323.18	30.226
323.54	29.923
323.91	31.451
324.27	32.813
324.64	34.176
325.00	34.307
325.37	38.292
325.73	35.177
326.10	37.148
326.46	37.937
326.83	39.370
327.19	39.756
327.56	43.006
327.92	42.958
328.29	42.232
328.65	45.755
329.01	43.842
329.38	45.346
329.74	45.042
330.11	46.339
330.47	45.547
330.84	46.731
331.20	50.000
331.56	47.500
331.93	49.406
332.29	49.404
332.66	48.778
333.02	49.349
333.38	48.763
333.75	51.282
334.11	50.045
334.48	51.496
334.84	50.458
335.20	50.137
335.57	51.133
335.93	52.394
336.29	53.407
336.66	52.861
337.02	51.766
337.38	51.852
337.75	52.091
338.11	53.381
338.47	53.285
338.84	54.251
339.20	54.022
339.56	54.037
339.93	55.058
340.29	55.321
340.65	54.839
341.02	53.812
341.38	54.602
341.74	54.064
342.11	53.120
342.47	55.338
342.83	54.931
343.20	54.268
343.56	55.652
343.92	55.359
344.28	56.191
344.65	56.218
345.01	56.266
345.37	54.752
345.73	56.736
346.10	56.428
346.46	56.602
346.82	55.319
347.19	54.613
347.55	55.973
347.91	57.767
348.27	54.729
348.63	58.092
349.00	56.932
349.36	57.689
349.72	59.287
350.08	59.016
350.45	57.462
350.81	58.887
351.17	57.085
351.53	58.612
351.89	56.482
352.26	58.720
352.62	58.226
352.98	57.510
353.34	57.407
353.70	58.900
354.07	57.823
354.43	57.086
354.79	57.391
355.15	59.603
355.51	58.940
355.87	59.871
356.24	58.728
356.60	59.660
356.96	61.508
357.32	60.623
357.68	59.734
358.04	62.197
358.40	59.807
358.77	62.839
359.13	61.169
359.49	60.092
359.85	62.871
360.21	61.483
360.57	62.510
360.93	61.498
361.29	59.970
361.66	63.793
362.02	61.061
362.38	62.452
362.74	63.361
363.10	64.334
363.46	63.158
363.82	65.214
364.18	63.100
364.54	63.971
364.90	62.939
365.26	65.211
365.62	64.964
365.98	66.422
366.35	65.331
366.71	65.558
367.07	66.328
367.43	66.499
367.79	66.996
368.15	66.332
368.51	65.768
368.87	65.973
369.23	65.054
369.59	68.149
369.95	67.302
370.31	68.714
370.67	67.985
371.03	68.708
371.39	67.542
371.75	67.106
372.11	68.402
372.47	69.305
372.83	69.269
373.19	68.545
373.55	69.892
373.91	68.826
374.27	69.596
374.63	70.424
374.99	68.936
375.35	71.031
375.71	71.818
376.07	71.208
376.42	71.565
376.78	70.604
377.14	71.632
377.50	72.178
377.86	71.754
378.22	70.645
378.58	73.269
378.94	72.653
379.30	72.676
379.66	72.727
380.02	72.042
380.38	71.516
380.74	72.771
381.09	74.233
381.45	73.578
381.81	73.473
382.17	74.048
382.53	72.767
382.89	74.451
383.25	74.238
383.61	74.939
383.97	75.492
384.32	74.672
384.68	74.985
385.04	74.449
385.40	74.798
385.76	78.742
386.12	76.455
386.48	76.373
386.83	76.538
387.19	77.167
387.55	77.666
387.91	76.895
388.27	75.458
388.62	79.673
388.98	77.716
389.34	77.014
389.70	79.615
390.06	76.967
390.42	77.137
390.77	79.137
391.13	79.193
391.49	78.655
391.85	79.012
392.20	78.217
392.56	77.177
392.92	77.628
393.28	78.715
393.64	77.658
393.99	80.125
394.35	79.064
394.71	78.480
395.07	78.693
395.42	77.292
395.78	81.303
396.14	79.571
396.50	79.581
396.85	81.198
397.21	78.697
397.57	78.746
397.92	78.550
398.28	79.885
398.64	75.181
399.00	78.442
399.35	77.878
399.71	78.576
400.07	79.988
400.42	79.131
400.78	80.404
401.14	77.798
401.49	79.988
401.85	79.342
402.21	78.494
402.57	80.625
402.92	79.297
403.28	79.887
403.63	79.697
403.99	80.867
404.35	80.887
404.70	78.214
405.06	78.848
405.42	78.185
405.77	77.513
406.13	79.569
406.49	78.094
406.84	80.623
407.20	79.410
407.55	77.978
407.91	78.944
408.27	77.820
408.62	79.938
408.98	77.203
409.34	79.058
409.69	78.747
410.05	76.663
410.40	78.889
410.76	78.468
411.11	79.938
411.47	77.975
411.83	77.589
412.18	79.665
412.54	77.903
412.89	77.648
413.25	79.663
413.60	78.758
413.96	77.239
414.31	76.585
414.67	78.512
415.03	79.494
415.38	79.178
415.74	79.870
416.09	80.732
416.45	80.216
416.80	78.850
417.16	79.420
417.51	79.280
417.87	77.966
418.22	80.699
418.58	80.401
418.93	81.317
419.29	78.553
419.64	80.428
420.00	81.486
420.35	79.522
420.71	81.835
421.06	82.075
421.42	81.611
421.77	81.214
422.12	79.512
422.48	80.671
422.83	80.278
423.19	81.659
423.54	80.364
423.90	80.742
424.25	80.999
424.61	82.742
424.96	81.010
425.31	83.536
425.67	83.040
426.02	84.217
426.38	84.784
426.73	84.625
427.09	84.430
427.44	85.000
427.79	84.679
428.15	83.556
428.50	83.707
428.85	82.494
429.21	83.701
429.56	85.283
429.92	82.486
430.27	81.404
430.62	84.945
430.98	83.546
431.33	83.754
431.68	82.365
432.04	84.964
432.39	83.913
432.74	83.764
433.10	85.632
433.45	86.798
433.80	86.013
434.16	84.488
434.51	85.968
434.86	86.934
435.22	86.483
435.57	87.399
435.92	85.808
436.28	84.556
436.63	85.739
436.98	85.284
437.34	85.662
437.69	87.955
438.04	87.009
438.39	86.744
438.75	87.310
439.10	86.474
439.45	87.584
439.81	87.278
440.16	89.014
440.51	88.179
440.86	88.157
441.22	85.803
441.57	88.411
441.92	87.461
442.27	88.747
442.63	88.276
442.98	88.570
443.33	85.587
443.68	86.631
444.03	86.935
444.39	85.539
444.74	88.462
445.09	87.194
445.44	88.034
445.79	88.912
446.15	86.894
446.50	87.410
446.85	88.735
447.20	87.383
447.55	88.170
447.91	86.576
448.26	86.796
448.61	87.565
448.96	88.124
449.31	88.671
449.66	88.502
450.02	87.507
450.37	88.737
450.72	89.003
451.07	87.658
451.42	88.077
451.77	87.101
452.12	88.098
452.47	88.860
452.83	89.164
453.18	88.678
453.53	89.254
453.88	89.010
454.23	90.596
454.58	88.287
454.93	88.402
455.28	88.381
455.63	87.663
455.98	88.936
456.34	88.059
456.69	90.597
457.04	89.477
457.39	89.004
457.74	89.541
458.09	87.287
458.44	87.303
458.79	87.843
459.14	88.158
459.49	89.134
459.84	87.874
460.19	89.199
460.54	88.203
460.89	88.750
461.24	88.509
461.59	88.777
461.94	87.233
462.29	89.445
462.64	89.967
462.99	88.219
463.34	90.542
463.69	86.808
464.04	89.467
464.39	87.083
464.74	87.669
465.09	89.021
465.44	88.286
465.79	85.374
466.14	86.716
466.49	88.557
466.84	87.507
467.19	87.610
467.54	88.123
467.89	88.250
468.24	86.618
468.59	89.333
468.94	89.460
469.29	88.328
469.64	87.697
469.99	91.801
470.34	88.874
470.68	92.543
471.03	90.941
471.38	90.656
471.73	89.006
472.08	89.281
472.43	90.940
472.78	90.541
473.13	91.156
473.48	89.902
473.83	88.481
474.17	89.378
474.52	87.683
474.87	88.485
475.22	88.896
475.57	88.594
475.92	88.151
476.27	88.300
476.61	89.294
476.96	87.395
477.31	88.913
477.66	88.371
478.01	89.051
478.36	87.255
478.70	88.309
479.05	87.088
479.40	88.712
479.75	86.392
480.10	87.455
480.45	87.850
480.79	88.721
481.14	88.115
481.49	87.143
481.84	87.693
482.19	86.483
482.53	87.674
482.88	86.683
483.23	86.948
483.58	85.943
483.92	88.432
484.27	86.463
484.62	86.957
484.97	86.277
485.31	83.273
485.66	78.855
486.01	78.766
486.36	77.366
486.70	78.757
487.05	80.858
487.40	81.050
487.75	81.944
488.09	82.664
488.44	82.221
488.79	84.124
489.13	85.617
489.48	86.105
489.83	84.753
490.17	86.022
490.52	86.236
490.87	85.979
491.22	88.348
491.56	86.860
491.91	86.472
492.26	89.305
492.60	87.524
492.95	88.096
493.30	87.347
493.64	89.489
493.99	86.908
494.34	86.699
494.68	88.190
495.03	88.905
495.37	88.813
495.72	88.794
496.07	89.415
496.41	87.170
496.76	88.300
497.11	85.980
497.45	87.303
497.80	89.960
498.14	87.928
498.49	88.167
498.84	87.176
499.18	89.709
499.53	88.095
499.87	86.479
500.22	88.427
500.56	88.754
500.91	87.349
501.26	86.950
501.60	87.359
501.95	87.579
502.29	87.361
502.64	86.052
502.98	88.949
503.33	86.407
503.67	86.892
504.02	87.243
504.36	88.619
504.71	87.374
505.06	86.059
505.40	87.005
505.75	89.691
506.09	87.886
506.44	88.142
506.78	88.316
507.13	88.676
507.47	89.295
507.82	89.370
508.16	87.639
508.51	88.615
508.85	90.424
509.19	88.558
509.54	89.169
509.88	89.159
510.23	89.833
510.57	89.311
510.92	89.072
511.26	90.344
511.61	90.594
511.95	89.808
512.30	89.191
512.64	89.928
512.98	89.500
513.33	90.207
513.67	90.733
514.02	92.449
514.36	92.343
514.70	92.191
515.05	93.008
515.39	91.795
515.74	92.156
516.08	93.246
516.42	94.287
516.77	92.335
517.11	92.819
517.46	92.101
517.80	91.418
518.14	93.938
518.49	92.248
518.83	93.985
519.17	91.995
519.52	90.941
519.86	92.437
520.20	93.196
520.55	92.058
520.89	92.974
521.23	93.160
521.58	93.565
521.92	94.038
522.26	93.038
522.61	94.091
522.95	94.967
523.29	93.329
523.64	93.520
523.98	94.102
524.32	93.428
524.66	94.110
525.01	94.351
525.35	92.871
525.69	93.872
526.04	94.048
526.38	94.812
526.72	93.787
527.06	92.023
527.41	93.799
527.75	94.772
528.09	93.887
528.43	93.518
528.78	93.267
529.12	92.323
529.46	92.463
529.80	89.740
530.15	92.673
530.49	94.007
530.83	95.280
531.17	91.336
531.51	93.844
531.86	91.910
532.20	91.928
532.54	93.533
532.88	93.566
533.22	91.667
533.57	91.350
533.91	92.298
534.25	91.471
534.59	90.314
534.93	89.113
535.27	88.579
535.62	91.769
535.96	91.063
536.30	90.237
536.64	91.730
536.98	90.732
537.32	93.457
537.66	92.286
538.01	92.937
538.35	92.372
538.69	89.880
539.03	89.815
539.37	89.637
539.71	91.275
540.05	90.835
540.39	91.066
540.73	92.120
541.07	91.989
541.42	89.852
541.76	90.089
542.10	88.300
542.44	91.452
542.78	88.369
543.12	88.874
543.46	90.195
543.80	90.285
544.14	88.385
544.48	88.807
544.82	88.448
545.16	90.232
545.50	88.518
545.84	91.147
546.18	91.277
546.52	87.960
546.86	90.295
547.20	90.629
547.54	88.481
547.88	89.266
548.22	87.574
548.56	87.071
548.90	88.410
549.24	87.879
549.58	89.281
549.92	89.778
550.26	88.498
550.60	91.822
550.94	90.590
551.28	92.736
551.62	91.231
551.96	91.278
552.30	90.132
552.64	88.223
552.98	89.030
553.32	88.659
553.66	90.203
554.00	91.095
554.34	90.251
554.68	89.676
555.02	89.137
555.36	90.875
555.69	87.912
556.03	89.079
556.37	88.185
556.71	90.542
557.05	91.275
557.39	88.922
557.73	90.330
558.07	92.383
558.41	91.424
558.75	90.881
559.08	92.041
559.42	94.206
559.76	92.874
560.10	90.061
560.44	91.139
560.78	88.601
561.12	89.704
561.45	89.389
561.79	88.095
562.13	90.206
562.47	89.209
562.81	88.905
563.15	88.999
563.48	88.826
563.82	89.224
564.16	89.136
564.50	86.554
564.84	87.015
565.17	86.251
565.51	89.003
565.85	88.957
566.19	88.263
566.52	87.802
566.86	88.111
567.20	85.492
567.54	87.530
567.88	85.354
568.21	83.258
568.55	84.239
568.89	82.495
569.23	81.416
569.56	79.641
569.90	78.725
570.24	75.847
570.57	76.836
570.91	76.682
571.25	74.942
571.59	73.155
571.92	71.348
572.26	73.309
572.60	72.155
572.93	72.168
573.27	72.790
573.61	72.106
573.95	71.600
574.28	70.365
574.62	69.540
574.96	69.210
575.29	69.510
575.63	68.386
575.97	69.775
576.30	70.762
576.64	69.325
576.98	70.553
577.31	69.870
577.65	69.633
577.98	68.766
578.32	67.779
578.66	67.720
578.99	67.759
579.33	68.324
579.67	68.155
580.00	68.709
580.34	68.134
580.67	68.521
581.01	68.540
581.35	67.614
581.68	67.467
582.02	66.141
582.35	66.462
582.69	66.615
583.02	67.635
583.36	68.559
583.70	69.886
584.03	71.365
584.37	71.231
584.70	69.451
585.04	68.212
585.37	68.649
585.71	68.428
586.04	69.188
586.38	68.845
586.72	69.641
587.05	69.902
587.39	70.087
587.72	70.776
588.06	70.219
588.39	69.895
588.73	69.933
589.06	72.309
589.40	71.656
589.73	72.070
590.07	73.187
590.40	73.142
590.73	74.629
591.07	73.834
591.40	74.043
591.74	74.072
592.07	76.391
592.41	75.221
592.74	73.755
593.08	70.520
593.41	71.565
593.75	70.527
594.08	70.992
594.41	71.325
594.75	71.947
595.08	72.115
595.42	71.476
595.75	72.512
596.09	73.299
596.42	74.080
596.75	74.956
597.09	73.759
597.42	74.977
597.75	75.905
598.09	72.884
598.42	74.278
598.76	72.587
599.09	72.236
599.42	70.027
599.76	70.993
600.09	71.606
600.42	71.077
600.76	71.174
601.09	70.496
601.42	70.897
601.76	71.695
602.09	72.360
602.42	73.926
602.76	74.363
603.09	73.256
603.42	73.829
603.76	71.694
604.09	71.405
604.42	72.293
604.76	73.253
605.09	73.263
605.42	72.596
605.75	72.680
606.09	72.102
606.42	70.767
606.75	72.251
607.09	72.615
607.42	72.397
607.75	71.936
608.08	71.698
608.42	71.037
608.75	73.398
609.08	73.842
609.41	74.162
609.75	73.589
610.08	73.340
610.41	72.705
610.74	72.891
611.07	74.315
611.41	74.520
611.74	75.959
612.07	73.876
612.40	74.781
612.73	75.706
613.07	73.960
613.40	73.906
613.73	75.154
614.06	74.290
614.39	75.409
614.72	74.174
615.06	74.358
615.39	73.253
615.72	71.098
616.05	73.575
616.38	72.764
616.71	74.557
617.05	76.220
617.38	76.179
617.71	76.289
618.04	76.889
618.37	77.491
618.70	78.416
619.03	79.861
619.36	78.509
619.69	80.667
620.03	80.424
620.36	78.541
620.69	78.373
621.02	78.364
621.35	82.075
621.68	82.823
622.01	82.917
622.34	81.644
622.67	81.467
623.00	79.326
623.33	80.640
623.66	78.085
623.99	79.425
624.32	80.152
624.65	78.647
624.99	80.963
625.32	78.544
625.65	82.404
625.98	81.386
626.31	80.964
626.64	83.882
626.97	83.072
627.30	83.187
627.63	84.402
627.96	84.456
628.29	83.256
628.62	87.414
628.95	86.072
629.28	86.794
629.61	87.438
629.94	85.435
630.26	86.759
630.59	89.074
630.92	88.308
631.25	87.282
631.58	91.630
631.91	89.803
632.24	89.335
632.57	91.818
632.90	91.578
633.23	89.059
