SpectraSuite Data File
++++++++++++++++++++++++++++++++++++
Date: Fri May 15 20:52:46 PDT 2015
User: schluterlab
Dark Spectrum Present: Yes
Reference Spectrum Present: Yes
Number of Sampled Component Spectra: 1
Spectrometers: USB2E3373
Integration Time (usec): 3000 (USB2E3373)
Spectra Averaged: 3 (USB2E3373)
Boxcar Smoothing: 0 (USB2E3373)
Correct for Electrical Dark: No (USB2E3373)
Strobe/Lamp Enabled: No (USB2E3373)
Correct for Detector Non-linearity: No (USB2E3373)
Correct for Stray Light: No (USB2E3373)
Number of Pixels in Processed Spectrum: 2048
>>>>>Begin Processed Spectral Data<<<<<
178.53	0.000
178.91	0.000
179.29	50.000
179.67	-750.000
180.04	-0.000
180.42	-25.000
180.80	500.000
181.18	-0.000
181.56	250.000
181.94	-350.000
182.31	1500.000
182.69	-40.000
183.07	-300.000
183.45	-20.000
183.83	-16.667
184.20	18.182
184.58	233.333
184.96	200.000
185.34	133.333
185.72	-400.000
186.09	115.385
186.47	-1100.000
186.85	116.667
187.23	122.222
187.61	-1100.000
187.98	0.000
188.36	11.111
188.74	-366.667
189.12	23.529
189.49	33.333
189.87	0.000
190.25	7.143
190.63	-50.000
191.00	-266.667
191.38	15.789
191.76	0.000
192.14	50.000
192.51	-150.000
192.89	-33.333
193.27	-228.571
193.65	133.333
194.02	118.182
194.40	-30.000
194.78	-187.500
195.15	50.000
195.53	25.000
195.91	375.000
196.29	-125.000
196.66	123.077
197.04	171.429
197.42	-111.111
197.79	-333.333
198.17	-123.077
198.55	1200.000
198.92	-700.000
199.30	400.000
199.68	-340.000
200.05	-233.333
200.43	0.000
200.81	66.667
201.18	66.667
201.56	700.000
201.94	-700.000
202.31	-66.667
202.69	-20.000
203.07	-125.000
203.44	-200.000
203.82	0.000
204.19	57.143
204.57	-400.000
204.95	37.500
205.32	0.000
205.70	0.000
206.08	-275.000
206.45	155.556
206.83	107.143
207.20	-157.143
207.58	700.000
207.96	-233.333
208.33	-60.000
208.71	25.000
209.08	-266.667
209.46	-1100.000
209.84	-200.000
210.21	-800.000
210.59	85.714
210.96	-133.333
211.34	-200.000
211.71	-20.000
212.09	-200.000
212.46	-1000.000
212.84	0.000
213.22	20.000
213.59	450.000
213.97	0.000
214.34	63.636
214.72	66.667
215.09	475.000
215.47	7.692
215.84	18.182
216.22	-66.667
216.59	75.000
216.97	-50.000
217.34	-150.000
217.72	-440.000
218.09	87.500
218.47	212.500
218.84	0.000
219.22	-77.778
219.59	40.000
219.97	466.667
220.34	275.000
220.72	28.571
221.09	-275.000
221.47	-350.000
221.84	-1050.000
222.22	-300.000
222.59	45.455
222.97	33.333
223.34	33.333
223.72	0.000
224.09	-9.524
224.46	3.571
224.84	266.667
225.21	40.000
225.59	46.667
225.96	300.000
226.34	400.000
226.71	-157.143
227.08	-16.667
227.46	0.000
227.83	-200.000
228.21	-88.889
228.58	-18.182
228.95	-150.000
229.33	120.000
229.70	0.000
230.08	-75.000
230.45	-42.857
230.82	114.286
231.20	-33.333
231.57	50.000
231.95	-57.143
232.32	-120.000
232.69	-7.143
233.07	-200.000
233.44	-180.000
233.81	-30.000
234.19	33.333
234.56	-23.529
234.93	600.000
235.31	25.000
235.68	-200.000
236.05	-53.846
236.43	30.000
236.80	23.529
237.17	31.250
237.55	0.000
237.92	3.704
238.29	11.111
238.67	36.667
239.04	-14.706
239.41	21.951
239.79	-6.667
240.16	31.707
240.53	-10.526
240.91	15.217
241.28	23.810
241.65	39.286
242.02	28.767
242.40	38.333
242.77	16.949
243.14	16.667
243.51	31.250
243.89	52.874
244.26	24.138
244.63	34.524
245.00	23.711
245.38	23.711
245.75	14.607
246.12	28.448
246.49	33.058
246.87	34.615
247.24	23.529
247.61	21.930
247.98	34.959
248.36	25.625
248.73	35.526
249.10	30.519
249.47	33.544
249.84	32.026
250.22	30.588
250.59	36.601
250.96	28.638
251.33	27.326
251.70	39.412
252.08	37.056
252.45	37.624
252.82	32.161
253.19	38.249
253.56	32.710
253.94	34.234
254.31	36.957
254.68	35.088
255.05	32.283
255.42	30.131
255.79	37.066
256.16	31.907
256.54	35.075
256.91	33.460
257.28	30.483
257.65	31.086
258.02	37.589
258.39	38.721
258.76	34.066
259.14	33.555
259.51	32.686
259.88	34.364
260.25	33.660
260.62	34.028
260.99	33.220
261.36	29.452
261.73	31.962
262.10	34.043
262.47	32.515
262.85	34.796
263.22	32.923
263.59	34.891
263.96	35.093
264.33	33.030
264.70	34.821
265.07	35.714
265.44	37.677
265.81	31.921
266.18	32.514
266.55	34.447
266.92	36.788
267.29	34.987
267.66	34.015
268.03	32.461
268.40	32.376
268.77	37.701
269.14	35.252
269.51	31.877
269.88	32.170
270.25	29.847
270.62	32.439
270.99	31.969
271.36	31.296
271.73	34.507
272.10	34.307
272.47	33.570
272.84	33.663
273.21	33.411
273.58	32.771
273.95	33.867
274.32	32.102
274.69	30.769
275.06	33.259
275.43	31.746
275.80	33.775
276.17	32.184
276.54	30.835
276.91	34.211
277.28	30.568
277.65	28.926
278.02	33.191
278.39	30.635
278.76	32.495
279.13	27.801
279.50	34.874
279.87	32.397
280.23	31.183
280.60	30.604
280.97	33.535
281.34	27.885
281.71	34.908
282.08	30.061
282.45	31.311
282.82	28.764
283.19	33.269
283.56	34.104
283.92	29.412
284.29	30.192
284.66	27.713
285.03	30.059
285.40	29.868
285.77	31.459
286.14	29.964
286.51	30.812
286.87	29.068
287.24	30.571
287.61	31.217
287.98	28.772
288.35	29.636
288.72	29.772
289.08	28.819
289.45	29.701
289.82	29.720
290.19	29.181
290.56	29.846
290.93	28.956
291.29	26.810
291.66	24.724
292.03	28.230
292.40	30.323
292.77	26.635
293.13	26.623
293.50	26.100
293.87	26.412
294.24	26.893
294.60	27.273
294.97	29.315
295.34	26.534
295.71	27.124
296.08	25.561
296.44	22.902
296.81	25.833
297.18	24.638
297.55	26.965
297.91	24.795
298.28	25.594
298.65	25.645
299.02	25.606
299.38	22.435
299.75	26.621
300.12	25.131
300.48	24.111
300.85	26.109
301.22	24.545
301.59	24.605
301.95	25.823
302.32	25.940
302.69	22.388
303.05	24.010
303.42	25.156
303.79	23.832
304.15	24.373
304.52	23.900
304.89	24.211
305.25	25.424
305.62	22.987
305.99	22.573
306.35	23.006
306.72	24.072
307.09	25.200
307.45	25.488
307.82	23.843
308.19	25.552
308.55	24.646
308.92	25.708
309.29	23.687
309.65	24.650
310.02	23.872
310.38	25.796
310.75	25.792
311.12	25.404
311.48	25.133
311.85	25.550
312.22	23.523
312.58	24.522
312.95	25.720
313.31	25.259
313.68	26.492
314.05	24.592
314.41	26.907
314.78	25.876
315.14	27.955
315.51	26.812
315.87	25.922
316.24	28.109
316.61	27.461
316.97	28.571
317.34	27.148
317.70	27.820
318.07	27.596
318.43	29.020
318.80	29.640
319.16	29.980
319.53	28.015
319.89	29.331
320.26	29.251
320.62	29.589
320.99	29.541
321.35	31.244
321.72	33.126
322.08	30.614
322.45	31.574
322.81	30.550
323.18	31.403
323.54	30.888
323.91	31.938
324.27	32.227
324.64	32.584
325.00	32.026
325.37	35.354
325.73	33.998
326.10	34.423
326.46	35.336
326.83	34.558
327.19	34.350
327.56	35.187
327.92	36.004
328.29	36.161
328.65	36.887
329.01	36.029
329.38	36.037
329.74	35.222
330.11	35.959
330.47	34.601
330.84	37.212
331.20	38.308
331.56	36.389
331.93	37.260
332.29	37.580
332.66	37.647
333.02	37.546
333.38	36.297
333.75	38.278
334.11	37.959
334.48	37.806
334.84	37.363
335.20	38.152
335.57	38.350
335.93	37.398
336.29	38.029
336.66	36.966
337.02	37.918
337.38	36.667
337.75	37.545
338.11	36.610
338.47	37.682
338.84	37.153
339.20	37.477
339.56	36.514
339.93	37.243
340.29	37.523
340.65	38.172
341.02	36.879
341.38	36.637
341.74	36.307
342.11	35.442
342.47	36.922
342.83	37.543
343.20	37.108
343.56	37.652
343.92	36.492
344.28	37.319
344.65	36.528
345.01	36.128
345.37	36.249
345.73	35.900
346.10	36.842
346.46	37.090
346.82	36.007
347.19	34.830
347.55	36.591
347.91	36.893
348.27	34.762
348.63	36.542
349.00	36.013
349.36	35.578
349.72	36.733
350.08	36.393
350.45	35.754
350.81	34.967
351.17	34.202
351.53	36.653
351.89	33.443
352.26	33.920
352.62	35.806
352.98	35.181
353.34	34.622
353.70	35.599
354.07	35.000
354.43	33.387
354.79	34.765
355.15	34.921
355.51	35.680
355.87	34.628
356.24	33.768
356.60	34.034
356.96	34.444
357.32	34.505
357.68	34.480
358.04	35.622
358.40	34.084
358.77	34.928
359.13	33.707
359.49	32.897
359.85	33.931
360.21	33.812
360.57	33.359
360.93	32.526
361.29	32.855
361.66	34.718
362.02	34.621
362.38	34.044
362.74	33.989
363.10	34.086
363.46	34.099
363.82	34.185
364.18	33.137
364.54	34.118
364.90	33.405
365.26	33.333
365.62	34.891
365.98	34.164
366.35	34.377
366.71	33.925
367.07	34.470
367.43	33.501
367.79	33.569
368.15	33.597
368.51	33.795
368.87	33.525
369.23	34.079
369.59	34.038
369.95	34.311
370.31	34.610
370.67	33.209
371.03	33.757
371.39	34.719
371.75	35.604
372.11	34.023
372.47	34.911
372.83	34.918
373.19	33.381
373.55	33.791
373.91	34.629
374.27	34.231
374.63	34.745
374.99	33.262
375.35	34.471
375.71	34.336
376.07	33.919
376.42	33.401
376.78	34.631
377.14	34.597
377.50	34.263
377.86	34.270
378.22	34.525
378.58	34.808
378.94	33.963
379.30	33.687
379.66	34.671
380.02	33.599
380.38	33.719
380.74	33.932
381.09	34.172
381.45	34.679
381.81	34.115
382.17	34.518
382.53	35.041
382.89	35.217
383.25	35.221
383.61	35.000
383.97	34.032
384.32	34.146
384.68	34.799
385.04	34.191
385.40	34.785
385.76	36.415
386.12	35.188
386.48	35.057
386.83	34.876
387.19	34.005
387.55	35.822
387.91	34.169
388.27	35.775
388.62	36.690
388.98	34.438
389.34	34.603
389.70	36.420
390.06	33.795
390.42	34.845
390.77	34.663
391.13	34.868
391.49	34.347
391.85	34.893
392.20	33.019
392.56	34.965
392.92	34.586
393.28	35.142
393.64	35.135
393.99	35.486
394.35	35.168
394.71	34.547
395.07	33.438
395.42	34.062
395.78	35.244
396.14	34.237
396.50	35.257
396.85	34.707
397.21	34.524
397.57	35.361
397.92	34.871
398.28	36.034
398.64	33.313
399.00	33.634
399.35	33.352
399.71	33.774
400.07	34.220
400.42	34.455
400.78	35.089
401.14	34.422
401.49	34.247
401.85	34.613
402.21	32.470
402.57	33.562
402.92	33.124
403.28	34.148
403.63	33.922
403.99	32.207
404.35	34.291
404.70	32.857
405.06	34.313
405.42	33.872
405.77	32.016
406.13	31.956
406.49	33.037
406.84	32.579
407.20	32.751
407.55	32.840
407.91	33.289
408.27	32.760
408.62	32.738
408.98	33.025
409.34	33.333
409.69	31.977
410.05	32.389
410.40	32.840
410.76	32.811
411.11	32.750
411.47	33.399
411.83	31.890
412.18	30.952
412.54	32.459
412.89	31.466
413.25	32.070
413.60	32.547
413.96	31.902
414.31	32.378
414.67	32.393
415.03	32.490
415.38	31.723
415.74	33.094
416.09	32.593
416.45	31.263
416.80	30.932
417.16	33.218
417.51	32.911
417.87	32.725
418.22	31.865
418.58	31.304
418.93	32.100
419.29	31.626
419.64	31.432
420.00	32.179
420.35	32.179
420.71	31.774
421.06	30.878
421.42	32.091
421.77	32.428
422.12	31.442
422.48	32.972
422.83	31.265
423.19	31.716
423.54	31.746
423.90	32.332
424.25	32.664
424.61	32.497
424.96	32.288
425.31	33.449
425.67	32.277
426.02	32.627
426.38	33.187
426.73	33.475
427.09	33.418
427.44	32.706
427.79	32.764
428.15	32.828
428.50	33.253
428.85	32.125
429.21	32.371
429.56	32.830
429.92	30.919
430.27	32.581
430.62	32.305
430.98	32.909
431.33	33.123
431.68	31.293
432.04	32.532
432.39	32.230
432.74	31.810
433.10	32.414
433.45	32.437
433.80	31.863
434.16	32.133
434.51	32.204
434.86	32.869
435.22	33.595
435.57	32.002
435.92	33.234
436.28	31.485
436.63	32.116
436.98	32.271
437.34	32.728
437.69	32.141
438.04	31.852
438.39	31.765
438.75	32.787
439.10	32.654
439.45	31.710
439.81	32.355
440.16	32.601
440.51	33.194
440.86	34.079
441.22	31.731
441.57	32.174
441.92	33.526
442.27	34.424
442.63	33.298
442.98	31.878
443.33	31.274
443.68	31.777
444.03	33.184
444.39	32.563
444.74	33.222
445.09	32.906
445.44	33.105
445.79	34.451
446.15	33.150
446.50	31.836
446.85	32.997
447.20	31.908
447.55	33.371
447.91	32.544
448.26	32.897
448.61	33.045
448.96	32.587
449.31	32.254
449.66	32.346
450.02	32.915
450.37	33.017
450.72	33.620
451.07	34.114
451.42	33.583
451.77	32.851
452.12	32.177
452.47	33.677
452.83	32.332
453.18	32.258
453.53	33.375
453.88	32.483
454.23	33.805
454.58	33.816
454.93	33.312
455.28	31.175
455.63	33.292
455.98	33.193
456.34	33.333
456.69	33.482
457.04	33.963
457.39	32.928
457.74	32.588
458.09	31.725
458.44	32.475
458.79	31.821
459.14	33.467
459.49	32.478
459.84	32.769
460.19	32.403
460.54	33.557
460.89	32.955
461.24	32.857
461.59	32.423
461.94	32.642
462.29	32.931
462.64	33.555
462.99	33.988
463.34	32.197
463.69	31.725
464.04	32.567
464.39	31.959
464.74	32.025
465.09	32.502
465.44	32.602
465.79	31.689
466.14	32.098
466.49	32.260
466.84	33.135
467.19	31.665
467.54	32.056
467.89	32.660
468.24	31.691
468.59	33.524
468.94	32.635
469.29	34.426
469.64	33.766
469.99	32.936
470.34	31.331
470.68	32.438
471.03	33.121
471.38	32.668
471.73	33.263
472.08	32.157
472.43	32.349
472.78	32.419
473.13	33.537
473.48	32.117
473.83	32.316
474.17	33.225
474.52	33.184
474.87	33.273
475.22	33.069
475.57	32.693
475.92	33.516
476.27	32.654
476.61	32.928
476.96	32.515
477.31	32.288
477.66	31.461
478.01	32.622
478.36	32.026
478.70	33.061
479.05	31.593
479.40	32.379
479.75	31.595
480.10	32.412
480.45	31.450
480.79	33.082
481.14	33.145
481.49	31.626
481.84	32.384
482.19	31.805
482.53	31.655
482.88	31.360
483.23	31.766
483.58	32.358
483.92	31.365
484.27	31.677
484.62	32.317
484.97	31.799
485.31	31.250
485.66	29.957
486.01	29.385
486.36	29.194
486.70	29.532
487.05	30.489
487.40	30.481
487.75	30.282
488.09	30.315
488.44	30.880
488.79	31.341
489.13	31.450
489.48	31.466
489.83	31.659
490.17	32.270
490.52	31.824
490.87	32.254
491.22	32.617
491.56	32.306
491.91	31.883
492.26	33.301
492.60	31.622
492.95	32.858
493.30	31.314
493.64	32.318
493.99	31.594
494.34	31.845
494.68	31.333
495.03	31.582
495.37	31.600
495.72	32.812
496.07	32.049
496.41	32.311
496.76	31.506
497.11	31.532
497.45	31.695
497.80	32.392
498.14	31.396
498.49	32.605
498.84	31.986
499.18	32.380
499.53	31.597
499.87	31.128
500.22	31.454
500.56	32.779
500.91	32.129
501.26	31.290
501.60	31.284
501.95	32.508
502.29	32.155
502.64	31.660
502.98	32.560
503.33	31.700
503.67	30.843
504.02	32.014
504.36	32.657
504.71	31.616
505.06	31.958
505.40	30.558
505.75	31.856
506.09	31.221
506.44	32.238
506.78	32.551
507.13	32.472
507.47	30.966
507.82	31.197
508.16	30.851
508.51	32.109
508.85	31.188
509.19	31.559
509.54	31.367
509.88	30.475
510.23	31.899
510.57	32.015
510.92	30.597
511.26	32.133
511.61	31.738
511.95	31.178
512.30	31.596
512.64	31.219
512.98	32.117
513.33	31.281
513.67	31.950
514.02	33.352
514.36	31.886
514.70	33.275
515.05	33.549
515.39	31.228
515.74	33.293
516.08	31.919
516.42	33.098
516.77	33.528
517.11	32.938
517.46	32.496
517.80	32.658
518.14	32.211
518.49	31.911
518.83	32.503
519.17	31.837
519.52	32.031
519.86	31.393
520.20	31.652
520.55	32.145
520.89	33.124
521.23	32.489
521.58	32.240
521.92	32.308
522.26	33.832
522.61	32.078
522.95	33.510
523.29	32.020
523.64	32.846
523.98	33.895
524.32	31.959
524.66	33.099
525.01	33.506
525.35	31.756
525.69	32.054
526.04	31.217
526.38	34.241
526.72	31.328
527.06	32.166
527.41	31.530
527.75	31.367
528.09	32.558
528.43	32.208
528.78	32.013
529.12	32.323
529.46	32.164
529.80	31.666
530.15	32.739
530.49	32.256
530.83	32.148
531.17	31.699
531.51	33.926
531.86	32.631
532.20	31.594
532.54	32.267
532.88	32.170
533.22	31.653
533.57	30.996
533.91	31.462
534.25	31.706
534.59	31.110
534.93	31.278
535.27	30.901
535.62	31.108
535.96	31.050
536.30	31.596
536.64	31.702
536.98	31.359
537.32	32.504
537.66	31.767
538.01	30.699
538.35	30.860
538.69	31.425
539.03	30.349
539.37	31.427
539.71	31.357
540.05	31.772
540.39	32.548
540.73	31.311
541.07	30.732
541.42	30.511
541.76	31.727
542.10	31.521
542.44	30.368
542.78	29.594
543.12	30.701
543.46	32.058
543.80	30.881
544.14	29.372
544.48	30.713
544.82	30.690
545.16	32.377
545.50	30.641
545.84	31.516
546.18	31.915
546.52	30.497
546.86	31.560
547.20	32.046
547.54	30.318
547.88	31.182
548.22	29.257
548.56	30.079
548.90	30.997
549.24	30.096
549.58	30.889
549.92	30.736
550.26	31.429
550.60	31.450
550.94	30.844
551.28	29.444
551.62	31.154
551.96	31.504
552.30	29.898
552.64	30.254
552.98	29.887
553.32	30.100
553.66	29.608
554.00	31.022
554.34	30.576
554.68	29.794
555.02	31.250
555.36	31.114
555.69	30.476
556.03	30.407
556.37	28.968
556.71	30.830
557.05	31.394
557.39	30.706
557.73	31.109
558.07	30.166
558.41	30.092
558.75	31.099
559.08	30.102
559.42	30.476
559.76	31.225
560.10	29.664
560.44	30.007
560.78	31.119
561.12	30.395
561.45	30.358
561.79	29.902
562.13	30.092
562.47	30.432
562.81	30.115
563.15	29.478
563.48	29.844
563.82	29.513
564.16	30.292
564.50	29.324
564.84	30.054
565.17	28.638
565.51	30.123
565.85	30.041
566.19	29.377
566.52	29.826
566.86	29.499
567.20	28.331
567.54	29.258
567.88	29.643
568.21	28.733
568.55	27.880
568.89	28.696
569.23	28.214
569.56	27.758
569.90	27.852
570.24	27.279
570.57	26.727
570.91	26.629
571.25	26.044
571.59	25.724
571.92	25.422
572.26	26.147
572.60	25.674
572.93	25.604
573.27	25.455
573.61	26.163
573.95	26.051
574.28	25.636
574.62	24.816
574.96	24.807
575.29	25.063
575.63	24.462
575.97	24.668
576.30	25.246
576.64	24.662
576.98	25.560
577.31	24.502
577.65	25.229
577.98	24.873
578.32	24.296
578.66	24.135
578.99	24.403
579.33	24.532
579.67	24.603
580.00	24.785
580.34	24.950
580.67	24.481
581.01	24.520
581.35	24.139
581.68	24.444
582.02	23.894
582.35	23.937
582.69	24.367
583.02	24.012
583.36	24.769
583.70	25.623
584.03	25.410
584.37	26.143
584.70	25.522
585.04	23.912
585.37	24.177
585.71	24.735
586.04	24.584
586.38	24.246
586.72	24.648
587.05	25.303
587.39	25.328
587.72	25.123
588.06	24.855
588.39	25.178
588.73	25.336
589.06	25.603
589.40	25.544
589.73	25.593
590.07	25.906
590.40	25.813
590.73	25.824
591.07	25.615
591.40	26.492
591.74	26.154
592.07	26.438
592.41	26.148
592.74	26.006
593.08	25.463
593.41	25.107
593.75	24.959
594.08	25.197
594.41	25.000
594.75	25.305
595.08	26.107
595.42	25.911
595.75	25.986
596.09	25.841
596.42	26.623
596.75	26.021
597.09	26.560
597.42	25.474
597.75	25.744
598.09	25.577
598.42	24.413
598.76	24.196
599.09	25.641
599.42	25.009
599.76	24.944
600.09	25.113
600.42	25.095
600.76	25.632
601.09	25.725
601.42	24.599
601.76	25.724
602.09	25.206
602.42	25.274
602.76	25.552
603.09	25.997
603.42	26.756
603.76	25.806
604.09	24.706
604.42	25.381
604.76	25.990
605.09	25.366
605.42	25.327
605.75	25.525
606.09	25.096
606.42	24.562
606.75	25.584
607.09	25.143
607.42	24.590
607.75	25.222
608.08	24.978
608.42	25.354
608.75	25.976
609.08	25.810
609.41	25.990
609.75	25.806
610.08	25.711
610.41	25.217
610.74	26.036
611.07	26.150
611.41	25.843
611.74	26.279
612.07	25.589
612.40	26.805
612.73	26.554
613.07	26.097
613.40	26.368
613.73	26.581
614.06	26.656
614.39	26.904
614.72	25.042
615.06	25.754
615.39	26.092
615.72	25.673
616.05	25.531
616.38	25.527
616.71	26.911
617.05	26.065
617.38	26.524
617.71	26.730
618.04	27.175
618.37	26.671
618.70	27.195
619.03	27.986
619.36	26.700
619.69	28.279
620.03	27.977
620.36	27.110
620.69	27.123
621.02	27.752
621.35	28.382
621.68	28.231
622.01	27.750
622.34	27.055
622.67	27.050
623.00	27.335
623.33	27.363
623.66	27.823
623.99	27.307
624.32	28.213
624.65	26.767
624.99	28.066
625.32	27.142
625.65	28.987
625.98	27.639
626.31	27.515
626.64	27.643
626.97	28.185
627.30	28.021
627.63	28.250
627.96	28.482
628.29	28.862
628.62	29.695
628.95	28.758
629.28	29.536
629.61	28.315
629.94	29.717
630.26	27.767
630.59	29.657
630.92	29.231
631.25	28.718
631.58	29.075
631.91	27.961
632.24	28.211
632.57	30.795
632.90	30.130
633.23	29.882
633.56	30.353
