SpectraSuite Data File
++++++++++++++++++++++++++++++++++++
Date: Fri May 15 20:43:40 PDT 2015
User: schluterlab
Dark Spectrum Present: Yes
Reference Spectrum Present: Yes
Number of Sampled Component Spectra: 1
Spectrometers: USB2E3373
Integration Time (usec): 3000 (USB2E3373)
Spectra Averaged: 3 (USB2E3373)
Boxcar Smoothing: 0 (USB2E3373)
Correct for Electrical Dark: No (USB2E3373)
Strobe/Lamp Enabled: No (USB2E3373)
Correct for Detector Non-linearity: No (USB2E3373)
Correct for Stray Light: No (USB2E3373)
Number of Pixels in Processed Spectrum: 2048
>>>>>Begin Processed Spectral Data<<<<<
178.53	0.000
178.91	0.000
179.29	112.500
179.67	-200.000
180.04	85.714
180.42	75.000
180.80	-1700.000
181.18	133.333
181.56	650.000
181.94	250.000
182.31	800.000
182.69	-120.000
183.07	-133.333
183.45	-140.000
183.83	250.000
184.20	-36.364
184.58	88.889
184.96	150.000
185.34	-66.667
185.72	-300.000
186.09	69.231
186.47	-900.000
186.85	183.333
187.23	111.111
187.61	-0.000
187.98	-33.333
188.36	100.000
188.74	-333.333
189.12	23.529
189.49	5.556
189.87	0.000
190.25	0.000
190.63	-100.000
191.00	-100.000
191.38	-5.263
191.76	350.000
192.14	250.000
192.51	-250.000
192.89	22.222
193.27	0.000
193.65	216.667
194.02	172.727
194.40	-10.000
194.78	-200.000
195.15	8.333
195.53	-100.000
195.91	200.000
196.29	-275.000
196.66	107.692
197.04	157.143
197.42	-44.444
197.79	-333.333
198.17	-92.308
198.55	1600.000
198.92	-566.667
199.30	-600.000
199.68	-180.000
200.05	-100.000
200.43	0.000
200.81	-66.667
201.18	100.000
201.56	1700.000
201.94	50.000
202.31	33.333
202.69	-180.000
203.07	100.000
203.44	0.000
203.82	0.000
204.19	-28.571
204.57	-266.667
204.95	125.000
205.32	20.000
205.70	28.571
206.08	150.000
206.45	244.444
206.83	92.857
207.20	-85.714
207.58	200.000
207.96	-266.667
208.33	-70.000
208.71	0.000
209.08	-133.333
209.46	-1300.000
209.84	-280.000
210.21	-800.000
210.59	-57.143
210.96	-33.333
211.34	-75.000
211.71	86.667
212.09	-114.286
212.46	-1200.000
212.84	0.000
213.22	80.000
213.59	-200.000
213.97	-38.462
214.34	0.000
214.72	-50.000
215.09	350.000
215.47	-15.385
215.84	18.182
216.22	-33.333
216.59	-25.000
216.97	-50.000
217.34	50.000
217.72	-160.000
218.09	-162.500
218.47	112.500
218.84	-200.000
219.22	-122.222
219.59	-220.000
219.97	200.000
220.34	175.000
220.72	-85.714
221.09	-150.000
221.47	-100.000
221.84	-750.000
222.22	-1100.000
222.59	-18.182
222.97	-33.333
223.34	-233.333
223.72	-71.429
224.09	28.571
224.46	0.000
224.84	100.000
225.21	-10.000
225.59	6.667
225.96	100.000
226.34	350.000
226.71	-171.429
227.08	-100.000
227.46	-212.500
227.83	-750.000
228.21	77.778
228.58	-63.636
228.95	25.000
229.33	70.000
229.70	-43.750
230.08	-125.000
230.45	-185.714
230.82	-28.571
231.20	-40.000
231.57	50.000
231.95	-142.857
232.32	-120.000
232.69	14.286
233.07	-200.000
233.44	-160.000
233.81	-90.000
234.19	33.333
234.56	0.000
234.93	350.000
235.31	-125.000
235.68	-240.000
236.05	-15.385
236.43	-20.000
236.80	23.529
237.17	0.000
237.55	-50.000
237.92	-48.148
238.29	5.556
238.67	16.667
239.04	0.000
239.41	-17.073
239.79	-6.667
240.16	12.195
240.53	21.053
240.91	0.000
241.28	23.810
241.65	14.286
242.02	26.027
242.40	26.667
242.77	16.949
243.14	10.606
243.51	21.250
243.89	12.644
244.26	8.046
244.63	13.095
245.00	19.588
245.38	23.711
245.75	12.360
246.12	14.655
246.49	18.182
246.87	25.000
247.24	10.084
247.61	6.140
247.98	13.008
248.36	18.125
248.73	12.500
249.10	16.234
249.47	20.253
249.84	18.301
250.22	20.588
250.59	19.608
250.96	19.718
251.33	20.349
251.70	25.882
252.08	19.797
252.45	12.871
252.82	22.111
253.19	21.659
253.56	16.355
253.94	19.820
254.31	23.913
254.68	19.737
255.05	22.441
255.42	25.328
255.79	19.305
256.16	19.066
256.54	22.388
256.91	17.871
257.28	17.844
257.65	13.483
258.02	19.149
258.39	25.926
258.76	21.245
259.14	18.937
259.51	18.770
259.88	16.495
260.25	21.895
260.62	23.264
260.99	19.661
261.36	16.096
261.73	18.987
262.10	20.973
262.47	19.632
262.85	19.122
263.22	18.769
263.59	19.315
263.96	15.528
264.33	21.515
264.70	19.345
265.07	19.048
265.44	22.380
265.81	18.362
266.18	19.945
266.55	20.051
266.92	19.689
267.29	21.410
267.66	18.926
268.03	20.157
268.40	16.971
268.77	22.995
269.14	20.863
269.51	20.051
269.88	19.950
270.25	18.112
270.62	18.780
270.99	20.205
271.36	17.115
271.73	19.953
272.10	22.384
272.47	17.967
272.84	21.782
273.21	21.578
273.58	18.072
273.95	21.281
274.32	18.707
274.69	16.968
275.06	19.643
275.43	16.780
275.80	16.998
276.17	16.322
276.54	18.415
276.91	20.175
277.28	17.467
277.65	17.975
278.02	20.426
278.39	19.694
278.76	19.287
279.13	18.465
279.50	21.008
279.87	23.758
280.23	16.129
280.60	20.078
280.97	19.596
281.34	18.077
281.71	21.971
282.08	14.928
282.45	17.025
282.82	18.533
283.19	20.503
283.56	18.304
283.92	17.457
284.29	18.269
284.66	17.829
285.03	18.861
285.40	19.282
285.77	17.750
286.14	15.523
286.51	21.587
286.87	17.002
287.24	17.311
287.61	17.637
287.98	20.000
288.35	18.198
288.72	17.338
289.08	19.097
289.45	18.981
289.82	18.182
290.19	17.235
290.56	15.780
290.93	19.024
291.29	16.333
291.66	15.748
292.03	16.587
292.40	17.258
292.77	14.992
293.13	13.799
293.50	14.719
293.87	17.099
294.24	16.229
294.60	13.860
294.97	19.345
295.34	14.571
295.71	16.095
296.08	14.051
296.44	13.229
296.81	14.861
297.18	15.217
297.55	15.989
297.91	15.890
298.28	16.887
298.65	14.383
299.02	12.938
299.38	13.406
299.75	12.552
300.12	14.267
300.48	14.493
300.85	13.815
301.22	12.727
301.59	13.289
301.95	16.203
302.32	14.786
302.69	14.303
303.05	13.366
303.42	13.574
303.79	14.136
304.15	13.859
304.52	12.010
304.89	13.450
305.25	12.954
305.62	11.902
305.99	11.462
306.35	12.023
306.72	10.686
307.09	13.797
307.45	12.629
307.82	13.657
308.19	13.008
308.55	13.086
308.92	13.617
309.29	11.285
309.65	11.195
310.02	12.871
310.38	13.282
310.75	13.989
311.12	12.702
311.48	12.301
311.85	12.461
312.22	10.759
312.58	12.314
312.95	11.633
313.31	11.180
313.68	10.785
314.05	10.714
314.41	12.371
314.78	10.722
315.14	12.950
315.51	13.665
315.87	12.500
316.24	12.235
316.61	13.091
316.97	11.806
317.34	11.914
317.70	13.098
318.07	12.692
318.43	11.569
318.80	11.932
319.16	12.402
319.53	11.966
319.89	11.516
320.26	12.247
320.62	13.240
320.99	12.422
321.35	12.127
321.72	12.357
322.08	13.092
322.45	11.066
322.81	12.770
323.18	11.678
323.54	12.259
323.91	12.561
324.27	12.988
324.64	12.266
325.00	12.956
325.37	14.417
325.73	11.151
326.10	13.624
326.46	12.825
326.83	13.298
327.19	11.944
327.56	12.772
327.92	12.852
328.29	11.875
328.65	12.075
329.01	11.673
329.38	14.562
329.74	12.937
330.11	13.068
330.47	11.410
330.84	11.250
331.20	13.688
331.56	10.833
331.93	13.151
332.29	13.107
332.66	11.855
333.02	12.268
333.38	12.741
333.75	12.546
334.11	12.086
334.48	13.418
334.84	14.194
335.20	13.083
335.57	12.693
335.93	13.189
336.29	14.180
336.66	12.716
337.02	11.245
337.38	12.222
337.75	12.727
338.11	13.345
338.47	13.321
338.84	12.477
339.20	12.157
339.56	11.651
339.93	13.518
340.29	14.220
340.65	13.351
341.02	13.209
341.38	12.478
341.74	11.307
342.11	12.652
342.47	12.011
342.83	13.581
343.20	12.282
343.56	12.174
343.92	12.135
344.28	13.664
344.65	11.658
345.01	12.014
345.37	12.532
345.73	13.975
346.10	12.770
346.46	13.373
346.82	12.111
347.19	11.638
347.55	12.698
347.91	12.702
348.27	12.530
348.63	12.606
349.00	11.731
349.36	11.721
349.72	12.935
350.08	12.869
350.45	12.530
350.81	11.379
351.17	11.645
351.53	12.816
351.89	11.891
352.26	12.160
352.62	11.855
352.98	12.691
353.34	12.560
353.70	12.540
354.07	12.581
354.43	12.250
354.79	11.561
355.15	12.778
355.51	11.867
355.87	11.570
356.24	11.582
356.60	11.156
356.96	12.143
357.32	11.901
357.68	12.041
358.04	11.712
358.40	11.817
358.77	12.919
359.13	11.209
359.49	10.709
359.85	11.856
360.21	10.845
360.57	11.859
360.93	13.162
361.29	12.009
361.66	12.539
362.02	11.591
362.38	12.186
362.74	11.052
363.10	12.039
363.46	11.268
363.82	12.847
364.18	12.399
364.54	10.588
364.90	11.900
365.26	10.480
365.62	13.212
365.98	11.730
366.35	12.527
366.71	11.973
367.07	12.337
367.43	10.424
367.79	10.742
368.15	12.419
368.51	10.852
368.87	12.204
369.23	11.480
369.59	10.933
369.95	11.584
370.31	10.983
370.67	11.940
371.03	11.650
371.39	11.087
371.75	11.355
372.11	11.056
372.47	11.834
372.83	11.285
373.19	12.411
373.55	10.975
373.91	12.311
374.27	11.977
374.63	11.127
374.99	10.993
375.35	11.212
375.71	11.608
376.07	11.166
376.42	10.952
376.78	12.148
377.14	11.510
377.50	10.823
377.86	10.576
378.22	11.423
378.58	10.897
378.94	11.027
379.30	11.104
379.66	11.473
380.02	11.833
380.38	10.408
380.74	11.909
381.09	11.595
381.45	11.254
381.81	10.981
382.17	11.612
382.53	10.806
382.89	12.178
383.25	11.574
383.61	11.585
383.97	11.111
384.32	11.007
384.68	11.703
385.04	11.213
385.40	10.454
385.76	10.881
386.12	11.449
386.48	11.686
386.83	10.970
387.19	11.844
387.55	10.853
387.91	11.125
388.27	10.440
388.62	10.761
388.98	11.295
389.34	11.618
389.70	11.063
390.06	10.950
390.42	11.010
390.77	10.857
391.13	10.908
391.49	11.320
391.85	10.591
392.20	11.174
392.56	11.570
392.92	11.979
393.28	11.321
393.64	11.051
393.99	11.411
394.35	10.753
394.71	11.558
395.07	11.314
395.42	11.293
395.78	10.814
396.14	11.034
396.50	11.414
396.85	11.011
397.21	10.965
397.57	11.285
397.92	10.965
398.28	11.149
398.64	10.783
399.00	11.738
399.35	10.271
399.71	11.028
400.07	11.427
400.42	12.056
400.78	12.186
401.14	11.434
401.49	10.780
401.85	11.761
402.21	11.024
402.57	11.250
402.92	10.540
403.28	11.967
403.63	10.467
403.99	11.033
404.35	11.430
404.70	10.833
405.06	11.340
405.42	11.374
405.77	11.098
406.13	10.768
406.49	11.841
406.84	11.247
407.20	11.499
407.55	11.333
407.91	11.230
408.27	10.516
408.62	11.815
408.98	10.783
409.34	11.400
409.69	10.917
410.05	11.268
410.40	11.790
410.76	11.821
411.11	10.875
411.47	11.440
411.83	10.923
412.18	11.712
412.54	10.799
412.89	11.576
413.25	12.154
413.60	11.491
413.96	10.920
414.31	11.768
414.67	11.289
415.03	11.385
415.38	11.815
415.74	11.857
416.09	12.018
416.45	11.546
416.80	11.566
417.16	11.326
417.51	11.659
417.87	11.473
418.22	12.111
418.58	11.706
418.93	11.975
419.29	10.371
419.64	11.406
420.00	12.720
420.35	11.463
420.71	12.272
421.06	11.357
421.42	11.839
421.77	11.445
422.12	11.691
422.48	12.128
422.83	11.253
423.19	11.738
423.54	11.640
423.90	11.190
424.25	12.400
424.61	12.362
424.96	11.556
425.31	12.421
425.67	11.502
426.02	12.073
426.38	10.708
426.73	12.409
427.09	12.722
427.44	12.176
427.79	13.082
428.15	11.772
428.50	11.750
428.85	11.671
429.21	11.715
429.56	12.237
429.92	12.686
430.27	12.130
430.62	10.978
430.98	12.049
431.33	12.566
431.68	11.826
432.04	12.297
432.39	12.037
432.74	11.064
433.10	12.989
433.45	12.246
433.80	11.724
434.16	11.579
434.51	12.097
434.86	12.427
435.22	12.563
435.57	11.915
435.92	11.617
436.28	11.628
436.63	11.694
436.98	11.530
437.34	11.978
437.69	12.701
438.04	11.909
438.39	11.607
438.75	12.204
439.10	12.564
439.45	12.538
439.81	11.682
440.16	11.817
440.51	12.478
440.86	13.172
441.22	12.557
441.57	12.804
441.92	13.221
442.27	12.639
442.63	13.865
442.98	12.464
443.33	12.131
443.68	12.891
444.03	13.214
444.39	12.691
444.74	12.821
445.09	12.695
445.44	12.536
445.79	13.925
446.15	12.665
446.50	12.479
446.85	12.380
447.20	13.191
447.55	13.058
447.91	12.690
448.26	13.261
448.61	13.644
448.96	13.368
449.31	12.717
449.66	12.544
450.02	13.234
450.37	12.567
450.72	12.829
451.07	13.165
451.42	13.608
451.77	12.839
452.12	11.543
452.47	12.556
452.83	13.722
453.18	12.840
453.53	13.717
453.88	12.629
454.23	12.600
454.58	12.972
454.93	13.531
455.28	11.556
455.63	13.453
455.98	13.410
456.34	13.218
456.69	13.659
457.04	13.359
457.39	13.791
457.74	12.878
458.09	13.184
458.44	13.107
458.79	12.941
459.14	13.043
459.49	13.851
459.84	13.424
460.19	13.896
460.54	13.631
460.89	13.693
461.24	13.478
461.59	14.252
461.94	13.774
462.29	13.631
462.64	14.352
462.99	12.796
463.34	12.656
463.69	12.999
464.04	13.983
464.39	13.038
464.74	13.804
465.09	13.600
465.44	13.503
465.79	13.719
466.14	13.341
466.49	12.881
466.84	13.742
467.19	14.018
467.54	13.474
467.89	13.392
468.24	13.139
468.59	14.730
468.94	13.270
469.29	13.311
469.64	13.807
469.99	13.385
470.34	12.969
470.68	13.796
471.03	14.084
471.38	13.766
471.73	13.515
472.08	14.450
472.43	12.483
472.78	12.680
473.13	14.422
473.48	13.811
473.83	13.263
474.17	13.536
474.52	13.465
474.87	14.242
475.22	13.240
475.57	12.931
475.92	13.549
476.27	14.203
476.61	13.889
476.96	13.107
477.31	14.170
477.66	13.820
478.01	14.374
478.36	13.617
478.70	13.757
479.05	14.121
479.40	14.149
479.75	13.973
480.10	13.262
480.45	13.250
480.79	14.250
481.14	14.242
481.49	12.759
481.84	13.658
482.19	13.377
482.53	13.909
482.88	14.224
483.23	13.100
483.58	14.057
483.92	13.359
484.27	13.446
484.62	13.312
484.97	13.640
485.31	13.512
485.66	13.541
486.01	13.730
486.36	13.036
486.70	13.730
487.05	13.692
487.40	13.754
487.75	13.268
488.09	13.659
488.44	13.480
488.79	13.411
489.13	14.062
489.48	13.681
489.83	13.587
490.17	13.079
490.52	13.764
490.87	13.744
491.22	13.706
491.56	14.089
491.91	13.862
492.26	13.466
492.60	14.395
492.95	14.265
493.30	13.434
493.64	14.194
493.99	13.865
494.34	13.738
494.68	13.524
495.03	13.625
495.37	14.181
495.72	13.932
496.07	14.732
496.41	13.396
496.76	14.095
497.11	12.995
497.45	14.511
497.80	14.733
498.14	14.506
498.49	14.068
498.84	13.922
499.18	14.157
499.53	14.038
499.87	13.473
500.22	13.699
500.56	13.918
500.91	14.408
501.26	13.742
501.60	13.379
501.95	13.731
502.29	13.898
502.64	14.624
502.98	14.258
503.33	14.073
503.67	13.976
504.02	14.027
504.36	14.052
504.71	14.141
505.06	14.847
505.40	13.706
505.75	13.660
506.09	14.394
506.44	15.092
506.78	15.255
507.13	14.374
507.47	13.943
507.82	13.675
508.16	13.788
508.51	13.903
508.85	14.286
509.19	13.837
509.54	14.263
509.88	14.024
510.23	13.986
510.57	13.950
510.92	12.420
511.26	13.584
511.61	13.861
511.95	14.849
512.30	13.969
512.64	14.580
512.98	13.756
513.33	15.165
513.67	14.440
514.02	14.188
514.36	15.086
514.70	14.802
515.05	14.160
515.39	13.932
515.74	14.311
516.08	14.226
516.42	15.312
516.77	14.921
517.11	14.184
517.46	14.602
517.80	14.779
518.14	14.207
518.49	14.543
518.83	14.277
519.17	14.433
519.52	14.269
519.86	13.445
520.20	14.642
520.55	14.447
520.89	15.182
521.23	15.009
521.58	14.953
521.92	15.256
522.26	14.964
522.61	14.610
522.95	14.106
523.29	14.740
523.64	15.121
523.98	14.647
524.32	14.755
524.66	14.341
525.01	14.351
525.35	16.267
525.69	14.209
526.04	14.352
526.38	16.472
526.72	14.323
527.06	14.851
527.41	15.633
527.75	14.008
528.09	14.884
528.43	16.678
528.78	14.983
529.12	14.839
529.46	14.815
529.80	15.389
530.15	15.842
530.49	14.747
530.83	14.364
531.17	15.245
531.51	15.595
531.86	14.548
532.20	15.310
532.54	14.704
532.88	16.085
533.22	15.927
533.57	15.662
533.91	15.731
534.25	15.951
534.59	15.459
534.93	14.789
535.27	14.277
535.62	15.295
535.96	15.525
536.30	15.963
536.64	15.644
536.98	15.122
537.32	15.576
537.66	16.550
538.01	15.455
538.35	14.979
538.69	15.379
539.03	14.149
539.37	15.612
539.71	15.542
540.05	14.936
540.39	16.551
540.73	16.109
541.07	15.677
541.42	15.255
541.76	15.898
542.10	15.348
542.44	15.080
542.78	15.072
543.12	14.835
543.46	15.647
543.80	15.059
544.14	15.020
544.48	15.590
544.82	15.379
545.16	16.257
545.50	15.554
545.84	17.068
546.18	16.809
546.52	16.006
546.86	14.234
547.20	16.309
547.54	14.770
547.88	15.693
548.22	15.385
548.56	15.963
548.90	16.779
549.24	16.185
549.58	15.585
549.92	15.511
550.26	15.678
550.60	15.688
550.94	16.804
551.28	16.461
551.62	16.308
551.96	15.865
552.30	16.447
552.64	15.726
552.98	17.300
553.32	15.478
553.66	14.877
554.00	16.277
554.34	16.174
554.68	16.224
555.02	16.146
555.36	16.156
555.69	15.385
556.03	14.989
556.37	15.730
556.71	16.462
557.05	16.406
557.39	15.465
557.73	15.817
558.07	17.119
558.41	16.309
558.75	15.900
559.08	15.918
559.42	15.873
559.76	14.972
560.10	15.443
560.44	15.711
560.78	15.734
561.12	15.797
561.45	16.093
561.79	16.527
562.13	15.756
562.47	14.964
562.81	15.994
563.15	16.573
563.48	16.549
563.82	15.786
564.16	15.599
564.50	14.865
564.84	15.863
565.17	15.292
565.51	16.325
565.85	15.706
566.19	16.048
566.52	16.421
566.86	16.452
567.20	16.252
567.54	16.423
567.88	16.227
568.21	17.477
568.55	15.489
568.89	16.068
569.23	15.936
569.56	16.156
569.90	16.281
570.24	15.780
570.57	15.891
570.91	16.382
571.25	15.784
571.59	15.042
571.92	15.556
572.26	15.489
572.60	15.659
572.93	15.689
573.27	15.392
573.61	15.722
573.95	15.893
574.28	15.360
574.62	15.637
574.96	15.807
575.29	15.295
575.63	15.315
575.97	14.936
576.30	15.097
576.64	14.887
576.98	15.624
577.31	15.262
577.65	15.803
577.98	15.807
578.32	15.370
578.66	15.323
578.99	15.466
579.33	15.388
579.67	15.493
580.00	15.620
580.34	15.547
580.67	15.282
581.01	15.490
581.35	15.891
581.68	15.647
582.02	15.177
582.35	15.877
582.69	15.388
583.02	15.723
583.36	15.874
583.70	15.758
584.03	15.791
584.37	16.036
584.70	15.440
585.04	15.466
585.37	15.135
585.71	15.354
586.04	15.784
586.38	15.604
586.72	15.954
587.05	16.031
587.39	15.711
587.72	16.102
588.06	15.887
588.39	16.292
588.73	16.117
589.06	16.667
589.40	16.315
589.73	15.845
590.07	16.201
590.40	16.641
590.73	16.351
591.07	15.988
591.40	16.162
591.74	16.652
592.07	17.022
592.41	17.359
592.74	16.328
593.08	15.892
593.41	16.376
593.75	15.931
594.08	15.414
594.41	16.121
594.75	15.573
595.08	15.891
595.42	16.047
595.75	15.997
596.09	15.676
596.42	16.288
596.75	16.563
597.09	15.535
597.42	16.079
597.75	15.758
598.09	15.980
598.42	15.975
598.76	15.873
599.09	15.946
599.42	16.218
599.76	16.516
600.09	16.516
600.42	16.338
600.76	15.305
601.09	15.534
601.42	15.746
601.76	15.760
602.09	16.130
602.42	15.838
602.76	15.832
603.09	16.030
603.42	17.433
603.76	15.645
604.09	15.107
604.42	16.582
604.76	17.000
605.09	15.996
605.42	16.343
605.75	15.499
606.09	16.051
606.42	16.138
606.75	16.450
607.09	16.440
607.42	15.906
607.75	15.986
608.08	16.083
608.42	16.080
608.75	16.578
609.08	16.592
609.41	16.396
609.75	16.280
610.08	16.425
610.41	16.232
610.74	15.846
611.07	16.382
611.41	16.295
611.74	16.898
612.07	16.649
612.40	16.521
612.73	16.723
613.07	15.467
613.40	17.013
613.73	15.781
614.06	16.528
614.39	15.905
614.72	16.695
615.06	16.704
615.39	15.884
615.72	16.146
616.05	16.480
616.38	15.613
616.71	16.330
617.05	16.492
617.38	16.593
617.71	15.660
618.04	16.635
618.37	17.276
618.70	16.568
619.03	18.125
619.36	16.425
619.69	17.286
620.03	18.700
620.36	16.524
620.69	17.059
621.02	17.049
621.35	16.763
621.68	16.412
622.01	16.917
622.34	17.797
622.67	16.956
623.00	16.922
623.33	16.463
623.66	17.651
623.99	16.490
624.32	17.871
624.65	16.090
624.99	16.554
625.32	16.679
625.65	16.496
625.98	17.164
626.31	15.877
626.64	16.898
626.97	17.016
627.30	17.163
627.63	16.984
627.96	17.251
628.29	17.114
628.62	18.191
628.95	17.535
629.28	17.742
629.61	16.052
629.94	17.595
630.26	17.490
630.59	18.210
630.92	17.128
631.25	17.744
631.58	17.181
631.91	15.132
632.24	17.661
632.57	17.955
632.90	17.319
633.23	18.235
