SpectraSuite Data File
++++++++++++++++++++++++++++++++++++
Date: Fri May 15 20:51:09 PDT 2015
User: schluterlab
Dark Spectrum Present: Yes
Reference Spectrum Present: Yes
Number of Sampled Component Spectra: 1
Spectrometers: USB2E3373
Integration Time (usec): 3000 (USB2E3373)
Spectra Averaged: 3 (USB2E3373)
Boxcar Smoothing: 0 (USB2E3373)
Correct for Electrical Dark: No (USB2E3373)
Strobe/Lamp Enabled: No (USB2E3373)
Correct for Detector Non-linearity: No (USB2E3373)
Correct for Stray Light: No (USB2E3373)
Number of Pixels in Processed Spectrum: 2048
>>>>>Begin Processed Spectral Data<<<<<
178.53	0.000
178.91	0.000
179.29	75.000
179.67	-500.000
180.04	-42.857
180.42	-25.000
180.80	-600.000
181.18	100.000
181.56	200.000
181.94	-100.000
182.31	1100.000
182.69	0.000
183.07	-500.000
183.45	-140.000
183.83	216.667
184.20	-9.091
184.58	144.444
184.96	25.000
185.34	-33.333
185.72	-700.000
186.09	46.154
186.47	-700.000
186.85	133.333
187.23	177.778
187.61	-500.000
187.98	-300.000
188.36	-22.222
188.74	-66.667
189.12	-17.647
189.49	0.000
189.87	0.000
190.25	-21.429
190.63	700.000
191.00	-200.000
191.38	-31.579
191.76	300.000
192.14	75.000
192.51	50.000
192.89	-44.444
193.27	-200.000
193.65	100.000
194.02	236.364
194.40	20.000
194.78	-112.500
195.15	-8.333
195.53	-137.500
195.91	200.000
196.29	-225.000
196.66	130.769
197.04	200.000
197.42	-11.111
197.79	-333.333
198.17	-123.077
198.55	1700.000
198.92	-33.333
199.30	-800.000
199.68	-300.000
200.05	-200.000
200.43	0.000
200.81	-300.000
201.18	-333.333
201.56	300.000
201.94	-300.000
202.31	300.000
202.69	-340.000
203.07	175.000
203.44	-500.000
203.82	0.000
204.19	-78.571
204.57	-533.333
204.95	212.500
205.32	-10.000
205.70	42.857
206.08	-225.000
206.45	188.889
206.83	64.286
207.20	-128.571
207.58	900.000
207.96	-200.000
208.33	-150.000
208.71	-325.000
209.08	-266.667
209.46	-1500.000
209.84	-20.000
210.21	-1200.000
210.59	-42.857
210.96	16.667
211.34	-175.000
211.71	0.000
212.09	-42.857
212.46	-1800.000
212.84	0.000
213.22	30.000
213.59	600.000
213.97	-7.692
214.34	-63.636
214.72	-16.667
215.09	375.000
215.47	-15.385
215.84	-127.273
216.22	-600.000
216.59	25.000
216.97	150.000
217.34	-400.000
217.72	-80.000
218.09	-50.000
218.47	237.500
218.84	100.000
219.22	-111.111
219.59	-80.000
219.97	66.667
220.34	350.000
220.72	-200.000
221.09	-100.000
221.47	-300.000
221.84	-1100.000
222.22	-1100.000
222.59	-90.909
222.97	8.333
223.34	-33.333
223.72	0.000
224.09	14.286
224.46	-21.429
224.84	600.000
225.21	-20.000
225.59	-13.333
225.96	-350.000
226.34	250.000
226.71	-57.143
227.08	-66.667
227.46	-62.500
227.83	-400.000
228.21	-11.111
228.58	-45.455
228.95	-125.000
229.33	220.000
229.70	-31.250
230.08	-125.000
230.45	42.857
230.82	-42.857
231.20	-26.667
231.57	-21.429
231.95	42.857
232.32	-70.000
232.69	57.143
233.07	-233.333
233.44	-80.000
233.81	-150.000
234.19	-111.111
234.56	-29.412
234.93	700.000
235.31	-275.000
235.68	-320.000
236.05	-138.462
236.43	-75.000
236.80	-117.647
237.17	-6.250
237.55	-15.000
237.92	-3.704
238.29	-11.111
238.67	-6.667
239.04	-2.941
239.41	-17.073
239.79	-46.667
240.16	-29.268
240.53	-13.158
240.91	-23.913
241.28	-12.698
241.65	-1.786
242.02	10.959
242.40	-11.667
242.77	-1.695
243.14	-13.636
243.51	-13.750
243.89	12.644
244.26	5.747
244.63	-14.286
245.00	-8.247
245.38	1.031
245.75	-4.494
246.12	-6.034
246.49	-2.479
246.87	-6.731
247.24	-10.924
247.61	-17.544
247.98	-11.382
248.36	1.250
248.73	3.947
249.10	-0.649
249.47	1.899
249.84	0.654
250.22	2.353
250.59	-0.654
250.96	7.512
251.33	-2.907
251.70	0.000
252.08	0.000
252.45	0.495
252.82	-1.508
253.19	0.000
253.56	-3.738
253.94	3.604
254.31	1.304
254.68	1.754
255.05	1.575
255.42	0.437
255.79	1.544
256.16	-1.167
256.54	2.239
256.91	3.042
257.28	0.000
257.65	3.371
258.02	-1.064
258.39	3.030
258.76	3.297
259.14	4.651
259.51	0.647
259.88	0.000
260.25	1.307
260.62	2.431
260.99	-3.051
261.36	-2.055
261.73	1.266
262.10	2.128
262.47	-2.761
262.85	-2.821
263.22	4.000
263.59	2.181
263.96	0.932
264.33	0.606
264.70	-0.298
265.07	-2.381
265.44	4.533
265.81	2.542
266.18	4.372
266.55	4.884
266.92	0.000
267.29	0.000
267.66	0.256
268.03	2.618
268.40	-0.261
268.77	4.011
269.14	1.679
269.51	1.799
269.88	0.249
270.25	-0.255
270.62	0.488
270.99	2.302
271.36	-0.489
271.73	1.174
272.10	0.730
272.47	3.783
272.84	1.485
273.21	4.408
273.58	3.855
273.95	2.059
274.32	1.617
274.69	-0.679
275.06	2.455
275.43	0.227
275.80	2.208
276.17	0.690
276.54	1.927
276.91	2.632
277.28	0.218
277.65	2.479
278.02	1.915
278.39	1.751
278.76	0.419
279.13	-1.245
279.50	6.303
279.87	2.376
280.23	-0.860
280.60	3.119
280.97	1.616
281.34	1.154
281.71	3.080
282.08	-1.022
282.45	2.740
282.82	1.158
283.19	2.901
283.56	-0.193
283.92	0.000
284.29	0.577
284.66	1.357
285.03	1.965
285.40	0.567
285.77	1.406
286.14	3.069
286.51	2.030
286.87	1.097
287.24	1.105
287.61	2.469
287.98	4.211
288.35	2.080
288.72	1.576
289.08	-0.694
289.45	1.406
289.82	2.098
290.19	0.683
290.56	-0.515
290.93	0.337
291.29	1.541
291.66	2.835
292.03	1.914
292.40	1.129
292.77	0.797
293.13	0.000
293.50	-0.607
293.87	2.901
294.24	2.318
294.60	2.385
294.97	2.976
295.34	0.153
295.71	2.385
296.08	-0.149
296.44	-0.996
296.81	2.500
297.18	3.043
297.55	4.201
297.91	2.877
298.28	3.562
298.65	1.628
299.02	0.539
299.38	0.137
299.75	1.655
300.12	1.047
300.48	1.581
300.85	1.648
301.22	1.558
301.59	0.789
301.95	2.532
302.32	3.372
302.69	1.990
303.05	0.990
303.42	2.989
303.79	2.453
304.15	1.553
304.52	1.189
304.89	1.287
305.25	1.453
305.62	1.750
305.99	0.819
306.35	1.503
306.72	1.125
307.09	0.228
307.45	1.148
307.82	0.810
308.19	1.858
308.55	1.091
308.92	2.832
309.29	0.894
309.65	2.368
310.02	0.660
310.38	2.086
310.75	1.093
311.12	0.969
311.48	1.485
311.85	1.361
312.22	0.633
312.58	1.168
312.95	2.134
313.31	0.207
313.68	-0.209
314.05	1.531
314.41	1.753
314.78	0.928
315.14	2.158
315.51	1.760
315.87	0.717
316.24	2.326
316.61	3.346
316.97	2.579
317.34	1.270
317.70	1.912
318.07	1.923
318.43	1.961
318.80	2.652
319.16	1.562
319.53	2.849
319.89	1.181
320.26	2.126
320.62	2.708
320.99	1.148
321.35	1.747
321.72	2.804
322.08	2.920
322.45	1.523
322.81	2.554
323.18	1.963
323.54	1.448
323.91	2.240
324.27	1.855
324.64	2.996
325.00	3.193
325.37	3.581
325.73	1.813
326.10	1.907
326.46	3.049
326.83	3.500
327.19	2.528
327.56	2.954
327.92	3.169
328.29	2.768
328.65	2.358
329.01	2.941
329.38	3.594
329.74	2.172
330.11	3.058
330.47	1.206
330.84	2.115
331.20	3.327
331.56	2.593
331.93	2.557
332.29	4.491
332.66	3.801
333.02	2.881
333.38	3.300
333.75	3.114
334.11	2.328
334.48	2.901
334.84	3.571
335.20	2.745
335.57	2.720
335.93	3.162
336.29	2.670
336.66	2.725
337.02	2.602
337.38	1.944
337.75	3.182
338.11	4.238
338.47	2.920
338.84	2.957
339.20	3.382
339.56	2.752
339.93	4.297
340.29	4.128
340.65	3.405
341.02	2.305
341.38	3.274
341.74	1.943
342.11	2.166
342.47	2.313
342.83	4.239
343.20	2.352
343.56	3.304
343.92	2.657
344.28	4.526
344.65	2.591
345.01	2.420
345.37	3.532
345.73	3.264
346.10	3.624
346.46	3.448
346.82	2.537
347.19	2.078
347.55	3.676
347.91	3.883
348.27	3.395
348.63	3.237
349.00	2.871
349.36	2.577
349.72	3.234
350.08	2.623
350.45	3.751
350.81	2.575
351.17	1.710
351.53	3.102
351.89	1.486
352.26	2.080
352.62	2.258
352.98	2.490
353.34	2.899
353.70	3.479
354.07	2.500
354.43	2.642
354.79	3.055
355.15	3.175
355.51	3.797
355.87	3.155
356.24	1.713
356.60	2.749
356.96	3.016
357.32	2.636
357.68	2.737
358.04	1.858
358.40	2.733
358.77	2.632
359.13	2.962
359.49	1.772
359.85	3.198
360.21	2.392
360.57	3.366
360.93	3.782
361.29	2.266
361.66	2.743
362.02	2.803
362.38	2.589
362.74	2.271
363.10	3.085
363.46	3.262
363.82	3.456
364.18	2.731
364.54	2.353
364.90	3.226
365.26	2.620
365.62	4.380
365.98	2.126
366.35	3.860
366.71	2.217
367.07	2.975
367.43	2.660
367.79	3.392
368.15	3.015
368.51	2.768
368.87	2.010
369.23	2.455
369.59	3.134
369.95	2.713
370.31	1.662
370.67	2.687
371.03	1.792
371.39	1.459
371.75	3.077
372.11	2.425
372.47	2.071
372.83	2.484
373.19	3.210
373.55	2.888
373.91	1.944
374.27	2.339
374.63	2.943
374.99	2.553
375.35	2.786
375.71	2.098
376.07	1.966
376.42	2.381
376.78	2.282
377.14	2.505
377.50	2.789
377.86	2.945
378.22	2.361
378.58	2.500
378.94	2.457
379.30	2.558
379.66	3.197
380.02	1.839
380.38	1.217
380.74	2.095
381.09	3.252
381.45	2.813
381.81	2.221
382.17	2.665
382.53	2.561
382.89	2.134
383.25	2.427
383.61	3.415
383.97	2.095
384.32	2.752
384.68	2.539
385.04	1.593
385.40	1.493
385.76	2.704
386.12	2.458
386.48	3.001
386.83	2.410
387.19	2.137
387.55	2.698
387.91	1.834
388.27	2.381
388.62	2.580
388.98	1.903
389.34	2.374
389.70	3.108
390.06	1.825
390.42	2.267
390.77	2.420
391.13	1.513
391.49	2.199
391.85	1.624
392.20	1.883
392.56	2.098
392.92	2.995
393.28	1.887
393.64	3.003
393.99	3.260
394.35	1.075
394.71	2.746
395.07	2.766
395.42	1.700
395.78	2.150
396.14	2.081
396.50	2.600
396.85	2.576
397.21	1.942
397.57	1.755
397.92	2.217
398.28	2.356
398.64	1.687
399.00	3.160
399.35	1.129
399.71	2.987
400.07	2.842
400.42	2.509
400.78	2.878
401.14	2.420
401.49	2.740
401.85	1.889
402.21	2.289
402.57	2.313
402.92	2.133
403.28	2.130
403.63	1.828
403.99	2.551
404.35	2.623
404.70	1.845
405.06	2.938
405.42	2.175
405.77	1.743
406.13	2.037
406.49	1.658
406.84	2.812
407.20	2.348
407.55	0.901
407.91	1.471
408.27	2.486
408.62	2.892
408.98	2.341
409.34	2.540
409.69	2.972
410.05	2.833
410.40	3.086
410.76	2.714
411.11	2.437
411.47	3.222
411.83	1.946
412.18	1.544
412.54	2.372
412.89	1.847
413.25	2.828
413.60	2.298
413.96	2.086
414.31	2.866
414.67	1.860
415.03	2.130
415.38	2.872
415.74	3.062
416.09	3.135
416.45	2.903
416.80	2.313
417.16	2.279
417.51	2.265
417.87	2.542
418.22	2.267
418.58	2.140
418.93	3.072
419.29	1.088
419.64	1.685
420.00	3.023
420.35	2.507
420.71	3.281
421.06	2.824
421.42	2.945
421.77	2.081
422.12	1.873
422.48	2.707
422.83	2.668
423.19	3.217
423.54	1.999
423.90	2.061
424.25	2.009
424.61	2.264
424.96	2.149
425.31	2.831
425.67	2.700
426.02	2.886
426.38	2.630
426.73	3.027
427.09	2.848
427.44	2.706
427.79	2.121
428.15	3.155
428.50	2.120
428.85	2.150
429.21	3.282
429.56	2.426
429.92	2.876
430.27	2.757
430.62	1.516
430.98	2.548
431.33	2.787
431.68	2.407
432.04	2.404
432.39	1.997
432.74	2.405
433.10	3.333
433.45	2.449
433.80	2.554
434.16	1.773
434.51	2.849
434.86	2.439
435.22	2.356
435.57	2.994
435.92	2.874
436.28	2.206
436.63	2.852
436.98	2.723
437.34	2.662
437.69	2.147
438.04	2.507
438.39	1.833
438.75	2.125
439.10	2.434
439.45	2.921
439.81	2.630
440.16	1.960
440.51	2.925
440.86	3.988
441.22	2.658
441.57	3.035
441.92	1.941
442.27	2.494
442.63	3.266
442.98	2.585
443.33	2.894
443.68	1.963
444.03	2.881
444.39	3.099
444.74	2.843
445.09	3.229
445.44	2.393
445.79	3.507
446.15	2.698
446.50	2.607
446.85	2.657
447.20	2.294
447.55	3.571
447.91	2.369
448.26	3.358
448.61	2.879
448.96	3.155
449.31	2.023
449.66	2.671
450.02	2.624
450.37	2.727
450.72	2.749
451.07	2.975
451.42	2.809
451.77	3.255
452.12	2.273
452.47	2.125
452.83	2.827
453.18	2.910
453.53	2.655
453.88	3.157
454.23	2.643
454.58	3.463
454.93	3.415
455.28	1.841
455.63	3.162
455.98	3.307
456.34	3.001
456.69	2.986
457.04	3.529
457.39	2.430
457.74	2.479
458.09	2.119
458.44	1.814
458.79	2.521
459.14	2.860
459.49	4.060
459.84	3.723
460.19	2.913
460.54	2.995
460.89	2.500
461.24	3.354
461.59	3.622
461.94	2.516
462.29	3.378
462.64	3.389
462.99	2.979
463.34	2.921
463.69	2.831
464.04	3.874
464.39	3.275
464.74	3.190
465.09	2.558
465.44	2.424
465.79	2.494
466.14	3.763
466.49	2.473
466.84	3.569
467.19	3.880
467.54	3.129
467.89	2.527
468.24	3.345
468.59	3.873
468.94	3.302
469.29	2.689
469.64	3.759
469.99	4.064
470.34	2.389
470.68	2.834
471.03	3.680
471.38	2.710
471.73	3.571
472.08	2.714
472.43	2.886
472.78	1.714
473.13	3.333
473.48	2.736
473.83	3.113
474.17	2.785
474.52	1.914
474.87	3.333
475.22	2.563
475.57	3.162
475.92	3.346
476.27	3.900
476.61	3.356
476.96	2.789
477.31	3.840
477.66	3.034
478.01	2.527
478.36	2.669
478.70	2.991
479.05	3.297
479.40	2.862
479.75	3.285
480.10	3.635
480.45	2.950
480.79	3.474
481.14	3.176
481.49	3.005
481.84	2.461
482.19	2.806
482.53	3.165
482.88	3.532
483.23	2.783
483.58	2.642
483.92	2.565
484.27	3.464
484.62	3.227
484.97	2.944
485.31	3.071
485.66	2.902
486.01	3.241
486.36	3.105
486.70	3.081
487.05	3.105
487.40	3.154
487.75	2.986
488.09	2.627
488.44	3.232
488.79	2.988
489.13	3.606
489.48	3.249
489.83	3.139
490.17	3.011
490.52	3.279
490.87	3.378
491.22	3.534
491.56	3.178
491.91	2.725
492.26	2.528
492.60	2.975
492.95	3.542
493.30	3.029
493.64	3.143
493.99	3.188
494.34	2.718
494.68	3.476
495.03	2.530
495.37	3.189
495.72	3.180
496.07	3.024
496.41	3.113
496.76	3.547
497.11	3.121
497.45	3.628
497.80	3.431
498.14	3.328
498.49	2.895
498.84	3.393
499.18	3.765
499.53	3.175
499.87	3.064
500.22	3.116
500.56	2.925
500.91	2.811
501.26	3.361
501.60	2.902
501.95	3.396
502.29	3.487
502.64	3.330
502.98	2.516
503.33	2.834
503.67	3.518
504.02	3.470
504.36	4.255
504.71	2.677
505.06	3.674
505.40	2.893
505.75	3.041
506.09	2.686
506.44	2.926
506.78	3.724
507.13	3.051
507.47	2.768
507.82	2.244
508.16	2.641
508.51	3.987
508.85	3.035
509.19	2.555
509.54	2.681
509.88	2.967
510.23	3.228
510.57	2.940
510.92	2.452
511.26	2.728
511.61	3.520
511.95	2.959
512.30	2.772
512.64	2.949
512.98	2.976
513.33	3.470
513.67	2.956
514.02	3.947
514.36	3.543
514.70	3.555
515.05	3.055
515.39	2.774
515.74	3.713
516.08	3.467
516.42	3.592
516.77	4.447
517.11	3.561
517.46	3.770
517.80	2.980
518.14	3.491
518.49	3.365
518.83	2.795
519.17	2.850
519.52	3.079
519.86	2.881
520.20	3.827
520.55	3.189
520.89	3.890
521.23	2.470
521.58	3.533
521.92	4.167
522.26	3.318
522.61	3.247
522.95	3.576
523.29	3.748
523.64	3.748
523.98	3.694
524.32	2.384
524.66	3.905
525.01	3.636
525.35	3.889
525.69	3.367
526.04	2.910
526.38	4.150
526.72	2.354
527.06	3.891
527.41	3.760
527.75	3.284
528.09	3.588
528.43	3.849
528.78	3.630
529.12	3.677
529.46	2.859
529.80	3.927
530.15	3.564
530.49	3.569
530.83	3.146
531.17	3.962
531.51	3.283
531.86	3.195
532.20	2.853
532.54	3.744
532.88	3.628
533.22	3.024
533.57	3.735
533.91	3.329
534.25	4.362
534.59	3.015
534.93	3.084
535.27	2.602
535.62	3.240
535.96	2.935
536.30	3.958
536.64	3.515
536.98	2.648
537.32	2.845
537.66	4.067
538.01	3.986
538.35	4.092
538.69	3.529
539.03	3.281
539.37	3.970
539.71	2.999
540.05	3.327
540.39	3.532
540.73	3.766
541.07	4.834
541.42	3.696
541.76	3.510
542.10	2.959
542.44	2.571
542.78	2.340
543.12	3.228
543.46	4.242
543.80	2.915
544.14	3.471
544.48	3.931
544.82	2.734
545.16	3.552
545.50	4.206
545.84	3.399
546.18	5.035
546.52	4.037
546.86	3.235
547.20	3.863
547.54	3.604
547.88	3.940
548.22	3.156
548.56	3.628
548.90	3.841
549.24	3.030
549.58	4.161
549.92	3.145
550.26	3.810
550.60	3.494
550.94	3.361
551.28	3.555
551.62	4.308
551.96	3.759
552.30	2.997
552.64	2.962
552.98	3.376
553.32	4.066
553.66	3.411
554.00	2.993
554.34	4.431
554.68	3.024
555.02	3.348
555.36	2.693
555.69	2.857
556.03	3.283
556.37	3.416
556.71	3.466
557.05	3.803
557.39	2.677
557.73	3.823
558.07	4.374
558.41	3.752
558.75	2.884
559.08	3.861
559.42	3.175
559.76	2.482
560.10	2.829
560.44	2.755
560.78	3.357
561.12	3.103
561.45	3.233
561.79	3.782
562.13	3.620
562.47	2.878
562.81	3.963
563.15	4.231
563.48	4.173
563.82	3.775
564.16	2.925
564.50	3.581
564.84	3.481
565.17	3.219
565.51	3.893
565.85	3.841
566.19	3.780
566.52	3.686
566.86	4.177
567.20	3.051
567.54	2.859
567.88	3.163
568.21	4.412
568.55	3.098
568.89	3.234
569.23	3.563
569.56	3.152
569.90	3.654
570.24	3.498
570.57	3.236
570.91	4.008
571.25	3.288
571.59	3.301
571.92	3.378
572.26	3.019
572.60	3.535
572.93	3.357
573.27	3.166
573.61	3.252
573.95	3.277
574.28	3.310
574.62	3.331
574.96	3.391
575.29	3.104
575.63	3.343
575.97	3.226
576.30	3.149
576.64	2.887
576.98	3.475
577.31	3.195
577.65	3.234
577.98	3.254
578.32	3.316
578.66	3.159
578.99	3.159
579.33	3.223
579.67	3.280
580.00	3.316
580.34	3.259
580.67	3.239
581.01	3.170
581.35	3.359
581.68	3.444
582.02	2.936
582.35	3.305
582.69	3.487
583.02	3.162
583.36	3.194
583.70	3.401
584.03	3.420
584.37	3.501
584.70	3.489
585.04	3.394
585.37	3.268
585.71	3.061
586.04	3.253
586.38	2.907
586.72	3.529
587.05	3.553
587.39	3.495
587.72	3.472
588.06	2.989
588.39	3.361
588.73	3.266
589.06	3.523
589.40	3.491
589.73	3.760
590.07	3.776
590.40	3.367
590.73	3.336
591.07	3.053
591.40	2.939
591.74	3.575
592.07	4.035
592.41	4.019
592.74	3.266
593.08	3.178
593.41	3.196
593.75	3.042
594.08	3.261
594.41	3.712
594.75	3.397
595.08	3.065
595.42	3.055
595.75	3.042
596.09	3.636
596.42	2.935
596.75	3.597
597.09	3.235
597.42	3.704
597.75	2.978
598.09	3.259
598.42	3.159
598.76	2.917
599.09	3.405
599.42	3.751
599.76	3.273
600.09	3.205
600.42	2.881
600.76	3.120
601.09	3.053
601.42	3.212
601.76	3.216
602.09	3.053
602.42	3.791
602.76	3.438
603.09	3.571
603.42	3.512
603.76	3.266
604.09	2.997
604.42	3.723
604.76	3.783
605.09	3.656
605.42	3.792
605.75	3.590
606.09	3.142
606.42	3.003
606.75	3.939
607.09	4.088
607.42	3.766
607.75	3.330
608.08	3.459
608.42	3.472
608.75	3.277
609.08	3.239
609.41	3.198
609.75	3.478
610.08	3.195
610.41	3.140
610.74	3.218
611.07	3.411
611.41	3.425
611.74	3.571
612.07	3.587
612.40	3.118
612.73	3.051
613.07	2.700
613.40	4.322
613.73	3.134
614.06	4.285
614.39	3.723
614.72	3.417
615.06	3.520
615.39	3.493
615.72	3.445
616.05	4.413
616.38	2.507
616.71	2.752
617.05	3.644
617.38	4.085
617.71	3.270
618.04	3.429
618.37	3.909
618.70	3.564
619.03	4.028
619.36	2.967
619.69	3.639
620.03	4.237
620.36	3.290
620.69	3.498
621.02	3.287
621.35	3.734
621.68	2.636
622.01	3.833
622.34	3.591
622.67	4.101
623.00	3.905
623.33	3.430
623.66	3.815
623.99	4.841
624.32	5.095
624.65	2.331
624.99	4.515
625.32	3.260
625.65	4.006
625.98	3.384
626.31	2.909
626.64	4.419
626.97	4.101
627.30	3.503
627.63	4.159
627.96	3.414
628.29	4.440
628.62	4.818
628.95	3.106
629.28	3.226
629.61	4.187
629.94	3.812
630.26	3.360
630.59	3.642
630.92	4.308
631.25	2.974
631.58	2.974
631.91	2.741
632.24	1.835
632.57	4.205
632.90	2.254
633.23	4.353
633.56	1.889
633.89	2.713
634.22	3.086
634.55	2.795
634.88	4.853
635.20	2.564
635.53	3.333
635.86	2.731
636.19	3.752
636.52	4.209
636.85	2.730
637.18	3.774
637.51	2.893
637.83	2.365
638.16	3.820
638.49	2.997
638.82	5.263
639.15	2.714
639.48	3.164
639.81	2.929
640.13	2.742
640.46	3.207
640.79	2.946
641.12	2.511
641.45	3.754
641.77	2.815
642.10	4.423
642.43	4.341
642.76	5.116
643.09	3.069
643.41	3.398
643.74	1.812
644.07	5.419
644.40	4.561
644.73	4.378
645.05	3.020
645.38	4.762
645.71	3.723
646.04	3.950
646.36	4.255
646.69	6.115
647.02	3.970
647.35	2.612
647.67	3.473
648.00	3.918
648.33	3.925
648.66	4.746
648.98	2.513
649.31	1.157
649.64	2.826
649.96	1.621
650.29	4.770
650.62	5.812
650.94	3.333
651.27	3.538
651.60	4.144
651.92	3.322
652.25	3.375
652.58	4.167
652.90	3.945
653.23	4.538
653.56	2.200
653.88	4.467
654.21	1.401
654.54	2.207
654.86	4.584
655.19	2.924
655.52	4.025
655.84	3.018
656.17	3.253
656.49	4.408
656.82	4.796
657.15	3.706
