SpectraSuite Data File
++++++++++++++++++++++++++++++++++++
Date: Fri May 15 21:09:47 PDT 2015
User: schluterlab
Dark Spectrum Present: Yes
Reference Spectrum Present: Yes
Number of Sampled Component Spectra: 1
Spectrometers: USB2E3373
Integration Time (usec): 3000 (USB2E3373)
Spectra Averaged: 3 (USB2E3373)
Boxcar Smoothing: 0 (USB2E3373)
Correct for Electrical Dark: No (USB2E3373)
Strobe/Lamp Enabled: No (USB2E3373)
Correct for Detector Non-linearity: No (USB2E3373)
Correct for Stray Light: No (USB2E3373)
Number of Pixels in Processed Spectrum: 2048
>>>>>Begin Processed Spectral Data<<<<<
178.53	0.000
178.91	0.000
179.29	112.500
179.67	-200.000
180.04	157.143
180.42	75.000
180.80	-200.000
181.18	100.000
181.56	650.000
181.94	-150.000
182.31	600.000
182.69	0.000
183.07	-166.667
183.45	-100.000
183.83	116.667
184.20	-63.636
184.58	55.556
184.96	75.000
185.34	133.333
185.72	-250.000
186.09	23.077
186.47	0.000
186.85	283.333
187.23	133.333
187.61	800.000
187.98	-300.000
188.36	77.778
188.74	66.667
189.12	64.706
189.49	11.111
189.87	0.000
190.25	71.429
190.63	350.000
191.00	-433.333
191.38	-68.421
191.76	-100.000
192.14	150.000
192.51	50.000
192.89	-33.333
193.27	-200.000
193.65	233.333
194.02	145.455
194.40	10.000
194.78	-125.000
195.15	8.333
195.53	-112.500
195.91	350.000
196.29	-100.000
196.66	130.769
197.04	142.857
197.42	-77.778
197.79	-233.333
198.17	-115.385
198.55	1600.000
198.92	-500.000
199.30	-1200.000
199.68	-80.000
200.05	-466.667
200.43	0.000
200.81	-300.000
201.18	-100.000
201.56	700.000
201.94	-800.000
202.31	266.667
202.69	-220.000
203.07	150.000
203.44	900.000
203.82	0.000
204.19	-35.714
204.57	-300.000
204.95	25.000
205.32	10.000
205.70	14.286
206.08	0.000
206.45	88.889
206.83	71.429
207.20	-185.714
207.58	200.000
207.96	-366.667
208.33	-80.000
208.71	125.000
209.08	-83.333
209.46	-1200.000
209.84	-220.000
210.21	-200.000
210.59	71.429
210.96	-50.000
211.34	50.000
211.71	-20.000
212.09	-242.857
212.46	-2000.000
212.84	0.000
213.22	30.000
213.59	200.000
213.97	-7.692
214.34	9.091
214.72	-133.333
215.09	525.000
215.47	-30.769
215.84	-90.909
216.22	-466.667
216.59	-100.000
216.97	-50.000
217.34	-175.000
217.72	-200.000
218.09	75.000
218.47	312.500
218.84	-900.000
219.22	-33.333
219.59	-220.000
219.97	466.667
220.34	200.000
220.72	100.000
221.09	-100.000
221.47	-450.000
221.84	-750.000
222.22	-700.000
222.59	27.273
222.97	8.333
223.34	-266.667
223.72	-57.143
224.09	14.286
224.46	32.143
224.84	300.000
225.21	40.000
225.59	-26.667
225.96	-200.000
226.34	350.000
226.71	-71.429
227.08	-183.333
227.46	0.000
227.83	-500.000
228.21	-44.444
228.58	-18.182
228.95	12.500
229.33	70.000
229.70	37.500
230.08	-62.500
230.45	-71.429
230.82	-157.143
231.20	-46.667
231.57	14.286
231.95	-142.857
232.32	-160.000
232.69	14.286
233.07	-133.333
233.44	-160.000
233.81	-70.000
234.19	22.222
234.56	-23.529
234.93	450.000
235.31	-50.000
235.68	-160.000
236.05	-38.462
236.43	-50.000
236.80	-58.824
237.17	9.375
237.55	-50.000
237.92	-14.815
238.29	8.333
238.67	16.667
239.04	11.765
239.41	-7.317
239.79	-40.000
240.16	4.878
240.53	-5.263
240.91	-8.696
241.28	20.635
241.65	8.929
242.02	15.068
242.40	-3.333
242.77	23.729
243.14	-12.121
243.51	-2.500
243.89	9.195
244.26	11.494
244.63	-3.571
245.00	12.371
245.38	3.093
245.75	6.742
246.12	8.621
246.49	10.744
246.87	14.423
247.24	7.563
247.61	6.140
247.98	4.065
248.36	11.875
248.73	3.289
249.10	0.649
249.47	4.430
249.84	9.804
250.22	7.059
250.59	6.536
250.96	15.023
251.33	11.628
251.70	15.294
252.08	11.675
252.45	12.871
252.82	9.045
253.19	11.060
253.56	10.280
253.94	14.865
254.31	13.913
254.68	10.526
255.05	8.661
255.42	10.917
255.79	11.969
256.16	14.008
256.54	10.075
256.91	11.407
257.28	7.807
257.65	5.618
258.02	8.511
258.39	9.428
258.76	13.919
259.14	14.950
259.51	10.032
259.88	7.904
260.25	10.784
260.62	12.153
260.99	7.797
261.36	6.507
261.73	8.544
262.10	12.462
262.47	9.816
262.85	10.658
263.22	9.231
263.59	14.642
263.96	11.180
264.33	10.303
264.70	9.524
265.07	10.714
265.44	13.598
265.81	12.429
266.18	12.295
266.55	12.339
266.92	13.731
267.29	13.577
267.66	13.043
268.03	10.995
268.40	9.661
268.77	13.102
269.14	12.950
269.51	13.368
269.88	11.222
270.25	9.184
270.62	11.220
270.99	9.974
271.36	9.535
271.73	12.676
272.10	13.382
272.47	10.875
272.84	9.158
273.21	14.153
273.58	13.012
273.95	9.153
274.32	8.545
274.69	11.538
275.06	13.170
275.43	9.297
275.80	12.583
276.17	9.195
276.54	9.422
276.91	11.842
277.28	10.917
277.65	11.777
278.02	12.128
278.39	12.035
278.76	11.530
279.13	6.432
279.50	11.134
279.87	13.823
280.23	7.097
280.60	13.840
280.97	11.313
281.34	8.846
281.71	13.552
282.08	10.225
282.45	9.980
282.82	11.197
283.19	10.058
283.56	9.441
283.92	8.349
284.29	7.692
284.66	11.240
285.03	11.198
285.40	11.720
285.77	7.557
286.14	9.567
286.51	9.963
286.87	10.786
287.24	11.786
287.61	10.053
287.98	11.228
288.35	8.839
288.72	11.033
289.08	9.549
289.45	11.248
289.82	11.364
290.19	11.263
290.56	10.463
290.93	8.418
291.29	6.934
291.66	9.291
292.03	9.091
292.40	10.323
292.77	9.410
293.13	9.416
293.50	9.712
293.87	11.756
294.24	9.119
294.60	8.644
294.97	10.417
295.34	8.589
295.71	8.048
296.08	8.819
296.44	6.970
296.81	8.194
297.18	9.130
297.55	9.756
297.91	7.534
298.28	10.158
298.65	8.548
299.02	7.412
299.38	4.925
299.75	9.103
300.12	7.853
300.48	8.300
300.85	9.252
301.22	7.922
301.59	8.158
301.95	8.354
302.32	9.987
302.69	7.090
303.05	6.931
303.42	8.593
303.79	7.243
304.15	8.005
304.52	7.491
304.89	8.070
305.25	7.869
305.62	6.418
305.99	6.433
306.35	7.630
306.72	7.199
307.09	7.754
307.45	7.807
307.82	5.787
308.19	9.524
308.55	7.743
308.92	8.497
309.29	6.592
309.65	7.966
310.02	6.931
310.38	7.464
310.75	6.995
311.12	7.427
311.48	6.999
311.85	8.796
312.22	8.228
312.58	8.705
312.95	8.111
313.31	8.696
313.68	7.539
314.05	8.776
314.41	9.278
314.78	8.969
315.14	10.072
315.51	7.971
315.87	8.811
316.24	10.920
316.61	10.236
316.97	10.119
317.34	11.426
317.70	10.707
318.07	10.288
318.43	10.980
318.80	10.701
319.16	12.109
319.53	14.055
319.89	12.598
320.26	12.955
320.62	14.744
320.99	14.718
321.35	14.286
321.72	16.407
322.08	15.509
322.45	17.563
322.81	17.092
323.18	17.076
323.54	19.595
323.91	19.085
324.27	20.801
324.64	21.348
325.00	20.803
325.37	23.049
325.73	21.759
326.10	23.706
326.46	24.664
326.83	24.409
327.19	26.155
327.56	26.325
327.92	26.496
328.29	25.982
328.65	28.208
329.01	27.390
329.38	28.018
329.74	28.706
330.11	29.657
330.47	28.942
330.84	29.615
331.20	32.224
331.56	30.648
331.93	31.781
332.29	32.356
332.66	31.674
333.02	32.714
333.38	31.897
333.75	33.700
334.11	32.319
334.48	33.454
334.84	33.425
335.20	34.767
335.57	33.001
335.93	35.050
336.29	34.438
336.66	33.969
337.02	34.294
337.38	33.889
337.75	33.182
338.11	35.347
338.47	35.219
338.84	35.397
339.20	35.283
339.56	35.321
339.93	36.347
340.29	37.798
340.65	36.290
341.02	36.702
341.38	36.726
341.74	35.954
342.11	34.922
342.47	36.388
342.83	37.457
343.20	36.934
343.56	37.739
343.92	37.201
344.28	36.379
344.65	37.133
345.01	36.733
345.37	35.997
345.73	37.992
346.10	37.791
346.46	36.754
346.82	37.316
347.19	37.240
347.55	37.176
347.91	38.511
348.27	36.702
348.63	39.353
349.00	37.654
349.36	37.656
349.72	38.972
350.08	37.213
350.45	37.749
350.81	37.209
351.17	38.436
351.53	37.551
351.89	37.077
352.26	38.640
352.62	37.984
352.98	38.233
353.34	37.359
353.70	38.350
354.07	38.710
354.43	37.790
354.79	38.811
355.15	38.810
355.51	39.320
355.87	38.754
356.24	38.662
356.60	37.510
356.96	39.762
357.32	38.738
357.68	39.719
358.04	40.145
358.40	39.550
358.77	39.713
359.13	37.950
359.49	38.598
359.85	40.562
360.21	38.836
360.57	39.786
360.93	39.486
361.29	39.653
361.66	40.596
362.02	40.606
362.38	40.213
362.74	39.516
363.10	41.159
363.46	40.326
363.82	41.247
364.18	40.295
364.54	41.250
364.90	41.505
365.26	40.175
365.62	41.752
365.98	40.543
366.35	41.224
366.71	41.537
367.07	41.727
367.43	40.618
367.79	41.131
368.15	41.350
368.51	41.588
368.87	41.565
369.23	41.516
369.59	41.545
369.95	42.742
370.31	41.329
370.67	43.209
371.03	40.851
371.39	41.357
371.75	42.051
372.11	41.298
372.47	43.121
372.83	41.945
373.19	42.725
373.55	42.455
373.91	43.053
374.27	42.381
374.63	40.991
374.99	42.340
375.35	41.295
375.71	43.077
376.07	42.135
376.42	43.265
376.78	42.282
377.14	42.383
377.50	43.227
377.86	43.307
378.22	41.863
378.58	43.526
378.94	42.533
379.30	42.857
379.66	42.947
380.02	42.918
380.38	41.570
380.74	43.507
381.09	43.988
381.45	42.569
381.81	43.122
382.17	42.957
382.53	42.598
382.89	44.256
383.25	43.497
383.61	43.902
383.97	43.302
384.32	42.527
384.68	44.025
385.04	42.096
385.40	43.124
385.76	45.094
386.12	45.213
386.48	44.253
386.83	44.388
387.19	43.956
387.55	44.793
387.91	44.071
388.27	43.162
388.62	45.249
388.98	43.339
389.34	42.786
389.70	44.438
390.06	44.368
390.42	43.523
390.77	43.296
391.13	43.506
391.49	44.567
391.85	44.704
392.20	44.068
392.56	43.229
392.92	43.453
393.28	44.222
393.64	43.243
393.99	45.893
394.35	43.770
394.71	44.253
395.07	43.180
395.42	41.591
395.78	44.104
396.14	43.758
396.50	43.310
396.85	43.593
397.21	43.421
397.57	42.696
397.92	43.080
398.28	43.333
398.64	41.386
399.00	43.284
399.35	42.889
399.71	41.700
400.07	43.168
400.42	42.840
400.78	42.988
401.14	41.379
401.49	42.228
401.85	42.535
402.21	42.711
402.57	42.625
402.92	41.154
403.28	43.546
403.63	42.749
403.99	42.028
404.35	42.473
404.70	41.190
405.06	41.951
405.42	42.014
405.77	41.139
406.13	42.026
406.49	41.445
406.84	42.176
407.20	41.421
407.55	41.339
407.91	42.246
408.27	41.173
408.62	41.477
408.98	40.665
409.34	40.582
409.69	41.021
410.05	40.456
410.40	40.556
410.76	41.435
411.11	40.250
411.47	40.828
411.83	40.615
412.18	40.798
412.54	41.323
412.89	39.532
413.25	40.193
413.60	40.807
413.96	39.448
414.31	39.573
414.67	40.603
415.03	39.414
415.38	39.687
415.74	40.651
416.09	40.039
416.45	40.581
416.80	39.128
417.16	41.091
417.51	39.440
417.87	38.657
418.22	38.536
418.58	40.401
418.93	40.000
419.29	38.284
419.64	39.080
420.00	40.239
420.35	39.940
420.71	39.550
421.06	39.595
421.42	40.204
421.77	39.075
422.12	39.274
422.48	38.441
422.83	39.037
423.19	38.939
423.54	38.036
423.90	37.809
424.25	39.036
424.61	39.780
424.96	38.792
425.31	39.573
425.67	39.143
426.02	39.458
426.38	39.699
426.73	38.075
427.09	39.620
427.44	38.882
427.79	38.480
428.15	39.502
428.50	38.280
428.85	39.496
429.21	38.823
429.56	39.137
429.92	38.983
430.27	37.744
430.62	37.480
430.98	38.217
431.33	39.222
431.68	38.514
432.04	39.128
432.39	38.391
432.74	37.643
433.10	39.080
433.45	38.889
433.80	38.189
434.16	37.784
434.51	38.656
434.86	38.037
435.22	38.306
435.57	38.553
435.92	37.305
436.28	37.627
436.63	37.935
436.98	36.964
437.34	38.234
437.69	39.058
438.04	37.892
438.39	36.836
438.75	38.919
439.10	37.917
439.45	38.284
439.81	37.064
440.16	39.014
440.51	38.866
440.86	39.033
441.22	37.896
441.57	37.969
441.92	38.090
442.27	38.027
442.63	38.223
442.98	37.967
443.33	37.952
443.68	36.870
444.03	37.953
444.39	37.678
444.74	38.517
445.09	37.751
445.44	37.094
445.79	37.390
446.15	36.619
446.50	37.216
446.85	37.726
447.20	37.278
447.55	37.779
447.91	36.830
448.26	36.995
448.61	37.881
448.96	37.980
449.31	37.861
449.66	37.224
450.02	36.737
450.37	36.811
450.72	37.171
451.07	37.152
451.42	36.267
451.77	36.347
452.12	35.227
452.47	37.347
452.83	36.101
453.18	35.737
453.53	36.346
453.88	37.098
454.23	36.632
454.58	37.972
454.93	36.662
455.28	35.683
455.63	36.082
455.98	36.981
456.34	35.888
456.69	36.213
457.04	37.429
457.39	35.541
457.74	36.397
458.09	34.079
458.44	35.284
458.79	35.126
459.14	35.355
459.49	35.701
459.84	35.533
460.19	35.619
460.54	35.941
460.89	35.455
461.24	36.087
461.59	35.392
461.94	36.226
462.29	35.344
462.64	36.013
462.99	35.613
463.34	35.049
463.69	34.556
464.04	35.291
464.39	35.294
464.74	34.540
465.09	35.371
465.44	35.488
465.79	34.524
466.14	34.721
466.49	34.330
466.84	35.574
467.19	35.044
467.54	33.653
467.89	35.123
468.24	34.367
468.59	34.984
468.94	33.841
469.29	34.820
469.64	34.450
469.99	34.898
470.34	32.901
470.68	34.899
471.03	34.749
471.38	34.879
471.73	33.543
472.08	33.514
472.43	33.826
472.78	34.544
473.13	33.946
473.48	33.420
473.83	33.935
474.17	33.549
474.52	33.312
474.87	33.030
475.22	34.045
475.57	33.371
475.92	34.174
476.27	33.353
476.61	33.449
476.96	32.348
477.31	33.856
477.66	32.697
478.01	33.015
478.36	33.170
478.70	33.279
479.05	33.462
479.40	32.750
479.75	32.690
480.10	32.821
480.45	32.700
480.79	34.240
481.14	33.145
481.49	32.857
481.84	32.819
482.19	31.525
482.53	32.854
482.88	31.408
483.23	31.766
483.58	32.075
483.92	32.091
484.27	31.039
484.62	31.197
484.97	31.177
485.31	30.997
485.66	29.876
486.01	29.621
486.36	30.195
486.70	30.523
487.05	30.780
487.40	30.662
487.75	31.014
488.09	30.686
488.44	30.571
488.79	31.341
489.13	31.691
489.48	30.996
489.83	30.583
490.17	30.292
490.52	31.132
490.87	30.449
491.22	31.901
491.56	30.171
491.91	30.019
492.26	30.287
492.60	30.470
492.95	31.185
493.30	30.386
493.64	30.992
493.99	30.870
494.34	30.194
494.68	30.524
495.03	29.830
495.37	30.471
495.72	30.793
496.07	30.829
496.41	29.528
496.76	30.309
497.11	29.623
497.45	30.453
497.80	30.222
498.14	29.260
498.49	30.422
498.84	30.289
499.18	29.618
499.53	29.365
499.87	29.475
500.22	29.525
500.56	29.652
500.91	29.669
501.26	29.659
501.60	28.726
501.95	29.597
502.29	29.492
502.64	29.633
502.98	29.255
503.33	28.818
503.67	28.964
504.02	28.886
504.36	28.600
504.71	27.929
505.06	29.139
505.40	28.782
505.75	28.814
506.09	29.448
506.44	29.415
506.78	29.082
507.13	29.266
507.47	28.407
507.82	28.152
508.16	28.051
508.51	28.699
508.85	28.310
509.19	28.632
509.54	27.936
509.88	28.857
510.23	27.918
510.57	28.113
510.92	27.186
511.26	28.478
511.61	28.493
511.95	28.329
512.30	28.437
512.64	28.715
512.98	28.355
513.33	29.155
513.67	27.970
514.02	29.119
514.36	28.571
514.70	29.079
515.05	28.085
515.39	27.804
515.74	28.862
516.08	28.273
516.42	29.093
516.77	28.672
517.11	28.071
517.46	28.366
517.80	27.950
518.14	27.618
518.49	27.644
518.83	27.582
519.17	26.925
519.52	27.590
519.86	27.851
520.20	27.886
520.55	27.580
520.89	28.231
521.23	27.359
521.58	28.265
521.92	27.692
522.26	27.196
522.61	29.026
522.95	28.742
523.29	27.255
523.64	27.382
523.98	28.645
524.32	26.997
524.66	27.657
525.01	28.701
525.35	27.544
525.69	26.128
526.04	26.587
526.38	27.951
526.72	26.553
527.06	27.173
527.41	27.309
527.75	27.413
528.09	26.445
528.43	27.346
528.78	26.403
529.12	26.968
529.46	26.511
529.80	26.346
530.15	27.921
530.49	26.061
530.83	27.497
531.17	26.394
531.51	26.607
531.86	25.901
532.20	26.305
532.54	27.434
532.88	27.447
533.22	26.882
533.57	26.081
533.91	26.371
534.25	26.758
534.59	24.824
534.93	25.739
535.27	24.365
535.62	25.664
535.96	26.223
536.30	25.660
536.64	26.533
536.98	26.272
537.32	26.600
537.66	27.139
538.01	25.594
538.35	24.688
538.69	25.233
539.03	25.017
539.37	26.649
539.71	26.244
540.05	25.594
540.39	25.900
540.73	25.802
541.07	25.967
541.42	25.806
541.76	26.222
542.10	25.258
542.44	25.504
542.78	24.157
543.12	25.000
543.46	25.243
543.80	24.011
544.14	23.899
544.48	24.850
544.82	24.812
545.16	25.546
545.50	25.300
545.84	25.496
546.18	25.319
546.52	25.379
546.86	24.227
547.20	25.107
547.54	24.099
547.88	23.981
548.22	25.049
548.56	25.264
548.90	24.191
549.24	24.036
549.58	24.401
549.92	23.731
550.26	23.663
550.60	24.907
550.94	25.019
551.28	25.348
551.62	24.462
551.96	24.135
552.30	24.488
552.64	24.612
552.98	25.105
553.32	24.465
553.66	23.657
554.00	24.380
554.34	25.111
554.68	24.263
555.02	24.628
555.36	23.186
555.69	23.443
556.03	23.483
556.37	22.847
556.71	24.477
557.05	24.981
557.39	23.866
557.73	23.988
558.07	23.228
558.41	24.119
558.75	23.928
559.08	24.665
559.42	24.048
559.76	24.019
560.10	23.547
560.44	22.934
560.78	24.266
561.12	24.048
561.45	24.666
561.79	23.950
562.13	24.060
562.47	22.878
562.81	24.280
563.15	23.625
563.48	23.197
563.82	23.404
564.16	23.538
564.50	22.770
564.84	24.699
565.17	23.139
565.51	24.249
565.85	23.594
566.19	23.077
566.52	23.123
566.86	23.458
567.20	21.856
567.54	22.506
567.88	22.086
568.21	23.416
568.55	22.174
568.89	22.279
569.23	22.340
569.56	21.410
569.90	22.330
570.24	21.102
570.57	21.600
570.91	22.029
571.25	20.947
571.59	20.866
571.92	20.770
572.26	20.290
572.60	21.271
572.93	21.148
573.27	20.721
573.61	20.316
573.95	20.781
574.28	20.524
574.62	20.392
574.96	20.244
575.29	20.217
575.63	19.772
575.97	20.358
576.30	20.242
576.64	19.894
576.98	20.592
577.31	20.521
577.65	20.459
577.98	19.949
578.32	20.083
578.66	19.600
578.99	19.958
579.33	19.510
579.67	20.086
580.00	20.203
580.34	19.876
580.67	19.436
581.01	19.500
581.35	19.401
581.68	19.819
582.02	19.471
582.35	19.703
582.69	19.517
583.02	19.269
583.36	19.754
583.70	20.223
584.03	19.683
584.37	20.327
584.70	20.110
585.04	19.352
585.37	19.926
585.71	19.329
586.04	19.465
586.38	19.392
586.72	19.971
587.05	19.786
587.39	19.849
587.72	19.738
588.06	19.485
588.39	19.937
588.73	19.841
589.06	20.059
589.40	19.876
589.73	20.336
590.07	19.977
590.40	19.698
590.73	20.717
591.07	20.483
591.40	19.991
591.74	20.090
592.07	20.547
592.41	20.583
592.74	19.275
593.08	19.560
593.41	18.715
593.75	19.169
594.08	18.572
594.41	19.833
594.75	19.198
595.08	19.485
595.42	19.507
595.75	19.715
596.09	20.055
596.42	19.678
596.75	20.204
597.09	20.729
597.42	19.919
597.75	20.568
598.09	19.375
598.42	19.224
598.76	19.434
599.09	18.990
599.42	18.833
599.76	19.074
600.09	18.703
600.42	19.674
600.76	18.796
601.09	19.008
601.42	18.762
601.76	19.015
602.09	19.637
602.42	19.587
602.76	19.100
603.09	19.103
603.42	19.147
603.76	19.435
604.09	19.360
604.42	19.374
604.76	19.226
605.09	19.059
605.42	19.278
605.75	18.870
606.09	19.193
606.42	18.557
606.75	18.874
607.09	19.736
607.42	18.432
607.75	18.295
608.08	18.733
608.42	18.593
608.75	18.892
609.08	19.283
609.41	18.832
609.75	19.204
610.08	19.021
610.41	18.744
610.74	18.284
611.07	18.191
611.41	19.305
611.74	19.723
612.07	19.111
612.40	18.873
612.73	19.379
613.07	19.854
613.40	19.420
613.73	19.138
614.06	18.753
614.39	19.628
614.72	18.263
615.06	18.939
615.39	18.614
615.72	18.407
616.05	19.218
616.38	18.575
616.71	18.777
617.05	19.704
617.38	19.233
617.71	18.994
618.04	19.111
618.37	19.672
618.70	20.066
619.03	20.625
619.36	19.609
619.69	20.167
620.03	21.110
620.36	18.813
620.69	19.415
621.02	19.495
621.35	20.581
621.68	20.153
622.01	19.750
622.34	20.032
622.67	20.032
623.00	19.832
623.33	19.512
623.66	20.045
623.99	18.684
624.32	20.913
624.65	18.496
624.99	19.639
625.32	17.817
625.65	20.424
625.98	19.500
626.31	18.121
626.64	20.971
626.97	20.506
627.30	20.053
627.63	19.237
627.96	19.227
628.29	19.519
628.62	20.157
628.95	19.739
629.28	21.169
629.61	20.439
629.94	21.896
630.26	19.763
630.59	20.916
630.92	19.897
631.25	20.513
631.58	19.714
631.91	20.066
632.24	20.986
632.57	21.364
632.90	20.047
633.23	20.471
633.56	18.892
633.89	20.592
634.22	21.111
634.55	19.822
634.88	20.307
635.20	19.744
635.53	20.267
