SpectraSuite Data File
++++++++++++++++++++++++++++++++++++
Date: Fri May 15 20:35:26 PDT 2015
User: schluterlab
Dark Spectrum Present: Yes
Reference Spectrum Present: Yes
Number of Sampled Component Spectra: 1
Spectrometers: USB2E3373
Integration Time (usec): 3000 (USB2E3373)
Spectra Averaged: 3 (USB2E3373)
Boxcar Smoothing: 0 (USB2E3373)
Correct for Electrical Dark: No (USB2E3373)
Strobe/Lamp Enabled: No (USB2E3373)
Correct for Detector Non-linearity: No (USB2E3373)
Correct for Stray Light: No (USB2E3373)
Number of Pixels in Processed Spectrum: 2048
>>>>>Begin Processed Spectral Data<<<<<
178.53	0.000
178.91	0.000
179.29	100.000
179.67	-150.000
180.04	57.143
180.42	75.000
180.80	-1000.000
181.18	400.000
181.56	450.000
181.94	0.000
182.31	700.000
182.69	-200.000
183.07	-266.667
183.45	-260.000
183.83	50.000
184.20	54.545
184.58	88.889
184.96	375.000
185.34	-133.333
185.72	-600.000
186.09	92.308
186.47	-1600.000
186.85	300.000
187.23	66.667
187.61	500.000
187.98	-233.333
188.36	0.000
188.74	-200.000
189.12	11.765
189.49	55.556
189.87	0.000
190.25	21.429
190.63	100.000
191.00	-233.333
191.38	0.000
191.76	50.000
192.14	350.000
192.51	-450.000
192.89	-77.778
193.27	-142.857
193.65	233.333
194.02	181.818
194.40	-20.000
194.78	-250.000
195.15	-8.333
195.53	-25.000
195.91	200.000
196.29	-275.000
196.66	138.462
197.04	57.143
197.42	-77.778
197.79	-633.333
198.17	-100.000
198.55	1500.000
198.92	-366.667
199.30	-1100.000
199.68	-20.000
200.05	-233.333
200.43	0.000
200.81	-666.667
201.18	-500.000
201.56	700.000
201.94	-100.000
202.31	200.000
202.69	-260.000
203.07	325.000
203.44	0.000
203.82	0.000
204.19	7.143
204.57	-466.667
204.95	137.500
205.32	0.000
205.70	-71.429
206.08	-150.000
206.45	33.333
206.83	57.143
207.20	-157.143
207.58	700.000
207.96	-166.667
208.33	-100.000
208.71	-200.000
209.08	-333.333
209.46	-600.000
209.84	-20.000
210.21	-1100.000
210.59	-71.429
210.96	-83.333
211.34	0.000
211.71	60.000
212.09	-171.429
212.46	-1800.000
212.84	0.000
213.22	30.000
213.59	350.000
213.97	38.462
214.34	54.545
214.72	16.667
215.09	525.000
215.47	-38.462
215.84	-18.182
216.22	-133.333
216.59	-37.500
216.97	300.000
217.34	-100.000
217.72	-300.000
218.09	25.000
218.47	162.500
218.84	-900.000
219.22	-122.222
219.59	20.000
219.97	500.000
220.34	25.000
220.72	-100.000
221.09	-175.000
221.47	0.000
221.84	-1150.000
222.22	-950.000
222.59	0.000
222.97	16.667
223.34	-500.000
223.72	-14.286
224.09	23.810
224.46	10.714
224.84	200.000
225.21	-80.000
225.59	6.667
225.96	-250.000
226.34	425.000
226.71	-71.429
227.08	-33.333
227.46	25.000
227.83	-700.000
228.21	100.000
228.58	-45.455
228.95	-62.500
229.33	170.000
229.70	12.500
230.08	50.000
230.45	-185.714
230.82	100.000
231.20	-6.667
231.57	0.000
231.95	28.571
232.32	-90.000
232.69	85.714
233.07	-100.000
233.44	-180.000
233.81	-70.000
234.19	22.222
234.56	5.882
234.93	900.000
235.31	25.000
235.68	-160.000
236.05	-92.308
236.43	15.000
236.80	-52.941
237.17	18.750
237.55	20.000
237.92	-3.704
238.29	44.444
238.67	6.667
239.04	20.588
239.41	-2.439
239.79	53.333
240.16	19.512
240.53	7.895
240.91	30.435
241.28	14.286
241.65	21.429
242.02	28.767
242.40	28.333
242.77	25.424
243.14	13.636
243.51	42.500
243.89	24.138
244.26	18.391
244.63	26.190
245.00	22.680
245.38	21.649
245.75	10.112
246.12	20.690
246.49	33.884
246.87	42.308
247.24	18.487
247.61	30.702
247.98	22.764
248.36	29.375
248.73	30.921
249.10	24.675
249.47	32.278
249.84	21.569
250.22	32.941
250.59	24.183
250.96	31.925
251.33	29.651
251.70	31.765
252.08	32.995
252.45	31.683
252.82	36.181
253.19	29.032
253.56	29.907
253.94	32.432
254.31	33.043
254.68	29.386
255.05	30.315
255.42	29.258
255.79	35.907
256.16	33.852
256.54	36.567
256.91	24.335
257.28	28.625
257.65	32.210
258.02	29.078
258.39	31.987
258.76	37.363
259.14	32.558
259.51	31.392
259.88	35.052
260.25	29.739
260.62	31.944
260.99	30.508
261.36	31.849
261.73	32.278
262.10	36.474
262.47	31.595
262.85	31.034
263.22	30.462
263.59	32.087
263.96	31.056
264.33	34.242
264.70	30.655
265.07	27.976
265.44	33.994
265.81	29.661
266.18	31.148
266.55	32.648
266.92	32.902
267.29	34.726
267.66	30.691
268.03	29.319
268.40	29.765
268.77	35.829
269.14	30.935
269.51	31.877
269.88	29.676
270.25	30.102
270.62	31.220
270.99	32.225
271.36	31.785
271.73	32.629
272.10	29.927
272.47	32.388
272.84	32.178
273.21	33.411
273.58	37.108
273.95	32.723
274.32	31.409
274.69	29.186
275.06	31.473
275.43	32.200
275.80	32.450
276.17	31.034
276.54	31.692
276.91	31.140
277.28	28.821
277.65	28.099
278.02	30.213
278.39	28.884
278.76	30.398
279.13	31.950
279.50	32.773
279.87	30.886
280.23	29.462
280.60	31.189
280.97	32.525
281.34	29.423
281.71	31.622
282.08	31.697
282.45	30.528
282.82	28.185
283.19	29.594
283.56	31.985
283.92	29.602
284.29	30.385
284.66	29.264
285.03	30.255
285.40	30.246
285.77	28.120
286.14	28.881
286.51	33.764
286.87	29.433
287.24	31.123
287.61	28.748
287.98	31.053
288.35	28.250
288.72	29.947
289.08	28.646
289.45	30.404
289.82	28.147
290.19	28.498
290.56	27.959
290.93	27.609
291.29	25.886
291.66	27.087
292.03	25.359
292.40	28.065
292.77	26.475
293.13	22.727
293.50	24.734
293.87	27.481
294.24	26.739
294.60	25.037
294.97	25.744
295.34	24.540
295.71	25.484
296.08	25.859
296.44	22.475
296.81	25.278
297.18	26.522
297.55	28.320
297.91	22.877
298.28	25.594
298.65	23.881
299.02	23.046
299.38	22.572
299.75	24.552
300.12	25.785
300.48	23.715
300.85	23.067
301.22	24.935
301.59	23.947
301.95	23.671
302.32	24.773
302.69	24.254
303.05	24.752
303.42	25.903
303.79	23.364
304.15	24.612
304.52	24.851
304.89	24.211
305.25	23.366
305.62	21.704
305.99	23.392
306.35	21.965
306.72	23.960
307.09	23.945
307.45	23.077
307.82	22.454
308.19	24.971
308.55	24.864
308.92	23.965
309.29	22.011
309.65	23.789
310.02	23.432
310.38	24.808
310.75	25.027
311.12	24.004
311.48	24.814
311.85	23.560
312.22	22.890
312.58	24.735
312.95	23.693
313.31	24.638
313.68	25.445
314.05	24.898
314.41	25.979
314.78	25.567
315.14	24.563
315.51	25.776
315.87	25.922
316.24	25.784
316.61	24.803
316.97	25.992
317.34	25.977
317.70	27.438
318.07	25.192
318.43	26.569
318.80	26.136
319.16	27.148
319.53	26.876
319.89	27.264
320.26	28.138
320.62	27.583
320.99	26.618
321.35	27.235
321.72	26.999
322.08	27.090
322.45	28.325
322.81	27.505
323.18	27.870
323.54	27.317
323.91	27.848
324.27	28.125
324.64	28.745
325.00	28.376
325.37	29.201
325.73	27.017
326.10	28.610
326.46	27.623
326.83	28.871
327.19	29.294
327.56	30.061
327.92	29.313
328.29	29.196
328.65	28.302
329.01	27.941
329.38	29.124
329.74	28.329
330.11	29.008
330.47	27.922
330.84	28.558
331.20	30.608
331.56	27.222
331.93	29.041
332.29	30.064
332.66	28.416
333.02	28.810
333.38	28.414
333.75	29.762
334.11	27.574
334.48	29.556
334.84	28.480
335.20	27.722
335.57	28.196
335.93	29.720
336.29	28.545
336.66	27.520
337.02	28.346
337.38	27.315
337.75	28.273
338.11	28.765
338.47	29.380
338.84	28.373
339.20	27.697
339.56	28.624
339.93	29.902
340.29	27.706
340.65	29.032
341.02	27.571
341.38	28.142
341.74	27.562
342.11	27.036
342.47	28.114
342.83	27.595
343.20	27.700
343.56	28.087
343.92	27.458
344.28	28.096
344.65	26.857
345.01	26.534
345.37	26.325
345.73	28.536
346.10	27.092
346.46	28.091
346.82	27.987
347.19	27.265
347.55	28.237
347.91	27.751
348.27	27.405
348.63	28.876
349.00	25.923
349.36	27.265
349.72	27.197
350.08	28.033
350.45	27.294
350.81	27.575
351.17	26.710
351.53	28.980
351.89	26.424
352.26	26.800
352.62	27.419
352.98	27.711
353.34	26.651
353.70	26.942
354.07	26.371
354.43	25.540
354.79	26.424
355.15	26.825
355.51	26.424
355.87	25.890
356.24	26.183
356.60	27.001
356.96	26.349
357.32	27.636
357.68	25.645
358.04	25.929
358.40	27.010
358.77	27.352
359.13	26.821
359.49	26.117
359.85	25.975
360.21	27.911
360.57	26.473
360.93	27.534
361.29	25.453
361.66	26.019
362.02	26.288
362.38	26.809
362.74	27.555
363.10	28.217
363.46	27.724
363.82	27.573
364.18	27.232
364.54	27.132
364.90	27.312
365.26	25.910
365.62	28.175
365.98	26.979
366.35	26.730
366.71	26.977
367.07	26.270
367.43	26.240
367.79	27.138
368.15	27.136
368.51	27.604
368.87	26.274
369.23	26.426
369.59	26.166
369.95	27.493
370.31	27.818
370.67	27.537
371.03	27.035
371.39	27.352
371.75	27.619
372.11	26.961
372.47	27.293
372.83	27.466
373.19	27.532
373.55	25.921
373.91	26.494
374.27	27.144
374.63	28.500
374.99	27.660
375.35	26.880
375.71	27.692
376.07	28.020
376.42	28.435
376.78	28.255
377.14	26.676
377.50	28.552
377.86	27.376
378.22	27.696
378.58	26.987
378.94	27.284
379.30	27.511
379.66	28.276
380.02	27.652
380.38	28.180
380.74	27.469
381.09	29.693
381.45	28.807
381.81	28.378
382.17	28.997
382.53	28.482
382.89	28.437
383.25	29.060
383.61	28.963
383.97	29.968
384.32	28.143
384.68	29.474
385.04	29.105
385.40	27.940
385.76	30.000
386.12	29.690
386.48	29.949
386.83	28.472
387.19	29.976
387.55	29.799
387.91	29.218
388.27	28.266
388.62	30.900
388.98	30.755
389.34	30.731
389.70	31.759
390.06	29.767
390.42	30.894
390.77	30.412
391.13	30.832
391.49	31.824
391.85	31.644
392.20	31.638
392.56	31.151
392.92	30.652
393.28	31.722
393.64	31.291
393.99	32.100
394.35	32.764
394.71	32.184
395.07	31.678
395.42	31.633
395.78	32.117
396.14	33.291
396.50	33.672
396.85	33.419
397.21	32.456
397.57	32.727
397.92	33.733
398.28	32.529
398.64	32.831
399.00	33.973
399.35	32.844
399.71	31.878
400.07	33.857
400.42	33.966
400.78	34.538
401.14	33.394
401.49	33.770
401.85	34.247
402.21	34.759
402.57	34.812
402.92	34.881
403.28	35.276
403.63	36.255
403.99	35.268
404.35	36.477
404.70	34.405
405.06	34.783
405.42	35.177
405.77	35.851
406.13	35.856
406.49	36.175
406.84	36.736
407.20	38.110
407.55	36.574
407.91	37.166
408.27	36.074
408.62	37.662
408.98	37.893
409.34	37.608
409.69	37.274
410.05	37.808
410.40	37.284
410.76	38.359
411.11	37.375
411.47	39.316
411.83	38.669
412.18	39.447
412.54	38.577
412.89	38.916
413.25	39.350
413.60	39.503
413.96	38.405
414.31	39.146
414.67	39.705
415.03	39.481
415.38	40.013
415.74	39.349
416.09	40.300
416.45	40.851
416.80	40.978
417.16	42.196
417.51	40.973
417.87	39.635
418.22	42.293
418.58	42.408
418.93	42.445
419.29	41.165
419.64	42.320
420.00	43.955
420.35	42.030
420.71	42.041
421.06	41.928
421.42	42.007
421.77	42.948
422.12	42.281
422.48	42.610
422.83	42.111
423.19	43.172
423.54	42.740
423.90	43.051
424.25	43.915
424.61	44.492
424.96	42.393
425.31	43.790
425.67	44.131
426.02	45.406
426.38	44.646
426.73	46.005
427.09	43.861
427.44	45.412
427.79	44.726
428.15	44.660
428.50	44.216
428.85	44.472
429.21	45.048
429.56	45.660
429.92	45.249
430.27	44.762
430.62	44.433
430.98	45.170
431.33	44.900
431.68	44.427
432.04	46.506
432.39	44.495
432.74	45.039
433.10	45.805
433.45	45.878
433.80	46.140
434.16	46.427
434.51	46.129
434.86	46.225
435.22	47.841
435.57	46.538
435.92	47.365
436.28	46.571
436.63	46.435
436.98	46.234
437.34	46.098
437.69	46.691
438.04	46.838
438.39	47.098
438.75	47.784
439.10	47.085
439.45	47.474
439.81	46.116
440.16	47.209
440.51	47.881
440.86	48.580
441.22	46.606
441.57	46.854
441.92	47.429
442.27	47.672
442.63	48.394
442.98	48.191
443.33	47.468
443.68	47.480
444.03	46.846
444.39	48.057
444.74	49.052
445.09	48.886
445.44	49.174
445.79	49.252
446.15	48.403
446.50	47.310
446.85	48.618
447.20	47.967
447.55	48.270
447.91	48.393
448.26	48.719
448.61	48.129
448.96	48.881
449.31	49.017
449.66	47.851
450.02	48.317
450.37	48.133
450.72	48.396
451.07	50.380
451.42	48.564
451.77	48.825
452.12	47.967
452.47	49.131
452.83	48.351
453.18	48.703
453.53	49.178
453.88	47.723
454.23	48.310
454.58	49.433
454.93	49.742
455.28	47.683
455.63	48.295
455.98	48.106
456.34	48.723
456.69	49.365
457.04	50.347
457.39	49.149
457.74	49.093
458.09	48.499
458.44	49.152
458.79	48.739
459.14	49.485
459.49	48.896
459.84	49.690
460.19	48.058
460.54	50.306
460.89	49.489
461.24	49.565
461.59	49.406
461.94	50.000
462.29	49.216
462.64	50.631
462.99	50.169
463.34	49.235
463.69	49.356
464.04	49.576
464.39	49.303
464.74	50.061
465.09	50.031
465.44	49.683
465.79	47.279
466.14	49.601
466.49	49.051
466.84	49.911
467.19	48.686
467.54	49.425
467.89	50.537
468.24	48.662
468.59	50.159
468.94	48.508
469.29	50.623
469.64	50.171
469.99	51.367
470.34	49.352
470.68	50.932
471.03	50.602
471.38	50.071
471.73	50.910
472.08	50.339
472.43	50.067
472.78	49.006
473.13	50.476
473.48	49.772
473.83	49.191
474.17	49.482
474.52	49.458
474.87	50.182
475.22	48.810
475.57	49.181
475.92	49.314
476.27	50.000
476.61	50.174
476.96	48.857
477.31	49.757
477.66	48.989
478.01	48.961
478.36	49.837
478.70	50.680
479.05	49.835
479.40	48.596
479.75	47.862
480.10	49.462
480.45	49.650
480.79	51.360
481.14	50.000
481.49	49.261
481.84	50.097
482.19	48.784
482.53	50.360
482.88	48.878
483.23	49.184
483.58	48.868
483.92	48.112
484.27	48.906
484.62	49.260
484.97	47.803
485.31	47.038
485.66	45.782
486.01	46.906
486.36	46.703
486.70	46.721
487.05	47.845
487.40	47.389
487.75	47.155
488.09	47.775
488.44	47.765
488.79	47.927
489.13	48.237
489.48	47.884
489.83	48.700
490.17	49.213
490.52	49.099
490.87	48.496
491.22	48.902
491.56	48.861
491.91	48.040
492.26	49.490
492.60	48.800
492.95	49.680
493.30	49.389
493.64	49.312
493.99	49.130
494.34	48.641
494.68	49.524
495.03	48.662
495.37	49.117
495.72	49.975
496.07	49.756
496.41	49.670
496.76	48.181
497.11	47.974
497.45	48.878
497.80	49.445
498.14	49.627
498.49	49.111
498.84	48.653
499.18	49.448
499.53	50.099
499.87	49.514
500.22	49.110
500.56	48.916
500.91	49.297
501.26	48.542
501.60	49.139
501.95	49.248
502.29	49.782
502.64	48.938
502.98	49.334
503.33	48.511
503.67	49.349
504.02	49.756
504.36	49.184
504.71	48.384
505.06	49.572
505.40	49.695
505.75	49.381
506.09	48.099
506.44	50.719
506.78	50.204
507.13	48.449
507.47	48.303
507.82	49.306
508.16	49.657
508.51	49.580
508.85	50.549
509.19	49.228
509.54	49.598
509.88	49.299
510.23	49.543
510.57	49.813
510.92	48.188
511.26	50.191
511.61	50.440
511.95	49.753
512.30	49.279
512.64	50.083
512.98	49.803
513.33	50.252
513.67	50.199
514.02	50.400
514.36	50.686
514.70	50.991
515.05	51.939
515.39	50.472
515.74	50.958
516.08	50.986
516.42	51.413
516.77	51.200
517.11	50.801
517.46	52.603
517.80	50.298
518.14	52.235
518.49	51.202
518.83	51.154
519.17	50.334
519.52	50.977
519.86	50.240
520.20	51.215
520.55	51.907
520.89	51.443
521.23	52.312
521.58	51.924
521.92	51.474
522.26	51.724
522.61	51.948
522.95	53.974
523.29	51.588
523.64	52.224
523.98	52.560
524.32	53.028
524.66	51.985
525.01	52.597
525.35	51.523
525.69	52.054
526.04	51.984
526.38	52.464
526.72	51.537
527.06	52.918
527.41	52.704
527.75	50.871
528.09	52.558
528.43	53.747
528.78	51.683
529.12	52.452
529.46	52.697
529.80	51.362
530.15	52.871
530.49	52.997
530.83	53.762
531.17	51.041
531.51	52.120
531.86	52.005
532.20	51.844
532.54	52.076
532.88	53.114
533.22	51.478
533.57	52.359
533.91	52.676
534.25	53.451
534.59	51.123
534.93	50.598
535.27	50.508
535.62	51.717
535.96	52.316
536.30	52.309
536.64	53.274
536.98	52.195
537.32	53.343
537.66	53.997
538.01	50.699
538.35	51.803
538.69	51.531
539.03	52.016
539.37	51.682
539.71	51.738
540.05	51.527
540.39	51.801
540.73	51.604
541.07	53.315
541.42	51.277
541.76	53.131
542.10	50.929
542.44	50.799
542.78	49.346
543.12	51.374
543.46	51.391
543.80	52.811
544.14	49.733
544.48	50.766
544.82	51.265
545.16	52.732
545.50	51.335
545.84	51.912
546.18	51.844
546.52	52.055
546.86	51.618
547.20	51.073
547.54	50.459
547.88	50.543
548.22	50.559
548.56	50.462
548.90	49.865
549.24	49.862
549.58	50.000
549.92	49.964
550.26	50.769
550.60	51.227
550.94	50.336
551.28	51.159
551.62	50.615
551.96	52.256
552.30	50.439
552.64	51.058
552.98	50.985
553.32	50.499
553.66	51.669
554.00	51.022
554.34	52.954
554.68	50.221
555.02	51.786
555.36	50.860
555.69	50.476
556.03	50.321
556.37	50.819
556.71	49.892
557.05	50.708
557.39	50.112
557.73	51.424
558.07	51.207
558.41	51.378
558.75	51.442
559.08	50.355
559.42	51.270
559.76	51.721
560.10	50.535
560.44	50.261
560.78	49.580
561.12	50.705
561.45	52.565
561.79	50.700
562.13	49.539
562.47	50.719
562.81	50.360
563.15	49.859
563.48	49.434
563.82	50.172
564.16	50.905
564.50	50.473
564.84	49.331
565.17	49.027
565.51	51.571
565.85	50.137
566.19	50.531
566.52	50.670
566.86	49.936
567.20	49.564
567.54	48.783
567.88	49.033
568.21	48.529
568.55	47.011
568.89	48.306
569.23	47.857
569.56	47.242
569.90	46.975
570.24	46.409
570.57	46.036
570.91	46.218
571.25	45.643
571.59	44.970
571.92	44.415
572.26	44.928
572.60	45.054
572.93	44.933
573.27	44.796
573.61	44.958
573.95	43.692
574.28	43.882
574.62	43.860
574.96	43.381
575.29	43.892
575.63	42.343
575.97	43.128
576.30	43.295
576.64	43.020
576.98	44.041
577.31	43.917
577.65	43.257
577.98	42.963
578.32	42.482
578.66	42.403
578.99	42.279
579.33	42.618
579.67	42.695
580.00	42.684
580.34	42.637
580.67	41.790
581.01	43.156
581.35	42.313
581.68	42.511
582.02	42.026
582.35	42.544
582.69	42.131
583.02	42.192
583.36	42.418
583.70	43.069
584.03	43.091
584.37	43.676
584.70	42.473
585.04	42.124
585.37	42.654
585.71	42.582
586.04	42.184
586.38	41.851
586.72	42.152
587.05	41.970
587.39	42.773
587.72	43.330
588.06	43.288
588.39	42.467
588.73	42.949
589.06	43.575
589.40	43.035
589.73	43.775
590.07	44.033
590.40	44.118
590.73	45.016
591.07	44.487
591.40	44.301
591.74	44.389
592.07	43.831
592.41	43.242
592.74	42.533
593.08	41.600
593.41	41.845
593.75	41.544
594.08	41.160
594.41	42.795
594.75	42.252
595.08	42.452
595.42	42.326
595.75	42.396
596.09	42.142
596.42	42.290
596.75	42.940
597.09	43.007
597.42	42.367
597.75	43.197
598.09	42.282
598.42	41.877
598.76	42.214
599.09	41.146
599.42	41.607
599.76	40.444
600.09	40.913
600.42	41.205
600.76	40.713
601.09	41.183
601.42	41.246
601.76	40.929
602.09	41.708
602.42	41.702
602.76	41.299
603.09	42.234
603.42	42.977
603.76	41.290
604.09	41.474
604.42	42.090
604.76	42.902
605.09	41.910
605.42	41.309
605.75	41.900
606.09	41.274
606.42	40.534
606.75	40.866
607.09	41.231
607.42	40.496
607.75	41.297
608.08	40.117
608.42	40.612
608.75	42.651
609.08	41.953
609.41	42.741
609.75	42.994
610.08	41.887
610.41	41.159
610.74	42.370
611.07	42.171
611.41	42.242
611.74	43.124
612.07	42.238
612.40	42.670
612.73	42.090
613.07	41.339
613.40	41.849
613.73	41.354
614.06	41.402
614.39	42.414
614.72	41.961
615.06	41.285
615.39	39.956
615.72	40.797
616.05	41.061
616.38	40.684
616.71	41.468
617.05	41.384
617.38	41.923
617.71	41.950
618.04	42.794
618.37	42.938
618.70	42.772
619.03	42.292
619.36	41.462
619.69	44.731
620.03	44.485
620.36	42.418
620.69	42.755
621.02	43.196
621.35	44.315
621.68	43.622
622.01	43.583
622.34	42.538
622.67	44.243
623.00	42.802
623.33	41.845
623.66	42.334
623.99	42.814
624.32	44.030
624.65	42.556
624.99	42.739
625.32	41.926
625.65	43.598
625.98	44.239
626.31	41.729
626.64	43.934
626.97	44.154
627.30	42.732
627.63	44.281
627.96	43.935
628.29	43.941
628.62	45.034
628.95	43.387
629.28	43.851
629.61	43.370
629.94	44.966
630.26	42.984
630.59	45.057
630.92	45.026
631.25	44.513
631.58	45.595
631.91	44.956
632.24	45.528
632.57	46.136
632.90	45.077
633.23	43.647
