SpectraSuite Data File
++++++++++++++++++++++++++++++++++++
Date: Fri May 15 20:33:48 PDT 2015
User: schluterlab
Dark Spectrum Present: Yes
Reference Spectrum Present: Yes
Number of Sampled Component Spectra: 1
Spectrometers: USB2E3373
Integration Time (usec): 3000 (USB2E3373)
Spectra Averaged: 3 (USB2E3373)
Boxcar Smoothing: 0 (USB2E3373)
Correct for Electrical Dark: No (USB2E3373)
Strobe/Lamp Enabled: No (USB2E3373)
Correct for Detector Non-linearity: No (USB2E3373)
Correct for Stray Light: No (USB2E3373)
Number of Pixels in Processed Spectrum: 2048
>>>>>Begin Processed Spectral Data<<<<<
178.53	0.000
178.91	0.000
179.29	100.000
179.67	-450.000
180.04	14.286
180.42	-125.000
180.80	-1100.000
181.18	-66.667
181.56	750.000
181.94	-50.000
182.31	1200.000
182.69	-20.000
183.07	-566.667
183.45	-60.000
183.83	200.000
184.20	-18.182
184.58	133.333
184.96	-75.000
185.34	133.333
185.72	-350.000
186.09	130.769
186.47	-700.000
186.85	100.000
187.23	166.667
187.61	700.000
187.98	-300.000
188.36	-177.778
188.74	-233.333
189.12	-35.294
189.49	0.000
189.87	0.000
190.25	35.714
190.63	-600.000
191.00	-366.667
191.38	0.000
191.76	0.000
192.14	200.000
192.51	-350.000
192.89	-100.000
193.27	-200.000
193.65	166.667
194.02	209.091
194.40	-70.000
194.78	-150.000
195.15	-41.667
195.53	-137.500
195.91	325.000
196.29	-175.000
196.66	30.769
197.04	214.286
197.42	-11.111
197.79	-633.333
198.17	-92.308
198.55	1500.000
198.92	-400.000
199.30	-800.000
199.68	-80.000
200.05	-33.333
200.43	0.000
200.81	-166.667
201.18	-100.000
201.56	1400.000
201.94	-700.000
202.31	-0.000
202.69	-300.000
203.07	375.000
203.44	-800.000
203.82	0.000
204.19	-28.571
204.57	-300.000
204.95	162.500
205.32	-110.000
205.70	-171.429
206.08	-275.000
206.45	166.667
206.83	71.429
207.20	-171.429
207.58	900.000
207.96	-233.333
208.33	-160.000
208.71	-25.000
209.08	-150.000
209.46	-1800.000
209.84	-20.000
210.21	-900.000
210.59	-114.286
210.96	-100.000
211.34	-25.000
211.71	20.000
212.09	-142.857
212.46	-2400.000
212.84	0.000
213.22	10.000
213.59	900.000
213.97	-15.385
214.34	0.000
214.72	-116.667
215.09	425.000
215.47	-69.231
215.84	-72.727
216.22	-600.000
216.59	-162.500
216.97	-350.000
217.34	-300.000
217.72	-240.000
218.09	100.000
218.47	212.500
218.84	-1100.000
219.22	-66.667
219.59	-140.000
219.97	433.333
220.34	275.000
220.72	-128.571
221.09	-300.000
221.47	-450.000
221.84	-400.000
222.22	-950.000
222.59	27.273
222.97	41.667
223.34	-166.667
223.72	-57.143
224.09	0.000
224.46	10.714
224.84	433.333
225.21	-40.000
225.59	6.667
225.96	-400.000
226.34	525.000
226.71	-142.857
227.08	-33.333
227.46	25.000
227.83	-1200.000
228.21	-33.333
228.58	9.091
228.95	-75.000
229.33	130.000
229.70	-37.500
230.08	-37.500
230.45	-114.286
230.82	-42.857
231.20	-33.333
231.57	7.143
231.95	-85.714
232.32	-190.000
232.69	-7.143
233.07	-266.667
233.44	-220.000
233.81	-170.000
234.19	-66.667
234.56	-52.941
234.93	200.000
235.31	75.000
235.68	-60.000
236.05	-46.154
236.43	-75.000
236.80	-52.941
237.17	-3.125
237.55	-60.000
237.92	-55.556
238.29	-11.111
238.67	-30.000
239.04	-29.412
239.41	-41.463
239.79	-43.333
240.16	-4.878
240.53	-26.316
240.91	-26.087
241.28	-12.698
241.65	19.643
242.02	8.219
242.40	-16.667
242.77	-10.169
243.14	-12.121
243.51	-6.250
243.89	-3.448
244.26	-10.345
244.63	-11.905
245.00	-9.278
245.38	-7.216
245.75	-23.596
246.12	-14.655
246.49	-7.438
246.87	-0.962
247.24	-3.361
247.61	-19.298
247.98	-5.691
248.36	-6.875
248.73	0.000
249.10	-11.039
249.47	-8.228
249.84	-0.654
250.22	-4.118
250.59	-5.882
250.96	0.000
251.33	-4.070
251.70	-3.529
252.08	-4.569
252.45	-0.990
252.82	-3.518
253.19	-4.147
253.56	-12.150
253.94	-2.703
254.31	1.304
254.68	-2.193
255.05	-4.724
255.42	-5.677
255.79	0.386
256.16	1.167
256.54	-1.493
256.91	-1.901
257.28	-0.743
257.65	-0.749
258.02	-2.837
258.39	-0.337
258.76	4.396
259.14	-0.332
259.51	0.647
259.88	-2.749
260.25	-1.634
260.62	-1.389
260.99	-3.729
261.36	-4.110
261.73	-1.266
262.10	-0.608
262.47	-2.454
262.85	-7.524
263.22	-1.846
263.59	-0.935
263.96	0.000
264.33	1.818
264.70	-4.167
265.07	-3.274
265.44	-1.700
265.81	-0.282
266.18	0.273
266.55	-1.542
266.92	-1.813
267.29	-2.611
267.66	-0.256
268.03	-3.141
268.40	-2.872
268.77	1.604
269.14	-0.719
269.51	0.000
269.88	-1.247
270.25	-4.082
270.62	-2.927
270.99	-4.092
271.36	-2.689
271.73	0.704
272.10	0.487
272.47	0.946
272.84	-3.713
273.21	-0.232
273.58	-0.964
273.95	-0.686
274.32	-3.002
274.69	-4.751
275.06	-0.893
275.43	-1.587
275.80	0.442
276.17	-2.069
276.54	-1.499
276.91	-1.754
277.28	-1.310
277.65	-0.826
278.02	-1.915
278.39	-3.063
278.76	-1.468
279.13	-6.017
279.50	-1.050
279.87	-0.216
280.23	-2.151
280.60	-0.585
280.97	-0.606
281.34	-1.731
281.71	1.848
282.08	-3.067
282.45	-2.153
282.82	-3.089
283.19	-0.580
283.56	-0.578
283.92	-3.226
284.29	-3.269
284.66	-2.326
285.03	-1.768
285.40	-1.512
285.77	-2.812
286.14	-2.166
286.51	1.476
286.87	-1.828
287.24	-2.210
287.61	-2.469
287.98	-1.053
288.35	-1.560
288.72	1.751
289.08	-1.736
289.45	1.582
289.82	-1.573
290.19	-2.901
290.56	-1.372
290.93	-2.189
291.29	-0.770
291.66	0.315
292.03	-1.116
292.40	-0.645
292.77	-0.319
293.13	-3.896
293.50	-1.214
293.87	-1.527
294.24	-0.773
294.60	0.149
294.97	-1.488
295.34	-1.687
295.71	0.894
296.08	-1.794
296.44	-2.560
296.81	-1.667
297.18	-1.304
297.55	0.000
297.91	-0.822
298.28	-0.132
298.65	-0.678
299.02	-0.539
299.38	-3.146
299.75	-1.241
300.12	-0.654
300.48	-0.527
300.85	-0.253
301.22	-0.909
301.59	-1.053
301.95	0.253
302.32	0.649
302.69	-1.244
303.05	-0.866
303.42	-0.747
303.79	0.935
304.15	0.239
304.52	-1.784
304.89	-0.468
305.25	-0.605
305.62	-1.867
305.99	-1.404
306.35	-1.618
306.72	-1.125
307.09	-0.684
307.45	-0.115
307.82	-0.579
308.19	-0.813
308.55	-1.309
308.92	1.198
309.29	-1.676
309.65	-1.938
310.02	-0.550
310.38	0.110
310.75	0.219
311.12	-0.646
311.48	-0.742
311.85	-0.419
312.22	-1.582
312.58	-0.955
312.95	-1.387
313.31	-2.070
313.68	-2.094
314.05	-0.714
314.41	-0.412
314.78	-0.928
315.14	-0.411
315.51	0.518
315.87	-0.820
316.24	0.809
316.61	0.984
316.97	-0.694
317.34	0.000
317.70	0.096
318.07	-0.385
318.43	-0.490
318.80	-0.284
319.16	0.391
319.53	1.804
319.89	-0.591
320.26	0.607
320.62	0.201
320.99	-1.148
321.35	0.617
321.72	0.415
322.08	-1.611
322.45	-0.305
322.81	0.295
323.18	-0.883
323.54	0.000
323.91	0.584
324.27	-0.098
324.64	-0.655
325.00	1.004
325.37	0.918
325.73	0.091
326.10	0.182
326.46	1.345
326.83	1.137
327.19	0.872
327.56	0.608
327.92	1.320
328.29	-0.089
328.65	0.094
329.01	0.643
329.38	0.369
329.74	0.094
330.11	1.483
330.47	-1.020
330.84	-1.058
331.20	0.760
331.56	0.093
331.93	1.553
332.29	1.650
332.66	0.724
333.02	0.093
333.38	0.000
333.75	0.824
334.11	0.806
334.48	1.723
334.84	0.549
335.20	1.281
335.57	0.091
335.93	0.542
336.29	0.829
336.66	0.091
337.02	-0.279
337.38	-0.278
337.75	0.455
338.11	1.082
338.47	1.186
338.84	1.109
339.20	0.640
339.56	0.826
339.93	1.253
340.29	1.284
340.65	1.523
341.02	0.975
341.38	1.239
341.74	-0.177
342.11	0.173
342.47	1.157
342.83	1.557
343.20	0.697
343.56	1.217
343.92	1.771
344.28	1.879
344.65	1.295
345.01	-0.086
345.37	1.093
345.73	1.423
346.10	0.173
346.46	2.019
346.82	1.391
347.19	0.333
347.55	1.420
347.91	1.456
348.27	0.728
348.63	1.022
349.00	-0.082
349.36	-0.083
349.72	0.746
350.08	1.230
350.45	0.958
350.81	0.332
351.17	1.059
351.53	1.551
351.89	0.743
352.26	0.320
352.62	0.645
352.98	1.285
353.34	1.288
353.70	1.375
354.07	1.129
354.43	0.961
354.79	-0.083
355.15	2.222
355.51	1.978
355.87	1.537
356.24	0.163
356.60	0.404
356.96	1.587
357.32	1.038
357.68	0.469
358.04	0.727
358.40	0.643
358.77	1.595
359.13	0.721
359.49	0.847
359.85	0.936
360.21	0.718
360.57	0.383
360.93	0.983
361.29	-0.378
361.66	1.254
362.02	0.909
362.38	1.371
362.74	0.303
363.10	1.505
363.46	1.038
363.82	1.803
364.18	1.771
364.54	0.588
364.90	1.075
365.26	0.291
365.62	1.679
365.98	0.147
366.35	1.238
366.71	1.109
367.07	1.524
367.43	0.503
367.79	1.060
368.15	0.503
368.51	1.384
368.87	-0.287
369.23	0.361
369.59	0.292
369.95	1.173
370.31	1.156
370.67	-0.149
371.03	0.971
371.39	0.000
371.75	1.612
372.11	1.427
372.47	0.740
372.83	1.348
373.19	1.070
373.55	0.866
373.91	0.792
374.27	0.992
374.63	1.292
374.99	0.000
375.35	0.905
375.71	1.608
376.07	1.194
376.42	0.272
376.78	0.671
377.14	1.286
377.50	0.930
377.86	1.539
378.22	1.085
378.58	0.321
378.94	0.441
379.30	0.936
379.66	0.878
380.02	0.368
380.38	-0.304
380.74	0.539
381.09	1.350
381.45	0.000
381.81	0.987
382.17	0.190
382.53	0.500
382.89	0.565
383.25	0.933
383.61	1.220
383.97	0.635
384.32	0.250
384.68	0.681
385.04	0.123
385.40	0.062
385.76	0.755
386.12	0.906
386.48	0.766
386.83	0.127
387.19	1.282
387.55	0.565
387.91	0.978
388.27	0.794
388.62	0.566
388.98	0.921
389.34	0.687
389.70	0.932
390.06	0.126
390.42	0.324
390.77	0.785
391.13	0.441
391.49	0.712
391.85	0.325
392.20	0.565
392.56	0.699
392.92	0.822
393.28	0.472
393.64	0.601
393.99	1.630
394.35	0.063
394.71	0.958
395.07	0.251
395.42	0.304
395.78	0.065
396.14	0.504
396.50	0.824
396.85	0.837
397.21	1.441
397.57	0.815
397.92	0.959
398.28	1.207
398.64	0.000
399.00	1.129
399.35	0.677
399.71	0.632
400.07	1.149
400.42	0.490
400.78	0.735
401.14	0.544
401.49	1.727
401.85	0.792
402.21	0.663
402.57	1.188
402.92	0.314
403.28	1.003
403.63	0.000
403.99	-0.064
404.35	0.250
404.70	0.893
405.06	0.353
405.42	0.994
405.77	0.174
406.13	0.175
406.49	0.533
406.84	-0.550
407.20	0.301
407.55	0.193
407.91	-0.067
408.27	0.255
408.62	1.292
408.98	0.678
409.34	1.177
409.69	0.581
410.05	0.739
410.40	-0.062
410.76	0.724
411.11	0.375
411.47	0.526
411.83	0.126
412.18	0.257
412.54	0.312
412.89	0.308
413.25	0.662
413.60	0.248
413.96	0.920
414.31	0.854
414.67	-0.064
415.03	0.133
415.38	0.392
415.74	1.303
416.09	1.241
416.45	0.540
416.80	0.066
417.16	0.622
417.51	1.266
417.87	0.065
418.22	0.583
418.58	0.134
418.93	1.129
419.29	0.320
419.64	-0.389
420.00	1.448
420.35	0.060
420.71	0.972
421.06	0.430
421.42	0.962
421.77	0.694
422.12	0.908
422.48	0.541
422.83	0.870
423.19	0.790
423.54	-0.176
423.90	-0.118
424.25	0.918
424.61	1.346
424.96	0.755
425.31	0.578
425.67	0.763
426.02	1.296
426.38	0.564
426.73	1.150
427.09	1.076
427.44	1.176
427.79	1.179
428.15	1.335
428.50	0.121
428.85	-0.123
429.21	0.283
429.56	0.323
429.92	1.079
430.27	1.053
430.62	0.575
430.98	0.531
431.33	0.789
431.68	1.151
432.04	0.559
432.39	0.456
432.74	0.782
433.10	1.034
433.45	0.956
433.80	-0.290
434.16	0.222
434.51	0.968
434.86	0.929
435.22	0.841
435.57	0.561
435.92	0.898
436.28	0.716
436.63	1.369
436.98	-0.116
437.34	0.302
437.69	0.596
438.04	0.342
438.39	0.122
438.75	0.000
439.10	0.905
439.45	0.243
439.81	0.856
440.16	0.356
440.51	1.791
440.86	1.450
441.22	1.131
441.57	0.773
441.92	1.049
442.27	0.942
442.63	1.820
442.98	1.206
443.33	0.445
443.68	0.159
444.03	1.391
444.39	0.639
444.74	1.282
445.09	0.724
445.44	1.026
445.79	0.722
446.15	0.826
446.50	0.000
446.85	1.169
447.20	0.678
447.55	1.451
447.91	1.297
448.26	1.195
448.61	1.094
448.96	0.688
449.31	0.578
449.66	1.045
450.02	1.141
450.37	0.771
450.72	0.974
451.07	1.266
451.42	0.687
451.77	1.025
452.12	0.000
452.47	0.258
452.83	0.883
453.18	1.328
453.53	1.264
453.88	0.668
454.23	1.045
454.58	0.504
454.93	2.126
455.28	0.317
455.63	0.868
455.98	1.383
456.34	0.511
456.69	0.762
457.04	1.449
457.39	0.608
457.74	0.605
458.09	1.413
458.44	0.410
458.79	0.280
459.14	1.487
459.49	1.910
459.84	1.636
460.19	0.485
460.54	0.550
460.89	1.250
461.24	0.870
461.59	1.485
461.94	1.006
462.29	1.508
462.64	1.462
462.99	1.083
463.34	0.417
463.69	0.901
464.04	1.271
464.39	1.092
464.74	0.613
465.09	1.809
465.44	1.673
465.79	1.531
466.14	1.824
466.49	0.805
466.84	1.785
467.19	1.126
467.54	1.660
467.89	1.137
468.24	1.338
468.59	1.714
468.94	1.841
469.29	1.967
469.64	2.392
469.99	1.121
470.34	0.819
470.68	1.566
471.03	1.132
471.38	0.785
471.73	1.471
472.08	0.678
472.43	0.134
472.78	0.822
473.13	1.020
473.48	1.498
473.83	1.743
474.17	0.842
474.52	1.532
474.87	1.697
475.22	1.098
475.57	1.129
475.92	1.700
476.27	1.688
476.61	1.620
476.96	1.617
477.31	2.271
477.66	1.461
478.01	1.179
478.36	1.416
478.70	1.468
479.05	2.308
479.40	1.484
479.75	0.938
480.10	1.587
480.45	1.500
480.79	1.863
481.14	1.434
481.49	1.232
481.84	1.400
482.19	1.263
482.53	1.391
482.88	1.814
483.23	0.960
483.58	1.321
483.92	1.646
484.27	1.550
484.62	1.748
484.97	1.451
485.31	1.445
485.66	1.505
486.01	1.630
486.36	1.652
486.70	1.568
487.05	1.698
487.40	1.499
487.75	1.746
488.09	1.267
488.44	1.272
488.79	1.419
489.13	1.603
489.48	1.368
489.83	1.525
490.17	0.854
490.52	1.247
490.87	1.573
491.22	1.958
491.56	1.755
491.91	1.386
492.26	1.702
492.60	1.536
492.95	1.623
493.30	1.368
493.64	1.375
493.99	1.884
494.34	0.971
494.68	1.667
495.03	0.633
495.37	1.178
495.72	1.413
496.07	1.317
496.41	1.226
496.76	1.336
497.11	1.118
497.45	1.766
497.80	1.917
498.14	1.441
498.49	1.117
498.84	1.846
499.18	1.205
499.53	1.786
499.87	1.654
500.22	0.791
500.56	1.866
500.91	1.456
501.26	1.335
501.60	0.689
501.95	1.456
502.29	1.840
502.64	1.737
502.98	1.431
503.33	1.105
503.67	1.349
504.02	1.711
504.36	1.831
504.71	1.313
505.06	1.359
505.40	1.827
505.75	1.186
506.09	2.027
506.44	2.361
506.78	1.582
507.13	1.603
507.47	0.940
507.82	0.694
508.16	1.373
508.51	0.839
508.85	1.413
509.19	0.798
509.54	1.072
509.88	1.348
510.23	1.668
510.57	1.283
510.92	0.800
511.26	1.091
511.61	1.430
511.95	1.699
512.30	1.718
512.64	1.669
512.98	1.460
513.33	2.071
513.67	1.364
514.02	2.117
514.36	2.514
514.70	2.040
515.05	1.586
515.39	1.476
515.74	1.796
516.08	1.554
516.42	2.120
516.77	2.165
517.11	1.780
517.46	1.436
517.80	2.384
518.14	1.164
518.49	1.142
518.83	1.276
519.17	1.031
519.52	1.243
519.86	1.080
520.20	1.762
520.55	1.626
520.89	2.572
521.23	2.090
521.58	2.082
521.92	1.731
522.26	1.757
522.61	1.818
522.95	1.325
523.29	1.461
523.64	2.668
523.98	1.879
524.32	0.193
524.66	2.177
525.01	1.558
525.35	1.620
525.69	1.279
526.04	0.794
526.38	2.075
526.72	1.243
527.06	1.621
527.41	1.913
527.75	1.676
528.09	1.595
528.43	2.836
528.78	1.254
529.12	1.677
529.46	0.975
529.80	2.217
530.15	2.310
530.49	1.414
530.83	1.710
531.17	1.410
531.51	1.368
531.86	2.107
532.20	1.461
532.54	1.838
532.88	2.053
533.22	2.823
533.57	2.359
533.91	1.240
534.25	2.734
534.59	2.245
534.93	1.825
535.27	1.015
535.62	1.361
535.96	2.348
536.30	1.913
536.64	1.861
536.98	1.672
537.32	2.418
537.66	2.665
538.01	2.098
538.35	2.427
538.69	2.663
539.03	1.914
539.37	2.153
539.71	1.568
540.05	2.240
540.39	2.216
540.73	1.674
541.07	2.693
541.42	2.755
541.76	2.065
542.10	1.789
542.44	1.807
542.78	1.858
543.12	1.992
543.46	2.643
543.80	2.706
544.14	1.469
544.48	2.798
544.82	1.162
545.16	2.527
545.50	3.071
545.84	2.266
546.18	3.050
546.52	2.379
546.86	2.588
547.20	2.432
547.54	0.989
547.88	1.495
548.22	1.841
548.56	2.573
548.90	2.426
549.24	2.617
549.58	2.257
549.92	1.716
550.26	2.198
550.60	1.859
550.94	2.240
551.28	0.850
551.62	1.692
551.96	2.707
552.30	1.827
552.64	1.128
552.98	2.461
553.32	2.282
553.66	1.597
554.00	2.190
554.34	1.846
554.68	2.655
555.02	2.604
555.36	3.291
555.69	1.392
556.03	1.856
556.37	1.708
556.71	2.310
557.05	2.013
557.39	0.595
557.73	2.549
558.07	2.112
558.41	1.685
558.75	1.637
559.08	2.206
559.42	1.190
559.76	1.601
560.10	1.223
560.44	2.085
560.78	2.378
561.12	1.269
561.45	2.389
561.79	2.101
562.13	2.768
562.47	1.511
562.81	2.161
563.15	2.257
563.48	1.909
563.82	2.059
564.16	1.671
564.50	2.500
564.84	3.079
565.17	1.476
565.51	2.459
565.85	2.195
566.19	2.586
566.52	1.542
566.86	2.763
567.20	2.802
567.54	1.886
567.88	1.582
568.21	3.224
568.55	1.793
568.89	2.515
569.23	2.022
569.56	2.277
569.90	2.071
570.24	2.270
570.57	2.327
570.91	2.544
571.25	2.302
571.59	2.336
571.92	2.815
572.26	2.295
572.60	2.357
572.93	2.510
573.27	2.633
573.61	2.058
573.95	2.540
574.28	2.304
574.62	2.161
574.96	2.568
575.29	2.322
575.63	2.488
575.97	2.196
576.30	1.968
576.64	1.960
576.98	2.471
577.31	2.261
577.65	2.087
577.98	2.430
578.32	2.419
578.66	2.149
578.99	2.504
579.33	2.348
579.67	2.069
580.00	2.405
580.34	2.537
580.67	2.275
581.01	2.113
581.35	2.756
581.68	2.381
582.02	2.496
582.35	2.377
582.69	2.630
583.02	2.435
583.36	2.602
583.70	2.596
584.03	2.891
584.37	2.880
584.70	2.363
585.04	2.435
585.37	2.678
585.71	2.271
586.04	2.395
586.38	2.321
586.72	2.669
587.05	2.369
587.39	2.684
587.72	2.351
588.06	2.546
588.39	2.620
588.73	2.625
589.06	2.935
589.40	2.904
589.73	3.030
590.07	2.870
590.40	2.399
590.73	2.430
591.07	2.290
591.40	2.538
591.74	2.805
592.07	3.525
592.41	2.739
592.74	2.867
593.08	2.235
593.41	2.900
593.75	2.519
594.08	2.334
594.41	2.875
594.75	2.443
595.08	2.762
595.42	2.392
595.75	2.629
596.09	2.737
596.42	2.687
596.75	3.197
597.09	2.733
597.42	2.710
597.75	2.382
598.09	2.445
598.42	2.527
598.76	2.488
599.09	3.005
599.42	2.690
599.76	3.047
600.09	3.017
600.42	2.805
600.76	2.823
601.09	2.557
601.42	2.311
601.76	2.382
602.09	2.682
602.42	2.696
602.76	2.801
603.09	2.865
603.42	2.968
603.76	2.339
604.09	2.390
604.42	3.130
604.76	2.715
605.09	2.605
605.42	3.070
605.75	2.715
606.09	2.548
606.42	2.752
606.75	2.987
607.09	3.429
607.42	2.570
607.75	2.931
608.08	2.516
608.42	3.289
608.75	3.277
609.08	2.890
609.41	2.741
609.75	2.218
610.08	2.696
610.41	2.899
610.74	2.535
611.07	2.326
611.41	3.321
611.74	3.038
612.07	2.463
612.40	3.063
612.73	1.977
613.07	2.700
613.40	3.392
613.73	2.182
614.06	3.172
614.39	2.820
614.72	2.745
615.06	2.793
615.39	2.948
615.72	2.476
616.05	3.073
616.38	2.222
616.71	2.630
617.05	2.409
617.38	2.200
617.71	2.767
618.04	2.730
618.37	3.720
618.70	2.904
619.03	3.472
619.36	1.737
619.69	2.274
620.03	2.995
620.36	2.432
620.69	2.498
621.02	3.211
621.35	2.407
621.68	1.956
622.01	2.417
622.34	1.836
622.67	3.076
623.00	2.603
623.33	2.896
623.66	2.468
623.99	2.950
624.32	2.510
624.65	2.556
624.99	3.236
625.32	2.123
625.65	3.299
625.98	2.498
626.31	2.078
626.64	2.600
626.97	3.141
627.30	3.065
627.63	2.946
627.96	2.695
628.29	1.943
628.62	2.655
628.95	2.305
629.28	2.218
629.61	2.991
629.94	3.910
630.26	3.162
630.59	3.330
630.92	2.769
631.25	2.769
631.58	2.643
631.91	1.096
632.24	1.950
632.57	4.205
632.90	1.423
633.23	2.706
633.56	2.141
633.89	2.343
634.22	2.963
634.55	2.541
634.88	1.660
635.20	1.667
635.53	1.467
635.86	1.040
636.19	2.975
636.52	1.531
636.85	1.985
637.18	1.887
637.51	2.138
637.83	2.365
638.16	2.729
638.49	1.907
638.82	3.421
639.15	2.849
639.48	2.476
639.81	3.487
640.13	1.154
640.46	3.499
640.79	2.798
641.12	1.773
641.45	3.153
641.77	2.370
642.10	2.844
642.43	2.090
642.76	2.145
643.09	2.262
643.41	2.589
643.74	1.483
644.07	1.149
644.40	3.716
644.73	0.701
645.05	2.181
645.38	3.175
645.71	2.305
646.04	2.693
646.36	3.191
646.69	4.496
647.02	3.214
647.35	1.493
647.67	2.925
648.00	3.358
648.33	3.925
648.66	1.186
648.98	-0.335
649.31	0.331
649.64	1.413
649.96	1.135
650.29	3.066
650.62	3.932
650.94	1.667
651.27	0.559
651.60	2.523
651.92	3.322
652.25	0.533
652.58	3.167
652.90	3.087
653.23	1.345
