SpectraSuite Data File
++++++++++++++++++++++++++++++++++++
Date: Fri May 15 20:42:40 PDT 2015
User: schluterlab
Dark Spectrum Present: Yes
Reference Spectrum Present: Yes
Number of Sampled Component Spectra: 1
Spectrometers: USB2E3373
Integration Time (usec): 3000 (USB2E3373)
Spectra Averaged: 3 (USB2E3373)
Boxcar Smoothing: 0 (USB2E3373)
Correct for Electrical Dark: No (USB2E3373)
Strobe/Lamp Enabled: No (USB2E3373)
Correct for Detector Non-linearity: No (USB2E3373)
Correct for Stray Light: No (USB2E3373)
Number of Pixels in Processed Spectrum: 2048
>>>>>Begin Processed Spectral Data<<<<<
178.53	0.000
178.91	0.000
179.29	62.500
179.67	-250.000
180.04	-57.143
180.42	100.000
180.80	200.000
181.18	-133.333
181.56	700.000
181.94	250.000
182.31	400.000
182.69	-100.000
183.07	100.000
183.45	180.000
183.83	16.667
184.20	-81.818
184.58	155.556
184.96	75.000
185.34	-133.333
185.72	-50.000
186.09	115.385
186.47	-900.000
186.85	-16.667
187.23	111.111
187.61	1300.000
187.98	-433.333
188.36	-22.222
188.74	0.000
189.12	5.882
189.49	-16.667
189.87	0.000
190.25	78.571
190.63	-150.000
191.00	-166.667
191.38	-15.789
191.76	350.000
192.14	250.000
192.51	-500.000
192.89	-11.111
193.27	-157.143
193.65	116.667
194.02	190.909
194.40	10.000
194.78	-100.000
195.15	25.000
195.53	-12.500
195.91	200.000
196.29	-50.000
196.66	123.077
197.04	185.714
197.42	-55.556
197.79	-533.333
198.17	-69.231
198.55	2200.000
198.92	-300.000
199.30	-600.000
199.68	-140.000
200.05	-500.000
200.43	0.000
200.81	-33.333
201.18	-200.000
201.56	700.000
201.94	-200.000
202.31	-33.333
202.69	-160.000
203.07	125.000
203.44	700.000
203.82	0.000
204.19	35.714
204.57	-200.000
204.95	75.000
205.32	-100.000
205.70	-42.857
206.08	-200.000
206.45	66.667
206.83	85.714
207.20	-14.286
207.58	-600.000
207.96	-300.000
208.33	-50.000
208.71	50.000
209.08	-300.000
209.46	-900.000
209.84	-180.000
210.21	-900.000
210.59	-42.857
210.96	-100.000
211.34	-275.000
211.71	40.000
212.09	-200.000
212.46	-1000.000
212.84	0.000
213.22	-60.000
213.59	900.000
213.97	84.615
214.34	100.000
214.72	-33.333
215.09	600.000
215.47	-30.769
215.84	-36.364
216.22	-333.333
216.59	0.000
216.97	650.000
217.34	-125.000
217.72	-200.000
218.09	-25.000
218.47	150.000
218.84	-800.000
219.22	-100.000
219.59	-100.000
219.97	133.333
220.34	225.000
220.72	-14.286
221.09	-225.000
221.47	-100.000
221.84	-1000.000
222.22	-200.000
222.59	18.182
222.97	-25.000
223.34	-66.667
223.72	7.143
224.09	28.571
224.46	7.143
224.84	300.000
225.21	30.000
225.59	80.000
225.96	100.000
226.34	425.000
226.71	-28.571
227.08	-116.667
227.46	50.000
227.83	50.000
228.21	-11.111
228.58	36.364
228.95	-37.500
229.33	160.000
229.70	-43.750
230.08	-100.000
230.45	-57.143
230.82	28.571
231.20	-66.667
231.57	0.000
231.95	-85.714
232.32	-190.000
232.69	42.857
233.07	-66.667
233.44	-80.000
233.81	-120.000
234.19	-44.444
234.56	-17.647
234.93	500.000
235.31	-75.000
235.68	-320.000
236.05	-23.077
236.43	-45.000
236.80	-23.529
237.17	18.750
237.55	-25.000
237.92	-18.519
238.29	-2.778
238.67	16.667
239.04	-5.882
239.41	-21.951
239.79	-10.000
240.16	-4.878
240.53	-26.316
240.91	-10.870
241.28	-11.111
241.65	19.643
242.02	23.288
242.40	-6.667
242.77	3.390
243.14	0.000
243.51	10.000
243.89	16.092
244.26	-5.747
244.63	5.952
245.00	4.124
245.38	6.186
245.75	-7.865
246.12	-3.448
246.49	-1.653
246.87	4.808
247.24	-4.202
247.61	-4.386
247.98	0.813
248.36	0.000
248.73	-1.974
249.10	-1.948
249.47	1.899
249.84	-5.229
250.22	-2.353
250.59	-1.307
250.96	5.634
251.33	-4.651
251.70	-4.706
252.08	2.030
252.45	0.990
252.82	-2.513
253.19	7.373
253.56	-0.935
253.94	3.604
254.31	0.435
254.68	1.316
255.05	0.000
255.42	-0.437
255.79	1.544
256.16	1.556
256.54	1.493
256.91	1.901
257.28	5.204
257.65	0.749
258.02	0.000
258.39	3.030
258.76	1.099
259.14	4.983
259.51	0.647
259.88	3.436
260.25	0.654
260.62	4.167
260.99	-2.373
261.36	-3.082
261.73	-2.532
262.10	4.255
262.47	-0.307
262.85	1.881
263.22	1.846
263.59	5.607
263.96	1.863
264.33	-0.909
264.70	-0.893
265.07	0.298
265.44	3.116
265.81	1.695
266.18	0.546
266.55	2.828
266.92	4.922
267.29	3.916
267.66	1.279
268.03	-0.785
268.40	0.783
268.77	5.615
269.14	2.398
269.51	4.370
269.88	1.247
270.25	0.765
270.62	0.244
270.99	0.767
271.36	1.711
271.73	1.643
272.10	0.730
272.47	3.073
272.84	1.485
273.21	4.408
273.58	3.855
273.95	-0.686
274.32	1.848
274.69	-0.679
275.06	3.795
275.43	2.721
275.80	1.545
276.17	1.379
276.54	3.640
276.91	2.193
277.28	1.528
277.65	3.719
278.02	1.915
278.39	0.656
278.76	3.774
279.13	-1.037
279.50	2.521
279.87	1.728
280.23	0.430
280.60	3.509
280.97	4.040
281.34	0.000
281.71	4.312
282.08	0.818
282.45	0.783
282.82	1.351
283.19	2.128
283.56	1.541
283.92	0.949
284.29	2.115
284.66	0.388
285.03	0.196
285.40	0.945
285.77	2.109
286.14	1.264
286.51	2.952
286.87	1.280
287.24	2.026
287.61	1.587
287.98	4.035
288.35	2.600
288.72	2.277
289.08	1.736
289.45	2.285
289.82	1.399
290.19	0.512
290.56	-0.686
290.93	0.505
291.29	1.849
291.66	2.677
292.03	2.073
292.40	1.452
292.77	0.797
293.13	-1.299
293.50	1.517
293.87	2.290
294.24	0.618
294.60	2.683
294.97	3.125
295.34	1.994
295.71	1.937
296.08	1.196
296.44	0.284
296.81	1.528
297.18	0.000
297.55	2.846
297.91	0.548
298.28	2.902
298.65	2.307
299.02	1.617
299.38	0.000
299.75	1.517
300.12	1.178
300.48	0.395
300.85	2.408
301.22	2.857
301.59	0.921
301.95	2.911
302.32	2.724
302.69	3.109
303.05	1.856
303.42	2.491
303.79	3.505
304.15	3.106
304.52	1.308
304.89	1.053
305.25	3.027
305.62	1.634
305.99	1.520
306.35	1.272
306.72	0.675
307.09	0.684
307.45	1.493
307.82	2.199
308.19	2.439
308.55	2.726
308.92	3.159
309.29	1.453
309.65	3.014
310.02	2.310
310.38	3.403
310.75	2.295
311.12	3.552
311.48	1.803
311.85	3.037
312.22	2.321
312.58	3.291
312.95	2.775
313.31	2.795
313.68	2.827
314.05	3.673
314.41	4.948
314.78	4.536
315.14	4.830
315.51	4.762
315.87	4.508
316.24	6.775
316.61	6.299
316.97	6.845
317.34	5.469
317.70	6.788
318.07	7.308
318.43	7.745
318.80	7.386
319.16	7.715
319.53	8.072
319.89	7.579
320.26	10.020
320.62	10.431
320.99	10.334
321.35	10.483
321.72	10.488
322.08	11.178
322.45	10.660
322.81	12.279
323.18	12.169
323.54	11.969
323.91	12.853
324.27	12.988
324.64	13.951
325.00	14.781
325.37	15.794
325.73	13.871
326.10	15.985
326.46	15.605
326.83	17.235
327.19	17.175
327.56	17.984
327.92	19.102
328.29	18.839
328.65	19.811
329.01	19.301
329.38	20.092
329.74	19.736
330.11	20.389
330.47	20.315
330.84	19.135
331.20	23.384
331.56	20.741
331.93	20.731
332.29	21.723
332.66	21.448
333.02	21.840
333.38	20.898
333.75	22.070
334.11	23.366
334.48	22.575
334.84	22.344
335.20	23.239
335.57	22.303
335.93	22.945
336.29	22.192
336.66	22.616
337.02	21.747
337.38	22.407
337.75	23.000
338.11	23.986
338.47	23.631
338.84	23.290
339.20	22.395
339.56	23.486
339.93	23.545
340.29	23.303
340.65	23.297
341.02	23.227
341.38	22.920
341.74	23.322
342.11	21.231
342.47	22.865
342.83	23.702
343.20	21.341
343.56	23.478
343.92	22.852
344.28	22.716
344.65	22.366
345.01	23.423
345.37	23.549
345.73	23.515
346.10	22.951
346.46	23.802
346.82	22.259
347.19	23.026
347.55	22.473
347.91	23.139
348.27	22.555
348.63	23.254
349.00	22.970
349.36	23.441
349.72	23.134
350.08	22.951
350.45	23.783
350.81	23.173
351.17	22.964
351.53	23.347
351.89	22.378
352.26	22.640
352.62	23.065
352.98	22.811
353.34	22.544
353.70	25.324
354.07	22.742
354.43	21.938
354.79	22.791
355.15	23.413
355.51	23.180
355.87	23.867
356.24	23.246
356.60	23.525
356.96	23.571
357.32	23.163
357.68	22.752
358.04	23.748
358.40	23.071
358.77	24.003
359.13	24.179
359.49	23.421
359.85	22.933
360.21	23.923
360.57	22.418
360.93	22.315
361.29	22.885
361.66	23.746
362.02	23.712
362.38	23.534
362.74	23.316
363.10	23.476
363.46	24.537
363.82	24.267
364.18	23.321
364.54	23.456
364.90	23.226
365.26	22.562
365.62	22.993
365.98	23.974
366.35	24.836
366.71	24.021
367.07	23.512
367.43	23.868
367.79	23.958
368.15	22.972
368.51	23.962
368.87	23.331
369.23	23.105
369.59	24.854
369.95	24.340
370.31	25.072
370.67	25.075
371.03	22.778
371.39	23.632
371.75	24.322
372.11	23.894
372.47	24.112
372.83	24.344
373.19	24.536
373.55	23.971
373.91	23.614
374.27	23.955
374.63	23.833
374.99	23.617
375.35	23.468
375.71	26.224
376.07	24.017
376.42	24.082
376.78	24.497
377.14	25.796
377.50	24.037
377.86	24.297
378.22	24.697
378.58	23.974
378.94	24.260
379.30	24.267
379.66	25.016
380.02	24.157
380.38	24.163
380.74	23.878
381.09	25.276
381.45	24.954
381.81	23.874
382.17	24.937
382.53	24.672
382.89	24.670
383.25	24.393
383.61	25.671
383.97	24.698
384.32	23.952
384.68	25.139
385.04	24.142
385.40	24.953
385.76	24.780
386.12	25.226
386.48	25.926
386.83	24.857
387.19	25.153
387.55	24.843
387.91	24.878
388.27	24.786
388.62	25.614
388.98	24.800
389.34	25.734
389.70	25.730
390.06	24.544
390.42	24.741
390.77	25.441
391.13	24.653
391.49	24.256
391.85	25.211
392.20	24.545
392.56	24.921
392.92	24.721
393.28	24.882
393.64	23.123
393.99	25.455
394.35	24.352
394.71	25.990
395.07	24.953
395.42	24.408
395.78	23.909
396.14	24.401
396.50	24.667
396.85	24.598
397.21	24.060
397.57	23.824
397.92	24.506
398.28	24.425
398.64	24.578
399.00	24.153
399.35	24.210
399.71	23.837
400.07	25.030
400.42	23.929
400.78	24.495
401.14	23.956
401.49	24.419
401.85	22.913
402.21	24.277
402.57	24.875
402.92	23.902
403.28	25.188
403.63	23.077
403.99	23.597
404.35	24.422
404.70	22.560
405.06	22.738
405.42	23.928
405.77	22.545
406.13	23.632
406.49	22.795
406.84	23.961
407.20	23.781
407.55	23.052
407.91	23.329
408.27	23.327
408.62	24.000
408.98	22.674
409.34	23.854
409.69	23.191
410.05	22.599
410.40	23.272
410.76	23.643
411.11	23.625
411.47	23.537
411.83	23.289
412.18	23.423
412.54	22.971
412.89	21.921
413.25	22.684
413.60	22.671
413.96	22.331
414.31	23.537
414.67	22.579
415.03	22.570
415.38	22.781
415.74	22.736
416.09	23.906
416.45	24.375
416.80	23.662
417.16	22.790
417.51	23.251
417.87	22.360
418.22	23.769
418.58	22.207
418.93	23.636
419.29	22.279
419.64	23.137
420.00	24.118
420.35	22.746
420.71	23.876
421.06	23.327
421.42	23.137
421.77	23.295
422.12	22.247
422.48	23.281
422.83	22.216
423.19	24.323
423.54	23.104
423.90	23.380
424.25	22.847
424.61	23.868
424.96	24.042
425.31	23.108
425.67	24.002
426.02	23.793
426.38	24.045
426.73	25.182
427.09	24.620
427.44	23.765
427.79	23.748
428.15	25.425
428.50	24.228
428.85	23.587
429.21	23.995
429.56	24.367
429.92	24.756
430.27	23.659
430.62	24.046
430.98	24.151
431.33	23.975
431.68	23.496
432.04	24.930
432.39	24.073
432.74	24.233
433.10	24.253
433.45	24.014
433.80	24.260
434.16	23.601
434.51	24.194
434.86	25.029
435.22	24.397
435.57	24.828
435.92	24.731
436.28	24.329
436.63	23.788
436.98	24.044
437.34	24.017
437.69	24.806
438.04	25.356
438.39	23.763
438.75	24.894
439.10	24.731
439.45	25.320
439.81	25.199
440.16	25.356
440.51	24.657
440.86	25.861
441.22	24.830
441.57	25.221
441.92	25.708
442.27	25.665
442.63	24.946
442.98	25.273
443.33	25.376
443.68	25.570
444.03	25.832
444.39	25.627
444.74	26.254
445.09	25.557
445.44	25.071
445.79	26.715
446.15	25.716
446.50	26.068
446.85	25.877
447.20	26.486
447.55	25.502
447.91	25.099
448.26	26.295
448.61	26.367
448.96	25.818
449.31	25.780
449.66	26.365
450.02	26.412
450.37	25.311
450.72	24.914
451.07	25.823
451.42	25.593
451.77	25.377
452.12	25.000
452.47	25.113
452.83	25.324
453.18	25.427
453.53	26.359
453.88	25.501
454.23	26.429
454.58	25.945
454.93	26.740
455.28	24.635
455.63	26.286
455.98	26.759
456.34	26.309
456.69	26.302
457.04	26.843
457.39	25.881
457.74	26.119
458.09	25.603
458.44	26.156
458.79	25.322
459.14	25.801
459.49	26.866
459.84	26.509
460.19	25.607
460.54	25.978
460.89	26.193
461.24	25.901
461.59	26.781
461.94	25.660
462.29	26.357
462.64	26.844
462.99	26.269
463.34	26.356
463.69	26.062
464.04	26.574
464.39	26.804
464.74	25.521
465.09	26.326
465.44	26.024
465.79	25.964
466.14	25.599
466.49	25.302
466.84	25.877
467.19	26.345
467.54	25.287
467.89	26.216
468.24	25.852
468.59	26.286
468.94	26.159
469.29	25.836
469.64	26.521
469.99	26.629
470.34	26.075
470.68	26.174
471.03	27.459
471.38	25.535
471.73	26.541
472.08	26.526
472.43	25.638
472.78	25.634
473.13	26.190
473.48	26.189
473.83	25.342
474.17	25.907
474.52	26.803
474.87	26.364
475.22	26.113
475.57	25.918
475.92	26.001
476.27	25.669
476.61	25.926
476.96	24.428
477.31	26.176
477.66	25.955
478.01	25.547
478.36	25.599
478.70	26.482
479.05	25.989
479.40	26.338
479.75	25.912
480.10	25.397
480.45	26.050
480.79	26.586
481.14	25.922
481.49	24.680
481.84	26.351
482.19	25.304
482.53	25.516
482.88	25.394
483.23	25.672
483.58	25.943
483.92	25.024
484.27	24.932
484.62	25.146
484.97	24.710
485.31	24.458
485.66	24.234
486.01	23.080
486.36	23.001
486.70	23.495
487.05	23.766
487.40	24.431
487.75	24.085
488.09	24.629
488.44	24.106
488.79	25.215
489.13	24.880
489.48	25.353
489.83	25.650
490.17	25.034
490.52	25.173
490.87	25.312
491.22	25.597
491.56	25.617
491.91	25.000
492.26	25.328
492.60	25.288
492.95	26.217
493.30	25.159
493.64	26.326
493.99	25.266
494.34	24.272
494.68	25.571
495.03	24.769
495.37	24.926
495.72	26.148
496.07	25.512
496.41	25.613
496.76	25.012
497.11	24.732
497.45	25.823
497.80	25.378
498.14	25.137
498.49	24.835
498.84	25.250
499.18	25.100
499.53	24.851
499.87	24.757
500.22	24.926
500.56	24.609
500.91	25.151
501.26	24.469
501.60	25.086
501.95	24.891
502.29	25.133
502.64	24.807
502.98	24.223
503.33	24.784
503.67	24.964
504.02	24.829
504.36	24.988
504.71	24.545
505.06	24.509
505.40	24.315
505.75	25.567
506.09	24.430
506.44	25.051
506.78	25.255
507.13	24.871
507.47	24.543
507.82	24.092
508.16	24.247
508.51	25.079
508.85	24.699
509.19	24.694
509.54	24.558
509.88	24.542
510.23	24.637
510.57	24.800
510.92	24.574
511.26	24.714
511.61	24.422
511.95	24.438
512.30	24.557
512.64	24.708
512.98	24.593
513.33	25.294
513.67	24.105
514.02	26.201
514.36	25.600
514.70	24.709
515.05	24.853
515.39	24.793
515.74	25.689
516.08	25.105
516.42	25.324
516.77	24.985
517.11	24.392
517.46	24.536
517.80	25.149
518.14	24.617
518.49	24.459
518.83	24.544
519.17	24.803
519.52	23.979
519.86	24.670
520.20	25.334
520.55	24.328
520.89	25.345
521.23	25.206
521.58	25.174
521.92	25.962
522.26	24.658
522.61	25.455
522.95	25.960
523.29	24.778
523.64	24.778
523.98	24.498
524.32	24.356
524.66	25.800
525.01	25.844
525.35	25.340
525.69	23.636
526.04	23.214
526.38	25.097
526.72	24.133
527.06	23.995
527.41	24.538
527.75	24.196
528.09	24.385
528.43	24.443
528.78	24.620
529.12	24.710
529.46	24.107
529.80	24.066
530.15	24.884
530.49	24.108
530.83	23.803
531.17	23.640
531.51	24.282
531.86	23.657
532.20	24.148
532.54	24.098
532.88	24.367
533.22	24.328
533.57	23.263
533.91	23.499
534.25	23.112
534.59	23.348
534.93	22.404
535.27	22.525
535.62	22.878
535.96	23.549
536.30	24.142
536.64	22.950
536.98	23.066
537.32	23.684
537.66	24.053
538.01	23.916
538.35	22.746
538.69	23.369
539.03	23.103
539.37	23.149
539.71	23.654
540.05	23.557
540.39	22.784
540.73	23.780
541.07	22.238
541.42	23.387
541.76	22.712
542.10	23.193
542.44	23.767
542.78	21.198
543.12	22.527
543.46	23.227
543.80	22.623
544.14	21.696
544.48	21.985
544.82	22.351
545.16	22.883
545.50	22.697
545.84	22.380
546.18	23.546
546.52	22.783
546.86	22.502
547.20	23.820
547.54	21.837
547.88	22.011
548.22	21.565
548.56	21.372
548.90	22.574
549.24	22.452
549.58	21.580
549.92	21.730
550.26	21.612
550.60	22.305
550.94	22.928
551.28	22.566
551.62	22.462
551.96	22.331
552.30	22.149
552.64	21.298
552.98	22.574
553.32	21.113
553.66	21.263
554.00	22.117
554.34	22.304
554.68	21.829
555.02	22.247
555.36	21.915
555.69	20.440
556.03	21.271
556.37	21.637
556.71	21.949
557.05	22.297
557.39	20.520
557.73	21.439
558.07	21.569
558.41	22.665
558.75	22.214
559.08	22.065
559.42	22.381
559.76	21.697
560.10	21.330
560.44	20.774
560.78	21.888
561.12	20.945
561.45	21.785
561.79	21.429
562.13	21.363
562.47	20.935
562.81	20.965
563.15	19.817
563.48	21.499
563.82	22.237
564.16	20.891
564.50	20.676
564.84	20.214
565.17	20.054
565.51	21.243
565.85	20.850
566.19	20.027
566.52	20.710
566.86	20.887
567.20	19.427
567.54	20.742
567.88	20.094
568.21	20.362
568.55	18.478
568.89	20.175
569.23	18.873
569.56	18.739
569.90	18.798
570.24	18.422
570.57	18.218
570.91	18.543
571.25	17.461
571.59	17.471
571.92	17.096
572.26	16.878
572.60	17.178
572.93	17.477
573.27	16.991
573.61	16.826
573.95	17.040
574.28	16.605
574.62	16.807
574.96	16.405
575.29	16.229
575.63	15.989
575.97	16.265
576.30	16.756
576.64	16.238
576.98	16.499
577.31	16.392
577.65	16.766
577.98	16.779
578.32	15.954
578.66	15.968
578.99	16.214
579.33	16.138
579.67	16.503
580.00	16.557
580.34	16.194
580.67	16.024
581.01	16.402
581.35	15.568
581.68	15.725
582.02	15.948
582.35	15.655
582.69	15.952
583.02	15.958
583.36	15.519
583.70	16.822
584.03	16.625
584.37	17.335
584.70	16.264
585.04	15.907
585.37	16.265
585.71	15.626
586.04	16.112
586.38	15.497
586.72	16.557
587.05	16.349
587.39	16.522
587.72	16.566
588.06	15.970
588.39	16.235
588.73	16.911
589.06	16.536
589.40	17.387
589.73	16.502
590.07	17.409
590.40	17.260
590.73	18.163
591.07	17.260
591.40	16.607
591.74	17.104
592.07	17.718
592.41	16.917
592.74	16.487
593.08	15.927
593.41	16.639
593.75	15.963
594.08	16.100
594.41	16.485
594.75	16.450
595.08	16.269
595.42	16.599
595.75	16.560
596.09	16.419
596.42	16.412
596.75	17.274
597.09	17.312
597.42	17.435
597.75	16.628
598.09	16.116
598.42	16.606
598.76	16.216
599.09	16.587
599.42	16.105
599.76	16.215
600.09	15.950
600.42	15.656
600.76	15.416
601.09	15.153
601.42	15.668
601.76	15.403
602.09	16.048
602.42	16.428
602.76	15.917
603.09	16.154
603.42	16.430
603.76	15.927
604.09	15.836
604.42	16.328
604.76	16.555
605.09	15.859
605.42	16.027
605.75	15.018
606.09	16.093
606.42	15.847
606.75	16.061
607.09	16.703
607.42	15.020
607.75	15.764
608.08	16.038
608.42	16.080
608.75	17.060
609.08	16.542
609.41	15.939
609.75	15.978
610.08	16.076
610.41	15.990
610.74	15.895
611.07	16.176
611.41	16.347
611.74	16.738
612.07	16.328
612.40	16.575
612.73	16.328
613.07	15.411
613.40	16.904
613.73	15.949
614.06	16.917
614.39	17.146
614.72	16.022
615.06	16.369
615.39	16.157
615.72	15.393
616.05	16.480
616.38	15.385
616.71	16.330
617.05	16.492
617.38	17.159
617.71	16.101
618.04	16.127
618.37	16.898
618.70	16.370
619.03	17.361
619.36	16.498
619.69	17.589
620.03	17.896
620.36	16.595
620.69	18.130
621.02	16.361
621.35	17.676
621.68	17.092
622.01	17.167
622.34	16.121
622.67	16.877
623.00	16.922
623.33	17.683
623.66	15.856
623.99	16.641
624.32	15.894
624.65	16.842
624.99	16.855
625.32	16.300
625.65	16.968
625.98	16.841
626.31	15.046
626.64	18.111
626.97	17.976
627.30	16.637
627.63	17.158
627.96	17.161
628.29	17.484
628.62	17.011
628.95	18.337
629.28	17.440
629.61	17.348
629.94	18.768
630.26	17.984
630.59	17.898
630.92	17.538
631.25	16.923
631.58	18.062
631.91	18.202
632.24	17.202
632.57	19.659
632.90	18.031
633.23	18.471
633.56	19.018
633.89	19.359
634.22	18.025
634.55	17.408
634.88	18.902
635.20	18.333
635.53	19.200
635.86	17.815
636.19	20.699
636.52	19.005
636.85	16.253
