SpectraSuite Data File
++++++++++++++++++++++++++++++++++++
Date: Fri May 15 20:44:06 PDT 2015
User: schluterlab
Dark Spectrum Present: Yes
Reference Spectrum Present: Yes
Number of Sampled Component Spectra: 1
Spectrometers: USB2E3373
Integration Time (usec): 3000 (USB2E3373)
Spectra Averaged: 3 (USB2E3373)
Boxcar Smoothing: 0 (USB2E3373)
Correct for Electrical Dark: No (USB2E3373)
Strobe/Lamp Enabled: No (USB2E3373)
Correct for Detector Non-linearity: No (USB2E3373)
Correct for Stray Light: No (USB2E3373)
Number of Pixels in Processed Spectrum: 2048
>>>>>Begin Processed Spectral Data<<<<<
178.53	0.000
178.91	0.000
179.29	25.000
179.67	-450.000
180.04	-71.429
180.42	325.000
180.80	-500.000
181.18	333.333
181.56	650.000
181.94	350.000
182.31	700.000
182.69	-20.000
183.07	-200.000
183.45	-120.000
183.83	216.667
184.20	100.000
184.58	111.111
184.96	-175.000
185.34	366.667
185.72	-400.000
186.09	-0.000
186.47	-800.000
186.85	66.667
187.23	111.111
187.61	200.000
187.98	-166.667
188.36	77.778
188.74	-300.000
189.12	35.294
189.49	72.222
189.87	0.000
190.25	0.000
190.63	-450.000
191.00	-366.667
191.38	-36.842
191.76	-100.000
192.14	175.000
192.51	100.000
192.89	-33.333
193.27	-128.571
193.65	33.333
194.02	154.545
194.40	20.000
194.78	-187.500
195.15	-33.333
195.53	-50.000
195.91	250.000
196.29	0.000
196.66	138.462
197.04	71.429
197.42	-55.556
197.79	-333.333
198.17	-69.231
198.55	1000.000
198.92	-300.000
199.30	300.000
199.68	-260.000
200.05	-166.667
200.43	0.000
200.81	-200.000
201.18	-200.000
201.56	800.000
201.94	-350.000
202.31	66.667
202.69	-300.000
203.07	275.000
203.44	100.000
203.82	0.000
204.19	57.143
204.57	-400.000
204.95	62.500
205.32	10.000
205.70	-42.857
206.08	-225.000
206.45	244.444
206.83	50.000
207.20	-157.143
207.58	600.000
207.96	-333.333
208.33	30.000
208.71	-125.000
209.08	-250.000
209.46	-200.000
209.84	0.000
210.21	-1600.000
210.59	128.571
210.96	0.000
211.34	-50.000
211.71	60.000
212.09	-171.429
212.46	-700.000
212.84	0.000
213.22	100.000
213.59	700.000
213.97	69.231
214.34	18.182
214.72	-33.333
215.09	500.000
215.47	0.000
215.84	-45.455
216.22	-200.000
216.59	37.500
216.97	0.000
217.34	-75.000
217.72	-100.000
218.09	-87.500
218.47	125.000
218.84	-500.000
219.22	-122.222
219.59	-20.000
219.97	166.667
220.34	-0.000
220.72	-128.571
221.09	50.000
221.47	-200.000
221.84	-400.000
222.22	-100.000
222.59	72.727
222.97	-50.000
223.34	-300.000
223.72	-21.429
224.09	0.000
224.46	14.286
224.84	700.000
225.21	30.000
225.59	-6.667
225.96	-200.000
226.34	550.000
226.71	-100.000
227.08	-200.000
227.46	-50.000
227.83	-550.000
228.21	33.333
228.58	0.000
228.95	-75.000
229.33	220.000
229.70	0.000
230.08	-62.500
230.45	-28.571
230.82	14.286
231.20	-46.667
231.57	21.429
231.95	42.857
232.32	-160.000
232.69	-14.286
233.07	-233.333
233.44	-300.000
233.81	-140.000
234.19	0.000
234.56	-23.529
234.93	400.000
235.31	-25.000
235.68	-180.000
236.05	-84.615
236.43	-5.000
236.80	-29.412
237.17	-3.125
237.55	-20.000
237.92	-3.704
238.29	-8.333
238.67	13.333
239.04	-8.824
239.41	-12.195
239.79	13.333
240.16	-4.878
240.53	-28.947
240.91	-26.087
241.28	19.048
241.65	7.143
242.02	21.918
242.40	15.000
242.77	-5.085
243.14	-15.152
243.51	1.250
243.89	8.046
244.26	0.000
244.63	1.190
245.00	-1.031
245.38	9.278
245.75	-10.112
246.12	-4.310
246.49	0.826
246.87	0.962
247.24	0.840
247.61	-1.754
247.98	-4.065
248.36	5.625
248.73	1.974
249.10	4.545
249.47	-2.532
249.84	4.575
250.22	4.118
250.59	-0.654
250.96	9.390
251.33	4.070
251.70	1.176
252.08	8.122
252.45	0.990
252.82	4.020
253.19	0.922
253.56	0.467
253.94	7.658
254.31	4.783
254.68	7.456
255.05	6.693
255.42	0.437
255.79	5.405
256.16	3.502
256.54	4.478
256.91	1.901
257.28	2.602
257.65	5.243
258.02	-1.064
258.39	7.407
258.76	2.930
259.14	7.641
259.51	5.825
259.88	2.749
260.25	3.595
260.62	5.208
260.99	-0.339
261.36	2.055
261.73	5.380
262.10	3.647
262.47	3.067
262.85	6.270
263.22	1.231
263.59	4.673
263.96	6.522
264.33	3.636
264.70	1.786
265.07	2.381
265.44	6.799
265.81	5.085
266.18	4.645
266.55	5.141
266.92	4.404
267.29	7.572
267.66	6.650
268.03	3.665
268.40	3.133
268.77	7.487
269.14	3.837
269.51	6.427
269.88	4.988
270.25	2.296
270.62	1.951
270.99	0.000
271.36	4.645
271.73	4.460
272.10	2.920
272.47	4.019
272.84	5.198
273.21	3.248
273.58	3.373
273.95	5.950
274.32	4.157
274.69	2.036
275.06	5.804
275.43	3.175
275.80	6.181
276.17	2.759
276.54	4.069
276.91	3.509
277.28	3.493
277.65	4.752
278.02	3.404
278.39	4.814
278.76	6.080
279.13	0.622
279.50	5.882
279.87	2.808
280.23	2.581
280.60	6.238
280.97	5.051
281.34	3.846
281.71	6.571
282.08	5.317
282.45	4.110
282.82	3.282
283.19	3.482
283.56	5.010
283.92	3.605
284.29	5.962
284.66	3.682
285.03	2.358
285.40	5.293
285.77	4.042
286.14	4.874
286.51	4.797
286.87	4.936
287.24	4.052
287.61	2.469
287.98	4.737
288.35	5.199
288.72	5.254
289.08	5.035
289.45	5.624
289.82	4.895
290.19	2.730
290.56	2.916
290.93	4.714
291.29	4.006
291.66	6.299
292.03	3.349
292.40	4.194
292.77	3.668
293.13	1.136
293.50	2.883
293.87	3.664
294.24	4.946
294.60	4.769
294.97	6.101
295.34	3.374
295.71	4.769
296.08	3.886
296.44	3.698
296.81	4.306
297.18	4.348
297.55	5.962
297.91	3.836
298.28	5.805
298.65	4.749
299.02	3.235
299.38	2.189
299.75	3.448
300.12	2.749
300.48	2.108
300.85	4.689
301.22	4.156
301.59	2.763
301.95	4.810
302.32	5.058
302.69	4.602
303.05	2.351
303.42	4.359
303.79	3.621
304.15	4.182
304.52	3.567
304.89	3.158
305.25	4.722
305.62	3.267
305.99	3.041
306.35	2.890
306.72	4.499
307.09	3.649
307.45	4.478
307.82	3.588
308.19	4.530
308.55	1.963
308.92	3.595
309.29	2.458
309.65	3.014
310.02	3.960
310.38	4.061
310.75	2.732
311.12	3.445
311.48	3.075
311.85	3.246
312.22	3.376
312.58	3.185
312.95	3.415
313.31	2.795
313.68	3.665
314.05	4.082
314.41	4.433
314.78	4.021
315.14	4.625
315.51	4.969
315.87	4.918
316.24	5.763
316.61	5.118
316.97	5.159
317.34	5.566
317.70	5.832
318.07	5.288
318.43	5.294
318.80	5.114
319.16	6.250
319.53	7.882
319.89	6.299
320.26	8.198
320.62	9.027
320.99	7.620
321.35	8.530
321.72	10.177
322.08	9.466
322.45	10.051
322.81	10.707
323.18	10.599
323.54	11.390
323.91	11.392
324.27	11.914
324.64	12.547
325.00	14.234
325.37	15.702
325.73	14.234
326.10	15.804
326.46	16.323
326.83	17.235
327.19	18.657
327.56	18.679
327.92	20.070
328.29	18.929
328.65	19.340
329.01	20.864
329.38	21.935
329.74	20.302
330.11	22.057
330.47	21.892
330.84	21.442
331.20	24.525
331.56	21.944
331.93	23.653
332.29	25.298
332.66	25.158
333.02	24.535
333.38	23.373
333.75	25.641
334.11	23.993
334.48	26.383
334.84	25.092
335.20	25.892
335.57	25.567
335.93	26.378
336.29	26.703
336.66	25.431
337.02	25.186
337.38	25.833
337.75	24.455
338.11	26.150
338.47	27.281
338.84	27.079
339.20	27.057
339.56	28.532
339.93	27.037
340.29	28.165
340.65	28.943
341.02	28.014
341.38	27.522
341.74	27.032
342.11	27.556
342.47	27.491
342.83	29.325
343.20	28.571
343.56	29.130
343.92	28.078
344.28	29.547
344.65	28.756
345.01	28.522
345.37	28.764
345.73	28.368
346.10	29.853
346.46	28.764
346.82	27.496
347.19	27.930
347.55	28.739
347.91	28.803
348.27	29.022
348.63	28.450
349.00	28.056
349.36	29.094
349.72	30.182
350.08	29.672
350.45	29.210
350.81	28.571
351.17	28.990
351.53	29.796
351.89	29.149
352.26	27.840
352.62	29.516
352.98	28.594
353.34	29.630
353.70	29.288
354.07	30.161
354.43	29.384
354.79	30.306
355.15	29.603
355.51	29.826
355.87	30.097
356.24	28.711
356.60	29.911
356.96	30.556
357.32	29.313
357.68	29.867
358.04	29.564
358.40	30.386
358.77	30.463
359.13	29.143
359.49	30.277
359.85	30.187
360.21	30.781
360.57	30.222
360.93	30.030
361.29	29.456
361.66	31.661
362.02	31.288
362.38	30.845
362.74	29.977
363.10	30.926
363.46	32.098
363.82	31.405
364.18	30.923
364.54	30.662
364.90	30.824
365.26	31.077
365.62	32.190
365.98	32.038
366.35	31.828
366.71	33.038
367.07	32.148
367.43	32.135
367.79	31.661
368.15	32.807
368.51	32.629
368.87	31.084
369.23	31.119
369.59	32.945
369.95	32.551
370.31	32.081
370.67	32.388
371.03	32.786
371.39	31.802
371.75	32.967
372.11	32.596
372.47	33.802
372.83	33.357
373.19	32.382
373.55	33.069
373.91	33.261
374.27	33.735
374.63	34.171
374.99	33.121
375.35	32.591
375.71	32.867
376.07	32.865
376.42	33.741
376.78	34.765
377.14	32.431
377.50	34.130
377.86	33.668
378.22	33.504
378.58	33.782
378.94	32.892
379.30	33.437
379.66	34.922
380.02	34.090
380.38	33.354
380.74	34.171
381.09	34.969
381.45	34.434
381.81	34.485
382.17	34.708
382.53	34.229
382.89	34.840
383.25	34.474
383.61	35.122
383.97	34.921
384.32	35.147
384.68	35.356
385.04	35.049
385.40	35.283
385.76	35.597
386.12	36.093
386.48	35.313
386.83	34.369
387.19	34.493
387.55	36.010
387.91	35.391
388.27	34.737
388.62	35.809
388.98	35.605
389.34	35.540
389.70	35.674
390.06	35.431
390.42	35.492
390.77	35.971
391.13	35.183
391.49	36.158
391.85	36.127
392.20	36.284
392.56	35.219
392.92	36.171
393.28	34.965
393.64	36.336
393.99	36.301
394.35	36.749
394.71	36.015
395.07	36.204
395.42	35.033
395.78	36.221
396.14	36.003
396.50	36.335
396.85	36.124
397.21	35.777
397.57	35.925
397.92	36.369
398.28	36.207
398.64	34.819
399.00	35.327
399.35	35.158
399.71	34.922
400.07	36.759
400.42	35.618
400.78	36.191
401.14	36.056
401.49	36.986
401.85	34.979
402.21	35.602
402.57	35.937
402.92	34.818
403.28	36.216
403.63	35.813
403.99	35.778
404.35	35.665
404.70	35.179
405.06	35.488
405.42	35.736
405.77	34.922
406.13	35.856
406.49	35.169
406.84	35.819
407.20	35.942
407.55	35.737
407.91	35.896
408.27	36.010
408.62	36.369
408.98	35.367
409.34	36.059
409.69	35.724
410.05	35.160
410.40	36.235
410.76	35.766
411.11	35.750
411.47	35.766
411.83	35.028
412.18	36.229
412.54	34.020
412.89	33.805
413.25	35.199
413.60	35.901
413.96	35.706
414.31	35.000
414.67	34.638
415.03	35.619
415.38	33.877
415.74	36.743
416.09	36.055
416.45	35.449
416.80	35.030
417.16	36.740
417.51	36.709
417.87	35.072
418.22	35.363
418.58	35.987
418.93	37.116
419.29	35.019
419.64	36.034
420.00	36.524
420.35	34.687
420.71	35.176
421.06	35.973
421.42	34.615
421.77	35.376
422.12	33.655
422.48	35.084
422.83	35.209
423.19	36.117
423.54	35.273
423.90	35.277
424.25	35.763
424.61	36.965
424.96	36.121
425.31	36.280
425.67	36.385
426.02	36.042
426.38	36.819
426.73	36.138
427.09	36.456
427.44	36.412
427.79	36.653
428.15	35.376
428.50	35.191
428.85	34.767
429.21	36.106
429.56	36.712
429.92	35.799
430.27	35.489
430.62	34.814
430.98	35.775
431.33	36.120
431.68	35.374
432.04	35.886
432.39	35.938
432.74	34.756
433.10	37.241
433.45	35.305
433.80	36.332
434.16	35.402
434.51	36.398
434.86	35.772
435.22	36.119
435.57	36.494
435.92	36.347
436.28	35.182
436.63	35.368
436.98	34.531
437.34	35.874
437.69	36.971
438.04	35.442
438.39	34.881
438.75	35.641
439.10	35.144
439.45	36.640
439.81	35.596
440.16	37.648
440.51	37.552
440.86	37.281
441.22	35.860
441.57	35.982
441.92	36.621
442.27	36.863
442.63	37.420
442.98	35.784
443.33	35.337
443.68	35.279
444.03	37.457
444.39	36.940
444.74	37.458
445.09	36.303
445.44	36.296
445.79	36.565
446.15	35.628
446.50	36.495
446.85	36.132
447.20	36.757
447.55	37.946
447.91	36.774
448.26	36.881
448.61	36.903
448.96	37.866
449.31	37.225
449.66	35.889
450.02	37.022
450.37	36.929
450.72	36.655
451.07	37.278
451.42	35.955
451.77	35.925
452.12	35.467
452.47	36.188
452.83	36.867
453.18	36.116
453.53	36.599
453.88	36.491
454.23	36.755
454.58	38.350
454.93	37.371
455.28	35.238
455.63	37.446
455.98	37.102
456.34	35.888
456.69	36.595
457.04	37.429
457.39	35.723
457.74	36.820
458.09	35.903
458.44	35.986
458.79	36.639
459.14	35.698
459.49	36.478
459.84	36.887
460.19	35.133
460.54	36.491
460.89	35.852
461.24	35.404
461.59	36.520
461.94	35.283
462.29	36.309
462.64	36.545
462.99	37.238
463.34	36.231
463.69	37.001
464.04	37.288
464.39	36.325
464.74	36.626
465.09	35.995
465.44	36.757
465.79	35.204
466.14	36.203
466.49	35.423
466.84	35.634
467.19	36.358
467.54	35.441
467.89	35.692
468.24	36.010
468.59	37.143
468.94	35.302
469.29	36.787
469.64	37.252
469.99	36.230
470.34	35.495
470.68	37.808
471.03	37.438
471.38	36.020
471.73	37.185
472.08	35.482
472.43	36.309
472.78	36.737
473.13	36.531
473.48	36.091
473.83	36.737
474.17	36.788
474.52	34.844
474.87	35.818
475.22	35.326
475.57	35.517
475.92	35.710
476.27	36.205
476.61	36.169
476.96	34.969
477.31	35.533
477.66	35.618
478.01	35.654
478.36	35.240
478.70	35.780
479.05	36.099
479.40	35.718
479.75	35.193
480.10	35.228
480.45	35.100
480.79	36.052
481.14	35.707
481.49	34.384
481.84	35.039
482.19	35.313
482.53	35.492
482.88	34.797
483.23	34.885
483.58	34.623
483.92	34.511
484.27	34.594
484.62	35.007
484.97	33.789
485.31	33.418
485.66	31.220
486.01	31.487
486.36	31.047
486.70	33.027
487.05	33.147
487.40	32.575
487.75	33.296
488.09	33.189
488.44	33.563
488.79	33.732
489.13	34.736
489.48	35.058
489.83	34.215
490.17	33.978
490.52	34.365
490.87	33.596
491.22	35.291
491.56	34.250
491.91	33.939
492.26	34.711
492.60	34.309
492.95	35.121
493.30	34.050
493.64	34.921
493.99	34.879
494.34	34.029
494.68	34.190
495.03	34.112
495.37	34.495
495.72	35.487
496.07	34.976
496.41	34.151
496.76	33.717
497.11	33.209
497.45	34.129
497.80	35.217
498.14	33.929
498.49	34.738
498.84	34.681
499.18	34.538
499.53	32.986
499.87	33.998
500.22	33.333
500.56	33.888
500.91	33.384
501.26	32.921
501.60	32.956
501.95	34.401
502.29	33.317
502.64	33.591
502.98	33.448
503.33	32.805
503.67	33.012
504.02	33.969
504.36	33.894
504.71	33.333
505.06	33.266
505.40	33.350
505.75	33.505
506.09	33.147
506.44	33.214
506.78	33.418
507.13	34.023
507.47	32.272
507.82	33.013
508.16	33.386
508.51	33.788
508.85	33.961
509.19	32.783
509.54	33.029
509.88	33.118
510.23	33.190
510.57	33.565
510.92	31.503
511.26	32.951
511.61	33.443
511.95	32.932
512.30	32.705
512.64	33.445
512.98	33.464
513.33	32.904
513.67	33.428
514.02	33.524
514.36	33.200
514.70	33.566
515.05	33.373
515.39	32.822
515.74	34.251
516.08	33.353
516.42	32.980
516.77	33.411
517.11	33.887
517.46	33.214
517.80	34.088
518.14	33.374
518.49	31.430
518.83	32.989
519.17	32.686
519.52	32.800
519.86	32.233
520.20	32.807
520.55	32.145
520.89	33.689
521.23	32.679
521.58	34.196
521.92	33.077
522.26	33.182
522.61	32.273
522.95	34.437
523.29	33.990
523.64	34.244
523.98	33.571
524.32	32.925
524.66	32.907
525.01	33.052
525.35	33.312
525.69	31.717
526.04	33.069
526.38	34.306
526.72	31.589
527.06	32.036
527.41	32.916
527.75	31.635
528.09	32.890
528.43	34.031
528.78	31.419
529.12	31.742
529.46	32.424
529.80	31.729
530.15	31.947
530.49	32.660
530.83	32.763
531.17	31.833
531.51	32.285
531.86	32.223
532.20	32.568
532.54	31.654
532.88	31.964
533.22	31.317
533.57	30.996
533.91	31.332
534.25	31.185
534.59	30.340
534.93	30.522
535.27	30.013
535.62	30.331
535.96	31.637
536.30	31.266
536.64	31.840
536.98	30.732
537.32	32.361
537.66	32.819
538.01	30.210
538.35	29.958
538.69	30.493
539.03	29.528
539.37	30.350
539.71	30.198
540.05	30.278
540.39	30.609
540.73	31.032
541.07	30.939
541.42	30.645
541.76	30.970
542.10	29.663
542.44	30.646
542.78	29.732
543.12	30.563
543.46	30.529
543.80	31.020
544.14	29.640
544.48	29.780
544.82	30.075
545.16	29.918
545.50	30.574
545.84	30.453
546.18	31.206
546.52	29.993
546.86	30.841
547.20	30.544
547.54	29.329
547.88	29.959
548.22	29.454
548.56	28.298
548.90	29.582
549.24	29.959
549.58	30.254
549.92	27.663
550.26	29.597
550.60	29.368
550.94	30.471
551.28	30.371
551.62	30.308
551.96	29.474
552.30	29.532
552.64	28.843
552.98	28.692
553.32	29.458
553.66	28.520
554.00	29.927
554.34	28.730
554.68	29.130
555.02	30.208
555.36	29.095
555.69	29.158
556.03	28.837
556.37	27.402
556.71	28.303
557.05	28.486
557.39	28.550
557.73	28.486
558.07	28.507
558.41	28.867
558.75	27.903
559.08	28.132
559.42	28.571
559.76	28.022
560.10	28.211
560.44	28.295
560.78	27.692
561.12	27.645
561.45	27.758
561.79	27.801
562.13	28.886
562.47	26.475
562.81	27.954
563.15	28.420
563.48	27.652
563.82	28.140
564.16	26.950
564.50	27.027
564.84	28.046
565.17	26.157
565.51	27.596
565.85	27.435
566.19	27.056
566.52	27.078
566.86	27.956
567.20	26.152
567.54	26.764
567.88	25.718
568.21	26.697
568.55	25.054
568.89	25.924
569.23	25.421
569.56	25.000
569.90	25.213
570.24	23.186
570.57	23.782
570.91	24.399
571.25	23.611
571.59	23.046
571.92	22.815
572.26	22.977
572.60	22.915
572.93	23.345
573.27	23.103
573.61	22.971
573.95	22.447
574.28	22.272
574.62	21.765
574.96	22.089
575.29	21.858
575.63	21.638
575.97	22.282
576.30	22.575
576.64	21.642
576.98	22.136
577.31	21.996
577.65	22.041
577.98	21.407
578.32	21.418
578.66	20.868
578.99	21.385
579.33	21.509
579.67	21.398
580.00	21.620
580.34	21.468
580.67	21.414
581.01	21.470
581.35	21.253
581.68	20.862
582.02	20.591
582.35	20.910
582.69	20.939
583.02	20.893
583.36	21.647
583.70	22.092
584.03	22.658
584.37	21.739
584.70	22.390
585.04	21.269
585.37	20.885
585.71	20.933
586.04	20.575
586.38	20.912
586.72	21.894
587.05	21.664
587.39	21.862
587.72	21.405
588.06	21.229
588.39	21.276
588.73	21.978
589.06	22.472
589.40	22.053
589.73	22.015
590.07	22.508
590.40	21.440
590.73	22.035
591.07	22.265
591.40	22.084
591.74	22.489
592.07	22.681
592.41	22.482
592.74	21.306
593.08	20.713
593.41	21.219
593.75	20.543
594.08	20.460
594.41	21.470
594.75	20.992
595.08	20.810
595.42	21.089
595.75	20.954
596.09	21.658
596.42	21.496
596.75	22.114
597.09	22.415
597.42	21.725
597.75	21.667
598.09	20.733
598.42	21.074
598.76	20.978
599.09	20.913
599.42	20.121
599.76	20.241
600.09	20.701
600.42	20.508
600.76	19.911
601.09	20.267
601.42	20.368
601.76	20.286
602.09	20.462
602.42	21.104
602.76	21.095
603.09	21.262
603.42	21.530
603.76	20.524
604.09	20.008
604.42	20.770
604.76	21.184
605.09	21.161
605.42	19.910
605.75	20.447
606.09	20.127
606.42	19.558
606.75	20.823
607.09	20.615
607.42	20.071
607.75	19.982
608.08	20.305
608.42	20.649
608.75	20.867
609.08	20.329
609.41	20.406
609.75	20.262
610.08	20.769
610.41	19.855
610.74	20.185
611.07	20.103
611.41	21.744
611.74	21.535
612.07	20.771
612.40	20.624
612.73	20.565
613.07	20.416
613.40	20.678
613.73	20.201
614.06	20.979
614.39	20.417
614.72	20.504
615.06	19.553
615.39	20.197
615.72	19.752
616.05	21.006
616.38	19.715
616.71	20.245
617.05	21.001
617.38	21.873
617.71	20.566
618.04	21.333
618.37	22.257
618.70	21.980
619.03	22.292
619.36	21.274
619.69	22.365
620.03	22.060
620.36	21.173
620.69	20.485
621.02	21.789
621.35	22.075
621.68	22.194
622.01	22.000
622.34	22.107
622.67	21.530
623.00	21.822
623.33	20.427
623.66	19.970
623.99	20.424
624.32	20.760
624.65	20.301
624.99	21.219
625.32	20.394
625.65	21.917
625.98	21.434
626.31	20.781
626.64	22.097
626.97	22.688
627.30	20.841
627.63	21.057
627.96	21.653
628.29	21.369
628.62	22.321
628.95	21.643
629.28	22.177
629.61	23.230
629.94	23.558
630.26	19.960
630.59	21.748
630.92	22.359
631.25	22.154
631.58	23.899
631.91	21.162
632.24	23.853
632.57	22.273
632.90	21.471
633.23	22.706
633.56	22.544
633.89	22.565
634.22	23.210
634.55	22.363
634.88	22.222
635.20	21.667
635.53	23.600
635.86	20.676
636.19	21.475
636.52	22.959
636.85	21.960
637.18	22.013
637.51	23.899
