SpectraSuite Data File
++++++++++++++++++++++++++++++++++++
Date: Fri May 15 21:01:00 PDT 2015
User: schluterlab
Dark Spectrum Present: Yes
Reference Spectrum Present: Yes
Number of Sampled Component Spectra: 1
Spectrometers: USB2E3373
Integration Time (usec): 3000 (USB2E3373)
Spectra Averaged: 3 (USB2E3373)
Boxcar Smoothing: 0 (USB2E3373)
Correct for Electrical Dark: No (USB2E3373)
Strobe/Lamp Enabled: No (USB2E3373)
Correct for Detector Non-linearity: No (USB2E3373)
Correct for Stray Light: No (USB2E3373)
Number of Pixels in Processed Spectrum: 2048
>>>>>Begin Processed Spectral Data<<<<<
178.53	0.000
178.91	0.000
179.29	25.000
179.67	-400.000
180.04	128.571
180.42	50.000
180.80	-100.000
181.18	166.667
181.56	250.000
181.94	-200.000
182.31	900.000
182.69	-200.000
183.07	-400.000
183.45	-20.000
183.83	250.000
184.20	-9.091
184.58	77.778
184.96	100.000
185.34	200.000
185.72	-750.000
186.09	84.615
186.47	-1000.000
186.85	333.333
187.23	111.111
187.61	100.000
187.98	-500.000
188.36	-44.444
188.74	-300.000
189.12	41.176
189.49	11.111
189.87	0.000
190.25	42.857
190.63	-500.000
191.00	-200.000
191.38	-47.368
191.76	-100.000
192.14	50.000
192.51	50.000
192.89	-55.556
193.27	-128.571
193.65	33.333
194.02	190.909
194.40	-20.000
194.78	-137.500
195.15	-25.000
195.53	25.000
195.91	175.000
196.29	-225.000
196.66	76.923
197.04	171.429
197.42	-44.444
197.79	-700.000
198.17	-92.308
198.55	1100.000
198.92	-533.333
199.30	-900.000
199.68	-200.000
200.05	-533.333
200.43	0.000
200.81	-166.667
201.18	-266.667
201.56	1700.000
201.94	-300.000
202.31	66.667
202.69	-140.000
203.07	125.000
203.44	-100.000
203.82	0.000
204.19	-7.143
204.57	-400.000
204.95	50.000
205.32	-70.000
205.70	14.286
206.08	125.000
206.45	77.778
206.83	78.571
207.20	-85.714
207.58	700.000
207.96	-66.667
208.33	-150.000
208.71	-25.000
209.08	-233.333
209.46	-1300.000
209.84	-200.000
210.21	-200.000
210.59	-114.286
210.96	-83.333
211.34	-200.000
211.71	-40.000
212.09	-242.857
212.46	-2200.000
212.84	0.000
213.22	60.000
213.59	350.000
213.97	15.385
214.34	9.091
214.72	50.000
215.09	325.000
215.47	-76.923
215.84	-36.364
216.22	-333.333
216.59	-150.000
216.97	200.000
217.34	0.000
217.72	-240.000
218.09	-12.500
218.47	275.000
218.84	-300.000
219.22	-100.000
219.59	-80.000
219.97	166.667
220.34	125.000
220.72	-71.429
221.09	-325.000
221.47	-850.000
221.84	-300.000
222.22	-1050.000
222.59	-90.909
222.97	-33.333
223.34	-566.667
223.72	0.000
224.09	-52.381
224.46	-3.571
224.84	333.333
225.21	-60.000
225.59	13.333
225.96	-250.000
226.34	475.000
226.71	-100.000
227.08	-50.000
227.46	-37.500
227.83	-500.000
228.21	-77.778
228.58	-81.818
228.95	-200.000
229.33	100.000
229.70	-6.250
230.08	-162.500
230.45	-171.429
230.82	-114.286
231.20	-20.000
231.57	50.000
231.95	0.000
232.32	-90.000
232.69	71.429
233.07	-100.000
233.44	-260.000
233.81	-160.000
234.19	-44.444
234.56	5.882
234.93	900.000
235.31	-125.000
235.68	-220.000
236.05	-84.615
236.43	-105.000
236.80	-64.706
237.17	-6.250
237.55	-55.000
237.92	-22.222
238.29	-22.222
238.67	-6.667
239.04	-8.824
239.41	-39.024
239.79	-40.000
240.16	7.317
240.53	-21.053
240.91	2.174
241.28	-9.524
241.65	7.143
242.02	-1.370
242.40	-5.000
242.77	-30.508
243.14	-18.182
243.51	-6.250
243.89	9.195
244.26	-11.494
244.63	-5.952
245.00	-2.062
245.38	4.124
245.75	-12.360
246.12	-5.172
246.49	5.785
246.87	4.808
247.24	-10.924
247.61	-7.018
247.98	-4.065
248.36	3.125
248.73	5.263
249.10	-1.299
249.47	-1.899
249.84	0.654
250.22	7.647
250.59	-1.307
250.96	9.390
251.33	1.163
251.70	6.471
252.08	-0.508
252.45	0.495
252.82	4.020
253.19	2.765
253.56	-3.738
253.94	4.054
254.31	4.348
254.68	3.947
255.05	7.087
255.42	4.367
255.79	2.317
256.16	3.502
256.54	7.463
256.91	1.521
257.28	5.204
257.65	3.745
258.02	2.482
258.39	7.407
258.76	4.029
259.14	6.312
259.51	1.294
259.88	3.436
260.25	1.961
260.62	0.000
260.99	1.356
261.36	-0.685
261.73	1.899
262.10	5.167
262.47	4.294
262.85	3.448
263.22	2.154
263.59	3.738
263.96	2.795
264.33	2.121
264.70	5.357
265.07	2.976
265.44	3.683
265.81	4.520
266.18	4.645
266.55	4.884
266.92	5.440
267.29	6.266
267.66	4.859
268.03	2.094
268.40	-1.044
268.77	5.615
269.14	3.837
269.51	4.113
269.88	3.990
270.25	4.847
270.62	4.878
270.99	2.813
271.36	4.156
271.73	5.634
272.10	1.946
272.47	4.965
272.84	2.475
273.21	5.336
273.58	5.301
273.95	5.034
274.32	2.771
274.69	1.131
275.06	4.464
275.43	3.175
275.80	3.753
276.17	4.138
276.54	5.139
276.91	3.070
277.28	4.803
277.65	4.545
278.02	3.617
278.39	1.751
278.76	4.822
279.13	0.830
279.50	5.042
279.87	2.808
280.23	1.505
280.60	3.704
280.97	4.242
281.34	3.654
281.71	3.080
282.08	2.045
282.45	2.740
282.82	4.054
283.19	3.288
283.56	3.083
283.92	3.226
284.29	2.308
284.66	2.713
285.03	4.715
285.40	3.025
285.77	2.109
286.14	3.249
286.51	4.428
286.87	5.119
287.24	3.683
287.61	1.587
287.98	4.737
288.35	3.120
288.72	4.378
289.08	2.431
289.45	4.569
289.82	4.545
290.19	3.584
290.56	2.401
290.93	3.704
291.29	4.777
291.66	4.409
292.03	3.668
292.40	4.839
292.77	1.435
293.13	0.487
293.50	2.124
293.87	4.122
294.24	2.009
294.60	4.024
294.97	2.679
295.34	2.761
295.71	3.130
296.08	3.587
296.44	1.138
296.81	3.611
297.18	2.174
297.55	4.472
297.91	3.562
298.28	4.354
298.65	4.478
299.02	2.156
299.38	1.778
299.75	0.828
300.12	2.880
300.48	3.030
300.85	3.169
301.22	4.026
301.59	2.105
301.95	4.051
302.32	5.188
302.69	2.488
303.05	3.960
303.42	5.230
303.79	3.738
304.15	4.421
304.52	1.308
304.89	2.690
305.25	3.269
305.62	3.034
305.99	2.807
306.35	3.468
306.72	1.800
307.09	3.535
307.45	4.133
307.82	1.389
308.19	4.994
308.55	3.817
308.92	3.813
309.29	2.570
309.65	2.476
310.02	4.840
310.38	3.952
310.75	2.623
311.12	4.736
311.48	2.863
311.85	4.921
312.22	4.008
312.58	4.352
312.95	4.589
313.31	4.451
313.68	4.607
314.05	3.367
314.41	4.536
314.78	4.433
315.14	6.783
315.51	5.072
315.87	5.123
316.24	7.786
316.61	5.709
316.97	6.845
317.34	5.957
317.70	7.361
318.07	7.212
318.43	8.725
318.80	8.239
319.16	8.105
319.53	9.497
319.89	8.268
320.26	10.020
320.62	10.130
320.99	9.916
321.35	10.483
321.72	11.423
322.08	11.581
322.45	12.183
322.81	12.181
323.18	12.463
323.54	13.224
323.91	12.950
324.27	13.379
324.64	13.858
325.00	14.599
325.37	15.702
325.73	14.597
326.10	15.259
326.46	16.592
326.83	17.585
327.19	18.309
327.56	17.376
327.92	18.222
328.29	18.214
328.65	18.396
329.01	18.842
329.38	19.355
329.74	17.469
330.11	19.184
330.47	18.738
330.84	20.192
331.20	22.243
331.56	19.074
331.93	21.279
332.29	21.907
332.66	20.362
333.02	21.654
333.38	20.257
333.75	21.520
334.11	20.322
334.48	22.665
334.84	22.070
335.20	21.500
335.57	21.396
335.93	21.590
336.29	21.087
336.66	20.436
337.02	20.632
337.38	21.389
337.75	20.364
338.11	21.641
338.47	22.080
338.84	22.921
339.20	22.943
339.56	22.844
339.93	21.218
340.29	22.294
340.65	21.953
341.02	21.631
341.38	21.858
341.74	20.848
342.11	20.797
342.47	21.174
342.83	21.540
343.20	20.819
343.56	21.826
343.92	21.789
344.28	21.520
344.65	20.294
345.01	20.657
345.37	21.278
345.73	21.925
346.10	21.398
346.46	21.194
346.82	20.458
347.19	19.784
347.55	21.888
347.91	21.278
348.27	21.746
348.63	22.061
349.00	20.755
349.36	20.283
349.72	21.808
350.08	21.311
350.45	21.788
350.81	20.183
351.17	19.870
351.53	22.449
351.89	19.405
352.26	20.560
352.62	21.290
352.98	19.518
353.34	21.176
353.70	21.683
354.07	20.968
354.43	20.256
354.79	21.057
355.15	20.873
355.51	20.253
355.87	21.036
356.24	20.065
356.60	19.644
356.96	21.667
357.32	20.847
357.68	20.094
358.04	20.759
358.40	20.338
358.77	20.255
359.13	20.817
359.49	19.800
359.85	20.125
360.21	20.494
360.57	19.816
360.93	21.407
361.29	19.789
361.66	21.082
362.02	20.909
362.38	20.107
362.74	20.590
363.10	21.445
363.46	20.015
363.82	21.187
364.18	20.738
364.54	20.221
364.90	21.075
365.26	21.106
365.62	22.774
365.98	20.381
366.35	21.850
366.71	20.843
367.07	21.988
367.43	19.842
367.79	20.777
368.15	20.316
368.51	21.486
368.87	20.603
369.23	20.289
369.59	21.356
369.95	22.434
370.31	20.809
370.67	21.716
371.03	20.911
371.39	20.496
371.75	21.392
372.11	21.969
372.47	21.598
372.83	21.505
373.19	21.755
373.55	21.300
373.91	21.742
374.27	21.758
374.63	21.536
374.99	21.277
375.35	22.214
375.71	22.448
376.07	21.770
376.42	22.177
376.78	22.215
377.14	21.936
377.50	22.045
377.86	21.821
378.22	20.485
378.58	21.410
378.94	21.991
379.30	22.458
379.66	22.821
380.02	21.275
380.38	22.033
380.74	22.621
381.09	22.515
381.45	22.385
381.81	22.887
382.17	22.652
382.53	22.299
382.89	22.599
383.25	23.584
383.61	22.134
383.97	23.365
384.32	23.265
384.68	23.715
385.04	23.591
385.40	22.526
385.76	24.843
386.12	24.191
386.48	24.840
386.83	23.589
387.19	24.115
387.55	24.028
387.91	23.411
388.27	23.016
388.62	23.851
388.98	23.880
389.34	23.673
389.70	25.420
390.06	23.851
390.42	24.288
390.77	24.264
391.13	22.636
391.49	24.321
391.85	24.756
392.20	24.733
392.56	24.921
392.92	24.721
393.28	23.880
393.64	23.724
393.99	25.517
394.35	25.111
394.71	25.543
395.07	24.890
395.42	23.922
395.78	24.756
396.14	25.662
396.50	25.999
396.85	24.791
397.21	25.251
397.57	25.141
397.92	25.105
398.28	25.632
398.64	24.940
399.00	24.549
399.35	24.661
399.71	25.215
400.07	26.542
400.42	24.908
400.78	26.271
401.14	25.953
401.49	25.849
401.85	25.960
402.21	26.325
402.57	25.875
402.92	24.279
403.28	25.251
403.63	24.842
403.99	24.681
404.35	25.422
404.70	25.060
405.06	24.912
405.42	24.301
405.77	24.869
406.13	25.728
406.49	24.985
406.84	26.834
407.20	26.129
407.55	24.726
407.91	25.067
408.27	24.984
408.62	27.015
408.98	25.015
409.34	25.960
409.69	24.612
410.05	25.000
410.40	25.556
410.76	25.814
411.11	25.937
411.47	25.510
411.83	25.424
412.18	25.611
412.54	25.468
412.89	24.692
413.25	24.669
413.60	24.969
413.96	25.215
414.31	25.549
414.67	25.144
415.03	25.766
415.38	25.131
415.74	25.407
416.09	25.800
416.45	25.658
416.80	25.182
417.16	25.207
417.51	25.050
417.87	25.293
418.22	25.324
418.58	25.284
418.93	26.332
419.29	24.456
419.64	25.470
420.00	26.322
420.35	24.836
420.71	26.063
421.06	25.721
421.42	25.601
421.77	25.434
422.12	25.028
422.48	26.042
422.83	25.000
423.19	25.339
423.54	25.220
423.90	24.853
424.25	26.234
424.61	25.643
424.96	25.436
425.31	25.939
425.67	25.822
426.02	26.148
426.38	25.986
426.73	26.090
427.09	25.886
427.44	25.294
427.79	26.282
428.15	26.153
428.50	25.742
428.85	24.754
429.21	26.033
429.56	25.553
429.92	25.064
430.27	25.013
430.62	24.464
430.98	25.212
431.33	24.974
431.68	25.536
432.04	25.377
432.39	24.758
432.74	24.835
433.10	25.920
433.45	25.090
433.80	25.073
434.16	24.654
434.51	25.806
434.86	26.655
435.22	25.014
435.57	26.326
435.92	24.551
436.28	24.985
436.63	25.100
436.98	24.739
437.34	24.924
437.69	25.522
438.04	25.413
438.39	25.412
438.75	25.926
439.10	24.958
439.45	25.563
439.81	24.648
440.16	25.831
440.51	24.896
440.86	26.405
441.22	24.887
441.57	25.166
441.92	26.180
442.27	24.889
442.63	25.642
442.98	24.928
443.33	24.541
443.68	24.987
444.03	25.832
444.39	25.184
444.74	26.143
445.09	25.167
445.44	25.356
445.79	25.890
446.15	24.725
446.50	25.069
446.85	25.452
447.20	25.339
447.55	25.558
447.91	24.478
448.26	26.010
448.61	25.331
448.96	25.359
449.31	24.624
449.66	24.739
450.02	24.586
450.37	24.481
450.72	25.659
451.07	25.127
451.42	24.532
451.77	24.955
452.12	24.163
452.47	24.147
452.83	24.735
453.18	25.174
453.53	25.348
453.88	25.562
454.23	25.261
454.58	25.063
454.93	25.258
455.28	24.381
455.63	25.170
455.98	26.338
456.34	24.777
456.69	24.841
457.04	25.079
457.39	24.909
457.74	24.305
458.09	24.426
458.44	23.406
458.79	25.322
459.14	25.915
459.49	24.955
459.84	25.155
460.19	24.575
460.54	24.633
460.89	24.943
461.24	24.410
461.59	25.000
461.94	23.836
462.29	24.789
462.64	24.319
462.99	24.848
463.34	24.061
463.69	23.166
464.04	24.092
464.39	25.349
464.74	24.724
465.09	24.329
465.44	24.466
465.79	24.263
466.14	24.059
466.49	23.864
466.84	24.093
467.19	23.467
467.54	24.010
467.89	22.994
468.24	24.148
468.59	23.302
468.94	23.937
469.29	23.869
469.64	23.992
469.99	24.527
470.34	22.935
470.68	25.056
471.03	24.770
471.38	23.966
471.73	22.619
472.08	23.406
472.43	22.819
472.78	23.646
473.13	22.721
473.48	23.453
473.83	23.350
474.17	23.251
474.52	23.484
474.87	23.152
475.22	23.368
475.57	23.433
475.92	23.368
476.27	23.283
476.61	22.975
476.96	22.142
477.31	23.039
477.66	22.865
478.01	22.908
478.36	23.148
478.70	23.437
479.05	22.912
479.40	23.211
479.75	22.941
480.10	22.171
480.45	22.800
480.79	23.615
481.14	23.412
481.49	22.118
481.84	21.525
482.19	21.890
482.53	22.590
482.88	22.291
483.23	22.073
483.58	22.264
483.92	22.168
484.27	22.197
484.62	21.649
484.97	22.595
485.31	20.303
485.66	20.715
486.01	20.369
486.36	20.881
486.70	21.063
487.05	21.443
487.40	21.329
487.75	21.437
488.09	21.446
488.44	21.630
488.79	21.741
489.13	21.955
489.48	21.719
489.83	22.018
490.17	21.393
490.52	20.693
490.87	20.870
491.22	22.397
491.56	21.774
491.91	21.224
492.26	21.196
492.60	21.305
492.95	21.249
493.30	20.616
493.64	21.807
493.99	22.126
494.34	20.534
494.68	21.238
495.03	20.292
495.37	20.756
495.72	21.302
496.07	20.829
496.41	19.906
496.76	20.728
497.11	20.447
497.45	21.527
497.80	20.989
498.14	20.368
498.49	19.502
498.84	20.858
499.18	20.432
499.53	21.379
499.87	20.331
500.22	20.178
500.56	19.919
500.91	20.181
501.26	19.525
501.60	19.626
501.95	20.087
502.29	20.000
502.64	19.160
502.98	20.523
503.33	19.212
503.67	19.952
504.02	20.283
504.36	20.980
504.71	19.141
505.06	19.628
505.40	19.442
505.75	20.155
506.09	19.818
506.44	20.431
506.78	19.796
507.13	19.907
507.47	19.478
507.82	19.338
508.16	18.700
508.51	19.045
508.85	19.205
509.19	18.840
509.54	19.517
509.88	18.716
510.23	19.419
510.57	19.508
510.92	18.177
511.26	19.040
511.61	19.362
511.95	19.178
512.30	18.681
512.64	18.141
512.98	18.697
513.33	19.474
513.67	19.159
514.02	19.451
514.36	18.971
514.70	19.231
515.05	19.565
515.39	18.182
515.74	19.341
516.08	18.888
516.42	18.846
516.77	19.544
517.11	18.813
517.46	19.150
517.80	18.534
518.14	18.555
518.49	18.630
518.83	18.530
519.17	17.829
519.52	18.058
519.86	17.887
520.20	18.165
520.55	17.699
520.89	19.511
521.23	17.859
521.58	18.549
521.92	18.910
522.26	18.673
522.61	18.247
522.95	19.007
523.29	17.853
523.64	18.996
523.98	18.211
524.32	17.655
524.66	18.310
525.01	18.442
525.35	18.276
525.69	17.441
526.04	17.659
526.38	19.390
526.72	16.874
527.06	17.899
527.41	18.404
527.75	17.761
528.09	17.741
528.43	18.839
528.78	17.624
529.12	17.742
529.46	16.894
529.80	17.606
530.15	17.360
530.49	16.768
530.83	17.715
531.17	16.924
531.51	17.715
531.86	16.179
532.20	16.701
532.54	17.291
532.88	17.796
533.22	17.339
533.57	16.383
533.91	16.123
534.25	16.862
534.59	16.677
534.93	16.362
535.27	15.799
535.62	16.397
535.96	16.765
536.30	16.359
536.64	16.885
536.98	16.028
537.32	16.999
537.66	17.321
538.01	16.923
538.35	15.881
538.69	16.911
539.03	15.379
539.37	15.478
539.71	16.292
540.05	15.682
540.39	16.066
540.73	15.481
541.07	15.401
541.42	16.801
541.76	17.137
542.10	15.003
542.44	15.636
542.78	15.485
543.12	15.179
543.46	15.994
543.80	16.100
544.14	15.220
544.48	16.189
544.82	15.995
545.16	15.915
545.50	15.421
545.84	15.368
546.18	15.319
546.52	15.862
546.86	15.097
547.20	15.594
547.54	15.053
547.88	15.421
548.22	15.187
548.56	15.435
548.90	14.623
549.24	13.981
549.58	15.233
549.92	13.510
550.26	15.311
550.60	15.985
550.94	14.414
551.28	14.683
551.62	15.385
551.96	15.038
552.30	14.547
552.64	14.175
552.98	14.909
553.32	15.763
553.66	13.425
554.00	14.599
554.34	14.845
554.68	14.159
555.02	15.179
555.36	13.613
555.69	14.139
556.03	13.562
556.37	14.306
556.71	14.729
557.05	14.169
557.39	13.903
557.73	13.943
558.07	13.952
558.41	13.783
558.75	14.186
559.08	13.475
559.42	13.889
559.76	14.572
560.10	13.838
560.44	13.403
560.78	14.895
561.12	13.188
561.45	14.336
561.79	14.146
562.13	13.627
562.47	13.957
562.81	14.121
563.15	14.528
563.48	14.215
563.82	14.413
564.16	13.022
564.50	12.838
564.84	14.190
565.17	14.085
565.51	13.388
565.85	14.746
566.19	13.196
566.52	13.204
566.86	13.303
567.20	12.827
567.54	12.956
567.88	13.767
568.21	13.009
568.55	13.043
568.89	13.193
569.23	13.000
569.56	12.741
569.90	12.586
570.24	12.244
570.57	12.109
570.91	12.583
571.25	12.266
571.59	11.865
571.92	11.704
572.26	11.594
572.60	12.000
572.93	12.237
573.27	11.912
573.61	12.053
573.95	12.043
574.28	11.388
574.62	11.772
574.96	11.543
575.29	11.736
575.63	11.324
575.97	10.951
576.30	11.442
576.64	11.417
576.98	11.686
577.31	11.428
577.65	11.674
577.98	11.433
578.32	11.700
578.66	11.391
578.99	11.816
579.33	11.267
579.67	11.406
580.00	11.418
580.34	11.468
580.67	11.202
581.01	11.551
581.35	10.960
581.68	11.238
582.02	11.213
582.35	11.068
582.69	11.122
583.02	11.301
583.36	11.663
583.70	11.475
584.03	11.704
584.37	12.055
584.70	11.566
585.04	11.347
585.37	11.351
585.71	11.306
586.04	11.220
586.38	10.696
586.72	11.248
587.05	11.785
587.39	11.322
587.72	11.454
588.06	11.459
588.39	11.564
588.73	11.752
589.06	11.676
589.40	11.683
589.73	11.756
590.07	11.896
590.40	12.229
590.73	12.232
591.07	11.874
591.40	11.710
591.74	11.357
592.07	12.662
592.41	10.822
592.74	11.669
593.08	10.933
593.41	11.334
593.75	10.991
594.08	11.020
594.41	11.645
594.75	10.954
595.08	11.729
595.42	11.410
595.75	11.341
596.09	11.024
596.42	11.699
596.75	11.234
597.09	11.344
597.42	11.608
597.75	11.635
598.09	11.317
598.42	11.282
598.76	11.283
599.09	10.938
599.42	10.800
599.76	11.512
600.09	10.822
600.42	11.031
600.76	10.921
601.09	10.534
601.42	10.615
601.76	10.719
602.09	10.726
602.42	11.710
602.76	11.375
603.09	11.586
603.42	11.246
603.76	10.887
604.09	10.652
604.42	11.591
604.76	11.482
605.09	11.380
605.42	10.519
605.75	10.683
606.09	10.828
606.42	10.550
606.75	11.082
607.09	11.516
607.42	11.121
607.75	10.702
608.08	11.456
608.42	11.375
608.75	10.795
609.08	11.759
609.41	11.066
609.75	11.794
610.08	11.033
610.41	10.966
610.74	10.775
611.07	11.266
611.41	11.780
611.74	11.514
612.07	10.867
612.40	11.214
612.73	10.113
613.07	11.249
613.40	11.324
613.73	10.520
614.06	11.519
614.39	11.901
614.72	10.924
615.06	10.950
615.39	10.644
615.72	10.495
616.05	11.564
616.38	10.199
616.71	10.826
617.05	11.797
617.38	11.188
617.71	11.069
618.04	11.302
618.37	12.295
618.70	11.419
619.03	11.806
619.36	11.577
619.69	12.282
620.03	12.564
620.36	11.731
620.69	11.706
621.02	11.086
621.35	11.701
621.68	12.415
622.01	11.667
622.34	12.849
622.67	11.672
623.00	12.175
623.33	12.424
623.66	11.070
623.99	11.422
624.32	12.471
624.65	10.526
624.99	12.265
625.32	10.842
625.65	12.726
625.98	11.926
626.31	9.559
626.64	11.352
626.97	11.780
627.30	11.996
627.63	11.525
627.96	12.848
628.29	10.638
628.62	11.308
628.95	12.826
629.28	12.298
629.61	11.565
629.94	12.414
630.26	12.055
630.59	12.279
630.92	13.333
631.25	12.205
631.58	12.885
631.91	11.732
632.24	11.468
632.57	13.977
632.90	10.913
633.23	12.706
633.56	11.713
633.89	11.467
634.22	12.346
634.55	12.325
634.88	11.622
635.20	12.051
635.53	12.133
635.86	11.183
636.19	12.937
636.52	11.480
636.85	11.538
