SpectraSuite Data File
++++++++++++++++++++++++++++++++++++
Date: Fri May 15 20:39:28 PDT 2015
User: schluterlab
Dark Spectrum Present: Yes
Reference Spectrum Present: Yes
Number of Sampled Component Spectra: 1
Spectrometers: USB2E3373
Integration Time (usec): 3000 (USB2E3373)
Spectra Averaged: 3 (USB2E3373)
Boxcar Smoothing: 0 (USB2E3373)
Correct for Electrical Dark: No (USB2E3373)
Strobe/Lamp Enabled: No (USB2E3373)
Correct for Detector Non-linearity: No (USB2E3373)
Correct for Stray Light: No (USB2E3373)
Number of Pixels in Processed Spectrum: 2048
>>>>>Begin Processed Spectral Data<<<<<
178.53	0.000
178.91	0.000
179.29	37.500
179.67	-300.000
180.04	-14.286
180.42	275.000
180.80	-300.000
181.18	133.333
181.56	300.000
181.94	200.000
182.31	100.000
182.69	-140.000
183.07	-333.333
183.45	-40.000
183.83	166.667
184.20	9.091
184.58	133.333
184.96	-275.000
185.34	-33.333
185.72	-450.000
186.09	92.308
186.47	-500.000
186.85	150.000
187.23	66.667
187.61	-200.000
187.98	-100.000
188.36	-11.111
188.74	-366.667
189.12	41.176
189.49	11.111
189.87	0.000
190.25	50.000
190.63	50.000
191.00	-266.667
191.38	-15.789
191.76	50.000
192.14	75.000
192.51	50.000
192.89	-55.556
193.27	-71.429
193.65	33.333
194.02	154.545
194.40	160.000
194.78	-212.500
195.15	0.000
195.53	0.000
195.91	625.000
196.29	-175.000
196.66	146.154
197.04	42.857
197.42	-77.778
197.79	-666.667
198.17	-7.692
198.55	1100.000
198.92	-133.333
199.30	-500.000
199.68	-160.000
200.05	-266.667
200.43	0.000
200.81	-166.667
201.18	0.000
201.56	2100.000
201.94	-800.000
202.31	-133.333
202.69	-240.000
203.07	125.000
203.44	-200.000
203.82	0.000
204.19	14.286
204.57	-333.333
204.95	137.500
205.32	50.000
205.70	42.857
206.08	50.000
206.45	11.111
206.83	50.000
207.20	-42.857
207.58	1800.000
207.96	-233.333
208.33	-40.000
208.71	-150.000
209.08	-183.333
209.46	-1000.000
209.84	-60.000
210.21	-700.000
210.59	228.571
210.96	-100.000
211.34	0.000
211.71	-26.667
212.09	-171.429
212.46	-1200.000
212.84	0.000
213.22	0.000
213.59	550.000
213.97	30.769
214.34	81.818
214.72	-100.000
215.09	250.000
215.47	46.154
215.84	-18.182
216.22	-133.333
216.59	-62.500
216.97	-400.000
217.34	-75.000
217.72	-160.000
218.09	100.000
218.47	225.000
218.84	-600.000
219.22	0.000
219.59	220.000
219.97	233.333
220.34	575.000
220.72	128.571
221.09	-200.000
221.47	0.000
221.84	-550.000
222.22	-800.000
222.59	18.182
222.97	66.667
223.34	-133.333
223.72	-42.857
224.09	42.857
224.46	3.571
224.84	-100.000
225.21	-40.000
225.59	40.000
225.96	-450.000
226.34	325.000
226.71	-114.286
227.08	-50.000
227.46	0.000
227.83	-1100.000
228.21	111.111
228.58	-18.182
228.95	100.000
229.33	90.000
229.70	18.750
230.08	-112.500
230.45	-28.571
230.82	-57.143
231.20	0.000
231.57	50.000
231.95	85.714
232.32	-170.000
232.69	50.000
233.07	100.000
233.44	-240.000
233.81	-50.000
234.19	33.333
234.56	-58.824
234.93	550.000
235.31	100.000
235.68	-440.000
236.05	-146.154
236.43	65.000
236.80	-17.647
237.17	6.250
237.55	-55.000
237.92	-40.741
238.29	2.778
238.67	26.667
239.04	-8.824
239.41	-7.317
239.79	-16.667
240.16	9.756
240.53	-5.263
240.91	-15.217
241.28	7.937
241.65	8.929
242.02	19.178
242.40	15.000
242.77	-10.169
243.14	12.121
243.51	5.000
243.89	21.839
244.26	0.000
244.63	3.571
245.00	6.186
245.38	4.124
245.75	-8.989
246.12	0.000
246.49	0.000
246.87	7.692
247.24	5.882
247.61	-2.632
247.98	0.813
248.36	1.875
248.73	8.553
249.10	1.948
249.47	5.696
249.84	5.229
250.22	3.529
250.59	7.190
250.96	15.493
251.33	6.977
251.70	7.647
252.08	6.599
252.45	4.950
252.82	8.543
253.19	5.069
253.56	-0.467
253.94	4.955
254.31	8.261
254.68	12.281
255.05	6.693
255.42	7.860
255.79	7.722
256.16	8.949
256.54	8.582
256.91	5.323
257.28	10.037
257.65	7.865
258.02	3.191
258.39	9.091
258.76	8.059
259.14	9.302
259.51	7.767
259.88	8.591
260.25	11.765
260.62	11.458
260.99	1.356
261.36	5.479
261.73	5.696
262.10	6.079
262.47	8.896
262.85	6.897
263.22	6.154
263.59	9.657
263.96	8.385
264.33	10.606
264.70	5.655
265.07	6.548
265.44	8.499
265.81	7.910
266.18	7.923
266.55	8.740
266.92	9.326
267.29	7.311
267.66	8.696
268.03	7.592
268.40	9.399
268.77	12.834
269.14	9.832
269.51	9.512
269.88	5.985
270.25	9.184
270.62	3.415
270.99	5.627
271.36	5.379
271.73	10.329
272.10	4.866
272.47	8.511
272.84	6.436
273.21	7.657
273.58	9.398
273.95	7.551
274.32	4.619
274.69	6.787
275.06	7.589
275.43	4.762
275.80	6.402
276.17	4.368
276.54	8.779
276.91	5.263
277.28	6.769
277.65	7.645
278.02	8.298
278.39	5.689
278.76	6.918
279.13	4.772
279.50	8.824
279.87	8.207
280.23	6.882
280.60	9.357
280.97	9.293
281.34	8.077
281.71	8.419
282.08	6.953
282.45	6.458
282.82	4.440
283.19	5.996
283.56	7.514
283.92	4.364
284.29	6.154
284.66	6.783
285.03	7.073
285.40	6.994
285.77	5.624
286.14	7.581
286.51	7.749
286.87	6.764
287.24	6.630
287.61	6.702
287.98	7.018
288.35	5.719
288.72	8.056
289.08	5.729
289.45	7.206
289.82	5.944
290.19	5.802
290.56	5.660
290.93	5.724
291.29	5.547
291.66	8.346
292.03	4.466
292.40	7.581
292.77	4.466
293.13	3.247
293.50	4.401
293.87	6.870
294.24	5.564
294.60	7.004
294.97	6.845
295.34	7.055
295.71	5.961
296.08	4.634
296.44	5.121
296.81	7.083
297.18	6.377
297.55	6.775
297.91	6.849
298.28	5.277
298.65	5.156
299.02	5.660
299.38	3.967
299.75	4.690
300.12	4.974
300.48	5.007
300.85	6.464
301.22	6.104
301.59	5.789
301.95	5.443
302.32	7.004
302.69	3.980
303.05	6.683
303.42	4.857
303.79	7.009
304.15	5.018
304.52	3.329
304.89	4.561
305.25	4.600
305.62	4.551
305.99	5.380
306.35	4.855
306.72	4.049
307.09	5.701
307.45	4.248
307.82	4.977
308.19	5.807
308.55	5.671
308.92	5.120
309.29	4.022
309.65	4.090
310.02	5.281
310.38	6.037
310.75	5.683
311.12	4.413
311.48	6.151
311.85	4.293
312.22	5.063
312.58	4.459
312.95	4.376
313.31	3.830
313.68	5.340
314.05	4.286
314.41	6.289
314.78	4.742
315.14	5.344
315.51	5.590
315.87	6.557
316.24	5.966
316.61	5.512
316.97	6.448
317.34	6.250
317.70	5.163
318.07	5.000
318.43	6.275
318.80	5.398
319.16	5.957
319.53	6.553
319.89	6.693
320.26	5.668
320.62	8.225
320.99	6.263
321.35	6.783
321.72	7.477
322.08	5.136
322.45	6.599
322.81	6.385
323.18	5.986
323.54	7.046
323.91	7.303
324.27	5.957
324.64	6.180
325.00	7.208
325.37	8.815
325.73	7.706
326.10	6.721
326.46	8.251
326.83	7.349
327.19	7.411
327.56	7.298
327.92	8.099
328.29	8.036
328.65	7.925
329.01	7.629
329.38	7.281
329.74	7.649
330.11	7.878
330.47	7.514
330.84	7.404
331.20	8.555
331.56	7.963
331.93	9.041
332.29	9.349
332.66	9.412
333.02	7.063
333.38	7.974
333.75	8.242
334.11	7.610
334.48	7.706
334.84	8.608
335.20	8.051
335.57	8.160
335.93	7.769
336.29	8.195
336.66	7.266
337.02	7.156
337.38	6.389
337.75	7.909
338.11	8.115
338.47	8.394
338.84	8.503
339.20	8.684
339.56	7.706
339.93	8.326
340.29	8.807
340.65	8.781
341.02	7.447
341.38	8.584
341.74	7.774
342.11	6.846
342.47	8.096
342.83	8.651
343.20	8.275
343.56	7.739
343.92	8.503
344.28	9.137
344.65	8.290
345.01	7.692
345.37	8.495
345.73	8.536
346.10	8.283
346.46	8.495
346.82	7.119
347.19	7.564
347.55	8.521
347.91	8.981
348.27	8.488
348.63	8.177
349.00	7.301
349.36	7.980
349.72	8.292
350.08	8.443
350.45	8.061
350.81	7.060
351.17	8.795
351.53	8.490
351.89	7.102
352.26	7.840
352.62	8.065
352.98	7.550
353.34	7.166
353.70	8.576
354.07	8.790
354.43	8.247
354.79	7.432
355.15	8.492
355.51	7.991
355.87	7.686
356.24	6.852
356.60	7.357
356.96	8.571
357.32	7.907
357.68	7.975
358.04	7.189
358.40	6.994
358.77	8.373
359.13	7.606
359.49	7.781
359.85	7.332
360.21	7.815
360.57	8.875
360.93	8.548
361.29	7.931
361.66	8.307
362.02	7.803
362.38	8.149
362.74	7.797
363.10	8.352
363.46	7.858
363.82	9.016
364.18	8.044
364.54	8.235
364.90	7.527
365.26	6.841
365.62	9.124
365.98	7.991
366.35	9.031
366.71	8.647
367.07	8.273
367.43	6.542
367.79	7.845
368.15	8.327
368.51	7.866
368.87	6.963
369.23	7.798
369.59	7.289
369.95	7.991
370.31	7.803
370.67	7.985
371.03	7.618
371.39	7.805
371.75	8.352
372.11	8.060
372.47	9.320
372.83	8.517
373.19	7.846
373.55	7.798
373.91	8.135
374.27	8.717
374.63	9.691
374.99	8.369
375.35	7.939
375.71	9.161
376.07	7.935
376.42	7.755
376.78	9.128
377.14	8.869
377.50	7.968
377.86	8.835
378.22	8.296
378.58	7.628
378.94	8.507
379.30	9.170
379.66	9.216
380.02	8.461
380.38	8.764
380.74	8.618
381.09	9.264
381.45	8.257
381.81	8.390
382.17	8.629
382.53	8.932
382.89	8.161
383.25	9.583
383.61	9.817
383.97	8.254
384.32	8.755
384.68	9.164
385.04	7.843
385.40	8.587
385.76	9.245
386.12	10.155
386.48	9.259
386.83	8.624
387.19	10.012
387.55	9.410
387.91	9.046
388.27	9.890
388.62	9.880
388.98	9.638
389.34	9.806
389.70	10.006
390.06	9.377
390.42	9.132
390.77	9.614
391.13	8.827
391.49	9.314
391.85	10.136
392.20	9.793
392.56	9.790
392.92	9.806
393.28	9.316
393.64	9.610
393.99	10.784
394.35	9.171
394.71	9.898
395.07	9.931
395.42	9.715
395.78	9.251
396.14	10.404
396.50	9.702
396.85	9.530
397.21	10.338
397.57	10.345
397.92	9.766
398.28	10.230
398.64	9.036
399.00	10.440
399.35	9.876
399.71	10.224
400.07	10.339
400.42	9.853
400.78	10.900
401.14	10.647
401.49	10.542
401.85	10.299
402.21	10.602
402.57	11.375
402.92	9.536
403.28	10.338
403.63	10.404
403.99	9.630
404.35	10.306
404.70	10.000
405.06	10.165
405.42	10.068
405.77	9.878
406.13	9.895
406.49	9.769
406.84	9.963
407.20	10.596
407.55	9.466
407.91	9.960
408.27	10.134
408.62	11.508
408.98	10.906
409.34	10.595
409.69	10.207
410.05	10.406
410.40	10.741
410.76	10.796
411.11	11.000
411.47	10.651
411.83	10.358
412.18	11.133
412.54	10.924
412.89	10.530
413.25	10.710
413.60	10.932
413.96	10.920
414.31	11.098
414.67	10.584
415.03	11.252
415.38	11.227
415.74	11.075
416.09	11.822
416.45	11.479
416.80	11.104
417.16	11.740
417.51	10.660
417.87	10.952
418.22	11.140
418.58	11.171
418.93	11.850
419.29	10.627
419.64	10.758
420.00	11.461
420.35	11.045
420.71	11.118
421.06	11.786
421.42	11.178
421.77	11.618
422.12	10.897
422.48	10.883
422.83	11.311
423.19	11.287
423.54	10.641
423.90	10.247
424.25	11.538
424.61	11.873
424.96	11.789
425.31	12.421
425.67	10.622
426.02	11.720
426.38	12.023
426.73	11.804
427.09	11.709
427.44	11.941
427.79	11.550
428.15	12.197
428.50	11.629
428.85	10.688
429.21	12.960
429.56	11.806
429.92	12.275
430.27	11.830
430.62	11.291
430.98	11.465
431.33	12.145
431.68	11.669
432.04	12.353
432.39	12.094
432.74	11.606
433.10	13.103
433.45	11.947
433.80	11.956
434.16	11.468
434.51	12.419
434.86	11.672
435.22	12.507
435.57	12.227
435.92	12.335
436.28	11.926
436.63	12.436
436.98	11.645
437.34	12.341
437.69	12.880
438.04	12.422
438.39	12.340
438.75	12.629
439.10	13.696
439.45	12.173
439.81	12.110
440.16	12.767
440.51	13.612
440.86	13.353
441.22	12.839
441.57	12.969
441.92	13.799
442.27	12.971
442.63	14.079
442.98	13.498
443.33	13.244
443.68	13.050
444.03	13.860
444.39	13.773
444.74	14.103
445.09	13.530
445.44	14.416
445.79	14.286
446.15	13.271
446.50	13.200
446.85	14.506
447.20	14.181
447.55	15.792
447.91	13.706
448.26	14.969
448.61	14.911
448.96	14.400
449.31	14.451
449.66	13.589
450.02	14.661
450.37	14.286
450.72	14.376
451.07	15.380
451.42	14.482
451.77	14.888
452.12	14.653
452.47	14.874
452.83	15.077
453.18	14.674
453.53	15.234
453.88	15.361
454.23	15.243
454.58	15.806
454.93	15.657
455.28	14.222
455.63	15.809
455.98	15.454
456.34	15.581
456.69	15.693
457.04	15.438
457.39	15.006
457.74	15.599
458.09	14.126
458.44	15.038
458.79	14.678
459.14	14.817
459.49	16.060
459.84	15.623
460.19	15.959
460.54	15.954
460.89	15.795
461.24	15.714
461.59	15.439
461.94	15.472
462.29	16.405
462.64	15.947
462.99	15.572
463.34	14.673
463.69	15.766
464.04	16.041
464.39	16.252
464.74	15.644
465.09	16.469
465.44	16.734
465.79	15.476
466.14	15.792
466.49	15.986
466.84	15.824
467.19	16.270
467.54	15.709
467.89	15.982
468.24	16.606
468.59	17.524
468.94	15.111
469.29	17.311
469.64	16.200
469.99	16.538
470.34	15.427
470.68	16.555
471.03	16.985
471.38	15.763
471.73	16.807
472.08	15.400
472.43	16.174
472.78	15.284
473.13	16.735
473.48	15.961
473.83	16.687
474.17	16.321
474.52	17.613
474.87	16.424
475.22	16.351
475.57	16.318
475.92	16.566
476.27	16.473
476.61	16.782
476.96	16.286
477.31	16.982
477.66	16.742
478.01	16.844
478.36	15.850
478.70	16.748
479.05	16.593
479.40	16.799
479.75	16.997
480.10	17.051
480.45	16.950
480.79	17.523
481.14	16.752
481.49	16.256
481.84	17.230
482.19	16.183
482.53	16.259
482.88	16.897
483.23	16.123
483.58	16.462
483.92	16.505
484.27	16.408
484.62	16.181
484.97	16.418
485.31	16.438
485.66	15.879
486.01	16.028
486.36	15.891
486.70	15.676
487.05	16.105
487.40	16.236
487.75	16.394
488.09	16.224
488.44	16.781
488.79	16.250
489.13	17.067
489.48	17.315
489.83	16.771
490.17	16.045
490.52	16.351
490.87	15.965
491.22	16.762
491.56	16.698
491.91	16.683
492.26	16.578
492.60	17.562
492.95	17.560
493.30	16.659
493.64	16.896
493.99	16.908
494.34	16.845
494.68	16.714
495.03	16.253
495.37	16.928
495.72	17.415
496.07	17.707
496.41	16.745
496.76	17.273
497.11	16.395
497.45	17.518
497.80	17.407
498.14	17.188
498.49	17.217
498.84	17.315
499.18	17.721
499.53	17.014
499.87	17.218
500.22	17.458
500.56	17.650
500.91	17.470
501.26	17.548
501.60	16.822
501.95	16.400
502.29	17.821
502.64	17.568
502.98	17.958
503.33	18.060
503.67	17.446
504.02	18.426
504.36	18.357
504.71	17.980
505.06	17.614
505.40	17.614
505.75	18.711
506.09	18.044
506.44	19.353
506.78	18.112
507.13	18.149
507.47	17.807
507.82	17.842
508.16	17.961
508.51	18.678
508.85	19.571
509.19	18.361
509.54	19.196
509.88	18.878
510.23	19.150
510.57	19.669
510.92	18.710
511.26	19.040
511.61	19.582
511.95	19.562
512.30	20.067
512.64	20.033
512.98	19.876
513.33	20.145
513.67	19.670
514.02	20.423
514.36	20.457
514.70	21.154
515.05	21.387
515.39	20.661
515.74	20.898
516.08	20.801
516.42	21.201
516.77	20.714
517.11	20.950
517.46	21.185
517.80	21.454
518.14	20.821
518.49	20.853
518.83	22.539
519.17	20.800
519.52	20.959
519.86	20.648
520.20	21.932
520.55	21.513
520.89	21.518
521.23	21.659
521.58	22.082
521.92	21.026
522.26	21.861
522.61	21.753
522.95	22.583
523.29	22.046
523.64	21.982
523.98	21.905
524.32	21.649
524.66	21.831
525.01	21.883
525.35	22.359
525.69	22.155
526.04	22.024
526.38	23.671
526.72	22.498
527.06	22.179
527.41	23.615
527.75	22.118
528.09	23.123
528.43	23.633
528.78	22.442
529.12	23.355
529.46	22.092
529.80	22.356
530.15	22.178
530.49	22.357
530.83	23.461
531.17	22.163
531.51	23.461
531.86	22.638
532.20	21.642
532.54	22.873
532.88	22.519
533.22	22.849
533.57	22.477
533.91	22.128
534.25	22.982
534.59	22.963
534.93	22.467
535.27	21.447
535.62	21.905
535.96	21.918
536.30	23.219
536.64	21.916
536.98	21.742
537.32	23.471
537.66	23.983
538.01	23.077
538.35	23.024
538.69	22.104
539.03	22.351
539.37	22.611
539.71	22.563
540.05	21.521
540.39	22.438
540.73	22.594
541.07	22.030
541.42	22.513
541.76	23.469
542.10	21.335
542.44	21.960
542.78	21.404
543.12	21.703
543.46	23.574
543.80	22.901
544.14	21.495
544.48	22.452
544.82	22.010
545.16	22.268
545.50	22.764
545.84	22.309
546.18	23.121
546.52	22.278
546.86	22.214
547.20	22.675
547.54	21.625
547.88	21.671
548.22	21.105
548.56	21.636
548.90	22.102
549.24	21.074
549.58	21.157
549.92	21.229
550.26	21.978
550.60	23.048
550.94	22.405
551.28	22.411
551.62	22.846
551.96	22.632
552.30	22.149
552.64	21.227
552.98	22.152
553.32	21.826
553.66	20.827
554.00	21.241
554.34	22.083
554.68	21.239
555.02	23.214
555.36	21.466
555.69	20.586
556.03	20.985
556.37	20.925
556.71	21.444
557.05	20.805
557.39	20.149
557.73	21.739
558.07	22.172
558.41	21.746
558.75	21.200
559.08	20.961
559.42	21.825
559.76	21.938
560.10	21.407
560.44	20.998
560.78	23.287
561.12	20.451
561.45	21.574
561.79	21.639
562.13	21.150
562.47	20.863
562.81	21.326
563.15	20.381
563.48	21.287
563.82	22.100
564.16	20.682
564.50	20.743
564.84	21.486
565.17	19.920
565.51	21.653
565.85	20.988
566.19	21.419
566.52	21.113
566.86	20.887
567.20	20.050
567.54	20.073
567.88	20.797
568.21	20.362
568.55	18.967
568.89	20.431
569.23	20.462
569.56	19.177
569.90	20.138
570.24	19.390
570.57	19.127
570.91	19.345
571.25	18.415
571.59	18.904
571.92	18.281
572.26	18.448
572.60	18.264
572.93	18.481
573.27	18.558
573.61	18.198
573.95	18.651
574.28	18.432
574.62	17.747
574.96	18.025
575.29	17.718
575.63	17.155
575.97	17.810
576.30	18.471
576.64	17.536
576.98	18.275
577.31	17.695
577.65	17.638
577.98	17.604
578.32	17.560
578.66	17.494
578.99	17.150
579.33	17.162
579.67	17.613
580.00	17.772
580.34	17.488
580.67	17.334
581.01	17.027
581.35	17.291
581.68	17.300
582.02	17.453
582.35	17.530
582.69	17.316
583.02	17.219
583.36	17.199
583.70	17.913
584.03	17.904
584.37	18.351
584.70	17.473
585.04	17.098
585.37	17.445
585.71	17.280
586.04	17.549
586.38	17.071
586.72	17.590
587.05	17.360
587.39	17.668
587.72	17.633
588.06	17.382
588.39	17.659
588.73	17.674
589.06	17.547
589.40	18.424
589.73	18.036
590.07	18.014
590.40	17.918
590.73	18.493
591.07	18.109
591.40	17.720
591.74	17.873
592.07	18.785
592.41	18.330
592.74	17.403
593.08	17.255
593.41	17.562
593.75	16.781
594.08	17.096
594.41	17.504
594.75	17.519
595.08	16.988
595.42	17.262
595.75	17.649
596.09	17.787
596.42	17.652
596.75	17.274
597.09	17.494
597.42	17.299
597.75	17.132
598.09	17.293
598.42	17.193
598.76	17.375
599.09	16.667
599.42	16.976
599.76	16.855
600.09	17.119
600.42	16.603
600.76	16.382
601.09	17.176
601.42	16.608
601.76	16.475
602.09	16.667
602.42	17.439
602.76	16.511
603.09	17.110
603.42	17.266
603.76	16.774
604.09	16.444
604.42	17.428
604.76	17.223
605.09	17.596
605.42	16.885
605.75	16.725
606.09	16.858
606.42	16.389
606.75	17.056
607.09	16.747
607.42	17.235
607.75	16.075
608.08	15.633
608.42	16.629
608.75	17.205
609.08	17.140
609.41	17.513
609.75	16.734
610.08	16.525
610.41	16.763
610.74	16.577
611.07	16.486
611.41	17.229
611.74	18.017
612.07	16.542
612.40	17.341
612.73	16.893
613.07	16.592
613.40	16.849
613.73	16.956
614.06	17.307
614.39	17.597
614.72	16.471
615.06	16.592
615.39	15.993
615.72	15.554
616.05	16.536
616.38	16.467
616.71	17.248
617.05	16.553
617.38	17.473
617.71	17.233
618.04	17.270
618.37	17.844
618.70	17.096
619.03	16.944
619.36	16.570
619.69	16.831
620.03	17.823
620.36	18.097
620.69	16.560
621.02	17.813
621.35	18.921
621.68	17.942
622.01	17.500
622.34	18.276
622.67	18.060
623.00	16.845
623.33	16.921
623.66	17.128
623.99	16.566
624.32	18.175
624.65	16.316
624.99	16.328
625.32	16.831
625.65	17.675
625.98	17.164
626.31	16.542
626.64	18.458
626.97	19.197
627.30	17.075
627.63	18.284
627.96	17.520
628.29	16.374
628.62	18.289
628.95	18.136
629.28	18.044
629.61	17.647
629.94	17.986
630.26	16.601
630.59	18.002
630.92	17.949
631.25	17.128
631.58	17.181
631.91	18.421
632.24	16.628
632.57	18.750
632.90	16.251
633.23	18.471
633.56	17.506
633.89	17.879
634.22	18.889
634.55	18.679
634.88	18.263
635.20	18.205
635.53	19.200
635.86	17.815
636.19	18.629
636.52	16.964
636.85	16.998
637.18	17.233
637.51	18.113
637.83	19.317
638.16	19.100
638.49	17.030
638.82	18.947
639.15	17.639
639.48	17.331
639.81	20.921
640.13	17.893
640.46	18.513
640.79	17.526
641.12	16.248
641.45	19.670
641.77	19.259
642.10	19.747
642.43	17.363
