SpectraSuite Data File
++++++++++++++++++++++++++++++++++++
Date: Fri May 15 21:03:14 PDT 2015
User: schluterlab
Dark Spectrum Present: Yes
Reference Spectrum Present: Yes
Number of Sampled Component Spectra: 1
Spectrometers: USB2E3373
Integration Time (usec): 3000 (USB2E3373)
Spectra Averaged: 3 (USB2E3373)
Boxcar Smoothing: 0 (USB2E3373)
Correct for Electrical Dark: No (USB2E3373)
Strobe/Lamp Enabled: No (USB2E3373)
Correct for Detector Non-linearity: No (USB2E3373)
Correct for Stray Light: No (USB2E3373)
Number of Pixels in Processed Spectrum: 2048
>>>>>Begin Processed Spectral Data<<<<<
178.53	0.000
178.91	0.000
179.29	-100.000
179.67	-450.000
180.04	-114.286
180.42	-25.000
180.80	-900.000
181.18	133.333
181.56	550.000
181.94	200.000
182.31	800.000
182.69	-80.000
183.07	-66.667
183.45	-260.000
183.83	133.333
184.20	-27.273
184.58	88.889
184.96	-100.000
185.34	100.000
185.72	-350.000
186.09	92.308
186.47	0.000
186.85	200.000
187.23	222.222
187.61	1300.000
187.98	-366.667
188.36	0.000
188.74	-333.333
189.12	17.647
189.49	22.222
189.87	0.000
190.25	28.571
190.63	0.000
191.00	-33.333
191.38	-73.684
191.76	-550.000
192.14	-25.000
192.51	-300.000
192.89	-66.667
193.27	-85.714
193.65	300.000
194.02	172.727
194.40	30.000
194.78	-137.500
195.15	50.000
195.53	-100.000
195.91	175.000
196.29	-250.000
196.66	161.538
197.04	357.143
197.42	22.222
197.79	-633.333
198.17	-92.308
198.55	800.000
198.92	-333.333
199.30	-200.000
199.68	-260.000
200.05	-166.667
200.43	0.000
200.81	-133.333
201.18	-200.000
201.56	1400.000
201.94	-200.000
202.31	233.333
202.69	-240.000
203.07	125.000
203.44	-1100.000
203.82	0.000
204.19	-14.286
204.57	-700.000
204.95	162.500
205.32	0.000
205.70	-14.286
206.08	-150.000
206.45	22.222
206.83	-35.714
207.20	-185.714
207.58	1300.000
207.96	-466.667
208.33	-70.000
208.71	-200.000
209.08	-166.667
209.46	-2000.000
209.84	-240.000
210.21	-600.000
210.59	-14.286
210.96	-166.667
211.34	-175.000
211.71	46.667
212.09	-157.143
212.46	-1700.000
212.84	0.000
213.22	40.000
213.59	1150.000
213.97	-7.692
214.34	-72.727
214.72	-216.667
215.09	350.000
215.47	-61.538
215.84	18.182
216.22	-533.333
216.59	-137.500
216.97	-150.000
217.34	100.000
217.72	-300.000
218.09	-62.500
218.47	112.500
218.84	-1100.000
219.22	-144.444
219.59	-200.000
219.97	266.667
220.34	400.000
220.72	-114.286
221.09	25.000
221.47	-400.000
221.84	-650.000
222.22	-600.000
222.59	-45.455
222.97	33.333
223.34	-66.667
223.72	-71.429
224.09	-47.619
224.46	-10.714
224.84	733.333
225.21	-150.000
225.59	-46.667
225.96	-650.000
226.34	500.000
226.71	-71.429
227.08	-266.667
227.46	-25.000
227.83	-550.000
228.21	22.222
228.58	-63.636
228.95	-187.500
229.33	110.000
229.70	6.250
230.08	-87.500
230.45	-171.429
230.82	-100.000
231.20	20.000
231.57	7.143
231.95	-42.857
232.32	-40.000
232.69	0.000
233.07	-100.000
233.44	-180.000
233.81	-40.000
234.19	-22.222
234.56	-88.235
234.93	550.000
235.31	-475.000
235.68	-420.000
236.05	-146.154
236.43	-60.000
236.80	-41.176
237.17	12.500
237.55	-20.000
237.92	-33.333
238.29	-8.333
238.67	0.000
239.04	-20.588
239.41	-46.341
239.79	-46.667
240.16	-19.512
240.53	-47.368
240.91	-41.304
241.28	-4.762
241.65	-17.857
242.02	9.589
242.40	-8.333
242.77	-16.949
243.14	-18.182
243.51	-2.500
243.89	2.299
244.26	-5.747
244.63	-15.476
245.00	-11.340
245.38	-10.309
245.75	-22.472
246.12	-15.517
246.49	0.000
246.87	-8.654
247.24	-8.403
247.61	-13.158
247.98	-14.634
248.36	-8.750
248.73	-3.947
249.10	-9.740
249.47	-8.861
249.84	-4.575
250.22	-7.059
250.59	-8.497
250.96	2.817
251.33	-6.977
251.70	3.529
252.08	-9.137
252.45	-2.475
252.82	-5.528
253.19	2.765
253.56	-8.411
253.94	-3.604
254.31	-4.348
254.68	-4.825
255.05	-3.937
255.42	-5.677
255.79	-6.564
256.16	-0.389
256.54	-1.119
256.91	-3.422
257.28	-2.602
257.65	-5.993
258.02	-6.028
258.39	0.673
258.76	-0.733
259.14	1.329
259.51	-1.942
259.88	-3.780
260.25	-0.654
260.62	-1.389
260.99	-6.102
261.36	-5.137
261.73	-2.848
262.10	-1.824
262.47	-2.454
262.85	-4.075
263.22	-0.615
263.59	-1.246
263.96	-0.932
264.33	-0.909
264.70	-2.679
265.07	-4.762
265.44	0.567
265.81	-1.412
266.18	-0.820
266.55	-0.771
266.92	-2.332
267.29	-1.305
267.66	-1.535
268.03	-2.094
268.40	-2.089
268.77	-1.604
269.14	-0.959
269.51	-1.799
269.88	-1.746
270.25	-3.061
270.62	-3.171
270.99	-1.790
271.36	-2.689
271.73	-0.704
272.10	-2.190
272.47	-1.655
272.84	-2.723
273.21	1.392
273.58	-1.928
273.95	-1.373
274.32	0.462
274.69	-1.357
275.06	-0.893
275.43	-2.948
275.80	-0.883
276.17	-2.529
276.54	-1.713
276.91	-0.877
277.28	-1.528
277.65	2.066
278.02	-1.277
278.39	-0.438
278.76	-1.468
279.13	-3.112
279.50	0.000
279.87	-1.080
280.23	-1.935
280.60	0.975
280.97	-2.020
281.34	-0.192
281.71	1.027
282.08	-2.249
282.45	-0.783
282.82	-3.668
283.19	-1.547
283.56	-1.541
283.92	-1.139
284.29	-2.885
284.66	-2.519
285.03	-1.572
285.40	-2.079
285.77	-1.230
286.14	-0.361
286.51	-0.185
286.87	-2.194
287.24	-2.026
287.61	-1.587
287.98	0.175
288.35	-1.560
288.72	0.525
289.08	-1.562
289.45	0.176
289.82	-0.350
290.19	-2.901
290.56	-3.259
290.93	-2.020
291.29	-2.157
291.66	-0.315
292.03	-1.754
292.40	-1.774
292.77	-1.116
293.13	-3.084
293.50	-2.124
293.87	-0.611
294.24	-0.309
294.60	0.000
294.97	-1.488
295.34	-1.687
295.71	-0.596
296.08	-0.598
296.44	-1.707
296.81	-1.111
297.18	-1.449
297.55	0.813
297.91	-1.233
298.28	1.451
298.65	-0.814
299.02	-2.965
299.38	-2.189
299.75	-0.690
300.12	-0.916
300.48	-0.527
300.85	-0.887
301.22	-1.039
301.59	-1.579
301.95	-0.506
302.32	-0.130
302.69	-0.124
303.05	-1.609
303.42	-0.498
303.79	-1.051
304.15	-1.195
304.52	-1.665
304.89	-0.585
305.25	-0.242
305.62	-2.100
305.99	-1.637
306.35	-1.965
306.72	-0.900
307.09	-1.140
307.45	-0.230
307.82	-0.810
308.19	-1.161
308.55	-0.327
308.92	-0.545
309.29	-1.899
309.65	-1.184
310.02	-1.540
310.38	0.878
310.75	-1.530
311.12	-0.753
311.48	-0.636
311.85	-1.361
312.22	-0.316
312.58	-0.955
312.95	-0.427
313.31	-1.449
313.68	-1.257
314.05	-1.429
314.41	-0.103
314.78	-1.134
315.14	0.925
315.51	-0.518
315.87	-0.820
316.24	0.607
316.61	-0.492
316.97	0.298
317.34	-0.391
317.70	-0.478
318.07	-0.096
318.43	0.000
318.80	-0.189
319.16	0.293
319.53	1.614
319.89	-0.295
320.26	-0.304
320.62	0.602
320.99	-1.253
321.35	-0.925
321.72	0.312
322.08	0.504
322.45	0.203
322.81	0.786
323.18	0.393
323.54	-0.772
323.91	0.974
324.27	0.195
324.64	0.749
325.00	2.099
325.37	1.745
325.73	0.000
326.10	0.182
326.46	1.345
326.83	0.875
327.19	1.133
327.56	1.303
327.92	1.320
328.29	0.982
328.65	0.472
329.01	1.195
329.38	1.382
329.74	-0.661
330.11	1.205
330.47	-0.186
330.84	-0.288
331.20	3.042
331.56	0.556
331.93	1.553
332.29	1.742
332.66	1.810
333.02	0.929
333.38	1.008
333.75	2.015
334.11	0.806
334.48	0.635
334.84	2.289
335.20	1.372
335.57	0.725
335.93	1.355
336.29	1.381
336.66	0.545
337.02	0.000
337.38	-0.185
337.75	0.364
338.11	1.533
338.47	1.095
338.84	1.664
339.20	1.463
339.56	1.376
339.93	1.970
340.29	1.101
340.65	2.061
341.02	1.684
341.38	1.062
341.74	0.442
342.11	0.433
342.47	0.445
342.83	1.990
343.20	0.784
343.56	0.870
343.92	0.443
344.28	1.964
344.65	-0.345
345.01	0.951
345.37	1.598
345.73	1.841
346.10	1.294
346.46	1.262
346.82	1.882
347.19	-0.166
347.55	1.253
347.91	1.214
348.27	1.859
348.63	0.511
349.00	0.574
349.36	0.914
349.72	0.746
350.08	1.721
350.45	1.437
350.81	0.415
351.17	0.570
351.53	2.204
351.89	1.073
352.26	0.400
352.62	0.887
352.98	0.884
353.34	0.966
353.70	1.861
354.07	1.935
354.43	1.841
354.79	1.321
355.15	2.381
355.51	2.136
355.87	1.375
356.24	0.326
356.60	1.455
356.96	1.905
357.32	1.118
357.68	1.329
358.04	0.969
358.40	0.482
358.77	1.515
359.13	0.721
359.49	1.310
359.85	1.560
360.21	1.037
360.57	1.301
360.93	1.286
361.29	0.831
361.66	0.862
362.02	1.439
362.38	1.523
362.74	0.303
363.10	1.354
363.46	2.001
363.82	2.029
364.18	1.550
364.54	1.397
364.90	1.147
365.26	0.728
365.62	1.752
365.98	1.466
366.35	1.165
366.71	0.961
367.07	0.363
367.43	-0.072
367.79	1.837
368.15	1.149
368.51	1.529
368.87	0.646
369.23	0.144
369.59	1.166
369.95	1.540
370.31	1.373
370.67	0.821
371.03	0.896
371.39	1.021
371.75	1.465
372.11	1.854
372.47	0.518
372.83	1.065
373.19	1.712
373.55	1.011
373.91	1.800
374.27	0.921
374.63	1.651
374.99	0.567
375.35	1.045
375.71	1.469
376.07	1.264
376.42	1.701
376.78	1.342
377.14	1.219
377.50	0.730
377.86	1.339
378.22	0.511
378.58	0.449
378.94	0.693
379.30	0.998
379.66	1.003
380.02	0.613
380.38	1.035
380.74	0.598
381.09	1.411
381.45	1.162
381.81	0.494
382.17	0.698
382.53	1.624
382.89	0.879
383.25	1.369
383.61	2.073
383.97	-0.190
384.32	0.813
384.68	1.548
385.04	0.490
385.40	0.498
385.76	0.818
386.12	1.229
386.48	0.830
386.83	0.824
387.19	1.465
387.55	1.631
387.91	0.733
388.27	0.977
388.62	1.385
388.98	0.859
389.34	1.874
389.70	0.870
390.06	0.944
390.42	0.389
390.77	1.243
391.13	1.072
391.49	1.229
391.85	1.040
392.20	1.130
392.56	0.699
392.92	1.174
393.28	1.179
393.64	0.961
393.99	2.006
394.35	0.253
394.71	1.022
395.07	0.314
395.42	1.154
395.78	0.521
396.14	0.946
396.50	0.571
396.85	1.159
397.21	1.065
397.57	1.254
397.92	1.738
398.28	1.092
398.64	0.482
399.00	1.072
399.35	0.339
399.71	0.804
400.07	1.330
400.42	0.428
400.78	1.470
401.14	1.633
401.49	1.668
401.85	0.609
402.21	1.687
402.57	0.938
402.92	0.502
403.28	1.316
403.63	0.252
403.99	0.128
404.35	1.312
404.70	1.190
405.06	0.353
405.42	0.932
405.77	0.349
406.13	0.466
406.49	1.243
406.84	0.244
407.20	1.264
407.55	0.193
407.91	0.535
408.27	0.255
408.62	1.600
408.98	1.171
409.34	1.549
409.69	0.646
410.05	0.739
410.40	0.370
410.76	1.448
411.11	0.875
411.47	0.263
411.83	0.251
412.18	1.030
412.54	0.749
412.89	0.800
413.25	1.143
413.60	0.994
413.96	0.920
414.31	0.915
414.67	0.577
415.03	1.065
415.38	0.457
415.74	1.564
416.09	0.980
416.45	0.608
416.80	1.454
417.16	0.829
417.51	1.066
417.87	0.978
418.22	0.324
418.58	0.803
418.93	1.066
419.29	0.448
419.64	0.324
420.00	0.945
420.35	0.836
420.71	1.580
421.06	0.675
421.42	1.442
421.77	1.445
422.12	0.965
422.48	0.920
422.83	0.928
423.19	0.395
423.54	0.059
423.90	0.471
424.25	1.320
424.61	1.408
424.96	0.407
425.31	1.271
425.67	0.998
426.02	1.296
426.38	1.002
426.73	1.271
427.09	1.139
427.44	1.235
427.79	1.414
428.15	1.760
428.50	0.727
428.85	0.430
429.21	1.019
429.56	0.970
429.92	1.438
430.27	0.902
430.62	0.784
430.98	0.478
431.33	1.420
431.68	1.047
432.04	0.894
432.39	1.027
432.74	0.601
433.10	1.609
433.45	0.418
433.80	0.580
434.16	0.222
434.51	0.968
434.86	0.929
435.22	1.178
435.57	1.123
435.92	1.257
436.28	1.312
436.63	0.456
436.98	0.927
437.34	0.363
437.69	0.656
438.04	1.083
438.39	0.611
438.75	0.668
439.10	1.019
439.45	0.974
439.81	0.061
440.16	0.713
440.51	1.254
440.86	1.631
441.22	1.810
441.57	0.497
441.92	1.731
442.27	0.111
442.63	1.552
442.98	1.264
443.33	0.612
443.68	0.955
444.03	1.341
444.39	1.230
444.74	0.446
445.09	0.947
445.44	0.855
445.79	1.650
446.15	0.881
446.50	0.166
446.85	0.850
447.20	0.469
447.55	1.563
447.91	0.733
448.26	1.081
448.61	1.957
448.96	1.090
449.31	1.214
449.66	0.697
450.02	0.799
450.37	0.593
450.72	1.260
451.07	0.949
451.42	0.499
451.77	1.145
452.12	0.359
452.47	0.580
452.83	1.001
453.18	0.949
453.53	0.822
453.88	1.093
454.23	1.229
454.58	0.567
454.93	1.289
455.28	0.762
455.63	1.302
455.98	1.082
456.34	0.575
456.69	0.953
457.04	1.071
457.39	0.790
457.74	0.544
458.09	0.471
458.44	0.702
458.79	1.064
459.14	1.545
459.49	1.791
459.84	1.241
460.19	0.728
460.54	1.773
460.89	1.307
461.24	0.807
461.59	1.425
461.94	1.069
462.29	1.387
462.64	1.196
462.99	1.557
463.34	0.695
463.69	0.837
464.04	1.695
464.39	1.516
464.74	1.227
465.09	1.185
465.44	1.904
465.79	0.964
466.14	1.539
466.49	0.288
466.84	1.487
467.19	1.815
467.54	1.405
467.89	1.200
468.24	1.156
468.59	1.587
468.94	0.762
469.29	1.770
469.64	2.187
469.99	1.542
470.34	0.341
470.68	1.044
471.03	1.557
471.38	0.285
471.73	1.751
472.08	0.746
472.43	-0.268
472.78	0.274
473.13	1.088
473.48	1.042
473.83	0.747
474.17	1.101
474.52	0.830
474.87	1.091
475.22	0.610
475.57	1.016
475.92	1.591
476.27	1.397
476.61	1.389
476.96	0.613
477.31	1.785
477.66	0.506
478.01	0.842
478.36	1.307
478.70	0.870
479.05	1.209
479.40	1.431
479.75	0.834
480.10	1.382
480.45	1.000
480.79	1.561
481.14	1.691
481.49	0.640
481.84	0.338
482.19	1.403
482.53	1.343
482.88	1.384
483.23	1.296
483.58	1.132
483.92	1.065
484.27	1.139
484.62	1.031
484.97	0.954
485.31	1.373
485.66	1.531
486.01	1.768
486.36	1.252
486.70	1.604
487.05	1.407
487.40	1.448
487.75	1.352
488.09	1.391
488.44	1.788
488.79	1.270
489.13	1.562
489.48	1.283
489.83	0.987
490.17	1.079
490.52	0.924
490.87	1.203
491.22	1.576
491.56	1.233
491.91	1.052
492.26	1.070
492.60	1.104
492.95	1.574
493.30	1.368
493.64	1.179
493.99	1.932
494.34	0.534
494.68	1.095
495.03	0.243
495.37	1.079
495.72	0.505
496.07	1.366
496.41	1.368
496.76	0.875
497.11	0.792
497.45	1.432
497.80	1.261
498.14	1.143
498.49	1.422
498.84	1.347
499.18	0.954
499.53	1.290
499.87	0.875
500.22	0.692
500.56	0.958
500.91	1.004
501.26	1.434
501.60	0.541
501.95	1.019
502.29	1.017
502.64	1.158
502.98	0.691
503.33	1.009
503.67	1.012
504.02	0.929
504.36	1.435
504.71	0.859
505.06	0.805
505.40	0.508
505.75	0.464
506.09	0.659
506.44	1.232
506.78	1.276
507.13	0.879
507.47	0.418
507.82	-0.160
508.16	0.792
508.51	0.892
508.85	0.994
509.19	0.532
509.54	0.643
509.88	0.593
510.23	0.807
510.57	0.802
510.92	0.267
511.26	0.764
511.61	0.605
511.95	0.877
512.30	0.887
512.64	1.447
512.98	0.505
513.33	1.511
513.67	0.341
514.02	1.316
514.36	0.971
514.70	0.932
515.05	0.764
515.39	1.004
515.74	1.078
516.08	0.897
516.42	1.001
516.77	0.761
517.11	0.890
517.46	1.137
517.80	0.775
518.14	0.551
518.49	0.240
518.83	0.790
519.17	0.667
519.52	0.533
519.86	0.300
520.20	1.094
520.55	-0.125
520.89	1.129
521.23	0.063
521.58	0.757
521.92	0.897
522.26	0.455
522.61	0.974
522.95	0.795
523.29	1.334
523.64	1.080
523.98	1.037
524.32	-0.193
524.66	1.216
525.01	0.779
525.35	0.907
525.69	-0.269
526.04	-0.265
526.38	1.362
526.72	0.262
527.06	0.649
527.41	0.792
527.75	-0.134
528.09	0.532
528.43	1.485
528.78	-0.198
529.12	0.774
529.46	0.585
529.80	0.760
530.15	0.858
530.49	0.943
530.83	0.616
531.17	0.201
531.51	1.300
531.86	0.408
532.20	-0.348
532.54	1.430
532.88	0.958
533.22	1.210
533.57	1.442
533.91	-0.131
534.25	1.497
534.59	0.064
534.93	0.755
535.27	0.000
535.62	-0.194
535.96	0.522
536.30	1.055
536.64	1.034
536.98	0.627
537.32	0.640
537.66	2.104
538.01	0.769
538.35	0.624
538.69	0.466
539.03	0.820
539.37	1.346
539.71	0.409
540.05	1.018
540.39	1.108
540.73	1.604
541.07	1.312
541.42	1.478
541.76	1.514
542.10	1.445
542.44	2.224
542.78	1.514
543.12	1.786
543.46	2.643
543.80	1.666
544.14	1.869
544.48	2.265
544.82	1.709
545.16	1.981
545.50	3.138
545.84	1.771
546.18	2.553
546.52	2.307
546.86	2.444
547.20	1.931
547.54	1.413
547.88	2.038
548.22	0.920
548.56	0.923
548.90	1.078
549.24	1.171
549.58	1.551
549.92	0.572
550.26	0.440
550.60	1.338
550.94	1.270
551.28	1.236
551.62	0.692
551.96	0.301
552.30	0.950
552.64	1.199
552.98	1.125
553.32	0.499
553.66	-0.145
554.00	-0.146
554.34	0.886
554.68	0.737
555.02	0.893
555.36	0.673
555.69	0.440
556.03	-0.143
556.37	1.423
556.71	0.433
557.05	0.000
557.39	-0.372
557.73	0.525
558.07	0.603
558.41	0.536
558.75	0.779
559.08	1.103
559.42	-0.238
559.76	0.160
560.10	0.000
560.44	0.298
560.78	0.839
561.12	0.353
561.45	0.000
561.79	1.261
562.13	0.071
562.47	-0.288
562.81	0.432
563.15	0.846
563.48	0.566
563.82	0.275
564.16	0.627
564.50	0.338
564.84	0.268
565.17	0.738
565.51	0.683
565.85	0.480
566.19	0.199
566.52	0.670
566.86	1.028
567.20	0.498
567.54	-0.243
567.88	0.762
568.21	0.622
568.55	-0.380
568.89	1.437
569.23	0.818
569.56	0.175
569.90	1.462
570.24	1.116
570.57	0.691
570.91	1.150
571.25	0.789
571.59	0.965
571.92	1.185
572.26	0.664
572.60	1.085
572.93	1.349
573.27	0.752
573.61	1.104
573.95	0.928
574.28	1.324
574.62	1.042
574.96	1.521
575.29	0.782
575.63	0.959
575.97	0.651
576.30	0.703
576.64	0.609
576.98	1.313
577.31	0.811
577.65	1.307
577.98	1.036
578.32	1.230
578.66	0.967
578.99	1.123
579.33	0.974
579.67	1.337
580.00	1.165
580.34	1.119
580.67	0.890
581.01	1.225
581.35	1.120
581.68	1.142
582.02	1.138
582.35	0.947
582.69	1.110
583.02	1.218
583.36	1.159
583.70	1.661
584.03	1.029
584.37	1.412
584.70	1.126
585.04	0.829
585.37	1.400
585.71	0.889
586.04	1.034
586.38	0.720
586.72	0.918
587.05	1.242
587.39	1.538
587.72	1.367
588.06	1.218
588.39	1.025
588.73	1.374
589.06	1.174
589.40	1.210
589.73	1.497
590.07	1.208
590.40	1.393
590.73	0.906
591.07	0.891
591.40	0.935
591.74	1.086
592.07	1.113
592.41	1.104
592.74	0.836
593.08	0.943
593.41	1.120
593.75	0.883
594.08	1.202
594.41	1.164
594.75	0.573
595.08	0.643
595.42	0.810
595.75	0.789
596.09	0.899
596.42	0.992
596.75	1.155
597.09	0.729
597.42	0.903
597.75	0.687
598.09	0.770
598.42	0.181
598.76	0.472
599.09	0.681
599.42	0.985
599.76	0.752
600.09	1.056
600.42	1.327
600.76	0.929
601.09	0.534
601.42	0.901
601.76	0.476
602.09	0.784
602.42	1.516
602.76	0.424
603.09	0.955
603.42	0.753
603.76	0.363
604.09	0.527
604.42	1.015
604.76	1.068
605.09	1.280
605.42	1.219
605.75	0.613
606.09	0.722
606.42	1.126
606.75	1.082
607.09	1.714
607.42	0.753
607.75	0.710
608.08	0.539
608.42	1.370
608.75	1.205
609.08	0.448
609.41	1.269
609.75	1.058
610.08	1.248
610.41	0.870
610.74	0.878
611.07	0.879
611.41	1.868
611.74	2.399
612.07	1.499
612.40	1.477
612.73	1.582
613.07	0.506
613.40	1.532
613.73	0.336
614.06	1.113
614.39	1.748
614.72	0.784
615.06	1.006
615.39	0.710
615.72	1.292
616.05	0.894
616.38	0.912
616.71	0.734
617.05	0.371
617.38	1.383
617.71	0.629
618.04	1.397
618.37	1.639
618.70	0.000
619.03	1.181
619.36	0.507
619.69	0.682
620.03	1.534
620.36	1.144
620.69	1.142
621.02	1.911
621.35	0.581
621.68	0.680
622.01	0.167
622.34	1.516
622.67	0.315
623.00	1.838
623.33	1.143
623.66	0.748
623.99	0.832
624.32	0.608
624.65	0.226
624.99	0.301
625.32	-0.152
625.65	1.964
625.98	1.128
626.31	-0.416
626.64	1.040
626.97	0.524
627.30	0.876
627.63	0.867
627.96	0.359
628.29	0.648
628.62	1.082
628.95	1.303
629.28	0.403
629.61	0.000
629.94	1.075
630.26	0.198
630.59	0.000
630.92	0.821
631.25	0.718
631.58	0.110
631.91	-0.110
632.24	-0.344
632.57	0.909
632.90	-0.593
633.23	-0.588
633.56	-1.008
633.89	0.370
634.22	0.494
634.55	-1.144
634.88	-0.511
635.20	-1.538
635.53	-0.933
635.86	-0.910
636.19	0.000
636.52	-0.765
636.85	-0.744
637.18	-0.755
637.51	0.503
637.83	-0.657
638.16	0.819
638.49	-0.681
638.82	0.658
639.15	-1.493
639.48	0.138
639.81	0.418
640.13	-1.010
640.46	-1.603
640.79	-1.178
641.12	-1.182
641.45	-1.502
641.77	0.741
642.10	1.106
642.43	-1.286
642.76	-0.495
643.09	0.646
643.41	-0.485
643.74	-1.318
644.07	-0.821
644.40	-0.507
644.73	0.876
645.05	0.671
645.38	-0.176
645.71	-0.709
646.04	-0.180
646.36	0.000
646.69	0.899
647.02	-0.945
647.35	-0.746
647.67	-0.548
648.00	0.000
648.33	1.365
648.66	-1.186
648.98	-2.848
649.31	-2.645
649.64	-0.471
649.96	-0.810
650.29	0.852
650.62	0.684
650.94	-2.222
651.27	-0.931
651.60	0.721
651.92	-0.175
