SpectraSuite Data File
++++++++++++++++++++++++++++++++++++
Date: Fri May 15 20:14:50 PDT 2015
User: schluterlab
Dark Spectrum Present: Yes
Reference Spectrum Present: Yes
Number of Sampled Component Spectra: 1
Spectrometers: USB2E3373
Integration Time (usec): 3000 (USB2E3373)
Spectra Averaged: 3 (USB2E3373)
Boxcar Smoothing: 0 (USB2E3373)
Correct for Electrical Dark: No (USB2E3373)
Strobe/Lamp Enabled: No (USB2E3373)
Correct for Detector Non-linearity: No (USB2E3373)
Correct for Stray Light: No (USB2E3373)
Number of Pixels in Processed Spectrum: 2048
>>>>>Begin Processed Spectral Data<<<<<
178.53	0.000
178.91	0.000
179.29	87.500
179.67	-250.000
180.04	-85.714
180.42	150.000
180.80	-100.000
181.18	-166.667
181.56	350.000
181.94	-300.000
182.31	700.000
182.69	-140.000
183.07	-33.333
183.45	-80.000
183.83	-0.000
184.20	9.091
184.58	144.444
184.96	-75.000
185.34	-266.667
185.72	0.000
186.09	30.769
186.47	-400.000
186.85	200.000
187.23	-22.222
187.61	-200.000
187.98	-100.000
188.36	66.667
188.74	-133.333
189.12	0.000
189.49	22.222
189.87	0.000
190.25	78.571
190.63	50.000
191.00	166.667
191.38	-5.263
191.76	350.000
192.14	150.000
192.51	450.000
192.89	-66.667
193.27	-128.571
193.65	150.000
194.02	109.091
194.40	30.000
194.78	-75.000
195.15	-83.333
195.53	75.000
195.91	150.000
196.29	-275.000
196.66	30.769
197.04	100.000
197.42	-100.000
197.79	-433.333
198.17	-53.846
198.55	1500.000
198.92	-166.667
199.30	0.000
199.68	-40.000
200.05	-33.333
200.43	0.000
200.81	0.000
201.18	100.000
201.56	500.000
201.94	100.000
202.31	-166.667
202.69	-160.000
203.07	-125.000
203.44	1100.000
203.82	0.000
204.19	-42.857
204.57	-133.333
204.95	25.000
205.32	70.000
205.70	-14.286
206.08	-100.000
206.45	188.889
206.83	85.714
207.20	28.571
207.58	-1400.000
207.96	166.667
208.33	-40.000
208.71	275.000
209.08	16.667
209.46	-900.000
209.84	-140.000
210.21	-1400.000
210.59	128.571
210.96	166.667
211.34	150.000
211.71	0.000
212.09	-28.571
212.46	-500.000
212.84	0.000
213.22	70.000
213.59	400.000
213.97	53.846
214.34	54.545
214.72	0.000
215.09	300.000
215.47	7.692
215.84	0.000
216.22	-400.000
216.59	62.500
216.97	350.000
217.34	150.000
217.72	-40.000
218.09	87.500
218.47	150.000
218.84	200.000
219.22	-22.222
219.59	-120.000
219.97	33.333
220.34	225.000
220.72	0.000
221.09	-50.000
221.47	0.000
221.84	-300.000
222.22	-100.000
222.59	-9.091
222.97	33.333
223.34	0.000
223.72	-7.143
224.09	-19.048
224.46	7.143
224.84	300.000
225.21	-20.000
225.59	86.667
225.96	-300.000
226.34	25.000
226.71	-28.571
227.08	33.333
227.46	-87.500
227.83	-550.000
228.21	66.667
228.58	0.000
228.95	0.000
229.33	70.000
229.70	75.000
230.08	-62.500
230.45	-42.857
230.82	57.143
231.20	-60.000
231.57	57.143
231.95	128.571
232.32	-100.000
232.69	64.286
233.07	333.333
233.44	60.000
233.81	60.000
234.19	77.778
234.56	52.941
234.93	200.000
235.31	250.000
235.68	160.000
236.05	-15.385
236.43	10.000
236.80	64.706
237.17	50.000
237.55	50.000
237.92	55.556
238.29	36.111
238.67	43.333
239.04	29.412
239.41	41.463
239.79	43.333
240.16	70.732
240.53	65.789
240.91	28.261
241.28	52.381
241.65	73.214
242.02	67.123
242.40	65.000
242.77	59.322
243.14	74.242
243.51	58.750
243.89	62.069
244.26	51.724
244.63	61.905
245.00	48.454
245.38	63.918
245.75	49.438
246.12	58.621
246.49	64.463
246.87	71.154
247.24	56.303
247.61	50.877
247.98	59.350
248.36	59.375
248.73	65.132
249.10	55.844
249.47	62.025
249.84	58.170
250.22	60.588
250.59	59.477
250.96	55.399
251.33	57.558
251.70	65.882
252.08	56.853
252.45	56.931
252.82	62.312
253.19	64.055
253.56	61.215
253.94	61.712
254.31	58.261
254.68	66.228
255.05	56.693
255.42	62.445
255.79	60.618
256.16	59.922
256.54	60.821
256.91	57.034
257.28	57.249
257.65	59.925
258.02	54.965
258.39	58.586
258.76	62.637
259.14	60.797
259.51	54.693
259.88	62.199
260.25	60.784
260.62	62.153
260.99	55.593
261.36	59.589
261.73	58.228
262.10	58.663
262.47	57.975
262.85	59.248
263.22	58.769
263.59	62.928
263.96	59.006
264.33	62.121
264.70	57.440
265.07	58.631
265.44	61.190
265.81	57.345
266.18	62.568
266.55	61.183
266.92	59.585
267.29	60.052
267.66	59.079
268.03	58.639
268.40	58.486
268.77	63.369
269.14	57.794
269.51	60.154
269.88	57.855
270.25	59.184
270.62	55.854
270.99	57.033
271.36	56.968
271.73	59.390
272.10	56.204
272.47	59.574
272.84	59.406
273.21	56.845
273.58	59.759
273.95	57.895
274.32	58.199
274.69	55.882
275.06	57.143
275.43	54.875
275.80	57.837
276.17	59.310
276.54	55.460
276.91	60.746
277.28	56.987
277.65	56.198
278.02	55.106
278.39	57.112
278.76	54.507
279.13	55.602
279.50	58.193
279.87	55.940
280.23	57.204
280.60	55.361
280.97	56.768
281.34	55.577
281.71	56.468
282.08	54.397
282.45	53.425
282.82	55.985
283.19	55.513
283.56	55.491
283.92	57.875
284.29	53.846
284.66	54.845
285.03	53.831
285.40	55.198
285.77	52.724
286.14	52.347
286.51	56.458
286.87	51.371
287.24	55.433
287.61	55.732
287.98	55.965
288.35	51.473
288.72	54.991
289.08	52.604
289.45	53.076
289.82	52.273
290.19	50.683
290.56	51.458
290.93	48.822
291.29	46.533
291.66	49.449
292.03	49.920
292.40	48.387
292.77	48.166
293.13	44.643
293.50	44.310
293.87	45.802
294.24	45.595
294.60	45.455
294.97	46.577
295.34	46.933
295.71	46.647
296.08	45.740
296.44	43.385
296.81	43.194
297.18	44.058
297.55	47.154
297.91	44.795
298.28	42.612
298.65	42.605
299.02	43.666
299.38	41.313
299.75	42.345
300.12	42.147
300.48	43.083
300.85	42.079
301.22	42.987
301.59	42.632
301.95	43.165
302.32	43.191
302.69	42.413
303.05	42.079
303.42	41.719
303.79	42.056
304.15	41.099
304.52	39.834
304.89	38.363
305.25	38.499
305.62	39.323
305.99	40.702
306.35	39.191
306.72	39.820
307.09	41.391
307.45	40.413
307.82	40.509
308.19	42.044
308.55	39.804
308.92	42.157
309.29	41.676
309.65	39.828
310.02	41.804
310.38	41.932
310.75	39.672
311.12	40.797
311.48	40.191
311.85	39.791
312.22	40.717
312.58	40.021
312.95	39.701
313.31	41.097
313.68	41.152
314.05	40.102
314.41	42.165
314.78	40.000
315.14	42.754
315.51	40.994
315.87	43.135
316.24	41.860
316.61	39.862
316.97	41.270
317.34	42.773
317.70	41.969
318.07	41.442
318.43	41.569
318.80	41.667
319.16	43.652
319.53	42.355
319.89	41.339
320.26	43.927
320.62	43.531
320.99	43.319
321.35	43.988
321.72	44.237
322.08	45.619
322.45	44.467
322.81	44.499
323.18	45.240
323.54	44.595
323.91	46.154
324.27	46.680
324.64	47.659
325.00	46.807
325.37	48.669
325.73	46.510
326.10	48.955
326.46	49.058
326.83	50.394
327.19	50.392
327.56	50.565
327.92	51.937
328.29	50.357
328.65	52.170
329.01	51.654
329.38	52.166
329.74	52.030
330.11	51.807
330.47	51.855
330.84	52.596
331.20	55.133
331.56	51.667
331.93	53.881
332.29	53.346
332.66	54.118
333.02	53.253
333.38	51.604
333.75	53.297
334.11	51.119
334.48	54.941
334.84	54.579
335.20	53.980
335.57	51.496
335.93	53.659
336.29	54.788
336.66	53.951
337.02	51.673
337.38	51.481
337.75	53.818
338.11	54.103
338.47	53.558
338.84	54.344
339.20	53.473
339.56	53.578
339.93	53.357
340.29	52.844
340.65	52.330
341.02	52.926
341.38	52.920
341.74	53.622
342.11	52.166
342.47	53.826
342.83	53.028
343.20	54.181
343.56	53.217
343.92	53.056
344.28	54.483
344.65	52.418
345.01	52.636
345.37	51.640
345.73	52.469
346.10	52.545
346.46	52.229
346.82	50.573
347.19	51.455
347.55	52.632
347.91	53.236
348.27	52.142
348.63	53.237
349.00	52.748
349.36	51.621
349.72	52.902
350.08	53.115
350.45	51.955
350.81	53.405
351.17	51.384
351.53	52.816
351.89	51.445
352.26	51.200
352.62	51.613
352.98	50.120
353.34	50.000
353.70	52.589
354.07	50.323
354.43	52.282
354.79	51.610
355.15	52.778
355.51	52.532
355.87	52.184
356.24	52.121
356.60	51.576
356.96	51.746
357.32	50.958
357.68	50.977
358.04	50.565
358.40	51.849
358.77	52.313
359.13	52.442
359.49	49.692
359.85	51.794
360.21	52.472
360.57	52.487
360.93	50.983
361.29	50.076
361.66	50.549
362.02	53.182
362.38	52.932
362.74	52.006
363.10	52.445
363.46	50.408
363.82	52.968
364.18	51.882
364.54	50.441
364.90	52.545
365.26	53.421
365.62	52.263
365.98	53.372
366.35	52.950
366.71	52.476
367.07	51.597
367.43	52.768
367.79	52.367
368.15	52.764
368.51	52.586
368.87	52.405
369.23	52.780
369.59	53.061
369.95	53.519
370.31	53.468
370.67	52.313
371.03	52.950
371.39	52.589
371.75	51.795
372.11	51.427
372.47	53.920
372.83	53.371
373.19	52.782
373.55	52.924
373.91	53.420
374.27	54.359
374.63	52.764
374.99	51.844
375.35	53.343
375.71	53.846
376.07	53.511
376.42	53.673
376.78	54.228
377.14	53.419
377.50	53.054
377.86	55.087
378.22	54.499
378.58	54.551
378.94	54.064
379.30	54.336
379.66	54.232
380.02	53.525
380.38	54.656
380.74	53.860
381.09	54.601
381.45	53.761
381.81	53.732
382.17	54.315
382.53	53.279
382.89	55.179
383.25	55.258
383.61	54.512
383.97	54.540
384.32	55.034
384.68	55.170
385.04	54.228
385.40	54.636
385.76	56.101
386.12	55.045
386.48	56.386
386.83	55.358
387.19	55.739
387.55	55.897
387.91	57.213
388.27	55.433
388.62	55.570
388.98	55.249
389.34	56.527
389.70	56.619
390.06	54.626
390.42	54.404
390.77	56.442
391.13	55.359
391.49	55.498
391.85	55.880
392.20	54.991
392.56	55.817
392.92	56.900
393.28	56.014
393.64	55.676
393.99	56.614
394.35	56.610
394.71	56.897
395.07	54.431
395.42	55.070
395.78	57.134
396.14	56.116
396.50	55.105
396.85	56.793
397.21	54.950
397.57	56.364
397.92	54.044
398.28	56.034
398.64	54.639
399.00	55.926
399.35	54.402
399.71	54.911
400.07	54.897
400.42	55.324
400.78	55.236
401.14	55.414
401.49	55.033
401.85	55.881
402.21	55.663
402.57	55.125
402.92	54.078
403.28	55.576
403.63	55.422
403.99	55.166
404.35	55.965
404.70	53.571
405.06	54.759
405.42	54.071
405.77	54.387
406.13	54.016
406.49	54.115
406.84	56.601
407.20	54.545
407.55	54.153
407.91	54.278
408.27	53.027
408.62	55.138
408.98	54.529
409.34	54.895
409.69	54.651
410.05	53.756
410.40	54.506
410.76	55.127
411.11	53.812
411.47	55.161
411.83	53.672
412.18	54.505
412.54	52.809
412.89	53.387
413.25	54.513
413.60	54.596
413.96	53.313
414.31	53.841
414.67	54.522
415.03	53.063
415.38	52.872
415.74	54.397
416.09	55.258
416.45	53.410
416.80	55.056
417.16	54.282
417.51	54.763
417.87	53.390
418.22	54.663
418.58	55.585
418.93	55.361
419.29	52.753
419.64	54.569
420.00	54.345
420.35	54.507
420.71	55.286
421.06	54.328
421.42	55.349
421.77	54.740
422.12	54.597
422.48	53.600
422.83	55.162
423.19	54.797
423.54	53.439
423.90	54.122
424.25	53.846
424.61	56.426
424.96	54.530
425.31	55.921
425.67	55.986
426.02	55.477
426.38	55.917
426.73	56.295
427.09	57.658
427.44	55.706
427.79	55.392
428.15	54.854
428.50	55.360
428.85	55.528
429.21	56.084
429.56	56.712
429.92	56.086
430.27	55.038
430.62	56.247
430.98	56.210
431.33	56.204
431.68	55.050
432.04	56.624
432.39	55.163
432.74	55.021
433.10	55.747
433.45	56.631
433.80	56.529
434.16	55.845
434.51	56.183
434.86	57.201
435.22	56.478
435.57	57.392
435.92	57.365
436.28	56.351
436.63	58.756
436.98	55.562
437.34	57.471
437.69	58.378
438.04	56.752
438.39	57.178
438.75	57.984
439.10	57.555
439.45	58.551
439.81	56.697
440.16	57.660
440.51	57.851
440.86	58.127
441.22	57.523
441.57	57.119
441.92	58.342
442.27	57.594
442.63	58.458
442.98	58.300
443.33	56.427
443.68	57.082
444.03	57.625
444.39	57.304
444.74	59.532
445.09	57.962
445.44	58.575
445.79	59.257
446.15	57.819
446.50	58.181
446.85	57.598
447.20	57.299
447.55	57.812
447.91	58.263
448.26	57.200
448.61	58.319
448.96	58.692
449.31	58.613
449.66	58.014
450.02	57.787
450.37	59.751
450.72	57.159
451.07	57.722
451.42	58.614
451.77	57.685
452.12	58.373
452.47	58.789
452.83	58.422
453.18	59.013
453.53	57.901
453.88	58.531
454.23	58.144
454.58	59.194
454.93	57.990
455.28	59.683
455.63	58.772
455.98	59.651
456.34	59.323
456.69	60.038
457.04	60.239
457.39	58.505
457.74	58.948
458.09	57.916
458.44	59.977
458.79	57.143
459.14	59.439
459.49	59.463
459.84	58.432
460.19	59.102
460.54	58.435
460.89	59.432
461.24	59.006
461.59	59.145
461.94	57.673
462.29	59.228
462.64	59.003
462.99	59.039
463.34	59.875
463.69	59.009
464.04	59.201
464.39	59.491
464.74	58.405
465.09	59.513
465.44	59.723
465.79	58.107
466.14	59.464
466.49	58.827
466.84	60.202
467.19	59.262
467.54	59.579
467.89	60.076
468.24	59.367
468.59	60.762
468.94	59.365
469.29	59.475
469.64	58.988
469.99	61.107
470.34	59.863
470.68	60.254
471.03	60.863
471.38	60.699
471.73	59.454
472.08	60.176
472.43	59.597
472.78	60.452
473.13	60.680
473.48	60.586
473.83	58.780
474.17	60.427
474.52	59.285
474.87	59.394
475.22	59.793
475.57	60.305
475.92	59.901
476.27	60.827
476.61	59.838
476.96	58.673
477.31	60.087
477.66	59.831
478.01	60.528
478.36	59.586
478.70	60.685
479.05	60.330
479.40	59.671
479.75	59.020
480.10	58.884
480.45	59.600
480.79	60.121
481.14	60.553
481.49	58.621
481.84	60.811
482.19	59.775
482.53	60.000
482.88	58.663
483.23	59.837
483.58	59.670
483.92	59.874
484.27	59.526
484.62	59.435
484.97	58.748
485.31	58.273
485.66	57.012
486.01	57.395
486.36	57.052
486.70	57.856
487.05	58.611
487.40	58.066
487.75	58.169
488.09	58.251
488.44	58.769
488.79	58.872
489.13	59.375
489.48	58.829
489.83	59.552
490.17	58.517
490.52	59.815
490.87	59.047
491.22	60.029
491.56	59.440
491.91	58.365
492.26	60.136
492.60	58.925
492.95	61.289
493.30	58.964
493.64	60.953
493.99	59.903
494.34	60.194
494.68	59.619
495.03	58.929
495.37	59.764
495.72	60.676
496.07	59.610
496.41	59.434
496.76	59.420
497.11	59.199
497.45	60.191
497.80	61.302
498.14	59.116
498.49	60.691
498.84	60.379
499.18	60.843
499.53	60.863
499.87	59.533
500.22	60.336
500.56	59.708
500.91	60.341
501.26	59.763
501.60	59.321
501.95	59.874
502.29	59.467
502.64	60.473
502.98	59.891
503.33	58.501
503.67	59.904
504.02	61.828
504.36	60.119
504.71	59.899
505.06	60.040
505.40	59.645
505.75	61.649
506.09	60.618
506.44	61.807
506.78	60.255
507.13	61.117
507.47	59.530
507.82	60.897
508.16	60.222
508.51	61.385
508.85	61.852
509.19	62.533
509.54	62.038
509.88	60.680
510.23	61.646
510.57	62.052
510.92	60.501
511.26	61.866
511.61	62.541
511.95	61.808
512.30	63.027
512.64	61.770
512.98	61.763
513.33	62.619
513.67	62.194
514.02	63.501
514.36	63.371
514.70	63.403
515.05	64.219
515.39	63.282
515.74	64.731
516.08	63.240
516.42	65.077
516.77	64.775
517.11	64.036
517.46	64.034
517.80	63.826
518.14	63.074
518.49	63.041
518.83	64.763
519.17	62.220
519.52	62.522
519.86	64.106
520.20	65.006
520.55	64.353
520.89	63.802
521.23	64.408
521.58	64.795
521.92	64.359
522.26	64.086
522.61	64.026
522.95	66.887
523.29	64.231
523.64	65.502
523.98	65.262
524.32	64.884
524.66	66.133
525.01	65.455
525.35	66.559
525.69	64.848
526.04	64.947
526.38	66.602
526.72	64.356
527.06	64.786
527.41	64.644
527.75	64.745
528.09	66.047
528.43	66.509
528.78	66.073
529.12	65.355
529.46	65.237
529.80	65.104
530.15	66.799
530.49	66.667
530.83	66.826
531.17	65.212
531.51	65.663
531.86	64.038
532.20	66.040
532.54	65.487
532.88	66.188
533.22	66.062
533.57	64.417
533.91	65.731
534.25	67.513
534.59	66.389
534.93	64.884
535.27	63.832
535.62	64.938
535.96	65.558
536.30	64.908
536.64	65.610
536.98	66.690
537.32	67.994
537.66	67.672
538.01	66.923
538.35	66.436
538.69	64.381
539.03	63.705
539.37	65.949
539.71	66.121
540.05	66.191
540.39	65.305
540.73	65.900
541.07	67.196
541.42	65.390
541.76	67.722
542.10	65.313
542.44	66.227
542.78	66.208
543.12	65.797
543.46	67.107
543.80	66.204
544.14	63.752
544.48	66.755
544.82	65.824
545.16	66.598
545.50	65.487
545.84	66.714
546.18	67.092
546.52	66.186
546.86	66.499
547.20	67.310
547.54	66.502
547.88	66.304
548.22	65.023
548.56	63.984
548.90	67.251
549.24	65.565
549.58	66.150
549.92	65.833
550.26	68.059
550.60	67.584
550.94	67.513
551.28	67.774
551.62	67.462
551.96	67.970
552.30	67.178
552.64	65.303
552.98	66.807
553.32	65.407
553.66	66.981
554.00	67.080
554.34	67.061
554.68	66.593
555.02	66.741
555.36	67.016
555.69	67.326
556.03	66.238
556.37	66.050
556.71	67.437
557.05	67.338
557.39	66.914
557.73	66.867
558.07	67.421
558.41	67.458
558.75	67.186
559.08	68.479
559.42	68.016
559.76	67.574
560.10	66.743
560.44	67.014
560.78	66.503
561.12	66.925
561.45	68.025
561.79	67.437
562.13	69.127
562.47	68.201
562.81	67.435
563.15	66.291
563.48	67.963
563.82	67.124
564.16	67.061
564.50	65.676
564.84	67.068
565.17	66.264
565.51	68.238
565.85	69.342
566.19	69.297
566.52	67.024
566.86	67.931
567.20	67.310
567.54	67.397
567.88	67.545
568.21	67.138
568.55	65.054
568.89	66.581
569.23	65.190
569.56	64.492
569.90	65.408
570.24	61.965
570.57	65.236
570.91	64.936
571.25	63.302
571.59	62.753
571.92	61.541
572.26	61.957
572.60	61.705
572.93	62.567
573.27	61.724
573.61	62.202
573.95	62.643
574.28	61.917
574.62	61.785
574.96	60.908
575.29	60.626
575.63	60.197
575.97	61.561
576.30	61.541
576.64	61.139
576.98	62.317
577.31	61.145
577.65	61.284
577.98	61.454
578.32	61.126
578.66	60.219
578.99	60.576
579.33	60.854
579.67	60.207
580.00	61.241
580.34	60.746
580.67	60.781
581.01	61.623
581.35	61.262
581.68	60.736
582.02	60.635
582.35	60.891
582.69	60.635
583.02	61.034
583.36	61.391
583.70	62.150
584.03	63.108
584.37	63.947
584.70	62.060
585.04	60.544
585.37	60.835
585.71	61.442
586.04	61.548
586.38	61.856
586.72	62.152
587.05	62.681
587.39	62.007
587.72	62.821
588.06	62.054
588.39	62.746
588.73	63.278
589.06	63.960
589.40	62.288
589.73	63.709
590.07	63.595
590.40	64.164
590.73	65.527
591.07	64.673
591.40	64.248
591.74	63.937
592.07	64.147
592.41	64.355
592.74	63.521
593.08	61.684
593.41	63.196
593.75	63.134
594.08	62.547
594.41	63.392
594.75	64.427
595.08	63.980
595.42	64.667
595.75	64.251
596.09	64.660
596.42	62.877
596.75	64.165
597.09	64.875
597.42	64.589
597.75	65.689
598.09	62.653
598.42	63.718
598.76	63.749
599.09	63.502
599.42	62.486
599.76	63.695
600.09	62.406
600.42	62.206
600.76	62.667
601.09	63.206
601.42	63.416
601.76	63.081
602.09	63.655
602.42	65.038
602.76	64.559
603.09	64.327
603.42	66.054
603.76	64.556
604.09	64.115
604.42	65.102
604.76	65.243
605.09	65.311
605.42	64.424
605.75	64.799
606.09	63.524
606.42	63.803
606.75	63.853
607.09	63.824
607.42	63.358
607.75	63.455
608.08	62.893
608.42	63.591
608.75	64.530
609.08	66.418
609.41	64.416
609.75	63.962
610.08	65.102
610.41	64.831
610.74	64.651
611.07	67.132
611.41	65.906
611.74	67.164
612.07	65.203
612.40	66.685
612.73	66.893
613.07	65.354
613.40	65.153
613.73	65.976
614.06	65.609
614.39	65.651
614.72	66.331
615.06	65.642
615.39	64.520
615.72	65.931
616.05	65.307
616.38	64.843
616.71	66.055
617.05	66.770
617.38	67.379
617.71	67.296
618.04	69.968
618.37	68.411
618.70	67.261
619.03	70.208
619.36	68.379
619.69	70.887
620.03	70.562
620.36	68.598
620.69	68.237
621.02	68.960
621.35	69.710
621.68	71.259
622.01	70.250
622.34	69.832
622.67	69.164
623.00	69.142
623.33	70.274
623.66	68.512
623.99	68.306
624.32	68.897
624.65	68.872
624.99	69.752
625.32	66.793
625.65	71.406
625.98	70.669
626.31	68.579
626.64	70.104
626.97	71.728
627.30	70.928
627.63	70.277
627.96	70.171
628.29	70.398
628.62	73.156
628.95	72.345
629.28	73.790
629.61	71.685
629.94	72.532
630.26	71.739
630.59	75.026
630.92	72.718
631.25	71.077
631.58	75.220
631.91	73.904
632.24	74.427
632.57	71.818
632.90	72.835
633.23	74.588
633.56	77.960
633.89	76.079
634.22	76.790
