SpectraSuite Data File
++++++++++++++++++++++++++++++++++++
Date: Fri May 15 17:27:56 PDT 2015
User: schluterlab
Dark Spectrum Present: Yes
Reference Spectrum Present: Yes
Number of Sampled Component Spectra: 1
Spectrometers: USB2E3373
Integration Time (usec): 3000 (USB2E3373)
Spectra Averaged: 3 (USB2E3373)
Boxcar Smoothing: 0 (USB2E3373)
Correct for Electrical Dark: No (USB2E3373)
Strobe/Lamp Enabled: No (USB2E3373)
Correct for Detector Non-linearity: No (USB2E3373)
Correct for Stray Light: No (USB2E3373)
Number of Pixels in Processed Spectrum: 2048
>>>>>Begin Processed Spectral Data<<<<<
178.53	0.000
178.91	0.000
179.29	75.000
179.67	-450.000
180.04	57.143
180.42	50.000
180.80	-400.000
181.18	-100.000
181.56	250.000
181.94	-250.000
182.31	-600.000
182.69	60.000
183.07	66.667
183.45	0.000
183.83	50.000
184.20	-18.182
184.58	155.556
184.96	125.000
185.34	233.333
185.72	-50.000
186.09	61.538
186.47	-400.000
186.85	66.667
187.23	166.667
187.61	400.000
187.98	-66.667
188.36	55.556
188.74	100.000
189.12	-11.765
189.49	27.778
189.87	0.000
190.25	7.143
190.63	-250.000
191.00	100.000
191.38	5.263
191.76	200.000
192.14	-75.000
192.51	-200.000
192.89	-66.667
193.27	-28.571
193.65	33.333
194.02	109.091
194.40	60.000
194.78	-87.500
195.15	-33.333
195.53	-50.000
195.91	175.000
196.29	50.000
196.66	76.923
197.04	-0.000
197.42	55.556
197.79	-266.667
198.17	-92.308
198.55	800.000
198.92	-100.000
199.30	1100.000
199.68	-240.000
200.05	-133.333
200.43	0.000
200.81	166.667
201.18	100.000
201.56	-600.000
201.94	300.000
202.31	-266.667
202.69	-80.000
203.07	75.000
203.44	100.000
203.82	0.000
204.19	35.714
204.57	-833.333
204.95	50.000
205.32	-60.000
205.70	57.143
206.08	-25.000
206.45	111.111
206.83	42.857
207.20	-42.857
207.58	800.000
207.96	100.000
208.33	-30.000
208.71	25.000
209.08	-183.333
209.46	-700.000
209.84	20.000
210.21	-300.000
210.59	71.429
210.96	33.333
211.34	-150.000
211.71	13.333
212.09	-114.286
212.46	-400.000
212.84	0.000
213.22	100.000
213.59	500.000
213.97	69.231
214.34	127.273
214.72	16.667
215.09	250.000
215.47	-69.231
215.84	9.091
216.22	-33.333
216.59	0.000
216.97	200.000
217.34	-100.000
217.72	-100.000
218.09	-12.500
218.47	-0.000
218.84	-200.000
219.22	-44.444
219.59	-120.000
219.97	366.667
220.34	125.000
220.72	42.857
221.09	50.000
221.47	-150.000
221.84	-300.000
222.22	-600.000
222.59	63.636
222.97	0.000
223.34	-66.667
223.72	0.000
224.09	-14.286
224.46	0.000
224.84	133.333
225.21	-30.000
225.59	40.000
225.96	50.000
226.34	300.000
226.71	-85.714
227.08	-66.667
227.46	-75.000
227.83	-650.000
228.21	66.667
228.58	100.000
228.95	12.500
229.33	20.000
229.70	25.000
230.08	-100.000
230.45	-128.571
230.82	-14.286
231.20	-53.333
231.57	107.143
231.95	28.571
232.32	-180.000
232.69	-7.143
233.07	-66.667
233.44	200.000
233.81	-40.000
234.19	100.000
234.56	-17.647
234.93	900.000
235.31	-125.000
235.68	-140.000
236.05	-100.000
236.43	-30.000
236.80	-5.882
237.17	37.500
237.55	20.000
237.92	29.630
238.29	13.889
238.67	6.667
239.04	-14.706
239.41	-12.195
239.79	3.333
240.16	51.220
240.53	-23.684
240.91	-4.348
241.28	4.762
241.65	1.786
242.02	16.438
242.40	8.333
242.77	3.390
243.14	4.545
243.51	-2.500
243.89	20.690
244.26	-3.448
244.63	1.190
245.00	9.278
245.38	18.557
245.75	5.618
246.12	5.172
246.49	13.223
246.87	24.038
247.24	10.084
247.61	4.386
247.98	12.195
248.36	11.250
248.73	15.132
249.10	9.740
249.47	8.861
249.84	9.804
250.22	12.941
250.59	14.379
250.96	15.962
251.33	1.163
251.70	11.176
252.08	14.721
252.45	6.931
252.82	9.045
253.19	11.060
253.56	7.477
253.94	13.964
254.31	13.043
254.68	15.789
255.05	6.693
255.42	15.721
255.79	10.425
256.16	11.284
256.54	14.925
256.91	13.308
257.28	10.409
257.65	10.112
258.02	8.511
258.39	10.774
258.76	15.018
259.14	14.950
259.51	14.239
259.88	12.715
260.25	11.765
260.62	12.500
260.99	11.864
261.36	10.616
261.73	11.709
262.10	11.854
262.47	9.816
262.85	13.480
263.22	15.077
263.59	14.953
263.96	14.907
264.33	13.939
264.70	12.202
265.07	12.798
265.44	13.314
265.81	14.124
266.18	13.388
266.55	14.910
266.92	13.212
267.29	9.399
267.66	12.788
268.03	10.471
268.40	10.444
268.77	15.775
269.14	10.791
269.51	12.339
269.88	10.973
270.25	9.439
270.62	9.024
270.99	9.974
271.36	11.247
271.73	11.268
272.10	11.922
272.47	11.584
272.84	13.366
273.21	13.225
273.58	14.458
273.95	10.526
274.32	10.393
274.69	11.538
275.06	13.393
275.43	11.111
275.80	10.817
276.17	11.954
276.54	11.563
276.91	11.404
277.28	9.825
277.65	14.669
278.02	11.277
278.39	11.597
278.76	12.998
279.13	9.751
279.50	11.134
279.87	12.527
280.23	8.172
280.60	11.696
280.97	10.505
281.34	10.769
281.71	13.963
282.08	10.020
282.45	9.002
282.82	12.934
283.19	9.865
283.56	12.139
283.92	9.677
284.29	10.000
284.66	10.465
285.03	10.413
285.40	11.342
285.77	8.963
286.14	11.733
286.51	13.838
286.87	9.506
287.24	8.656
287.61	8.818
287.98	11.930
288.35	10.052
288.72	12.609
289.08	9.375
289.45	11.599
289.82	8.741
290.19	9.556
290.56	9.091
290.93	8.081
291.29	8.320
291.66	9.921
292.03	10.686
292.40	9.355
292.77	10.686
293.13	7.630
293.50	9.105
293.87	8.702
294.24	9.583
294.60	8.048
294.97	9.524
295.34	8.282
295.71	6.706
296.08	8.221
296.44	6.970
296.81	8.056
297.18	7.681
297.55	9.485
297.91	8.356
298.28	9.631
298.65	7.463
299.02	7.817
299.38	5.882
299.75	7.724
300.12	9.686
300.48	7.510
300.85	7.731
301.22	8.052
301.59	8.684
301.95	8.987
302.32	9.468
302.69	7.463
303.05	6.807
303.42	8.468
303.79	8.061
304.15	10.514
304.52	6.540
304.89	7.602
305.25	7.506
305.62	8.518
305.99	8.187
306.35	8.208
306.72	5.849
307.09	7.298
307.45	8.726
307.82	7.755
308.19	8.479
308.55	8.506
308.92	9.586
309.29	7.709
309.65	7.535
310.02	7.591
310.38	8.782
310.75	8.087
311.12	8.396
311.48	7.741
311.85	6.492
312.22	7.806
312.58	7.006
312.95	7.471
313.31	6.729
313.68	8.482
314.05	7.449
314.41	7.835
314.78	7.629
315.14	8.530
315.51	7.143
315.87	8.197
316.24	8.797
316.61	9.252
316.97	7.440
317.34	7.715
317.70	8.126
318.07	8.462
318.43	6.176
318.80	8.144
319.16	8.203
319.53	8.832
319.89	7.874
320.26	7.085
320.62	8.626
320.99	6.159
321.35	7.708
321.72	8.204
322.08	8.157
322.45	8.020
322.81	8.939
323.18	7.360
323.54	6.274
323.91	8.374
324.27	7.715
324.64	7.865
325.00	8.029
325.37	8.907
325.73	7.525
326.10	8.084
326.46	8.969
326.83	7.874
327.19	7.498
327.56	8.601
327.92	7.394
328.29	8.750
328.65	8.113
329.01	7.813
329.38	9.677
329.74	7.460
330.11	9.082
330.47	7.607
330.84	7.115
331.20	8.175
331.56	7.870
331.93	9.041
332.29	7.974
332.66	8.054
333.02	9.572
333.38	7.058
333.75	8.883
334.11	7.610
334.48	8.432
334.84	7.784
335.20	8.692
335.57	7.344
335.93	8.853
336.29	8.195
336.66	7.811
337.02	7.342
337.38	7.130
337.75	7.364
338.11	8.837
338.47	8.485
338.84	8.595
339.20	8.318
339.56	7.982
339.93	8.863
340.29	8.073
340.65	8.513
341.02	7.801
341.38	8.319
341.74	6.714
342.11	7.366
342.47	7.740
342.83	8.651
343.20	7.578
343.56	9.478
343.92	8.060
344.28	8.625
344.65	8.549
345.01	7.606
345.37	8.999
345.73	9.540
346.10	8.456
346.46	7.990
346.82	7.201
347.19	7.814
347.55	7.435
347.91	8.576
348.27	8.892
348.63	8.603
349.00	7.793
349.36	8.645
349.72	8.789
350.08	7.623
350.45	7.821
350.81	7.724
351.17	7.655
351.53	8.408
351.89	7.102
352.26	7.840
352.62	9.113
352.98	8.916
353.34	8.132
353.70	7.686
354.07	7.339
354.43	7.766
354.79	7.349
355.15	8.571
355.51	7.516
355.87	7.524
356.24	8.728
356.60	7.518
356.96	8.651
357.32	8.866
357.68	7.115
358.04	7.674
358.40	7.556
358.77	7.337
359.13	7.446
359.49	7.550
359.85	7.488
360.21	7.496
360.57	7.575
360.93	8.699
361.29	7.100
361.66	7.759
362.02	8.106
362.38	8.073
362.74	6.889
363.10	7.073
363.46	8.154
363.82	9.016
364.18	8.118
364.54	6.985
364.90	8.315
365.26	8.006
365.62	8.759
365.98	8.504
366.35	7.939
366.71	8.204
367.07	8.055
367.43	7.692
367.79	7.420
368.15	8.184
368.51	8.667
368.87	7.107
369.23	6.931
369.59	8.746
369.95	8.798
370.31	8.526
370.67	7.985
371.03	7.618
371.39	7.732
371.75	7.399
372.11	6.990
372.47	8.062
372.83	7.878
373.19	8.845
373.55	7.220
373.91	8.351
374.27	7.725
374.63	7.968
374.99	7.730
375.35	8.078
375.71	8.601
376.07	7.654
376.42	7.959
376.78	7.919
377.14	7.921
377.50	8.499
377.86	8.434
378.22	8.296
378.58	8.269
378.94	8.570
379.30	8.110
379.66	8.339
380.02	7.480
380.38	7.547
380.74	8.318
381.09	8.344
381.45	7.523
381.81	8.513
382.17	8.503
382.53	8.994
382.89	8.286
383.25	9.085
383.61	8.659
383.97	8.508
384.32	8.443
384.68	7.988
385.04	7.966
385.40	8.276
385.76	8.365
386.12	8.926
386.48	9.579
386.83	8.244
387.19	8.486
387.55	8.783
387.91	8.191
388.27	9.035
388.62	8.559
388.98	8.471
389.34	8.932
389.70	9.012
390.06	8.999
390.42	8.938
390.77	8.829
391.13	8.575
391.49	8.409
391.85	8.447
392.20	8.161
392.56	8.328
392.92	9.865
393.28	8.962
393.64	8.949
393.99	9.279
394.35	8.349
394.71	9.770
395.07	8.925
395.42	9.532
395.78	8.990
396.14	9.269
396.50	9.385
396.85	9.466
397.21	9.837
397.57	9.028
397.92	9.347
398.28	10.460
398.64	8.855
399.00	9.537
399.35	8.860
399.71	9.477
400.07	9.613
400.42	9.914
400.78	9.614
401.14	9.195
401.49	9.529
401.85	9.202
402.21	9.759
402.57	10.125
402.92	9.724
403.28	9.586
403.63	9.521
403.99	8.610
404.35	10.056
404.70	9.524
405.06	9.048
405.42	8.390
405.77	8.367
406.13	8.615
406.49	9.118
406.84	9.474
407.20	8.910
407.55	8.500
407.91	9.826
408.27	9.114
408.62	9.662
408.98	9.920
409.34	10.409
409.69	9.496
410.05	9.236
410.40	9.815
410.76	9.831
411.11	9.625
411.47	9.139
411.83	8.977
412.18	9.202
412.54	9.738
412.89	9.113
413.25	9.266
413.60	9.627
413.96	9.939
414.31	8.780
414.67	9.173
415.03	8.256
415.38	8.681
415.74	10.293
416.09	10.385
416.45	9.386
416.80	9.584
417.16	9.807
417.51	10.260
417.87	10.169
418.22	9.650
418.58	9.431
418.93	10.784
419.29	9.859
419.64	9.268
420.00	11.146
420.35	9.970
420.71	9.417
421.06	9.454
421.42	9.675
421.77	9.827
422.12	9.137
422.48	10.233
422.83	8.991
423.19	9.312
423.54	8.760
423.90	9.717
424.25	10.505
424.61	9.914
424.96	9.001
425.31	10.052
425.67	9.214
426.02	9.776
426.38	10.645
426.73	10.351
427.09	9.684
427.44	10.647
427.79	10.312
428.15	10.376
428.50	9.994
428.85	9.029
429.21	10.413
429.56	10.296
429.92	10.375
430.27	10.025
430.62	9.984
430.98	9.130
431.33	10.095
431.68	10.204
432.04	10.397
432.39	10.097
432.74	10.102
433.10	10.632
433.45	9.857
433.80	9.460
434.16	9.806
434.51	10.323
434.86	10.105
435.22	10.488
435.57	10.231
435.92	10.359
436.28	10.555
436.63	10.553
436.98	10.255
437.34	9.921
437.69	10.793
438.04	10.199
438.39	10.202
438.75	10.565
439.10	10.357
439.45	10.956
439.81	9.786
440.16	10.095
440.51	11.343
440.86	11.360
441.22	11.029
441.57	10.155
441.92	10.756
442.27	10.200
442.63	11.510
442.98	10.052
443.33	10.239
443.68	10.610
444.03	10.283
444.39	10.330
444.74	10.368
445.09	10.078
445.44	10.655
445.79	11.552
446.15	10.352
446.50	9.207
446.85	10.521
447.20	9.802
447.55	10.938
447.91	10.886
448.26	10.814
448.61	11.054
448.96	11.130
449.31	10.173
449.66	10.337
450.02	10.610
450.37	9.721
450.72	9.908
451.07	10.316
451.42	10.175
451.77	10.669
452.12	10.227
452.47	10.045
452.83	10.306
453.18	10.310
453.53	10.556
453.88	10.383
454.23	9.773
454.58	11.272
454.93	10.438
455.28	9.397
455.63	10.229
455.98	11.305
456.34	9.706
456.69	10.928
457.04	11.909
457.39	10.389
457.74	10.399
458.09	10.065
458.44	10.474
458.79	10.140
459.14	10.755
459.49	10.388
459.84	11.168
460.19	9.830
460.54	10.880
460.89	10.966
461.24	10.559
461.59	10.629
461.94	10.252
462.29	11.098
462.64	10.764
462.99	10.291
463.34	10.223
463.69	10.296
464.04	10.956
464.39	10.552
464.74	10.429
465.09	10.667
465.44	11.252
465.79	10.091
466.14	11.117
466.49	10.063
466.84	11.065
467.19	10.325
467.54	10.920
467.89	10.297
468.24	10.584
468.59	11.746
468.94	10.159
469.29	11.475
469.64	11.415
469.99	11.072
470.34	9.352
470.68	10.738
471.03	11.323
471.38	10.556
471.73	10.994
472.08	10.923
472.43	9.866
472.78	10.898
473.13	10.748
473.48	10.619
473.83	10.710
474.17	11.788
474.52	11.934
474.87	10.545
475.22	10.311
475.57	10.672
475.92	10.861
476.27	11.874
476.61	10.880
476.96	10.374
477.31	10.492
477.66	10.843
478.01	9.657
478.36	10.403
478.70	11.147
479.05	11.758
479.40	10.175
479.75	11.262
480.10	10.241
480.45	11.300
480.79	11.027
481.14	11.322
481.49	10.345
481.84	10.811
482.19	10.337
482.53	10.983
482.88	10.692
483.23	10.413
483.58	10.613
483.92	9.874
484.27	10.483
484.62	10.713
484.97	10.531
485.31	10.477
485.66	10.344
486.01	10.450
486.36	10.466
486.70	10.270
487.05	10.788
487.40	10.626
487.75	10.085
488.09	10.352
488.44	10.316
488.79	10.684
489.13	10.697
489.48	10.047
489.83	10.224
490.17	10.382
490.52	10.300
490.87	10.736
491.22	10.888
491.56	10.484
491.91	10.803
492.26	11.424
492.60	10.125
492.95	11.215
493.30	10.357
493.64	10.167
493.99	10.676
494.34	10.000
494.68	10.143
495.03	10.560
495.37	10.893
495.72	10.853
496.07	10.683
496.41	10.566
496.76	10.594
497.11	10.340
497.45	11.504
497.80	11.403
498.14	10.979
498.49	10.919
498.84	10.679
499.18	10.793
499.53	10.764
499.87	10.457
500.22	10.930
500.56	10.792
500.91	10.743
501.26	10.430
501.60	10.772
501.95	10.723
502.29	10.557
502.64	11.824
502.98	10.853
503.33	10.279
503.67	11.036
504.02	10.899
504.36	11.529
504.71	10.556
505.06	10.418
505.40	10.761
505.75	11.031
506.09	10.694
506.44	10.986
506.78	10.714
507.13	10.755
507.47	10.131
507.82	10.417
508.16	10.671
508.51	11.542
508.85	10.884
509.19	10.059
509.54	11.046
509.88	10.841
510.23	10.920
510.57	11.224
510.92	10.288
511.26	11.675
511.61	11.221
511.95	11.342
512.30	11.253
512.64	10.796
512.98	10.780
513.33	11.863
513.67	9.892
514.02	11.098
514.36	11.829
514.70	12.296
515.05	11.457
515.39	11.216
515.74	12.275
516.08	11.536
516.42	11.779
516.77	11.527
517.11	11.157
517.46	11.969
517.80	11.502
518.14	10.716
518.49	10.877
518.83	10.875
519.17	10.188
519.52	11.486
519.86	11.525
520.20	10.996
520.55	10.006
520.89	11.543
521.23	10.956
521.58	11.672
521.92	11.090
522.26	11.841
522.61	11.623
522.95	10.265
523.29	11.881
523.64	11.881
523.98	11.536
524.32	11.147
524.66	12.036
525.01	11.948
525.35	11.471
525.69	10.101
526.04	10.847
526.38	12.970
526.72	11.445
527.06	11.608
527.41	11.148
527.75	10.992
528.09	11.030
528.43	11.816
528.78	10.825
529.12	11.484
529.46	11.371
529.80	12.476
530.15	11.551
530.49	11.111
530.83	10.876
531.17	11.820
531.51	10.876
531.86	11.693
532.20	11.552
532.54	11.913
532.88	12.868
533.22	12.097
533.57	11.402
533.91	10.770
534.25	12.044
534.59	11.097
534.93	11.580
535.27	11.168
535.62	10.888
535.96	12.329
536.30	12.005
536.64	11.923
536.98	11.638
537.32	11.949
537.66	12.272
538.01	11.538
538.35	11.650
538.69	11.585
539.03	10.800
539.37	11.036
539.71	11.179
540.05	11.473
540.39	12.396
540.73	11.855
541.07	11.326
541.42	12.634
541.76	11.425
542.10	10.530
542.44	11.466
542.78	10.736
543.12	11.126
543.46	12.656
543.80	12.214
544.14	10.681
544.48	12.059
544.82	11.757
545.16	11.407
545.50	12.684
545.84	12.110
546.18	12.057
546.52	11.968
546.86	11.215
547.20	12.232
547.54	10.813
547.88	11.889
548.22	11.834
548.56	11.412
548.90	12.332
549.24	11.570
549.58	11.142
549.92	11.866
550.26	12.088
550.60	11.450
550.94	11.725
551.28	11.978
551.62	12.462
551.96	11.504
552.30	12.135
552.64	10.790
552.98	11.181
553.32	12.340
553.66	11.103
554.00	11.971
554.34	11.448
554.68	11.799
555.02	13.021
555.36	12.117
555.69	10.623
556.03	10.992
556.37	10.534
556.71	11.697
557.05	11.633
557.39	10.558
557.73	12.219
558.07	11.916
558.41	11.179
558.75	11.458
559.08	12.214
559.42	10.873
559.76	12.010
560.10	11.009
560.44	12.435
560.78	12.238
561.12	11.566
561.45	12.368
561.79	11.695
562.13	11.781
562.47	11.223
562.81	12.536
563.15	12.200
563.48	11.598
563.82	11.462
564.16	11.281
564.50	10.541
564.84	11.446
565.17	11.871
565.51	12.500
565.85	12.071
566.19	11.737
566.52	12.265
566.86	11.761
567.20	11.644
567.54	11.131
567.88	11.951
568.21	11.934
568.55	10.870
568.89	11.756
569.23	11.170
569.56	11.340
569.90	11.937
570.24	11.277
570.57	11.055
570.91	11.084
571.25	11.345
571.59	10.993
571.92	10.963
572.26	10.900
572.60	10.760
572.93	11.233
573.27	10.721
573.61	11.038
573.95	10.841
574.28	10.779
574.62	10.501
574.96	10.621
575.29	10.803
575.63	10.521
575.97	10.436
576.30	10.739
576.64	10.252
576.98	10.888
577.31	10.740
577.65	11.124
577.98	10.904
578.32	10.657
578.66	10.681
578.99	10.482
579.33	10.292
579.67	10.749
580.00	10.633
580.34	10.721
580.67	10.831
581.01	10.999
581.35	10.810
581.68	10.962
582.02	10.974
582.35	10.678
582.69	11.025
583.02	10.916
583.36	10.977
583.70	10.877
584.03	11.093
584.37	11.491
584.70	10.934
585.04	10.544
585.37	11.179
585.71	10.862
586.04	11.019
586.38	10.349
586.72	11.248
587.05	11.438
587.39	11.350
587.72	11.345
588.06	11.376
588.39	11.592
588.73	11.355
589.06	10.763
589.40	11.372
589.73	11.756
590.07	11.707
590.40	11.300
590.73	11.532
591.07	10.814
591.40	11.754
591.74	11.991
592.07	11.781
592.41	12.191
592.74	11.629
593.08	11.037
593.41	11.334
593.75	11.613
594.08	11.500
594.41	11.317
594.75	10.878
595.08	12.145
595.42	11.005
595.75	11.791
596.09	11.142
596.42	11.782
596.75	11.812
597.09	11.526
597.42	11.969
597.75	11.361
598.09	11.951
598.42	11.236
598.76	10.854
599.09	11.739
599.42	11.065
599.76	11.550
600.09	11.802
600.42	11.183
600.76	10.921
601.09	11.031
601.42	11.281
601.76	11.671
602.09	11.221
602.42	11.752
602.76	11.078
603.09	11.420
603.42	11.915
603.76	11.048
604.09	11.665
604.42	11.760
604.76	11.660
605.09	11.654
605.42	11.467
605.75	11.252
606.09	11.592
606.42	11.343
606.75	11.212
607.09	11.868
607.42	11.254
607.75	11.190
608.08	11.500
608.42	11.147
608.75	12.048
609.08	11.360
609.41	11.371
609.75	11.139
610.08	11.732
610.41	11.691
610.74	11.117
611.07	11.214
611.41	11.469
611.74	12.100
612.07	11.135
612.40	12.309
612.73	10.847
613.07	11.192
613.40	11.816
613.73	11.416
614.06	11.797
614.39	11.732
614.72	12.213
615.06	11.453
615.39	11.299
615.72	10.926
616.05	12.235
616.38	10.883
616.71	11.315
617.05	11.242
617.38	12.194
617.71	11.132
618.04	11.492
618.37	12.043
618.70	11.617
619.03	12.778
619.36	11.216
619.69	11.448
620.03	12.783
620.36	12.375
620.69	12.348
621.02	12.156
621.35	11.784
621.68	12.500
622.01	12.333
622.34	12.849
622.67	12.776
623.00	12.098
623.33	11.128
623.66	11.369
623.99	12.557
624.32	12.091
624.65	10.977
624.99	13.017
625.32	11.600
625.65	12.804
625.98	11.845
626.31	11.471
626.64	12.045
626.97	12.827
627.30	12.697
627.63	12.738
627.96	11.770
628.29	12.303
628.62	12.881
628.95	12.425
629.28	11.593
629.61	12.562
629.94	12.903
630.26	12.549
630.59	11.446
630.92	12.513
631.25	11.897
631.58	12.335
631.91	11.842
632.24	10.665
632.57	12.841
632.90	11.625
633.23	12.824
633.56	12.972
633.89	12.084
634.22	14.568
634.55	12.071
634.88	12.644
635.20	11.923
635.53	12.533
635.86	12.354
636.19	12.807
636.52	11.990
636.85	12.407
637.18	11.069
637.51	11.572
637.83	12.221
638.16	13.915
638.49	13.079
638.82	12.763
639.15	12.619
639.48	11.967
639.81	13.668
640.13	12.843
640.46	12.828
640.79	11.929
641.12	14.919
641.45	13.964
641.77	13.333
642.10	12.954
642.43	13.987
642.76	15.017
643.09	13.732
