SpectraSuite Data File
++++++++++++++++++++++++++++++++++++
Date: Fri May 15 17:31:57 PDT 2015
User: schluterlab
Dark Spectrum Present: Yes
Reference Spectrum Present: Yes
Number of Sampled Component Spectra: 1
Spectrometers: USB2E3373
Integration Time (usec): 3000 (USB2E3373)
Spectra Averaged: 3 (USB2E3373)
Boxcar Smoothing: 0 (USB2E3373)
Correct for Electrical Dark: No (USB2E3373)
Strobe/Lamp Enabled: No (USB2E3373)
Correct for Detector Non-linearity: No (USB2E3373)
Correct for Stray Light: No (USB2E3373)
Number of Pixels in Processed Spectrum: 2048
>>>>>Begin Processed Spectral Data<<<<<
178.53	0.000
178.91	0.000
179.29	62.500
179.67	-200.000
180.04	-85.714
180.42	350.000
180.80	400.000
181.18	-166.667
181.56	350.000
181.94	250.000
182.31	-100.000
182.69	80.000
183.07	-100.000
183.45	60.000
183.83	33.333
184.20	36.364
184.58	111.111
184.96	-100.000
185.34	-133.333
185.72	100.000
186.09	100.000
186.47	-500.000
186.85	50.000
187.23	122.222
187.61	-200.000
187.98	300.000
188.36	33.333
188.74	-166.667
189.12	29.412
189.49	22.222
189.87	0.000
190.25	107.143
190.63	250.000
191.00	-166.667
191.38	73.684
191.76	600.000
192.14	-225.000
192.51	50.000
192.89	22.222
193.27	142.857
193.65	-16.667
194.02	81.818
194.40	40.000
194.78	-150.000
195.15	-25.000
195.53	-37.500
195.91	-100.000
196.29	-200.000
196.66	61.538
197.04	200.000
197.42	11.111
197.79	-300.000
198.17	-53.846
198.55	200.000
198.92	-200.000
199.30	0.000
199.68	20.000
200.05	-100.000
200.43	0.000
200.81	-133.333
201.18	-166.667
201.56	600.000
201.94	500.000
202.31	-166.667
202.69	-340.000
203.07	225.000
203.44	900.000
203.82	0.000
204.19	7.143
204.57	-33.333
204.95	62.500
205.32	20.000
205.70	114.286
206.08	-25.000
206.45	155.556
206.83	92.857
207.20	-85.714
207.58	200.000
207.96	-66.667
208.33	-60.000
208.71	-25.000
209.08	83.333
209.46	200.000
209.84	20.000
210.21	100.000
210.59	114.286
210.96	66.667
211.34	75.000
211.71	73.333
212.09	-85.714
212.46	-1500.000
212.84	0.000
213.22	100.000
213.59	50.000
213.97	38.462
214.34	90.909
214.72	133.333
215.09	275.000
215.47	7.692
215.84	72.727
216.22	66.667
216.59	-12.500
216.97	450.000
217.34	-275.000
217.72	-160.000
218.09	0.000
218.47	75.000
218.84	300.000
219.22	66.667
219.59	-40.000
219.97	-100.000
220.34	-25.000
220.72	142.857
221.09	250.000
221.47	100.000
221.84	-400.000
222.22	-500.000
222.59	-18.182
222.97	41.667
223.34	333.333
223.72	35.714
224.09	23.810
224.46	17.857
224.84	33.333
225.21	80.000
225.59	93.333
225.96	-250.000
226.34	300.000
226.71	14.286
227.08	-66.667
227.46	100.000
227.83	-450.000
228.21	11.111
228.58	18.182
228.95	0.000
229.33	70.000
229.70	68.750
230.08	-87.500
230.45	0.000
230.82	171.429
231.20	60.000
231.57	78.571
231.95	71.429
232.32	10.000
232.69	42.857
233.07	266.667
233.44	0.000
233.81	-70.000
234.19	11.111
234.56	-17.647
234.93	150.000
235.31	275.000
235.68	-280.000
236.05	-46.154
236.43	15.000
236.80	47.059
237.17	46.875
237.55	30.000
237.92	3.704
238.29	36.111
238.67	46.667
239.04	32.353
239.41	-12.195
239.79	3.333
240.16	31.707
240.53	39.474
240.91	6.522
241.28	26.984
241.65	51.786
242.02	36.986
242.40	31.667
242.77	30.508
243.14	28.788
243.51	26.250
243.89	27.586
244.26	34.483
244.63	26.190
245.00	25.773
245.38	26.804
245.75	26.966
246.12	26.724
246.49	24.793
246.87	26.923
247.24	25.210
247.61	25.439
247.98	32.520
248.36	24.375
248.73	24.342
249.10	30.519
249.47	31.013
249.84	28.758
250.22	22.353
250.59	25.490
250.96	34.272
251.33	25.000
251.70	30.588
252.08	26.904
252.45	28.713
252.82	28.643
253.19	27.189
253.56	28.037
253.94	24.775
254.31	33.478
254.68	32.895
255.05	26.378
255.42	27.511
255.79	26.641
256.16	29.572
256.54	28.731
256.91	28.137
257.28	28.996
257.65	26.217
258.02	26.241
258.39	30.303
258.76	32.234
259.14	28.904
259.51	29.450
259.88	30.584
260.25	27.778
260.62	33.681
260.99	25.763
261.36	23.288
261.73	31.329
262.10	29.483
262.47	27.301
262.85	26.019
263.22	27.077
263.59	30.530
263.96	28.882
264.33	26.970
264.70	27.083
265.07	25.298
265.44	22.946
265.81	30.226
266.18	27.869
266.55	25.707
266.92	26.425
267.29	30.548
267.66	26.087
268.03	29.843
268.40	26.632
268.77	30.214
269.14	28.058
269.51	28.278
269.88	27.431
270.25	29.082
270.62	27.073
270.99	25.064
271.36	25.183
271.73	26.761
272.10	29.197
272.47	27.896
272.84	25.248
273.21	27.146
273.58	25.301
273.95	28.833
274.32	28.406
274.69	25.339
275.06	27.902
275.43	26.531
275.80	28.477
276.17	23.448
276.54	27.409
276.91	25.877
277.28	22.707
277.65	26.860
278.02	27.021
278.39	24.070
278.76	26.834
279.13	22.822
279.50	25.630
279.87	26.566
280.23	24.731
280.60	27.290
280.97	26.061
281.34	23.846
281.71	27.926
282.08	25.971
282.45	25.636
282.82	24.324
283.19	26.499
283.56	27.168
283.92	22.011
284.29	25.192
284.66	25.775
285.03	23.969
285.40	24.575
285.77	24.780
286.14	23.646
286.51	24.170
286.87	26.143
287.24	25.783
287.61	22.751
287.98	24.561
288.35	22.704
288.72	24.343
289.08	24.479
289.45	24.429
289.82	23.077
290.19	20.990
290.56	22.985
290.93	22.391
291.29	20.493
291.66	21.417
292.03	20.893
292.40	22.742
292.77	22.807
293.13	19.156
293.50	21.396
293.87	21.069
294.24	19.165
294.60	19.672
294.97	19.643
295.34	20.706
295.71	19.225
296.08	18.685
296.44	18.350
296.81	20.139
297.18	20.290
297.55	19.783
297.91	20.411
298.28	21.240
298.65	18.589
299.02	18.598
299.38	18.057
299.75	18.897
300.12	18.455
300.48	18.314
300.85	18.758
301.22	18.312
301.59	18.553
301.95	18.354
302.32	19.326
302.69	16.418
303.05	18.069
303.42	17.933
303.79	18.107
304.15	19.474
304.52	18.074
304.89	17.193
305.25	17.676
305.62	16.803
305.99	15.906
306.35	18.035
306.72	16.873
307.09	16.420
307.45	16.648
307.82	17.708
308.19	18.235
308.55	17.230
308.92	18.410
309.29	15.978
309.65	16.039
310.02	16.502
310.38	16.026
310.75	17.049
311.12	17.546
311.48	16.755
311.85	16.230
312.22	16.245
312.58	17.304
312.95	15.368
313.31	16.253
313.68	16.335
314.05	16.837
314.41	17.216
314.78	16.186
315.14	16.958
315.51	17.288
315.87	16.598
316.24	19.110
316.61	18.209
316.97	16.766
317.34	17.578
317.70	17.591
318.07	17.404
318.43	19.510
318.80	18.182
319.16	19.336
319.53	19.278
319.89	19.685
320.26	19.838
320.62	21.364
320.99	19.729
321.35	20.966
321.72	19.211
322.08	21.148
322.45	20.609
322.81	20.432
323.18	22.080
323.54	22.490
323.91	22.980
324.27	24.121
324.64	23.876
325.00	26.369
325.37	25.987
325.73	26.292
326.10	28.338
326.46	27.265
326.83	29.571
327.19	28.771
327.56	30.930
327.92	31.250
328.29	31.518
328.65	33.774
329.01	33.364
329.38	34.101
329.74	34.939
330.11	35.589
330.47	35.529
330.84	37.692
331.20	37.738
331.56	38.519
331.93	39.087
332.29	39.505
332.66	39.910
333.02	40.428
333.38	39.963
333.75	43.315
334.11	43.062
334.48	43.971
334.84	44.780
335.20	45.288
335.57	45.059
335.93	43.541
336.29	46.777
336.66	45.232
337.02	44.981
337.38	45.833
337.75	47.182
338.11	49.053
338.47	48.540
338.84	49.261
339.20	47.349
339.56	48.624
339.93	47.628
340.29	48.532
340.65	50.000
341.02	48.050
341.38	48.053
341.74	49.293
342.11	47.920
342.47	48.932
342.83	49.567
343.20	47.822
343.56	50.087
343.92	48.981
344.28	51.324
344.65	50.000
345.01	49.438
345.37	48.276
345.73	48.870
346.10	49.871
346.46	49.537
346.82	50.082
347.19	47.631
347.55	50.376
347.91	49.272
348.27	48.909
348.63	49.063
349.00	48.564
349.36	50.042
349.72	48.590
350.08	49.344
350.45	49.721
350.81	49.003
351.17	50.000
351.53	49.388
351.89	47.977
352.26	49.360
352.62	49.919
352.98	48.514
353.34	49.758
353.70	50.485
354.07	49.758
354.43	49.319
354.79	49.216
355.15	50.238
355.51	51.582
355.87	49.191
356.24	49.837
356.60	48.424
356.96	49.524
357.32	49.601
357.68	48.788
358.04	48.708
358.40	50.322
358.77	50.558
359.13	50.120
359.49	48.305
359.85	49.688
360.21	49.601
360.57	50.497
360.93	50.227
361.29	49.471
361.66	50.784
362.02	50.379
362.38	50.724
362.74	49.659
363.10	51.693
363.46	50.334
363.82	50.639
364.18	50.111
364.54	49.265
364.90	50.251
365.26	49.127
365.62	51.022
365.98	52.639
366.35	52.367
366.71	52.550
367.07	51.887
367.43	50.395
367.79	51.307
368.15	50.610
368.51	52.076
368.87	51.328
369.23	51.119
369.59	51.385
369.95	51.906
370.31	51.951
370.67	52.985
371.03	50.485
371.39	51.495
371.75	51.722
372.11	51.141
372.47	52.293
372.83	52.874
373.19	50.999
373.55	51.697
373.91	51.260
374.27	51.595
374.63	50.969
374.99	52.411
375.35	51.880
375.71	54.685
376.07	53.933
376.42	52.925
376.78	53.557
377.14	54.435
377.50	51.992
377.86	54.418
378.22	52.585
378.58	54.359
378.94	53.812
379.30	53.026
379.66	54.671
380.02	53.893
380.38	54.047
380.74	54.279
381.09	55.890
381.45	54.557
381.81	53.732
382.17	54.949
382.53	55.340
382.89	56.748
383.25	55.569
383.61	55.122
383.97	54.730
384.32	54.972
384.68	55.294
385.04	54.534
385.40	54.325
385.76	56.604
386.12	56.856
386.48	55.747
386.83	55.992
387.19	56.532
387.55	57.842
387.91	56.907
388.27	54.884
388.62	57.520
388.98	57.029
389.34	56.277
389.70	56.805
390.06	55.255
390.42	56.218
390.77	56.835
391.13	56.242
391.49	56.210
391.85	56.725
392.20	56.685
392.56	56.834
392.92	58.133
393.28	56.958
393.64	56.877
393.99	58.182
394.35	57.495
394.71	56.897
395.07	55.751
395.42	56.952
395.78	57.785
396.14	58.071
396.50	57.958
396.85	57.502
397.21	56.266
397.57	57.555
397.92	56.441
398.28	57.471
398.64	55.060
399.00	57.506
399.35	56.772
399.71	56.921
400.07	58.585
400.42	57.160
400.78	57.991
401.14	57.471
401.49	56.939
401.85	57.465
402.21	56.687
402.57	57.063
402.92	56.524
403.28	57.707
403.63	58.323
403.99	57.908
404.35	57.464
404.70	56.071
405.06	55.993
405.42	55.811
405.77	56.653
406.13	56.519
406.49	56.838
406.84	57.579
407.20	56.532
407.55	56.021
407.91	55.548
408.27	57.043
408.62	56.615
408.98	56.624
409.34	56.382
409.69	56.718
410.05	55.727
410.40	56.790
410.76	56.393
411.11	57.500
411.47	56.410
411.83	57.502
412.18	57.272
412.54	56.242
412.89	55.911
413.25	56.197
413.60	56.832
413.96	56.748
414.31	55.488
414.67	57.409
415.03	56.391
415.38	55.744
415.74	57.264
416.09	57.871
416.45	57.461
416.80	56.642
417.16	58.080
417.51	57.961
417.87	56.714
418.22	58.614
418.58	57.057
418.93	58.934
419.29	56.594
419.64	58.069
420.00	59.761
420.35	57.254
420.71	58.202
421.06	57.950
421.42	58.774
421.77	58.324
422.12	58.286
422.48	59.015
422.83	58.179
423.19	58.634
423.54	59.965
423.90	59.187
424.25	58.898
424.61	60.098
424.96	59.292
425.31	60.716
425.67	61.854
426.02	62.191
426.38	60.802
426.73	60.835
427.09	62.215
427.44	61.765
427.79	61.344
428.15	61.468
428.50	61.599
428.85	61.486
429.21	61.913
429.56	63.073
429.92	62.044
430.27	61.153
430.62	62.154
430.98	63.163
431.33	61.304
431.68	61.852
432.04	64.002
432.39	62.864
432.74	61.575
433.10	63.621
433.45	63.023
433.80	64.713
434.16	62.382
434.51	64.032
434.86	64.808
435.22	63.320
435.57	64.878
435.92	63.593
436.28	64.162
436.63	64.632
436.98	64.426
437.34	64.428
437.69	65.951
438.04	65.242
438.39	65.669
438.75	66.485
439.10	64.686
439.45	66.342
439.81	65.749
440.16	66.746
440.51	65.612
440.86	68.036
441.22	65.781
441.57	67.439
441.92	68.363
442.27	68.016
442.63	67.987
442.98	67.892
443.33	67.557
443.68	67.374
444.03	67.511
444.39	67.486
444.74	68.896
445.09	68.987
445.44	68.205
445.79	70.603
446.15	68.172
446.50	68.663
446.85	70.404
447.20	68.978
447.55	69.587
447.91	69.036
448.26	69.721
448.61	69.603
448.96	70.224
449.31	70.925
449.66	69.454
450.02	70.508
450.37	71.784
450.72	71.649
451.07	71.519
451.42	69.413
451.77	71.429
452.12	70.275
452.47	70.766
452.83	70.966
453.18	70.525
453.53	72.250
453.88	71.767
454.23	71.051
454.58	73.489
454.93	72.101
455.28	70.921
455.63	72.102
455.98	71.257
456.34	72.350
456.69	73.316
457.04	73.346
457.39	73.147
457.74	72.672
458.09	72.513
458.44	73.727
458.79	74.174
459.14	73.341
459.49	74.209
459.84	73.209
460.19	74.272
460.54	74.144
460.89	74.545
461.24	74.534
461.59	73.575
461.94	74.528
462.29	73.703
462.64	75.548
462.99	75.017
463.34	74.409
463.69	74.324
464.04	75.303
464.39	74.348
464.74	75.153
465.09	76.419
465.44	77.149
465.79	74.546
466.14	74.857
466.49	76.193
466.84	77.751
467.19	75.407
467.54	75.287
467.89	77.701
468.24	75.852
468.59	77.016
468.94	74.476
469.29	76.066
469.64	76.213
469.99	78.346
470.34	76.860
470.68	77.703
471.03	77.778
471.38	79.101
471.73	77.241
472.08	76.187
472.43	77.315
472.78	76.354
473.13	78.163
473.48	78.176
473.83	76.463
474.17	77.526
474.52	77.473
474.87	78.848
475.22	77.242
475.57	79.108
475.92	77.839
476.27	78.056
476.61	80.324
476.96	77.691
477.31	78.908
477.66	77.865
478.01	79.955
478.36	77.723
478.70	79.717
479.05	78.297
479.40	79.650
479.75	78.206
480.10	78.239
480.45	80.150
480.79	80.715
481.14	81.404
481.49	79.212
481.84	81.419
482.19	80.496
482.53	81.343
482.88	79.475
483.23	79.271
483.58	79.481
483.92	78.509
484.27	79.398
484.62	80.233
484.97	79.146
485.31	80.238
485.66	80.924
486.01	81.791
486.36	80.704
486.70	79.171
487.05	80.121
487.40	79.860
487.75	79.887
488.09	78.956
488.44	78.989
488.79	78.932
489.13	80.329
489.48	81.146
489.83	80.045
490.17	80.360
490.52	81.478
490.87	79.269
491.22	81.662
491.56	80.835
491.91	81.358
492.26	81.526
492.60	80.902
492.95	83.178
493.30	80.655
493.64	83.694
493.99	81.739
494.34	82.767
494.68	81.810
495.03	81.995
495.37	80.618
495.72	82.484
496.07	83.317
496.41	82.642
496.76	82.174
497.11	82.208
497.45	82.578
497.80	84.612
498.14	81.619
498.49	83.850
498.84	81.238
499.18	83.534
499.53	81.895
499.87	81.663
500.22	83.136
500.56	84.569
500.91	82.781
501.26	83.045
501.60	82.243
501.95	83.164
502.29	83.341
502.64	83.205
502.98	84.410
503.33	83.045
503.67	82.892
504.02	83.333
504.36	85.601
504.71	81.768
505.06	83.090
505.40	84.061
505.75	83.711
506.09	82.058
506.44	85.575
506.78	84.031
507.13	84.385
507.47	82.663
507.82	83.600
508.16	84.258
508.51	83.736
508.85	84.982
509.19	84.726
509.54	84.718
509.88	83.981
510.23	82.195
510.57	84.286
510.92	82.783
511.26	84.779
511.61	85.534
511.95	83.397
512.30	84.534
512.64	82.526
512.98	84.896
513.33	85.450
513.67	84.423
514.02	84.840
514.36	85.886
514.70	85.897
515.05	85.488
515.39	84.652
515.74	86.766
516.08	85.655
516.42	86.219
516.77	86.659
517.11	86.053
517.46	85.817
517.80	85.221
518.14	86.038
518.49	84.255
518.83	85.298
519.17	85.810
519.52	84.665
519.86	84.814
520.20	84.872
520.55	85.366
520.89	84.818
521.23	85.814
521.58	86.625
521.92	85.449
522.26	84.450
522.61	87.078
522.95	86.623
523.29	84.879
523.64	85.197
523.98	86.973
524.32	85.696
524.66	85.851
525.01	85.714
525.35	85.029
525.69	87.138
526.04	86.706
526.38	86.122
526.72	84.761
527.06	86.057
527.41	86.939
527.75	85.858
528.09	84.186
528.43	88.589
528.78	86.733
529.12	86.065
529.46	87.589
529.80	84.104
530.15	86.073
530.49	86.869
530.83	87.551
531.17	85.158
531.51	86.662
531.86	85.384
532.20	86.221
532.54	84.683
532.88	86.379
533.22	84.073
533.57	86.501
533.91	86.488
534.25	87.109
534.59	85.953
534.93	84.456
535.27	84.454
535.62	85.872
535.96	86.758
536.30	86.609
536.64	86.354
536.98	85.993
537.32	87.838
537.66	88.008
538.01	87.063
538.35	87.240
538.69	86.951
539.03	85.578
539.37	86.541
539.71	86.026
540.05	86.558
540.39	87.396
540.73	85.774
541.07	85.497
541.42	85.954
541.76	87.474
542.10	86.717
542.44	88.256
542.78	84.308
543.12	86.195
543.46	86.579
543.80	86.815
544.14	84.179
544.48	86.143
544.82	86.876
545.16	87.910
545.50	86.515
545.84	86.756
546.18	87.589
546.52	86.157
546.86	86.125
547.20	89.127
547.54	85.018
547.88	86.549
548.22	85.996
548.56	86.741
548.90	87.062
549.24	86.639
549.58	85.049
549.92	86.133
550.26	86.520
550.60	88.401
550.94	88.574
551.28	88.640
551.62	88.308
551.96	87.744
552.30	88.743
552.64	85.896
552.98	86.006
553.32	86.947
553.66	87.881
554.00	88.102
554.34	87.740
554.68	86.136
555.02	87.054
555.36	86.537
555.69	87.619
556.03	86.867
556.37	88.043
556.71	87.942
557.05	87.994
557.39	85.279
557.73	87.481
558.07	86.878
558.41	89.204
558.75	86.984
559.08	88.337
559.42	88.016
559.76	89.832
560.10	86.774
560.44	88.012
560.78	88.671
561.12	88.787
561.45	90.302
561.79	88.725
562.13	88.006
562.47	89.496
562.81	89.193
563.15	87.447
563.48	88.967
563.82	88.607
564.16	88.092
564.50	87.027
564.84	88.019
565.17	87.928
565.51	90.096
565.85	89.506
566.19	88.329
566.52	89.008
566.86	89.203
567.20	88.418
567.54	90.328
567.88	91.095
568.21	89.480
568.55	89.511
568.89	88.963
569.23	90.323
569.56	89.186
569.90	90.702
570.24	86.937
570.57	89.600
570.91	89.892
571.25	87.340
571.59	87.200
571.92	85.481
572.26	86.111
572.60	87.132
572.93	85.817
573.27	85.987
573.61	87.619
573.95	87.193
574.28	87.182
574.62	86.321
574.96	85.266
575.29	85.941
575.63	84.400
575.97	84.955
576.30	85.746
576.64	86.252
576.98	86.950
577.31	87.368
577.65	87.362
577.98	86.919
578.32	85.839
578.66	85.386
578.99	84.605
579.33	84.886
579.67	84.027
580.00	85.873
580.34	85.323
580.67	85.559
581.01	86.455
581.35	86.520
581.68	86.636
582.02	87.392
582.35	86.778
582.69	86.385
583.02	85.730
583.36	86.681
583.70	86.501
584.03	86.850
584.37	88.255
584.70	85.632
585.04	86.062
585.37	86.167
585.71	86.374
586.04	86.082
586.38	84.983
586.72	88.436
587.05	87.897
587.39	87.755
587.72	89.147
588.06	87.683
588.39	86.528
588.73	87.363
589.06	87.410
589.40	86.830
589.73	87.185
590.07	88.029
590.40	87.539
590.73	89.580
591.07	87.701
591.40	88.468
591.74	88.507
592.07	88.080
592.41	89.267
592.74	88.610
593.08	86.972
593.41	89.028
593.75	88.191
594.08	85.788
594.41	87.591
594.75	88.359
595.08	88.044
595.42	88.075
595.75	87.983
596.09	88.702
596.42	87.516
596.75	87.478
597.09	88.246
597.42	87.940
597.75	89.235
598.09	87.506
598.42	86.282
598.76	88.889
599.09	88.822
599.42	87.116
599.76	86.230
600.09	85.973
600.42	86.998
600.76	86.664
601.09	86.947
601.42	86.722
601.76	86.542
602.09	88.160
602.42	87.447
602.76	87.394
603.09	88.414
603.42	90.844
603.76	88.266
604.09	87.930
604.42	88.409
604.76	89.898
605.09	88.163
605.42	87.540
605.75	87.347
606.09	87.941
606.42	87.031
606.75	86.753
607.09	87.121
607.42	87.373
607.75	88.988
608.08	86.343
608.42	84.376
608.75	88.337
609.08	88.341
609.41	87.005
609.75	87.399
610.08	88.567
610.41	88.599
610.74	87.470
611.07	88.682
611.41	88.739
611.74	90.139
612.07	87.473
612.40	88.950
612.73	89.831
613.07	88.526
613.40	87.746
613.73	89.871
614.06	88.203
614.39	88.607
614.72	86.723
615.06	87.765
615.39	85.753
615.72	86.114
616.05	88.380
616.38	85.527
616.71	88.196
617.05	89.006
617.38	90.132
617.71	88.050
618.04	90.286
618.37	91.236
618.70	88.185
619.03	89.722
619.36	88.567
619.69	90.978
620.03	92.038
620.36	89.056
620.69	88.722
621.02	89.297
621.35	89.461
621.68	90.986
622.01	91.000
622.34	89.785
622.67	90.457
623.00	90.199
623.33	88.872
623.66	88.257
623.99	90.393
624.32	89.962
624.65	89.699
624.99	89.466
625.32	87.491
625.65	90.024
625.98	90.572
626.31	89.942
626.64	90.901
626.97	89.180
627.30	91.243
627.63	89.861
627.96	92.363
628.29	88.899
628.62	91.740
628.95	89.679
629.28	93.448
629.61	91.825
629.94	92.375
630.26	90.415
630.59	94.485
630.92	88.410
631.25	88.205
631.58	93.062
631.91	91.338
632.24	95.069
632.57	90.114
632.90	92.289
633.23	90.588
633.56	95.718
633.89	90.999
634.22	93.457
