SpectraSuite Data File
++++++++++++++++++++++++++++++++++++
Date: Fri May 15 17:11:38 PDT 2015
User: schluterlab
Dark Spectrum Present: Yes
Reference Spectrum Present: Yes
Number of Sampled Component Spectra: 1
Spectrometers: USB2E3373
Integration Time (usec): 3000 (USB2E3373)
Spectra Averaged: 3 (USB2E3373)
Boxcar Smoothing: 0 (USB2E3373)
Correct for Electrical Dark: No (USB2E3373)
Strobe/Lamp Enabled: No (USB2E3373)
Correct for Detector Non-linearity: No (USB2E3373)
Correct for Stray Light: No (USB2E3373)
Number of Pixels in Processed Spectrum: 2048
>>>>>Begin Processed Spectral Data<<<<<
178.53	0.000
178.91	0.000
179.29	25.000
179.67	0.000
180.04	-14.286
180.42	200.000
180.80	-300.000
181.18	-0.000
181.56	200.000
181.94	200.000
182.31	-100.000
182.69	-20.000
183.07	133.333
183.45	100.000
183.83	33.333
184.20	36.364
184.58	122.222
184.96	-75.000
185.34	-433.333
185.72	150.000
186.09	38.462
186.47	300.000
186.85	183.333
187.23	33.333
187.61	-1300.000
187.98	66.667
188.36	88.889
188.74	66.667
189.12	23.529
189.49	44.444
189.87	0.000
190.25	21.429
190.63	450.000
191.00	-166.667
191.38	31.579
191.76	50.000
192.14	-300.000
192.51	450.000
192.89	11.111
193.27	28.571
193.65	66.667
194.02	54.545
194.40	120.000
194.78	-112.500
195.15	-8.333
195.53	-137.500
195.91	250.000
196.29	0.000
196.66	7.692
197.04	-42.857
197.42	55.556
197.79	366.667
198.17	-23.077
198.55	900.000
198.92	-333.333
199.30	0.000
199.68	60.000
200.05	-133.333
200.43	0.000
200.81	300.000
201.18	100.000
201.56	100.000
201.94	-50.000
202.31	-133.333
202.69	-100.000
203.07	-50.000
203.44	600.000
203.82	0.000
204.19	42.857
204.57	-66.667
204.95	112.500
205.32	40.000
205.70	0.000
206.08	125.000
206.45	111.111
206.83	78.571
207.20	-100.000
207.58	400.000
207.96	66.667
208.33	-20.000
208.71	75.000
209.08	-116.667
209.46	600.000
209.84	20.000
210.21	-1000.000
210.59	0.000
210.96	66.667
211.34	-25.000
211.71	86.667
212.09	-42.857
212.46	-700.000
212.84	0.000
213.22	120.000
213.59	-0.000
213.97	84.615
214.34	190.909
214.72	0.000
215.09	175.000
215.47	23.077
215.84	-18.182
216.22	33.333
216.59	-75.000
216.97	-50.000
217.34	-50.000
217.72	160.000
218.09	137.500
218.47	200.000
218.84	-900.000
219.22	-11.111
219.59	-20.000
219.97	300.000
220.34	175.000
220.72	28.571
221.09	75.000
221.47	0.000
221.84	-700.000
222.22	-350.000
222.59	145.455
222.97	91.667
223.34	-66.667
223.72	0.000
224.09	23.810
224.46	53.571
224.84	266.667
225.21	-40.000
225.59	20.000
225.96	-50.000
226.34	100.000
226.71	-114.286
227.08	-66.667
227.46	-37.500
227.83	-250.000
228.21	33.333
228.58	36.364
228.95	87.500
229.33	80.000
229.70	-37.500
230.08	-25.000
230.45	-157.143
230.82	-57.143
231.20	126.667
231.57	107.143
231.95	-14.286
232.32	-80.000
232.69	71.429
233.07	33.333
233.44	-100.000
233.81	20.000
234.19	111.111
234.56	0.000
234.93	250.000
235.31	225.000
235.68	0.000
236.05	-69.231
236.43	35.000
236.80	58.824
237.17	12.500
237.55	25.000
237.92	18.519
238.29	30.556
238.67	13.333
239.04	0.000
239.41	-12.195
239.79	-10.000
240.16	24.390
240.53	-13.158
240.91	-8.696
241.28	11.111
241.65	28.571
242.02	32.877
242.40	8.333
242.77	0.000
243.14	15.152
243.51	8.750
243.89	17.241
244.26	1.149
244.63	3.571
245.00	4.124
245.38	10.309
245.75	-3.371
246.12	0.862
246.49	7.438
246.87	3.846
247.24	-5.882
247.61	-5.263
247.98	4.065
248.36	1.250
248.73	3.947
249.10	0.000
249.47	10.759
249.84	2.614
250.22	-0.588
250.59	5.229
250.96	6.573
251.33	4.651
251.70	5.294
252.08	7.107
252.45	2.475
252.82	3.015
253.19	7.834
253.56	-2.336
253.94	6.306
254.31	2.609
254.68	7.895
255.05	4.331
255.42	0.000
255.79	8.108
256.16	5.447
256.54	7.463
256.91	3.422
257.28	7.435
257.65	5.993
258.02	3.901
258.39	8.418
258.76	5.128
259.14	4.319
259.51	6.796
259.88	5.155
260.25	3.595
260.62	7.292
260.99	4.746
261.36	4.110
261.73	0.949
262.10	4.559
262.47	4.601
262.85	4.702
263.22	6.154
263.59	8.411
263.96	2.795
264.33	2.121
264.70	3.869
265.07	4.464
265.44	4.816
265.81	0.847
266.18	4.098
266.55	4.370
266.92	5.181
267.29	5.483
267.66	2.046
268.03	2.356
268.40	5.744
268.77	5.080
269.14	6.235
269.51	4.370
269.88	2.743
270.25	3.571
270.62	3.659
270.99	2.302
271.36	4.890
271.73	5.869
272.10	3.650
272.47	5.201
272.84	3.465
273.21	4.872
273.58	5.783
273.95	4.577
274.32	4.850
274.69	2.715
275.06	7.143
275.43	2.721
275.80	3.974
276.17	3.448
276.54	4.925
276.91	3.728
277.28	4.585
277.65	5.992
278.02	5.319
278.39	2.626
278.76	7.547
279.13	2.697
279.50	5.042
279.87	5.832
280.23	1.290
280.60	6.628
280.97	2.424
281.34	2.692
281.71	8.830
282.08	3.885
282.45	1.761
282.82	3.668
283.19	2.321
283.56	4.432
283.92	2.467
284.29	3.269
284.66	2.326
285.03	2.358
285.40	3.403
285.77	1.582
286.14	2.527
286.51	5.351
286.87	2.194
287.24	3.499
287.61	2.293
287.98	5.439
288.35	1.906
288.72	3.853
289.08	3.299
289.45	2.812
289.82	3.846
290.19	4.096
290.56	3.087
290.93	4.377
291.29	3.544
291.66	3.150
292.03	2.552
292.40	4.355
292.77	2.392
293.13	1.948
293.50	2.731
293.87	3.969
294.24	4.173
294.60	3.726
294.97	4.018
295.34	2.761
295.71	2.385
296.08	2.990
296.44	2.134
296.81	2.500
297.18	3.188
297.55	5.014
297.91	3.014
298.28	4.222
298.65	2.578
299.02	3.639
299.38	2.326
299.75	2.345
300.12	2.618
300.48	2.372
300.85	4.943
301.22	2.468
301.59	2.632
301.95	4.430
302.32	3.761
302.69	3.856
303.05	1.856
303.42	2.615
303.79	3.855
304.15	3.106
304.52	0.595
304.89	2.339
305.25	3.511
305.62	2.917
305.99	1.871
306.35	2.890
306.72	1.800
307.09	2.395
307.45	3.330
307.82	3.241
308.19	3.020
308.55	2.835
308.92	3.704
309.29	1.788
309.65	1.615
310.02	2.970
310.38	2.195
310.75	2.623
311.12	2.691
311.48	3.287
311.85	2.932
312.22	2.743
312.58	3.715
312.95	1.814
313.31	2.174
313.68	1.780
314.05	1.939
314.41	4.433
314.78	2.474
315.14	3.392
315.51	3.830
315.87	3.893
316.24	4.044
316.61	4.035
316.97	5.060
317.34	4.297
317.70	4.111
318.07	3.846
318.43	4.020
318.80	3.977
319.16	4.199
319.53	5.983
319.89	4.035
320.26	5.466
320.62	5.817
320.99	5.219
321.35	5.961
321.72	7.061
322.08	6.546
322.45	5.990
322.81	7.171
323.18	7.262
323.54	7.143
323.91	7.887
324.27	7.813
324.64	9.738
325.00	10.128
325.37	10.927
325.73	8.613
326.10	10.082
326.46	11.031
326.83	11.199
327.19	11.944
327.56	12.858
327.92	13.820
328.29	13.750
328.65	13.113
329.01	14.430
329.38	14.654
329.74	14.353
330.11	16.219
330.47	15.121
330.84	15.481
331.20	17.205
331.56	16.296
331.93	17.169
332.29	17.507
332.66	16.833
333.02	18.123
333.38	17.140
333.75	19.872
334.11	17.099
334.48	18.404
334.84	19.872
335.20	19.305
335.57	19.946
335.93	20.235
336.29	19.797
336.66	20.345
337.02	20.725
337.38	19.630
337.75	21.091
338.11	21.641
338.47	20.712
338.84	22.551
339.20	21.481
339.56	20.917
339.93	21.397
340.29	22.110
340.65	21.505
341.02	21.720
341.38	20.708
341.74	21.466
342.11	21.924
342.47	22.331
342.83	22.578
343.20	22.735
343.56	21.913
343.92	22.409
344.28	23.228
344.65	21.416
345.01	21.867
345.37	21.699
345.73	21.841
346.10	22.951
346.46	21.531
346.82	21.768
347.19	21.862
347.55	22.473
347.91	22.330
348.27	21.261
348.63	21.806
349.00	21.329
349.36	22.195
349.72	23.134
350.08	22.377
350.45	22.506
350.81	21.678
351.17	22.801
351.53	22.612
351.89	21.965
352.26	21.280
352.62	22.984
352.98	21.606
353.34	21.498
353.70	22.735
354.07	23.065
354.43	22.258
354.79	22.130
355.15	23.254
355.51	23.497
355.87	24.353
356.24	23.002
356.60	22.150
356.96	24.206
357.32	23.562
357.68	23.065
358.04	22.698
358.40	23.553
358.77	23.365
359.13	23.139
359.49	22.111
359.85	23.401
360.21	24.163
360.57	23.489
360.93	22.769
361.29	22.734
361.66	23.746
362.02	23.409
362.38	23.686
362.74	24.603
363.10	23.777
363.46	24.463
363.82	25.845
364.18	23.911
364.54	23.971
364.90	25.448
365.26	25.036
365.62	25.693
365.98	25.073
366.35	25.346
366.71	25.277
367.07	25.689
367.43	25.090
367.79	25.159
368.15	26.131
368.51	25.055
368.87	24.408
369.23	25.271
369.59	25.583
369.95	26.613
370.31	25.939
370.67	25.597
371.03	25.541
371.39	25.748
371.75	25.788
372.11	26.248
372.47	26.331
372.83	28.531
373.19	26.177
373.55	26.354
373.91	26.710
374.27	27.286
374.63	28.069
374.99	26.809
375.35	28.064
375.71	27.063
376.07	26.826
376.42	27.143
376.78	27.584
377.14	27.624
377.50	28.420
377.86	28.715
378.22	27.696
378.58	28.526
378.94	27.536
379.30	28.322
379.66	29.530
380.02	28.387
380.38	28.850
380.74	29.324
381.09	30.245
381.45	29.235
381.81	29.796
382.17	29.378
382.53	29.856
382.89	29.944
383.25	31.238
383.61	30.610
383.97	29.905
384.32	30.832
384.68	31.022
385.04	30.821
385.40	29.247
385.76	31.635
386.12	31.501
386.48	31.545
386.83	30.755
387.19	30.403
387.55	32.058
387.91	32.274
388.27	30.891
388.62	32.347
388.98	31.737
389.34	31.730
389.70	33.561
390.06	31.026
390.42	32.642
390.77	32.112
391.13	31.652
391.49	30.789
391.85	33.723
392.20	32.392
392.56	32.422
392.92	33.529
393.28	33.726
393.64	32.973
393.99	34.169
394.35	32.701
394.71	32.822
395.07	34.507
395.42	32.848
395.78	33.029
396.14	33.228
396.50	35.637
396.85	33.741
397.21	33.459
397.57	33.103
397.92	33.972
398.28	33.563
398.64	31.928
399.00	33.634
399.35	33.014
399.71	33.946
400.07	34.764
400.42	33.354
400.78	34.109
401.14	33.394
401.49	34.366
401.85	32.968
402.21	34.036
402.57	33.750
402.92	33.689
403.28	35.088
403.63	35.309
403.99	35.077
404.35	35.353
404.70	34.762
405.06	33.431
405.42	33.561
405.77	34.224
406.13	33.760
406.49	34.044
406.84	34.658
407.20	34.317
407.55	34.256
407.91	34.024
408.27	33.525
408.62	34.338
408.98	34.073
409.34	34.325
409.69	34.302
410.05	34.298
410.40	35.000
410.76	34.318
411.11	34.438
411.47	34.057
411.83	33.836
412.18	34.234
412.54	34.270
412.89	33.559
413.25	34.958
413.60	34.534
413.96	32.761
414.31	34.024
414.67	33.162
415.03	33.822
415.38	33.420
415.74	34.593
416.09	34.553
416.45	35.179
416.80	34.038
417.16	35.014
417.51	34.910
417.87	34.550
418.22	34.974
418.58	34.983
418.93	35.298
419.29	33.035
419.64	34.349
420.00	35.390
420.35	35.104
420.71	36.452
421.06	35.605
421.42	35.517
421.77	36.532
422.12	34.904
422.48	35.734
422.83	34.107
423.19	35.158
423.54	36.273
423.90	35.866
424.25	35.763
424.61	35.802
424.96	35.424
425.31	35.471
425.67	36.796
426.02	36.985
426.38	36.255
426.73	37.893
427.09	37.595
427.44	37.000
427.79	35.887
428.15	37.015
428.50	38.219
428.85	36.732
429.21	37.465
429.56	38.113
429.92	37.083
430.27	36.541
430.62	36.383
430.98	36.783
431.33	37.382
431.68	37.101
432.04	38.010
432.39	37.136
432.74	37.583
433.10	37.586
433.45	38.292
433.80	37.086
434.16	37.895
434.51	38.118
434.86	37.747
435.22	38.026
435.57	37.742
435.92	39.162
436.28	38.581
436.63	38.334
436.98	38.007
437.34	38.173
437.69	39.595
438.04	38.234
438.39	38.241
438.75	38.859
439.10	37.691
439.45	40.049
439.81	39.144
440.16	40.796
440.51	40.836
440.86	40.000
441.22	38.914
441.57	40.232
441.92	40.399
442.27	40.798
442.63	41.167
442.98	41.413
443.33	40.512
443.68	39.894
444.03	41.033
444.39	39.547
444.74	40.858
445.09	41.258
445.44	41.140
445.79	41.671
446.15	40.198
446.50	40.654
446.85	42.189
447.20	40.563
447.55	41.350
447.91	41.737
448.26	41.662
448.61	40.990
448.96	42.283
449.31	40.983
449.66	40.941
450.02	41.472
450.37	42.205
450.72	41.237
451.07	42.975
451.42	40.325
451.77	41.471
452.12	41.627
452.47	42.498
452.83	41.166
453.18	42.188
453.53	41.024
453.88	42.380
454.23	41.672
454.58	43.136
454.93	43.235
455.28	41.016
455.63	42.963
455.98	42.995
456.34	42.784
456.69	43.964
457.04	42.470
457.39	41.859
457.74	43.349
458.09	41.730
458.44	41.896
458.79	41.513
459.14	42.677
459.49	43.701
459.84	43.091
460.19	43.022
460.54	44.071
460.89	43.011
461.24	42.671
461.59	43.587
461.94	42.516
462.29	43.788
462.64	43.189
462.99	42.654
463.34	41.725
463.69	43.436
464.04	43.341
464.39	42.389
464.74	43.374
465.09	44.417
465.44	42.585
465.79	42.630
466.14	42.645
466.49	41.633
466.84	42.772
467.19	42.678
467.54	42.146
467.89	43.462
468.24	41.788
468.59	44.635
468.94	41.333
469.29	44.328
469.64	42.994
469.99	42.887
470.34	42.730
470.68	43.550
471.03	42.321
471.38	43.153
471.73	42.367
472.08	42.266
472.43	42.819
472.78	42.221
473.13	43.061
473.48	43.127
473.83	43.026
474.17	43.394
474.52	43.331
474.87	43.818
475.22	43.563
475.57	43.139
475.92	44.871
476.27	43.772
476.61	44.734
476.96	43.112
477.31	43.862
477.66	43.371
478.01	43.066
478.36	42.484
478.70	44.535
479.05	43.187
479.40	43.826
479.75	42.544
480.10	44.291
480.45	44.150
480.79	44.260
481.14	44.570
481.49	43.300
481.84	43.629
482.19	43.358
482.53	44.269
482.88	43.103
483.23	43.090
483.58	43.302
483.92	44.240
484.27	42.753
484.62	43.882
484.97	42.869
485.31	42.955
485.66	43.122
486.01	44.038
486.36	43.766
486.70	42.901
487.05	43.176
487.40	42.787
487.75	42.225
488.09	42.707
488.44	42.263
488.79	42.884
489.13	43.670
489.48	43.138
489.83	43.004
490.17	43.011
490.52	43.418
490.87	42.573
491.22	44.222
491.56	43.359
491.91	43.499
492.26	43.316
492.60	43.234
492.95	44.811
493.30	44.455
493.64	44.646
493.99	44.348
494.34	43.883
494.68	43.857
495.03	42.628
495.37	44.014
495.72	44.018
496.07	44.000
496.41	43.821
496.76	43.851
497.11	43.223
497.45	44.153
497.80	44.097
498.14	42.971
498.49	43.220
498.84	43.363
499.18	44.428
499.53	44.097
499.87	43.385
500.22	42.532
500.56	44.175
500.91	43.173
501.26	43.253
501.60	44.024
501.95	43.862
502.29	43.196
502.64	44.643
502.98	44.105
503.33	42.891
503.67	43.807
504.02	43.695
504.36	45.077
504.71	43.788
505.06	43.583
505.40	43.706
505.75	44.691
506.09	43.994
506.44	44.559
506.78	44.286
507.13	44.157
507.47	43.551
507.82	44.658
508.16	43.529
508.51	43.652
508.85	43.747
509.19	44.811
509.54	44.343
509.88	43.635
510.23	43.088
510.57	44.575
510.92	43.017
511.26	43.808
511.61	46.040
511.95	44.767
512.30	44.900
512.64	44.018
512.98	44.076
513.33	44.488
513.67	44.343
514.02	45.538
514.36	45.486
514.70	45.338
515.05	44.888
515.39	44.156
515.74	44.731
516.08	44.172
516.42	45.289
516.77	44.939
517.11	44.866
517.46	45.661
517.80	44.696
518.14	44.642
518.49	44.471
518.83	44.957
519.17	43.966
519.52	44.879
519.86	43.878
520.20	45.140
520.55	44.403
520.89	45.985
521.23	44.649
521.58	46.120
521.92	45.641
522.26	45.413
522.61	43.766
522.95	46.954
523.29	46.696
523.64	44.091
523.98	46.014
524.32	44.201
524.66	45.711
525.01	45.260
525.35	45.755
525.69	45.051
526.04	45.569
526.38	46.368
526.72	44.212
527.06	44.617
527.41	45.844
527.75	45.576
528.09	44.385
528.43	46.725
528.78	45.083
529.12	44.710
529.46	45.614
529.80	44.775
530.15	46.139
530.49	45.185
530.83	46.306
531.17	44.795
531.51	46.785
531.86	45.955
532.20	45.303
532.54	44.792
532.88	45.311
533.22	45.833
533.57	44.954
533.91	45.692
534.25	46.354
534.59	44.772
534.93	45.123
535.27	45.178
535.62	44.524
535.96	45.662
536.30	46.372
536.64	45.762
536.98	46.202
537.32	47.511
537.66	45.442
538.01	46.084
538.35	45.423
538.69	45.672
539.03	43.951
539.37	47.308
539.71	45.399
540.05	44.535
540.39	45.983
540.73	45.188
541.07	45.580
541.42	45.901
541.76	45.836
542.10	46.524
542.44	46.352
542.78	44.184
543.12	45.192
543.46	47.079
543.80	45.246
544.14	43.925
544.48	45.503
544.82	46.753
545.16	46.516
545.50	44.259
545.84	46.671
546.18	46.596
546.52	45.999
546.86	47.448
547.20	47.139
547.54	44.028
547.88	46.535
548.22	45.759
548.56	44.657
548.90	46.294
549.24	45.523
549.58	46.615
549.92	44.746
550.26	45.934
550.60	46.171
550.94	46.527
551.28	45.595
551.62	47.077
551.96	46.165
552.30	47.807
552.64	45.769
552.98	46.132
553.32	46.077
553.66	44.993
554.00	46.642
554.34	47.341
554.68	44.617
555.02	45.536
555.36	45.999
555.69	45.348
556.03	45.396
556.37	45.623
556.71	45.993
557.05	45.339
557.39	45.799
557.73	46.327
558.07	46.833
558.41	46.248
558.75	46.454
559.08	46.809
559.42	46.587
559.76	46.597
560.10	44.954
560.44	46.835
560.78	46.573
561.12	47.179
561.45	47.365
561.79	46.078
562.13	45.422
562.47	46.043
562.81	46.542
563.15	45.346
563.48	46.747
563.82	45.436
564.16	46.309
564.50	44.122
564.84	46.319
565.17	47.485
565.51	47.609
565.85	46.571
566.19	47.149
566.52	46.783
566.86	46.658
567.20	46.326
567.54	47.263
567.88	47.100
568.21	47.229
568.55	45.652
568.89	47.228
569.23	46.558
569.56	46.235
569.90	46.853
570.24	46.595
570.57	47.855
570.91	46.288
571.25	46.103
571.59	45.624
571.92	44.948
572.26	46.014
572.60	45.860
572.93	45.529
573.27	45.078
573.61	45.316
573.95	45.330
574.28	45.577
574.62	45.512
574.96	45.550
575.29	45.103
575.63	43.820
575.97	44.158
576.30	45.488
576.64	44.795
576.98	46.023
577.31	45.982
577.65	45.711
577.98	45.330
578.32	45.401
578.66	44.444
578.99	45.391
579.33	45.041
579.67	43.502
580.00	45.316
580.34	45.920
580.67	45.054
581.01	45.173
581.35	45.090
581.68	45.424
582.02	45.495
582.35	45.478
582.69	45.403
583.02	45.503
583.36	45.375
583.70	46.210
584.03	46.344
584.37	46.330
584.70	45.110
585.04	44.560
585.37	45.381
585.71	46.137
586.04	45.537
586.38	45.425
586.72	46.313
587.05	46.129
587.39	45.737
587.72	47.376
588.06	46.443
588.39	46.568
588.73	46.154
589.06	46.869
589.40	46.526
589.73	46.550
590.07	47.319
590.40	47.214
590.73	48.064
591.07	47.413
591.40	46.839
591.74	47.783
592.07	47.681
592.41	48.057
592.74	46.476
593.08	45.651
593.41	47.183
593.75	46.418
594.08	45.726
594.41	46.288
594.75	46.794
595.08	46.614
595.42	47.332
595.75	46.977
596.09	46.443
596.42	47.416
596.75	47.291
597.09	46.606
597.42	46.929
597.75	48.053
598.09	46.356
598.42	47.563
598.76	46.504
599.09	47.236
599.42	46.305
599.76	47.065
600.09	46.267
600.42	46.778
600.76	46.062
601.09	46.489
601.42	46.690
601.76	46.963
602.09	47.525
602.42	47.641
602.76	47.878
603.09	47.508
603.42	48.035
603.76	47.218
604.09	47.145
604.42	47.081
604.76	48.198
605.09	47.623
605.42	46.862
605.75	45.447
606.09	47.304
606.42	47.206
606.75	46.537
607.09	47.297
607.42	47.231
607.75	46.092
608.08	47.080
608.42	46.277
608.75	47.711
609.08	47.334
609.41	46.802
609.75	46.573
610.08	47.229
610.41	46.087
610.74	47.635
611.07	47.855
611.41	47.794
611.74	47.495
612.07	46.842
612.40	47.374
612.73	48.079
613.07	46.794
613.40	48.359
613.73	48.685
614.06	47.913
614.39	47.321
614.72	46.387
615.06	46.872
615.39	46.779
615.72	45.748
616.05	48.324
616.38	46.553
616.71	47.462
617.05	47.807
617.38	48.083
617.71	47.484
618.04	49.333
618.37	49.243
618.70	48.911
619.03	49.583
619.36	47.323
619.69	48.749
620.03	49.598
620.36	48.498
620.69	47.109
621.02	46.713
621.35	48.880
621.68	49.915
622.01	49.500
622.34	48.524
622.67	48.344
623.00	48.775
623.33	48.933
623.66	48.392
623.99	48.185
624.32	48.213
624.65	47.820
624.99	49.737
625.32	48.218
625.65	48.154
625.98	48.670
626.31	47.132
626.64	48.787
626.97	50.087
627.30	49.562
627.63	48.873
627.96	48.068
628.29	48.659
628.62	49.263
628.95	48.297
629.28	47.883
629.61	49.352
629.94	48.485
630.26	49.407
630.59	49.740
630.92	49.128
631.25	48.103
631.58	50.881
631.91	49.561
632.24	50.803
632.57	50.000
632.90	50.178
633.23	49.294
633.56	50.000
633.89	49.692
634.22	50.741
634.55	49.301
634.88	48.787
635.20	48.846
635.53	50.133
635.86	49.025
636.19	51.229
636.52	51.531
636.85	51.117
637.18	48.050
637.51	49.308
637.83	48.095
638.16	52.797
638.49	48.229
638.82	51.447
639.15	49.525
