SpectraSuite Data File
++++++++++++++++++++++++++++++++++++
Date: Fri May 15 17:32:09 PDT 2015
User: schluterlab
Dark Spectrum Present: Yes
Reference Spectrum Present: Yes
Number of Sampled Component Spectra: 1
Spectrometers: USB2E3373
Integration Time (usec): 3000 (USB2E3373)
Spectra Averaged: 3 (USB2E3373)
Boxcar Smoothing: 0 (USB2E3373)
Correct for Electrical Dark: No (USB2E3373)
Strobe/Lamp Enabled: No (USB2E3373)
Correct for Detector Non-linearity: No (USB2E3373)
Correct for Stray Light: No (USB2E3373)
Number of Pixels in Processed Spectrum: 2048
>>>>>Begin Processed Spectral Data<<<<<
178.53	0.000
178.91	0.000
179.29	62.500
179.67	-600.000
180.04	-128.571
180.42	175.000
180.80	100.000
181.18	-0.000
181.56	100.000
181.94	200.000
182.31	300.000
182.69	20.000
183.07	66.667
183.45	20.000
183.83	33.333
184.20	72.727
184.58	77.778
184.96	50.000
185.34	-200.000
185.72	-100.000
186.09	30.769
186.47	-1600.000
186.85	50.000
187.23	100.000
187.61	-700.000
187.98	-166.667
188.36	111.111
188.74	-133.333
189.12	94.118
189.49	72.222
189.87	0.000
190.25	28.571
190.63	450.000
191.00	-100.000
191.38	0.000
191.76	350.000
192.14	-50.000
192.51	300.000
192.89	22.222
193.27	100.000
193.65	50.000
194.02	-27.273
194.40	60.000
194.78	-150.000
195.15	91.667
195.53	25.000
195.91	225.000
196.29	0.000
196.66	46.154
197.04	100.000
197.42	55.556
197.79	-266.667
198.17	-61.538
198.55	800.000
198.92	-66.667
199.30	900.000
199.68	160.000
200.05	0.000
200.43	0.000
200.81	133.333
201.18	-33.333
201.56	-400.000
201.94	-200.000
202.31	-233.333
202.69	-140.000
203.07	75.000
203.44	300.000
203.82	0.000
204.19	-28.571
204.57	-66.667
204.95	100.000
205.32	-30.000
205.70	128.571
206.08	-75.000
206.45	155.556
206.83	57.143
207.20	-142.857
207.58	-800.000
207.96	-100.000
208.33	-50.000
208.71	-100.000
209.08	-150.000
209.46	-900.000
209.84	-100.000
210.21	-500.000
210.59	142.857
210.96	33.333
211.34	50.000
211.71	73.333
212.09	57.143
212.46	-1600.000
212.84	0.000
213.22	120.000
213.59	-0.000
213.97	138.462
214.34	81.818
214.72	66.667
215.09	275.000
215.47	92.308
215.84	36.364
216.22	300.000
216.59	12.500
216.97	-200.000
217.34	275.000
217.72	-140.000
218.09	125.000
218.47	150.000
218.84	400.000
219.22	66.667
219.59	-120.000
219.97	100.000
220.34	75.000
220.72	14.286
221.09	75.000
221.47	200.000
221.84	-650.000
222.22	-400.000
222.59	27.273
222.97	-50.000
223.34	200.000
223.72	85.714
224.09	80.952
224.46	28.571
224.84	200.000
225.21	60.000
225.59	53.333
225.96	0.000
226.34	125.000
226.71	-42.857
227.08	0.000
227.46	125.000
227.83	-50.000
228.21	177.778
228.58	136.364
228.95	100.000
229.33	60.000
229.70	31.250
230.08	-37.500
230.45	-85.714
230.82	200.000
231.20	-46.667
231.57	21.429
231.95	242.857
232.32	-80.000
232.69	92.857
233.07	-100.000
233.44	-200.000
233.81	-10.000
234.19	133.333
234.56	35.294
234.93	150.000
235.31	225.000
235.68	-200.000
236.05	0.000
236.43	25.000
236.80	11.765
237.17	46.875
237.55	15.000
237.92	40.741
238.29	55.556
238.67	63.333
239.04	32.353
239.41	-2.439
239.79	30.000
240.16	60.976
240.53	39.474
240.91	23.913
241.28	28.571
241.65	62.500
242.02	58.904
242.40	56.667
242.77	42.373
243.14	36.364
243.51	52.500
243.89	42.529
244.26	50.575
244.63	34.524
245.00	34.021
245.38	42.268
245.75	24.719
246.12	37.069
246.49	44.628
246.87	47.115
247.24	45.378
247.61	25.439
247.98	47.967
248.36	39.375
248.73	38.816
249.10	38.312
249.47	36.076
249.84	39.869
250.22	34.118
250.59	43.791
250.96	45.540
251.33	40.116
251.70	45.294
252.08	35.533
252.45	33.168
252.82	43.719
253.19	38.710
253.56	36.916
253.94	42.793
254.31	40.435
254.68	39.474
255.05	38.583
255.42	41.048
255.79	33.977
256.16	42.412
256.54	45.149
256.91	39.924
257.28	36.803
257.65	37.828
258.02	36.525
258.39	41.077
258.76	43.223
259.14	42.857
259.51	39.482
259.88	38.144
260.25	40.196
260.62	39.931
260.99	37.627
261.36	39.384
261.73	43.671
262.10	40.729
262.47	38.344
262.85	41.693
263.22	39.077
263.59	40.187
263.96	45.031
264.33	40.909
264.70	38.095
265.07	42.560
265.44	40.510
265.81	37.288
266.18	38.251
266.55	38.817
266.92	43.005
267.29	39.948
267.66	39.642
268.03	37.435
268.40	36.554
268.77	41.979
269.14	38.609
269.51	41.131
269.88	36.908
270.25	38.010
270.62	36.341
270.99	37.852
271.36	35.697
271.73	39.202
272.10	37.956
272.47	37.352
272.84	41.089
273.21	36.659
273.58	39.759
273.95	41.190
274.32	36.952
274.69	36.652
275.06	39.509
275.43	37.188
275.80	35.982
276.17	39.310
276.54	37.687
276.91	39.035
277.28	35.590
277.65	34.917
278.02	36.170
278.39	35.449
278.76	35.849
279.13	35.062
279.50	37.815
279.87	37.149
280.23	35.699
280.60	36.452
280.97	39.596
281.34	35.769
281.71	37.782
282.08	34.969
282.45	33.659
282.82	32.432
283.19	35.783
283.56	34.104
283.92	35.294
284.29	35.000
284.66	33.140
285.03	34.971
285.40	34.594
285.77	34.622
286.14	34.296
286.51	37.823
286.87	31.993
287.24	35.175
287.61	33.686
287.98	34.737
288.35	34.315
288.72	33.975
289.08	30.903
289.45	33.040
289.82	31.818
290.19	31.741
290.56	31.732
290.93	30.808
291.29	29.738
291.66	31.339
292.03	29.506
292.40	32.258
292.77	29.665
293.13	27.273
293.50	28.983
293.87	28.397
294.24	31.530
294.60	29.061
294.97	27.827
295.34	28.221
295.71	28.316
296.08	27.803
296.44	26.316
296.81	27.361
297.18	24.783
297.55	26.423
297.91	26.027
298.28	27.441
298.65	25.916
299.02	25.472
299.38	24.897
299.75	25.103
300.12	25.000
300.48	26.219
300.85	25.349
301.22	24.286
301.59	23.421
301.95	24.810
302.32	25.681
302.69	23.010
303.05	24.752
303.42	24.408
303.79	25.117
304.15	23.895
304.52	22.235
304.89	21.287
305.25	24.092
305.62	22.287
305.99	22.807
306.35	23.237
306.72	20.922
307.09	22.463
307.45	24.110
307.82	22.338
308.19	23.113
308.55	23.228
308.92	24.619
309.29	22.570
309.65	22.174
310.02	23.872
310.38	23.052
310.75	23.825
311.12	21.851
311.48	21.951
311.85	21.257
312.22	22.574
312.58	20.382
312.95	21.985
313.31	21.739
313.68	23.141
314.05	21.837
314.41	23.196
314.78	22.577
315.14	23.124
315.51	23.085
315.87	23.566
316.24	22.548
316.61	23.031
316.97	23.016
317.34	21.680
317.70	22.084
318.07	24.519
318.43	23.725
318.80	23.485
319.16	25.391
319.53	23.932
319.89	25.394
320.26	23.785
320.62	24.674
320.99	24.635
321.35	24.872
321.72	25.753
322.08	27.392
322.45	26.294
322.81	27.014
323.18	25.810
323.54	26.062
323.91	28.140
324.27	27.344
324.64	27.341
325.00	28.193
325.37	28.558
325.73	27.652
326.10	28.883
326.46	30.135
326.83	29.309
327.19	28.684
327.56	30.321
327.92	31.514
328.29	29.107
328.65	31.415
329.01	31.985
329.38	31.705
329.74	31.445
330.11	32.067
330.47	31.911
330.84	31.731
331.20	33.935
331.56	32.037
331.93	32.968
332.29	33.914
332.66	32.851
333.02	34.387
333.38	33.089
333.75	33.516
334.11	32.856
334.48	33.908
334.84	33.150
335.20	34.218
335.57	33.182
335.93	34.327
336.29	34.346
336.66	32.425
337.02	32.621
337.38	32.315
337.75	35.000
338.11	33.724
338.47	35.310
338.84	35.767
339.20	33.547
339.56	33.945
339.93	34.915
340.29	34.679
340.65	34.140
341.02	34.309
341.38	34.159
341.74	34.717
342.11	33.969
342.47	34.075
342.83	35.035
343.20	33.885
343.56	35.652
343.92	34.987
344.28	35.525
344.65	34.715
345.01	33.189
345.37	34.819
345.73	34.310
346.10	35.634
346.46	33.726
346.82	33.061
347.19	33.500
347.55	34.252
347.91	34.628
348.27	33.306
348.63	34.497
349.00	33.470
349.36	33.250
349.72	35.240
350.08	32.951
350.45	33.998
350.81	33.638
351.17	33.469
351.53	33.714
351.89	32.700
352.26	32.240
352.62	34.274
352.98	33.735
353.34	33.092
353.70	34.547
354.07	33.065
354.43	33.467
354.79	33.113
355.15	34.603
355.51	33.149
355.87	34.061
356.24	32.871
356.60	35.408
356.96	33.889
357.32	34.026
357.68	33.229
358.04	33.522
358.40	33.360
358.77	34.051
359.13	33.627
359.49	32.743
359.85	33.541
360.21	33.413
360.57	32.670
360.93	34.191
361.29	32.326
361.66	33.777
362.02	34.318
362.38	35.110
362.74	34.822
363.10	33.409
363.46	34.915
363.82	34.861
364.18	33.432
364.54	34.191
364.90	33.835
365.26	33.697
365.62	35.328
365.98	35.191
366.35	35.251
366.71	34.516
367.07	35.196
367.43	34.939
367.79	34.558
368.15	34.530
368.51	34.450
368.87	35.104
369.23	32.924
369.59	36.516
369.95	36.437
370.31	34.971
370.67	35.821
371.03	34.429
371.39	33.771
371.75	34.872
372.11	33.951
372.47	34.837
372.83	35.202
373.19	35.021
373.55	33.574
373.91	34.989
374.27	36.003
374.63	35.535
374.99	33.972
375.35	34.749
375.71	35.245
376.07	35.744
376.42	35.442
376.78	35.168
377.14	36.561
377.50	36.321
377.86	35.207
378.22	36.439
378.58	35.769
378.94	35.098
379.30	35.683
379.66	36.176
380.02	36.174
380.38	35.058
380.74	37.163
381.09	36.626
381.45	35.535
381.81	35.719
382.17	36.548
382.53	35.790
382.89	37.602
383.25	37.523
383.61	37.073
383.97	37.016
384.32	36.273
384.68	37.028
385.04	36.581
385.40	36.652
385.76	37.925
386.12	37.646
386.48	38.186
386.83	36.652
387.19	37.179
387.55	38.018
387.91	36.553
388.27	36.996
388.62	37.697
388.98	36.648
389.34	37.976
389.70	37.725
390.06	36.879
390.42	37.306
390.77	37.868
391.13	38.903
391.49	38.292
391.85	37.882
392.20	37.476
392.56	37.127
392.92	39.107
393.28	38.797
393.64	36.697
393.99	40.376
394.35	37.887
394.71	38.314
395.07	38.026
395.42	37.826
395.78	38.632
396.14	37.516
396.50	37.349
396.85	39.214
397.21	38.784
397.57	38.495
397.92	38.826
398.28	38.966
398.64	37.590
399.00	39.165
399.35	38.093
399.71	38.311
400.07	38.210
400.42	38.188
400.78	38.028
401.14	39.141
401.49	39.190
401.85	39.062
402.21	38.735
402.57	38.312
402.92	37.453
403.28	38.534
403.63	38.525
403.99	37.564
404.35	39.538
404.70	38.452
405.06	38.778
405.42	38.160
405.77	39.512
406.13	38.300
406.49	37.655
406.84	38.692
407.20	39.073
407.55	37.025
407.91	37.299
408.27	38.241
408.62	38.646
408.98	37.954
409.34	38.662
409.69	37.791
410.05	37.808
410.40	38.642
410.76	37.937
411.11	38.062
411.47	39.448
411.83	37.100
412.18	38.739
412.54	38.577
412.89	38.054
413.25	38.026
413.60	38.012
413.96	37.669
414.31	38.171
414.67	38.358
415.03	37.883
415.38	38.316
415.74	38.436
416.09	38.080
416.45	38.015
416.80	39.061
417.16	38.743
417.51	39.107
417.87	37.875
418.22	38.795
418.58	39.599
418.93	39.248
419.29	38.156
419.64	37.913
420.00	40.428
420.35	38.627
420.71	39.186
421.06	38.858
421.42	38.822
421.77	38.728
422.12	40.011
422.48	39.145
422.83	38.399
423.19	39.955
423.54	37.978
423.90	38.869
424.25	39.897
424.61	39.902
424.96	38.618
425.31	40.959
425.67	40.023
426.02	40.106
426.38	39.887
426.73	40.315
427.09	40.380
427.44	40.235
427.79	40.424
428.15	40.655
428.50	38.946
428.85	39.803
429.21	40.747
429.56	40.431
429.92	39.908
430.27	39.649
430.62	39.153
430.98	40.234
431.33	40.694
431.68	40.555
432.04	40.414
432.39	39.190
432.74	39.447
433.10	40.057
433.45	41.099
433.80	41.730
434.16	40.554
434.51	41.452
434.86	40.825
435.22	39.821
435.57	42.483
435.92	41.677
436.28	40.668
436.63	40.730
436.98	40.846
437.34	41.561
437.69	42.159
438.04	40.114
438.39	41.173
438.75	41.712
439.10	40.464
439.45	41.327
439.81	40.917
440.16	41.271
440.51	41.373
440.86	42.356
441.22	40.950
441.57	42.605
441.92	41.868
442.27	44.069
442.63	42.238
442.98	42.332
443.33	42.014
443.68	41.326
444.03	42.822
444.39	41.810
444.74	42.085
445.09	42.929
445.44	42.108
445.79	42.084
446.15	41.685
446.50	42.152
446.85	42.189
447.20	42.753
447.55	42.634
447.91	43.091
448.26	43.085
448.61	42.257
448.96	43.373
449.31	41.098
449.66	42.044
450.02	42.156
450.37	43.331
450.72	41.294
451.07	41.899
451.42	41.635
451.77	42.857
452.12	40.371
452.47	41.146
452.83	40.989
453.18	42.252
453.53	41.719
453.88	42.866
454.23	41.364
454.58	42.254
454.93	41.495
455.28	41.524
455.63	41.847
455.98	42.634
456.34	42.018
456.69	42.757
457.04	42.407
457.39	42.163
457.74	42.261
458.09	41.377
458.44	42.247
458.79	41.008
459.14	42.563
459.49	42.687
459.84	42.809
460.19	41.383
460.54	42.665
460.89	42.500
461.24	41.553
461.59	41.686
461.94	41.258
462.29	42.220
462.64	41.661
462.99	40.623
463.34	40.542
463.69	41.120
464.04	42.433
464.39	40.934
464.74	41.595
465.09	42.795
465.44	40.854
465.79	41.893
466.14	42.189
466.49	41.806
466.84	41.106
467.19	41.552
467.54	40.294
467.89	40.809
468.24	41.423
468.59	41.016
468.94	41.841
469.29	40.656
469.64	40.738
469.99	41.416
470.34	39.454
470.68	41.834
471.03	40.127
471.38	39.372
471.73	40.966
472.08	40.299
472.43	41.007
472.78	39.753
473.13	40.408
473.48	41.042
473.83	40.224
474.17	41.516
474.52	40.332
474.87	41.394
475.22	40.879
475.57	41.446
475.92	40.702
476.27	40.221
476.61	41.088
476.96	40.156
477.31	40.833
477.66	40.618
478.01	40.427
478.36	40.142
478.70	41.164
479.05	39.560
479.40	41.176
479.75	39.781
480.10	40.297
480.45	40.600
480.79	41.289
481.14	41.086
481.49	39.704
481.84	41.651
482.19	41.113
482.53	40.671
482.88	39.666
483.23	39.012
483.58	39.575
483.92	39.884
484.27	39.608
484.62	40.027
484.97	39.842
485.31	41.113
485.66	42.746
486.01	45.374
486.36	44.216
486.70	44.468
487.05	42.864
487.40	42.141
487.75	41.408
488.09	40.513
488.44	40.337
488.79	39.223
489.13	39.223
489.48	39.248
489.83	39.193
490.17	38.921
490.52	39.584
490.87	37.992
491.22	38.873
491.56	39.184
491.91	38.432
492.26	39.329
492.60	38.052
492.95	39.695
493.30	38.447
493.64	39.244
493.99	38.937
494.34	39.417
494.68	39.000
495.03	38.102
495.37	37.831
495.72	38.869
496.07	39.610
496.41	39.198
496.76	39.106
497.11	38.193
497.45	39.236
497.80	38.446
498.14	37.258
498.49	38.090
498.84	38.323
499.18	38.956
499.53	39.137
499.87	38.035
500.22	38.081
500.56	39.082
500.91	38.153
501.26	37.914
501.60	38.760
501.95	38.574
502.29	38.692
502.64	38.755
502.98	38.234
503.33	38.329
503.67	38.747
504.02	39.198
504.36	38.892
504.71	37.879
505.06	37.896
505.40	38.020
505.75	38.608
506.09	37.253
506.44	38.398
506.78	37.653
507.13	37.901
507.47	37.232
507.82	36.806
508.16	37.929
508.51	37.828
508.85	37.520
509.19	36.988
509.54	36.300
509.88	37.972
510.23	37.332
510.57	37.306
510.92	35.981
511.26	37.425
511.61	37.624
511.95	35.945
512.30	35.588
512.64	36.672
512.98	36.440
513.33	36.989
513.67	37.180
514.02	37.815
514.36	37.429
514.70	37.471
515.05	36.722
515.39	35.301
515.74	37.066
516.08	37.358
516.42	36.514
516.77	37.624
517.11	36.795
517.46	36.685
517.80	36.234
518.14	36.375
518.49	36.418
518.83	36.148
519.17	34.445
519.52	35.110
519.86	35.534
520.20	36.391
520.55	35.397
520.89	34.818
521.23	35.655
521.58	37.603
521.92	34.808
522.26	34.548
522.61	34.416
522.95	37.086
523.29	35.133
523.64	35.832
523.98	35.904
524.32	34.665
524.66	35.851
525.01	35.455
525.35	36.163
525.69	33.939
526.04	34.722
526.38	34.630
526.72	33.813
527.06	35.409
527.41	35.818
527.75	33.311
528.09	33.953
528.43	36.529
528.78	35.380
529.12	35.806
529.46	34.633
529.80	35.085
530.15	35.974
530.49	35.623
530.83	35.363
531.17	35.393
531.51	35.841
531.86	34.806
532.20	34.377
532.54	35.466
532.88	34.976
533.22	36.022
533.57	35.583
533.91	35.248
534.25	37.109
534.59	35.087
534.93	35.431
535.27	34.962
535.62	35.645
535.96	36.138
536.30	35.620
536.64	35.355
536.98	34.634
537.32	35.277
537.66	35.624
538.01	36.154
538.35	35.160
538.69	35.087
539.03	34.655
539.37	35.330
539.71	35.310
540.05	35.913
540.39	34.834
540.73	35.216
541.07	35.152
541.42	36.559
541.76	36.339
542.10	35.788
542.44	35.372
542.78	35.444
543.12	36.195
543.46	35.883
543.80	36.919
544.14	34.513
544.48	35.110
544.82	36.637
545.16	35.861
545.50	35.915
545.84	35.694
546.18	35.106
546.52	35.472
546.86	35.514
547.20	35.408
547.54	34.417
547.88	36.413
548.22	35.503
548.56	34.763
548.90	37.264
549.24	35.468
549.58	34.344
549.92	34.525
550.26	34.725
550.60	34.201
550.94	34.429
551.28	34.235
551.62	35.000
551.96	34.737
552.30	35.526
552.64	35.896
552.98	34.669
553.32	34.807
553.66	34.325
554.00	35.766
554.34	35.598
554.68	33.776
555.02	35.193
555.36	34.929
555.69	35.311
556.03	34.975
556.37	35.587
556.71	34.440
557.05	35.048
557.39	32.937
557.73	36.057
558.07	35.445
558.41	35.069
558.75	34.606
559.08	33.806
559.42	33.810
559.76	34.267
560.10	34.327
560.44	35.815
560.78	35.105
561.12	36.107
561.45	37.386
561.79	36.905
562.13	35.770
562.47	34.532
562.81	35.231
563.15	35.472
563.48	35.644
563.82	36.307
564.16	35.515
564.50	34.865
564.84	36.412
565.17	36.217
565.51	36.407
565.85	35.734
566.19	36.737
566.52	37.399
566.86	36.889
567.20	36.986
567.54	37.774
567.88	39.250
568.21	37.613
568.55	39.022
568.89	39.630
569.23	39.817
569.56	40.061
569.90	42.022
570.24	41.273
570.57	41.382
570.91	41.687
571.25	41.302
571.59	41.482
571.92	40.741
572.26	41.455
572.60	40.651
572.93	40.446
573.27	40.470
573.61	41.348
573.95	42.026
574.28	41.340
574.62	41.495
574.96	41.710
575.29	41.242
575.63	39.829
575.97	40.770
576.30	40.877
576.64	40.715
576.98	41.931
577.31	42.295
577.65	43.394
577.98	42.456
578.32	42.357
578.66	41.672
578.99	40.875
579.33	40.669
579.67	40.954
580.00	41.418
580.34	41.667
580.67	41.444
581.01	41.643
581.35	42.571
581.68	43.456
582.02	43.513
582.35	43.565
582.69	42.715
583.02	42.598
583.36	41.495
583.70	41.563
584.03	41.618
584.37	41.587
584.70	41.429
585.04	41.580
585.37	42.015
585.71	42.409
586.04	41.730
586.38	42.171
586.72	41.463
587.05	41.768
587.39	43.165
587.72	42.701
588.06	42.264
588.39	41.868
588.73	41.026
589.06	41.129
589.40	40.996
589.73	41.110
590.07	40.937
590.40	41.022
590.73	41.351
591.07	41.561
591.40	40.160
591.74	39.955
592.07	41.558
592.41	41.078
592.74	40.980
593.08	41.146
593.41	42.109
593.75	41.773
594.08	40.577
594.41	40.866
594.75	41.183
595.08	41.392
595.42	41.259
595.75	42.246
596.09	40.344
596.42	40.637
596.75	40.497
597.09	39.134
597.42	40.741
597.75	40.357
598.09	40.335
598.42	39.576
598.76	40.970
599.09	41.386
599.42	41.607
599.76	41.046
600.09	40.988
600.42	40.902
600.76	39.896
601.09	40.802
601.42	41.755
601.76	40.611
602.09	40.594
602.42	42.081
602.76	40.620
603.09	42.234
603.42	42.140
603.76	41.734
604.09	40.907
604.42	40.609
604.76	41.433
605.09	40.402
605.42	40.542
605.75	41.375
606.09	40.892
606.42	40.659
606.75	40.346
607.09	39.912
607.42	39.610
607.75	40.897
608.08	40.566
608.42	40.978
608.75	40.530
609.08	40.409
609.41	40.152
609.75	40.323
610.08	41.138
610.41	39.807
610.74	41.102
611.07	40.620
611.41	39.855
611.74	40.139
612.07	39.026
612.40	40.919
612.73	40.056
613.07	39.033
613.40	39.661
613.73	39.116
614.06	40.067
614.39	40.496
614.72	39.552
615.06	39.777
615.39	38.919
615.72	39.882
616.05	40.223
616.38	38.063
616.71	38.654
617.05	39.531
617.38	38.906
617.71	39.874
618.04	39.746
618.37	40.101
618.70	38.812
619.03	39.444
619.36	37.771
619.69	38.362
620.03	39.664
620.36	38.054
620.69	39.115
621.02	37.768
621.35	37.261
621.68	37.245
622.01	38.083
622.34	37.350
622.67	37.618
623.00	37.825
623.33	37.805
623.66	37.696
623.99	37.670
624.32	37.947
624.65	37.293
624.99	39.880
625.32	37.377
625.65	37.785
625.98	38.759
626.31	36.409
626.64	37.348
626.97	37.871
627.30	37.303
627.63	36.828
627.96	37.736
628.29	36.263
628.62	35.988
628.95	34.970
629.28	36.290
629.61	36.889
629.94	37.146
630.26	34.387
630.59	35.692
630.92	35.692
631.25	33.949
631.58	35.352
631.91	34.759
632.24	35.665
632.57	34.318
632.90	33.808
633.23	33.765
633.56	34.257
633.89	32.552
