SpectraSuite Data File
++++++++++++++++++++++++++++++++++++
Date: Fri May 15 17:03:56 PDT 2015
User: schluterlab
Dark Spectrum Present: Yes
Reference Spectrum Present: Yes
Number of Sampled Component Spectra: 1
Spectrometers: USB2E3373
Integration Time (usec): 3000 (USB2E3373)
Spectra Averaged: 3 (USB2E3373)
Boxcar Smoothing: 0 (USB2E3373)
Correct for Electrical Dark: No (USB2E3373)
Strobe/Lamp Enabled: No (USB2E3373)
Correct for Detector Non-linearity: No (USB2E3373)
Correct for Stray Light: No (USB2E3373)
Number of Pixels in Processed Spectrum: 2048
>>>>>Begin Processed Spectral Data<<<<<
178.53	0.000
178.91	0.000
179.29	87.500
179.67	50.000
180.04	-271.429
180.42	300.000
180.80	100.000
181.18	-300.000
181.56	50.000
181.94	650.000
182.31	-800.000
182.69	180.000
183.07	333.333
183.45	-40.000
183.83	116.667
184.20	100.000
184.58	33.333
184.96	-300.000
185.34	-233.333
185.72	150.000
186.09	69.231
186.47	600.000
186.85	33.333
187.23	-22.222
187.61	-600.000
187.98	266.667
188.36	155.556
188.74	166.667
189.12	70.588
189.49	105.556
189.87	0.000
190.25	121.429
190.63	400.000
191.00	0.000
191.38	26.316
191.76	1200.000
192.14	-75.000
192.51	300.000
192.89	-100.000
193.27	-28.571
193.65	50.000
194.02	63.636
194.40	70.000
194.78	0.000
195.15	41.667
195.53	137.500
195.91	25.000
196.29	0.000
196.66	7.692
197.04	-200.000
197.42	44.444
197.79	-233.333
198.17	-15.385
198.55	100.000
198.92	-166.667
199.30	1000.000
199.68	-120.000
200.05	266.667
200.43	0.000
200.81	33.333
201.18	33.333
201.56	-0.000
201.94	350.000
202.31	-466.667
202.69	-20.000
203.07	-150.000
203.44	900.000
203.82	0.000
204.19	121.429
204.57	0.000
204.95	37.500
205.32	100.000
205.70	42.857
206.08	150.000
206.45	200.000
206.83	100.000
207.20	-100.000
207.58	-700.000
207.96	0.000
208.33	70.000
208.71	175.000
209.08	33.333
209.46	500.000
209.84	200.000
210.21	200.000
210.59	57.143
210.96	166.667
211.34	-50.000
211.71	80.000
212.09	-57.143
212.46	-500.000
212.84	0.000
213.22	130.000
213.59	-0.000
213.97	38.462
214.34	109.091
214.72	-16.667
215.09	225.000
215.47	115.385
215.84	81.818
216.22	-66.667
216.59	50.000
216.97	550.000
217.34	0.000
217.72	220.000
218.09	112.500
218.47	37.500
218.84	800.000
219.22	66.667
219.59	120.000
219.97	200.000
220.34	-125.000
220.72	228.571
221.09	125.000
221.47	700.000
221.84	100.000
222.22	-600.000
222.59	72.727
222.97	166.667
223.34	100.000
223.72	28.571
224.09	90.476
224.46	42.857
224.84	33.333
225.21	30.000
225.59	120.000
225.96	50.000
226.34	300.000
226.71	42.857
227.08	50.000
227.46	175.000
227.83	150.000
228.21	100.000
228.58	181.818
228.95	87.500
229.33	60.000
229.70	43.750
230.08	37.500
230.45	-14.286
230.82	114.286
231.20	60.000
231.57	78.571
231.95	114.286
232.32	-10.000
232.69	100.000
233.07	200.000
233.44	20.000
233.81	70.000
234.19	-33.333
234.56	76.471
234.93	150.000
235.31	-50.000
235.68	-140.000
236.05	-23.077
236.43	45.000
236.80	52.941
237.17	43.750
237.55	40.000
237.92	25.926
238.29	11.111
238.67	40.000
239.04	23.529
239.41	26.829
239.79	6.667
240.16	21.951
240.53	18.421
240.91	19.565
241.28	19.048
241.65	21.429
242.02	47.945
242.40	23.333
242.77	40.678
243.14	10.606
243.51	27.500
243.89	33.333
244.26	24.138
244.63	22.619
245.00	23.711
245.38	20.619
245.75	8.989
246.12	9.483
246.49	23.140
246.87	23.077
247.24	15.126
247.61	20.175
247.98	17.886
248.36	19.375
248.73	26.316
249.10	17.532
249.47	26.582
249.84	17.647
250.22	17.647
250.59	21.569
250.96	25.352
251.33	25.581
251.70	27.059
252.08	21.320
252.45	25.248
252.82	20.603
253.19	25.346
253.56	16.355
253.94	20.270
254.31	20.870
254.68	23.684
255.05	16.929
255.42	19.214
255.79	19.691
256.16	21.012
256.54	20.522
256.91	19.392
257.28	15.985
257.65	18.727
258.02	15.248
258.39	19.529
258.76	20.147
259.14	20.598
259.51	21.683
259.88	18.213
260.25	19.935
260.62	22.569
260.99	13.220
261.36	14.726
261.73	15.823
262.10	17.933
262.47	20.552
262.85	15.674
263.22	17.846
263.59	18.380
263.96	21.118
264.33	17.273
264.70	19.048
265.07	17.857
265.44	19.830
265.81	18.927
266.18	16.120
266.55	19.280
266.92	19.171
267.29	18.016
267.66	18.159
268.03	20.157
268.40	19.060
268.77	21.123
269.14	16.787
269.51	18.766
269.88	16.708
270.25	16.071
270.62	18.780
270.99	16.368
271.36	16.381
271.73	17.840
272.10	17.275
272.47	16.548
272.84	18.317
273.21	19.258
273.58	18.313
273.95	17.391
274.32	17.090
274.69	15.385
275.06	18.080
275.43	19.048
275.80	17.439
276.17	17.241
276.54	16.488
276.91	18.640
277.28	17.031
277.65	17.975
278.02	18.085
278.39	16.193
278.76	17.610
279.13	13.485
279.50	18.908
279.87	15.551
280.23	17.419
280.60	16.569
280.97	15.152
281.34	16.538
281.71	18.070
282.08	17.178
282.45	15.068
282.82	15.637
283.19	16.828
283.56	17.148
283.92	16.319
284.29	16.923
284.66	17.442
285.03	16.306
285.40	17.391
285.77	15.466
286.14	15.523
286.51	17.159
286.87	15.356
287.24	16.575
287.61	14.815
287.98	15.965
288.35	14.731
288.72	14.361
289.08	14.062
289.45	15.641
289.82	16.084
290.19	16.041
290.56	13.894
290.93	13.805
291.29	14.330
291.66	15.906
292.03	16.427
292.40	15.323
292.77	13.876
293.13	12.987
293.50	12.140
293.87	14.656
294.24	12.674
294.60	14.903
294.97	13.690
295.34	12.270
295.71	14.158
296.08	12.257
296.44	10.811
296.81	13.611
297.18	12.609
297.55	13.279
297.91	13.014
298.28	14.248
298.65	13.297
299.02	11.590
299.38	11.081
299.75	11.310
300.12	10.602
300.48	12.648
300.85	12.548
301.22	11.948
301.59	11.447
301.95	13.797
302.32	12.192
302.69	13.184
303.05	12.500
303.42	13.823
303.79	10.864
304.15	13.142
304.52	11.296
304.89	11.462
305.25	10.533
305.62	10.502
305.99	11.930
306.35	10.867
306.72	10.349
307.09	11.973
307.45	12.055
307.82	10.880
308.19	11.266
308.55	10.578
308.92	13.725
309.29	11.844
309.65	10.980
310.02	12.541
310.38	11.526
310.75	11.366
311.12	12.594
311.48	11.559
311.85	12.147
312.22	11.181
312.58	11.040
312.95	12.487
313.31	11.801
313.68	11.623
314.05	13.367
314.41	11.546
314.78	13.711
315.14	14.594
315.51	13.251
315.87	13.525
316.24	15.369
316.61	14.764
316.97	15.278
317.34	13.281
317.70	15.296
318.07	15.769
318.43	16.569
318.80	15.814
319.16	16.699
319.53	18.613
319.89	17.421
320.26	17.510
320.62	19.157
320.99	17.537
321.35	19.527
321.72	20.457
322.08	20.342
322.45	21.218
322.81	20.629
323.18	22.473
323.54	21.525
323.91	22.687
324.27	24.023
324.64	22.753
325.00	24.726
325.37	24.610
325.73	24.569
326.10	26.158
326.46	26.457
326.83	26.072
327.19	27.376
327.56	28.410
327.92	28.961
328.29	29.464
328.65	29.623
329.01	30.331
329.38	30.691
329.74	30.123
330.11	31.881
330.47	31.169
330.84	30.673
331.20	35.741
331.56	32.130
331.93	32.694
332.29	33.914
332.66	34.118
333.02	33.271
333.38	34.097
333.75	36.722
334.11	34.288
334.48	36.899
334.84	35.165
335.20	35.316
335.57	35.630
335.93	35.411
336.29	37.753
336.66	35.967
337.02	36.338
337.38	36.481
337.75	37.182
338.11	36.610
338.47	37.500
338.84	36.691
339.20	37.386
339.56	36.514
339.93	38.406
340.29	36.697
340.65	37.724
341.02	38.652
341.38	37.080
341.74	37.279
342.11	36.915
342.47	38.523
342.83	37.716
343.20	38.066
343.56	39.217
343.92	38.264
344.28	36.977
344.65	38.083
345.01	36.733
345.37	38.604
345.73	38.075
346.10	39.517
346.46	36.754
346.82	37.398
347.19	37.822
347.55	38.931
347.91	38.916
348.27	37.672
348.63	38.501
349.00	36.751
349.36	37.573
349.72	39.801
350.08	38.443
350.45	37.909
350.81	37.209
351.17	37.541
351.53	39.184
351.89	35.838
352.26	36.960
352.62	39.677
352.98	36.627
353.34	36.312
353.70	38.511
354.07	38.306
354.43	38.591
354.79	38.233
355.15	38.810
355.51	37.579
355.87	39.806
356.24	37.194
356.60	37.995
356.96	39.365
357.32	38.738
357.68	37.217
358.04	37.722
358.40	38.746
358.77	39.633
359.13	39.071
359.49	38.136
359.85	39.080
360.21	38.915
360.57	38.638
360.93	39.486
361.29	39.426
361.66	40.439
362.02	38.636
362.38	38.766
362.74	39.137
363.10	40.557
363.46	40.697
363.82	40.045
364.18	38.376
364.54	39.265
364.90	38.495
365.26	40.320
365.62	41.314
365.98	40.323
366.35	40.204
366.71	41.316
367.07	41.727
367.43	40.043
367.79	39.152
368.15	40.847
368.51	40.859
368.87	39.986
369.23	40.650
369.59	40.525
369.95	42.595
370.31	41.257
370.67	40.970
371.03	40.105
371.39	40.336
371.75	41.685
372.11	41.227
372.47	42.234
372.83	42.229
373.19	40.870
373.55	41.444
373.91	41.685
374.27	42.381
374.63	43.575
374.99	43.050
375.35	43.454
375.71	44.965
376.07	43.399
376.42	44.218
376.78	43.356
377.14	43.940
377.50	43.028
377.86	44.645
378.22	44.544
378.58	44.679
378.94	44.802
379.30	43.980
379.66	45.580
380.02	44.513
380.38	44.553
380.74	43.986
381.09	46.319
381.45	45.382
381.81	45.096
382.17	45.558
382.53	45.971
382.89	46.579
383.25	46.111
383.61	47.256
383.97	47.365
384.32	47.029
384.68	47.121
385.04	47.426
385.40	47.231
385.76	48.742
386.12	48.577
386.48	49.106
386.83	48.573
387.19	48.413
387.55	48.996
387.91	49.022
388.27	48.779
388.62	50.031
388.98	49.171
389.34	48.969
389.70	49.347
390.06	48.647
390.42	49.288
390.77	49.771
391.13	48.613
391.49	49.030
391.85	50.942
392.20	49.404
392.56	50.477
392.92	50.323
393.28	50.000
393.64	49.970
393.99	50.408
394.35	49.589
394.71	50.383
395.07	49.466
395.42	50.577
395.78	50.554
396.14	51.324
396.50	51.680
396.85	51.320
397.21	50.689
397.57	50.658
397.92	51.648
398.28	51.897
398.64	49.639
399.00	51.919
399.35	50.000
399.71	51.292
400.07	51.874
400.42	51.346
400.78	52.235
401.14	50.998
401.49	51.042
401.85	51.432
402.21	51.627
402.57	52.500
402.92	49.812
403.28	51.942
403.63	51.639
403.99	50.765
404.35	53.092
404.70	51.071
405.06	50.411
405.42	51.523
405.77	51.772
406.13	52.852
406.49	51.391
406.84	52.567
407.20	52.739
407.55	50.805
407.91	52.406
408.27	51.243
408.62	51.631
408.98	51.694
409.34	51.859
409.69	52.713
410.05	50.554
410.40	52.407
410.76	52.714
411.11	51.437
411.47	52.991
411.83	51.789
412.18	52.445
412.54	51.810
412.89	50.862
413.25	52.527
413.60	52.547
413.96	52.331
414.31	53.110
414.67	51.379
415.03	51.531
415.38	53.394
415.74	53.355
416.09	54.540
416.45	53.545
416.80	52.346
417.16	54.075
417.51	53.098
417.87	52.738
418.22	54.275
418.58	55.050
418.93	55.110
419.29	51.601
419.64	53.856
420.00	54.282
420.35	53.672
420.71	54.435
421.06	53.223
421.42	53.606
421.77	55.029
422.12	54.540
422.48	52.734
422.83	54.002
423.19	54.515
423.54	54.145
423.90	53.710
424.25	55.224
424.61	55.386
424.96	54.588
425.31	55.690
425.67	55.927
426.02	55.359
426.38	55.667
426.73	55.387
427.09	56.582
427.44	55.118
427.79	56.335
428.15	56.432
428.50	55.784
428.85	55.958
429.21	56.367
429.56	56.334
429.92	55.316
430.27	55.689
430.62	54.626
430.98	55.945
431.33	56.730
431.68	56.567
432.04	56.568
432.39	56.475
432.74	55.743
433.10	57.586
433.45	56.272
433.80	57.690
434.16	55.346
434.51	56.935
434.86	56.911
435.22	56.310
435.57	57.268
435.92	58.084
436.28	56.768
436.63	57.045
436.98	56.547
437.34	57.471
437.69	59.511
438.04	57.664
438.39	58.094
438.75	59.016
439.10	58.517
439.45	59.647
439.81	57.982
440.16	59.382
440.51	58.627
440.86	60.181
441.22	57.410
441.57	59.216
441.92	60.126
442.27	59.590
442.63	58.672
442.98	59.391
443.33	58.598
443.68	58.355
444.03	60.010
444.39	58.239
444.74	60.312
445.09	59.855
445.44	58.860
445.79	60.289
446.15	58.590
446.50	58.846
446.85	59.989
447.20	59.437
447.55	59.766
447.91	60.293
448.26	59.818
448.61	60.161
448.96	60.585
449.31	60.462
449.66	60.163
450.02	60.810
450.37	60.818
450.72	60.023
451.07	60.823
451.42	59.551
451.77	60.518
452.12	59.809
452.47	60.528
452.83	59.717
453.18	59.583
453.53	60.746
453.88	60.474
454.23	60.172
454.58	61.524
454.93	60.374
455.28	60.063
455.63	59.454
455.98	61.215
456.34	59.962
456.69	59.085
457.04	61.563
457.39	60.267
457.74	60.762
458.09	58.740
458.44	59.684
458.79	59.216
459.14	60.812
459.49	60.537
459.84	61.027
460.19	61.590
460.54	60.819
460.89	61.307
461.24	61.056
461.59	60.926
461.94	59.371
462.29	60.374
462.64	61.262
462.99	61.341
463.34	62.170
463.69	61.969
464.04	61.017
464.39	61.128
464.74	61.656
465.09	62.133
465.44	61.108
465.79	59.184
466.14	61.517
466.49	61.242
466.84	60.500
467.19	61.327
467.54	59.642
467.89	62.350
468.24	62.226
468.59	62.476
468.94	61.016
469.29	61.902
469.64	62.406
469.99	62.719
470.34	62.662
470.68	61.521
471.03	62.916
471.38	62.910
471.73	62.605
472.08	61.737
472.43	62.886
472.78	62.509
473.13	63.810
473.48	61.889
473.83	61.395
474.17	63.601
474.52	63.242
474.87	62.364
475.22	62.294
475.57	61.321
475.92	62.479
476.27	62.631
476.61	62.211
476.96	61.350
477.31	62.628
477.66	62.865
478.01	62.381
478.36	61.002
478.70	63.730
479.05	62.912
479.40	62.904
479.75	62.826
480.10	62.366
480.45	62.700
480.79	63.444
481.14	63.115
481.49	61.182
481.84	62.741
482.19	62.722
482.53	63.118
482.88	62.196
483.23	61.276
483.58	62.453
483.92	62.052
484.27	61.668
484.62	61.945
484.97	62.189
485.31	61.777
485.66	59.968
486.01	59.595
486.36	58.488
486.70	58.847
487.05	59.370
487.40	60.290
487.75	61.408
488.09	60.970
488.44	61.933
488.79	61.412
489.13	63.181
489.48	62.762
489.83	62.377
490.17	63.011
490.52	64.065
490.87	61.777
491.22	62.894
491.56	62.761
491.91	62.189
492.26	63.150
492.60	62.092
492.95	64.043
493.30	62.286
493.64	63.949
493.99	63.623
494.34	63.204
494.68	63.238
495.03	63.114
495.37	62.561
495.72	64.462
496.07	63.805
496.41	64.481
496.76	63.795
497.11	61.854
497.45	64.678
497.80	64.178
498.14	63.140
498.49	63.382
498.84	63.573
499.18	65.161
499.53	63.194
499.87	64.397
500.22	63.798
500.56	64.902
500.91	63.906
501.26	63.618
501.60	63.601
501.95	63.464
502.29	63.487
502.64	64.286
502.98	65.121
503.33	64.313
503.67	63.759
504.02	64.321
504.36	65.512
504.71	64.192
505.06	64.469
505.40	65.533
505.75	65.825
506.09	63.761
506.44	65.554
506.78	64.745
507.13	64.891
507.47	63.499
507.82	64.850
508.16	65.188
508.51	65.687
508.85	64.887
509.19	65.035
509.54	64.611
509.88	65.102
510.23	65.949
510.57	65.206
510.92	64.979
511.26	65.903
511.61	66.667
511.95	67.068
512.30	67.073
512.64	65.498
512.98	65.750
513.33	66.872
513.67	66.686
514.02	68.021
514.36	68.229
514.70	68.357
515.05	67.098
515.39	67.946
515.74	68.743
516.08	67.782
516.42	67.727
516.77	67.642
517.11	68.665
517.46	68.043
517.80	67.938
518.14	68.402
518.49	67.548
518.83	68.408
519.17	67.374
519.52	67.910
519.86	68.667
520.20	69.077
520.55	68.043
520.89	68.695
521.23	68.461
521.58	69.527
521.92	68.526
522.26	69.356
522.61	68.896
522.95	70.861
523.29	69.504
523.64	68.806
523.98	69.605
524.32	69.910
524.66	69.718
525.01	69.351
525.35	70.318
525.69	71.313
526.04	69.643
526.38	69.066
526.72	69.719
527.06	69.650
527.41	70.251
527.75	69.638
528.09	69.701
528.43	71.843
528.78	71.353
529.12	70.129
529.46	70.175
529.80	69.728
530.15	71.023
530.49	71.313
530.83	72.503
531.17	69.443
531.51	70.246
531.86	69.952
532.20	69.450
532.54	70.456
532.88	69.610
533.22	70.833
533.57	69.921
533.91	70.431
534.25	70.833
534.59	68.954
534.93	68.345
535.27	68.084
535.62	69.734
535.96	71.689
536.30	69.987
536.64	71.813
536.98	70.941
537.32	70.555
537.66	72.090
538.01	71.469
538.35	69.695
538.69	69.374
539.03	70.745
539.37	71.400
539.71	69.393
540.05	70.604
540.39	71.122
540.73	71.130
541.07	72.099
541.42	70.699
541.76	72.264
542.10	69.718
542.44	71.786
542.78	70.406
543.12	70.055
543.46	70.445
543.80	70.576
544.14	67.957
544.48	69.753
544.82	70.403
545.16	71.721
545.50	71.362
545.84	72.167
546.18	71.631
546.52	72.026
546.86	71.459
547.20	72.389
547.54	70.318
547.88	72.283
548.22	71.137
548.56	69.459
548.90	72.372
549.24	71.625
549.58	71.368
549.92	70.765
550.26	72.088
550.60	72.268
550.94	73.264
551.28	73.725
551.62	73.615
551.96	72.632
552.30	71.564
552.64	70.733
552.98	72.152
553.32	70.542
553.66	72.859
554.00	73.358
554.34	73.486
554.68	71.681
555.02	72.247
555.36	73.149
555.69	72.527
556.03	71.734
556.37	72.171
556.71	72.852
557.05	72.931
557.39	72.639
557.73	73.763
558.07	73.077
558.41	73.890
558.75	73.500
559.08	72.262
559.42	73.016
559.76	74.460
560.10	74.006
560.44	74.609
560.78	73.846
561.12	73.484
561.45	73.717
561.79	73.529
562.13	73.101
562.47	72.734
562.81	74.352
563.15	71.862
563.48	72.631
563.82	74.537
564.16	73.398
564.50	72.635
564.84	72.691
565.17	73.508
565.51	74.454
565.85	73.594
566.19	73.276
566.52	73.324
566.86	72.108
567.20	73.599
567.54	72.993
567.88	73.462
568.21	72.568
568.55	72.228
568.89	71.869
569.23	71.690
569.56	69.834
569.90	70.849
570.24	69.073
570.57	68.691
570.91	69.432
571.25	68.925
571.59	68.265
571.92	66.578
572.26	67.874
572.60	67.969
572.93	68.623
573.27	68.119
573.61	68.526
573.95	68.924
574.28	67.135
574.62	67.251
574.96	66.916
575.29	66.633
575.63	65.691
575.97	67.173
576.30	68.260
576.64	66.940
576.98	67.362
577.31	68.371
577.65	67.156
577.98	67.181
578.32	67.028
578.66	66.688
578.99	67.010
579.33	66.425
579.67	66.742
580.00	68.405
580.34	68.905
580.67	67.532
581.01	67.891
581.35	67.011
581.68	67.644
582.02	66.599
582.35	66.648
582.69	67.569
583.02	67.443
583.36	68.394
583.70	69.600
584.03	69.892
584.37	70.243
584.70	70.385
585.04	68.627
585.37	67.838
585.71	68.823
586.04	67.700
586.38	68.765
586.72	69.268
587.05	70.797
587.39	69.723
587.72	69.601
588.06	70.246
588.39	69.382
588.73	69.475
589.06	71.298
589.40	70.722
589.73	70.391
590.07	70.997
590.40	71.517
590.73	72.199
591.07	71.120
591.40	72.707
591.74	72.489
592.07	72.774
592.41	72.261
592.74	70.052
593.08	68.390
593.41	69.984
593.75	69.120
594.08	69.722
594.41	69.942
594.75	71.221
595.08	71.169
595.42	71.623
595.75	71.536
596.09	71.814
596.42	72.385
596.75	73.091
597.09	71.708
597.42	71.996
597.75	73.019
598.09	73.427
598.42	71.074
598.76	71.300
599.09	71.514
599.42	69.913
599.76	70.918
600.09	71.569
600.42	70.697
600.76	70.579
601.09	70.534
601.42	70.858
601.76	71.933
602.09	72.401
602.42	73.589
602.76	71.392
603.09	73.173
603.42	74.540
603.76	72.298
604.09	72.864
604.42	72.166
604.76	74.099
605.09	72.761
605.42	72.325
605.75	72.636
606.09	71.635
606.42	71.226
606.75	73.117
607.09	73.407
607.42	72.840
607.75	73.224
608.08	71.608
608.42	72.179
608.75	73.880
609.08	74.689
609.41	75.178
609.75	74.093
610.08	74.039
610.41	73.527
610.74	74.208
611.07	75.607
611.41	75.195
611.74	75.640
612.07	73.340
612.40	75.055
612.73	76.667
613.07	74.522
613.40	75.000
613.73	75.602
614.06	73.845
614.39	76.481
614.72	75.070
615.06	76.145
615.39	73.526
615.72	74.004
616.05	76.369
616.38	73.960
616.71	75.902
617.05	77.208
617.38	76.744
617.71	77.799
618.04	78.794
618.37	78.625
618.70	77.030
619.03	78.125
619.36	78.509
619.69	79.606
620.03	78.890
620.36	77.539
620.69	77.944
621.02	79.052
621.35	80.830
621.68	82.823
622.01	80.333
622.34	80.367
622.67	79.574
623.00	78.407
623.33	78.354
623.66	78.235
623.99	78.669
624.32	78.783
624.65	78.496
624.99	80.060
625.32	79.151
625.65	79.497
625.98	81.225
626.31	79.717
626.64	82.236
626.97	82.112
627.30	81.786
627.63	82.236
627.96	83.378
628.29	84.089
628.62	84.071
628.95	83.367
629.28	85.786
629.61	84.646
629.94	84.262
630.26	83.597
630.59	87.305
630.92	83.897
631.25	83.590
631.58	85.352
631.91	86.623
632.24	86.124
632.57	87.045
632.90	88.612
633.23	86.235
633.56	92.065
633.89	89.642
634.22	88.148
