SpectraSuite Data File
++++++++++++++++++++++++++++++++++++
Date: Fri May 15 17:23:37 PDT 2015
User: schluterlab
Dark Spectrum Present: Yes
Reference Spectrum Present: Yes
Number of Sampled Component Spectra: 1
Spectrometers: USB2E3373
Integration Time (usec): 3000 (USB2E3373)
Spectra Averaged: 3 (USB2E3373)
Boxcar Smoothing: 0 (USB2E3373)
Correct for Electrical Dark: No (USB2E3373)
Strobe/Lamp Enabled: No (USB2E3373)
Correct for Detector Non-linearity: No (USB2E3373)
Correct for Stray Light: No (USB2E3373)
Number of Pixels in Processed Spectrum: 2048
>>>>>Begin Processed Spectral Data<<<<<
178.53	0.000
178.91	0.000
179.29	175.000
179.67	-300.000
180.04	42.857
180.42	50.000
180.80	300.000
181.18	66.667
181.56	350.000
181.94	300.000
182.31	300.000
182.69	200.000
183.07	-33.333
183.45	100.000
183.83	-50.000
184.20	100.000
184.58	11.111
184.96	-300.000
185.34	-0.000
185.72	50.000
186.09	38.462
186.47	200.000
186.85	66.667
187.23	88.889
187.61	-900.000
187.98	-200.000
188.36	33.333
188.74	100.000
189.12	52.941
189.49	88.889
189.87	0.000
190.25	92.857
190.63	-50.000
191.00	-66.667
191.38	36.842
191.76	-50.000
192.14	100.000
192.51	400.000
192.89	-77.778
193.27	-14.286
193.65	33.333
194.02	109.091
194.40	20.000
194.78	-37.500
195.15	16.667
195.53	25.000
195.91	250.000
196.29	125.000
196.66	76.923
197.04	-128.571
197.42	44.444
197.79	-333.333
198.17	-69.231
198.55	700.000
198.92	33.333
199.30	-200.000
199.68	0.000
200.05	-266.667
200.43	0.000
200.81	133.333
201.18	33.333
201.56	1000.000
201.94	100.000
202.31	-266.667
202.69	-80.000
203.07	125.000
203.44	1100.000
203.82	0.000
204.19	0.000
204.57	-600.000
204.95	-12.500
205.32	0.000
205.70	100.000
206.08	50.000
206.45	200.000
206.83	121.429
207.20	-42.857
207.58	700.000
207.96	-200.000
208.33	-60.000
208.71	100.000
209.08	-166.667
209.46	700.000
209.84	160.000
210.21	1100.000
210.59	42.857
210.96	166.667
211.34	100.000
211.71	73.333
212.09	-142.857
212.46	-1000.000
212.84	0.000
213.22	130.000
213.59	-100.000
213.97	38.462
214.34	109.091
214.72	-50.000
215.09	425.000
215.47	15.385
215.84	18.182
216.22	200.000
216.59	-50.000
216.97	300.000
217.34	25.000
217.72	-180.000
218.09	62.500
218.47	25.000
218.84	-1100.000
219.22	-44.444
219.59	220.000
219.97	100.000
220.34	50.000
220.72	142.857
221.09	325.000
221.47	-100.000
221.84	-700.000
222.22	-850.000
222.59	54.545
222.97	16.667
223.34	-100.000
223.72	71.429
224.09	38.095
224.46	46.429
224.84	-0.000
225.21	-40.000
225.59	46.667
225.96	100.000
226.34	-50.000
226.71	57.143
227.08	100.000
227.46	25.000
227.83	-400.000
228.21	22.222
228.58	-27.273
228.95	25.000
229.33	130.000
229.70	-6.250
230.08	75.000
230.45	-42.857
230.82	128.571
231.20	46.667
231.57	92.857
231.95	85.714
232.32	40.000
232.69	92.857
233.07	133.333
233.44	-20.000
233.81	-50.000
234.19	22.222
234.56	11.765
234.93	100.000
235.31	150.000
235.68	-100.000
236.05	46.154
236.43	20.000
236.80	17.647
237.17	37.500
237.55	20.000
237.92	3.704
238.29	41.667
238.67	63.333
239.04	5.882
239.41	7.317
239.79	30.000
240.16	43.902
240.53	18.421
240.91	28.261
241.28	31.746
241.65	55.357
242.02	42.466
242.40	43.333
242.77	32.203
243.14	34.848
243.51	56.250
243.89	48.276
244.26	29.885
244.63	41.667
245.00	26.804
245.38	46.392
245.75	25.843
246.12	28.448
246.49	30.579
246.87	35.577
247.24	36.975
247.61	26.316
247.98	35.772
248.36	26.250
248.73	36.184
249.10	31.169
249.47	34.177
249.84	29.412
250.22	27.059
250.59	35.294
250.96	39.906
251.33	34.302
251.70	38.824
252.08	30.964
252.45	34.653
252.82	28.141
253.19	36.406
253.56	33.645
253.94	35.135
254.31	38.261
254.68	39.035
255.05	31.102
255.42	34.934
255.79	33.205
256.16	34.630
256.54	37.687
256.91	34.221
257.28	35.688
257.65	34.457
258.02	34.397
258.39	34.680
258.76	39.194
259.14	35.216
259.51	36.893
259.88	38.488
260.25	34.314
260.62	32.986
260.99	29.492
261.36	29.795
261.73	35.443
262.10	36.170
262.47	36.196
262.85	33.229
263.22	32.308
263.59	36.137
263.96	33.540
264.33	33.939
264.70	34.226
265.07	36.012
265.44	33.711
265.81	37.571
266.18	32.787
266.55	35.733
266.92	36.010
267.29	34.204
267.66	31.458
268.03	34.293
268.40	32.376
268.77	36.096
269.14	34.053
269.51	37.018
269.88	33.666
270.25	34.439
270.62	32.439
270.99	34.783
271.36	32.274
271.73	32.629
272.10	38.686
272.47	32.624
272.84	31.188
273.21	35.963
273.58	35.181
273.95	32.494
274.32	30.023
274.69	32.805
275.06	34.375
275.43	31.519
275.80	33.996
276.17	34.943
276.54	32.762
276.91	35.965
277.28	31.441
277.65	31.612
278.02	32.553
278.39	31.947
278.76	32.075
279.13	28.838
279.50	34.244
279.87	34.773
280.23	31.398
280.60	31.969
280.97	34.747
281.34	31.923
281.71	34.908
282.08	32.311
282.45	30.528
282.82	33.398
283.19	32.882
283.56	32.370
283.92	32.258
284.29	31.154
284.66	32.171
285.03	29.273
285.40	32.136
285.77	27.944
286.14	31.769
286.51	34.133
286.87	30.896
287.24	31.860
287.61	29.982
287.98	30.702
288.35	30.676
288.72	30.998
289.08	32.118
289.45	29.701
289.82	29.895
290.19	28.498
290.56	28.645
290.93	30.471
291.29	26.194
291.66	28.189
292.03	27.751
292.40	27.581
292.77	27.113
293.13	25.000
293.50	25.797
293.87	26.260
294.24	25.811
294.60	26.677
294.97	25.149
295.34	26.380
295.71	25.931
296.08	25.710
296.44	23.186
296.81	24.861
297.18	25.217
297.55	25.610
297.91	23.836
298.28	24.406
298.65	21.981
299.02	23.046
299.38	21.751
299.75	24.000
300.12	22.906
300.48	22.925
300.85	23.701
301.22	23.247
301.59	23.553
301.95	24.810
302.32	24.773
302.69	20.771
303.05	23.515
303.42	23.288
303.79	21.379
304.15	24.253
304.52	20.809
304.89	21.520
305.25	21.308
305.62	20.887
305.99	22.456
306.35	20.694
306.72	21.260
307.09	22.235
307.45	22.273
307.82	21.412
308.19	23.345
308.55	23.337
308.92	22.767
309.29	20.112
309.65	21.098
310.02	20.902
310.38	22.283
310.75	21.749
311.12	21.636
311.48	21.103
311.85	19.686
312.22	20.570
312.58	20.701
312.95	20.491
313.31	20.600
313.68	18.848
314.05	20.510
314.41	21.031
314.78	20.000
315.14	21.994
315.51	21.118
315.87	20.697
316.24	20.829
316.61	20.866
316.97	20.734
317.34	20.898
317.70	21.224
318.07	19.904
318.43	20.588
318.80	19.697
319.16	21.289
319.53	21.178
319.89	20.177
320.26	20.547
320.62	21.565
320.99	19.207
321.35	19.630
321.72	20.976
322.08	20.947
322.45	21.015
322.81	20.629
323.18	18.940
323.54	18.822
323.91	18.890
324.27	20.117
324.64	20.599
325.00	20.620
325.37	20.478
325.73	19.402
326.10	20.254
326.46	20.359
326.83	19.510
327.19	20.575
327.56	20.070
327.92	20.511
328.29	19.732
328.65	20.094
329.01	19.485
329.38	20.553
329.74	19.169
330.11	20.297
330.47	18.924
330.84	19.231
331.20	21.483
331.56	19.352
331.93	20.274
332.29	19.982
332.66	20.543
333.02	18.959
333.38	18.607
333.75	20.055
334.11	18.711
334.48	19.855
334.84	19.414
335.20	19.762
335.57	18.223
335.93	19.783
336.29	19.890
336.66	20.254
337.02	18.216
337.38	18.981
337.75	18.909
338.11	19.206
338.47	20.529
338.84	18.669
339.20	18.830
339.56	18.716
339.93	19.517
340.29	18.991
340.65	20.699
341.02	18.528
341.38	19.558
341.74	18.551
342.11	17.504
342.47	19.662
342.83	19.118
343.20	18.641
343.56	18.435
343.92	19.043
344.28	19.641
344.65	18.048
345.01	16.768
345.37	17.746
345.73	19.331
346.10	20.276
346.46	18.419
346.82	19.067
347.19	19.036
347.55	19.549
347.91	18.608
348.27	19.402
348.63	19.250
349.00	17.637
349.36	18.454
349.72	19.320
350.08	17.623
350.45	19.952
350.81	17.940
351.17	18.567
351.53	17.878
351.89	17.836
352.26	18.000
352.62	18.468
352.98	18.715
353.34	18.035
353.70	18.851
354.07	17.984
354.43	17.774
354.79	17.754
355.15	19.762
355.51	18.117
355.87	19.094
356.24	17.047
356.60	18.593
356.96	18.254
357.32	19.329
357.68	17.201
358.04	17.932
358.40	17.926
358.77	18.900
359.13	18.415
359.49	18.182
359.85	18.019
360.21	17.464
360.57	17.827
360.93	18.003
361.29	17.598
361.66	16.928
362.02	18.712
362.38	17.974
362.74	17.184
363.10	18.209
363.46	18.162
363.82	19.083
364.18	18.303
364.54	16.691
364.90	17.204
365.26	18.049
365.62	18.832
365.98	18.182
366.35	18.718
366.71	18.182
367.07	17.634
367.43	17.398
367.79	17.102
368.15	18.378
368.51	17.698
368.87	17.444
369.23	17.040
369.59	17.347
369.95	17.815
370.31	18.497
370.67	17.761
371.03	17.028
371.39	17.578
371.75	16.703
372.11	16.976
372.47	17.086
372.83	16.608
373.19	17.832
373.55	17.473
373.91	17.783
374.27	18.356
374.63	18.737
374.99	17.872
375.35	18.106
375.71	17.762
376.07	17.556
376.42	17.279
376.78	17.852
377.14	17.197
377.50	17.663
377.86	17.938
378.22	17.613
378.58	16.859
378.94	16.383
379.30	17.654
379.66	16.928
380.02	16.800
380.38	17.164
380.74	16.457
381.09	17.853
381.45	17.859
381.81	17.212
382.17	17.640
382.53	17.676
382.89	16.698
383.25	17.922
383.61	17.744
383.97	16.698
384.32	17.573
384.68	17.276
385.04	16.605
385.40	16.553
385.76	17.547
386.12	18.564
386.48	17.625
386.83	15.980
387.19	17.705
387.55	17.629
387.91	16.504
388.27	17.094
388.62	17.495
388.98	17.618
389.34	18.301
389.70	17.526
390.06	17.055
390.42	17.228
390.77	17.659
391.13	16.583
391.49	17.076
391.85	18.324
392.20	16.949
392.56	17.101
392.92	17.029
393.28	17.158
393.64	17.598
393.99	18.370
394.35	17.078
394.71	18.008
395.07	16.468
395.42	17.365
395.78	16.287
396.14	16.393
396.50	17.438
396.85	18.030
397.21	16.604
397.57	16.489
397.92	16.836
398.28	17.011
398.64	16.807
399.00	17.099
399.35	16.704
399.71	16.715
400.07	18.077
400.42	17.809
400.78	17.697
401.14	17.725
401.49	17.689
401.85	17.246
402.21	17.470
402.57	17.250
402.92	17.880
403.28	17.544
403.63	17.970
403.99	16.263
404.35	18.676
404.70	17.440
405.06	17.920
405.42	16.781
405.77	16.734
406.13	16.880
406.49	17.288
406.84	16.932
407.20	17.941
407.55	17.193
407.91	17.781
408.27	16.571
408.62	17.785
408.98	18.238
409.34	17.906
409.69	17.313
410.05	16.872
410.40	16.914
410.76	17.672
411.11	17.000
411.47	18.540
411.83	17.075
412.18	17.825
412.54	16.792
412.89	17.672
413.25	17.629
413.60	17.453
413.96	16.748
414.31	17.073
414.67	17.640
415.03	17.909
415.38	17.298
415.74	17.524
416.09	18.289
416.45	17.758
416.80	17.184
417.16	17.610
417.51	17.455
417.87	16.623
418.22	18.588
418.58	17.726
418.93	18.370
419.29	17.222
419.64	17.498
420.00	19.018
420.35	17.672
420.71	18.408
421.06	18.048
421.42	17.668
421.77	18.324
422.12	17.821
422.48	17.434
422.83	17.749
423.19	18.454
423.54	17.049
423.90	18.198
424.25	18.140
424.61	18.421
424.96	17.596
425.31	18.429
425.67	18.016
426.02	18.021
426.38	18.347
426.73	18.099
427.09	18.924
427.44	18.176
427.79	18.975
428.15	18.750
428.50	17.081
428.85	17.383
429.21	18.789
429.56	18.652
429.92	18.233
430.27	18.095
430.62	18.087
430.98	19.108
431.33	18.507
431.68	18.577
432.04	17.943
432.39	18.711
432.74	18.100
433.10	18.563
433.45	18.817
433.80	18.572
434.16	17.562
434.51	18.548
434.86	18.525
435.22	17.499
435.57	18.777
435.92	19.162
436.28	18.366
436.63	18.711
436.98	18.482
437.34	18.209
437.69	18.545
438.04	18.575
438.39	18.082
438.75	19.308
439.10	19.015
439.45	18.685
439.81	18.471
440.16	18.884
440.51	19.522
440.86	19.940
441.22	18.835
441.57	17.936
441.92	20.409
442.27	19.290
442.63	18.897
442.98	18.782
443.33	19.032
443.68	18.674
444.03	19.424
444.39	18.642
444.74	19.955
445.09	19.321
445.44	19.601
445.79	19.185
446.15	19.163
446.50	18.303
446.85	19.341
447.20	19.343
447.55	20.033
447.91	19.007
448.26	19.180
448.61	19.747
448.96	19.621
449.31	19.017
449.66	19.338
450.02	19.338
450.37	19.858
450.72	19.301
451.07	20.190
451.42	19.288
451.77	19.711
452.12	19.617
452.47	18.995
452.83	19.022
453.18	19.418
453.53	19.469
453.88	19.247
454.23	19.053
454.58	19.584
454.93	20.554
455.28	19.492
455.63	19.095
455.98	19.543
456.34	20.243
456.69	20.013
457.04	20.416
457.39	19.684
457.74	19.770
458.09	18.952
458.44	19.602
458.79	19.104
459.14	20.195
459.49	20.358
459.84	19.515
460.19	19.600
460.54	19.866
460.89	20.455
461.24	19.565
461.59	20.309
461.94	18.931
462.29	19.783
462.64	19.867
462.99	20.108
463.34	19.680
463.69	19.434
464.04	19.370
464.39	19.466
464.74	20.184
465.09	19.651
465.44	19.561
465.79	19.388
466.14	20.468
466.49	19.666
466.84	21.059
467.19	20.651
467.54	20.179
467.89	19.394
468.24	19.769
468.59	20.571
468.94	19.810
469.29	20.590
469.64	21.531
469.99	20.673
470.34	18.498
470.68	20.731
471.03	20.099
471.38	20.471
471.73	19.608
472.08	20.353
472.43	19.060
472.78	18.506
473.13	21.020
473.48	20.065
473.83	19.863
474.17	20.596
474.52	20.230
474.87	20.121
475.22	19.585
475.57	19.989
475.92	19.967
476.27	20.838
476.61	19.676
476.96	19.632
477.31	21.092
477.66	20.225
478.01	19.989
478.36	19.444
478.70	20.446
479.05	20.604
479.40	20.350
479.75	19.708
480.10	20.225
480.45	20.350
480.79	20.896
481.14	20.287
481.49	19.655
481.84	20.125
482.19	19.551
482.53	19.568
482.88	20.430
483.23	19.866
483.58	19.906
483.92	20.087
484.27	20.237
484.62	19.901
484.97	19.693
485.31	19.617
485.66	20.043
486.01	19.937
486.36	19.763
486.70	20.000
487.05	19.589
487.40	19.623
487.75	19.718
488.09	19.159
488.44	19.532
488.79	19.948
489.13	20.513
489.48	19.923
489.83	19.641
490.17	19.730
490.52	19.538
490.87	20.130
491.22	19.819
491.56	19.639
491.91	19.742
492.26	20.272
492.60	20.106
492.95	20.462
493.30	20.322
493.64	20.530
493.99	20.966
494.34	19.466
494.68	19.810
495.03	19.367
495.37	20.167
495.72	20.293
496.07	20.390
496.41	20.236
496.76	20.175
497.11	19.888
497.45	20.286
497.80	20.636
498.14	20.020
498.49	20.315
498.84	20.459
499.18	19.578
499.53	20.982
499.87	19.893
500.22	19.782
500.56	20.474
500.91	20.532
501.26	20.662
501.60	20.020
501.95	19.796
502.29	20.387
502.64	20.849
502.98	20.720
503.33	18.972
503.67	19.952
504.02	21.065
504.36	21.227
504.71	19.495
505.06	20.835
505.40	19.949
505.75	20.464
506.09	19.716
506.44	20.380
506.78	20.408
507.13	20.476
507.47	19.948
507.82	20.139
508.16	20.338
508.51	20.094
508.85	19.885
509.19	20.596
509.54	20.429
509.88	20.334
510.23	21.194
510.57	20.524
510.92	20.043
511.26	20.295
511.61	20.462
511.95	20.274
512.30	20.898
512.64	20.979
512.98	20.270
513.33	20.817
513.67	20.068
514.02	20.938
514.36	21.143
514.70	21.037
515.05	21.152
515.39	20.661
515.74	21.257
516.08	21.040
516.42	21.555
516.77	21.006
517.11	21.899
517.46	20.886
517.80	21.037
518.14	21.066
518.49	20.192
518.83	20.960
519.17	20.497
519.52	21.492
519.86	21.188
520.20	21.264
520.55	21.263
520.89	22.020
521.23	20.963
521.58	20.946
521.92	20.513
522.26	20.755
522.61	21.623
522.95	21.325
523.29	21.665
523.64	20.902
523.98	21.970
524.32	20.812
524.66	21.575
525.01	21.494
525.35	21.452
525.69	20.202
526.04	21.098
526.38	21.725
526.72	20.798
527.06	20.947
527.41	21.438
527.75	20.107
528.09	20.864
528.43	21.810
528.78	21.254
529.12	21.355
529.46	20.598
529.80	21.913
530.15	21.914
530.49	21.616
530.83	21.614
531.17	21.558
531.51	21.819
531.86	21.550
532.20	20.807
532.54	20.967
532.88	22.656
533.22	21.976
533.57	21.298
533.91	21.410
534.25	22.396
534.59	20.654
534.93	21.586
535.27	20.876
535.62	21.581
535.96	21.918
536.30	22.098
536.64	22.467
536.98	21.115
537.32	22.333
537.66	23.422
538.01	21.958
538.35	20.874
538.69	21.438
539.03	20.369
539.37	23.015
539.71	21.677
540.05	21.181
540.39	22.230
540.73	21.688
541.07	22.445
541.42	23.320
541.76	21.679
542.10	21.335
542.44	22.029
542.78	21.266
543.12	21.360
543.46	22.670
543.80	21.443
544.14	20.360
544.48	21.652
544.82	22.078
545.16	22.404
545.50	22.630
545.84	22.167
546.18	21.631
546.52	22.134
546.86	22.214
547.20	21.960
547.54	21.555
547.88	21.535
548.22	21.565
548.56	22.164
548.90	22.035
549.24	21.901
549.58	22.073
549.92	20.872
550.26	21.832
550.60	22.602
550.94	21.583
551.28	21.793
551.62	22.385
551.96	21.729
552.30	22.295
552.64	21.227
552.98	21.449
553.32	21.327
553.66	21.190
554.00	22.263
554.34	20.679
554.68	21.976
555.02	22.693
555.36	21.316
555.69	21.319
556.03	21.485
556.37	20.996
556.71	21.444
557.05	21.924
557.39	21.413
557.73	22.114
558.07	22.775
558.41	22.358
558.75	21.512
559.08	21.749
559.42	21.984
559.76	22.338
560.10	21.942
560.44	21.817
560.78	22.587
561.12	21.932
561.45	21.855
561.79	22.199
562.13	21.292
562.47	21.295
562.81	22.190
563.15	22.285
563.48	23.055
563.82	21.688
564.16	21.727
564.50	21.554
564.84	22.490
565.17	22.066
565.51	23.361
565.85	22.154
566.19	23.011
566.52	22.520
566.86	23.586
567.20	23.101
567.54	22.567
567.88	22.554
568.21	22.624
568.55	22.609
568.89	22.074
569.23	22.195
569.56	21.585
569.90	22.290
570.24	21.585
570.57	22.218
570.91	21.854
571.25	21.440
571.59	20.928
571.92	21.304
572.26	20.652
572.60	21.705
572.93	21.148
573.27	20.909
573.61	21.002
573.95	21.354
574.28	20.895
574.62	20.722
574.96	20.917
575.29	20.570
575.63	19.720
575.97	20.575
576.30	20.804
576.64	20.715
576.98	21.081
577.31	21.209
577.65	21.399
577.98	21.386
578.32	20.605
578.66	20.653
578.99	20.777
579.33	20.684
579.67	20.792
580.00	21.139
580.34	21.517
580.67	20.895
581.01	21.254
581.35	20.801
581.68	21.079
582.02	21.252
582.35	20.984
582.69	21.289
583.02	21.064
583.36	21.055
583.70	21.391
584.03	21.351
584.37	21.598
584.70	21.456
585.04	20.751
585.37	21.499
585.71	21.057
586.04	21.230
586.38	20.912
586.72	21.693
587.05	21.635
587.39	21.443
587.72	21.651
588.06	21.672
588.39	21.361
588.73	21.459
589.06	22.016
589.40	21.638
589.73	22.417
590.07	21.752
590.40	22.059
590.73	22.158
591.07	22.180
591.40	21.950
591.74	22.127
592.07	22.635
592.41	22.306
592.74	22.023
593.08	21.132
593.41	22.372
593.75	21.786
594.08	21.421
594.41	21.361
594.75	21.412
595.08	22.020
595.42	21.200
595.75	20.916
596.09	21.736
596.42	21.910
596.75	22.469
597.09	21.913
597.42	21.500
597.75	21.530
598.09	21.593
598.42	21.029
598.76	21.665
599.09	21.595
599.42	21.220
599.76	21.332
600.09	21.569
600.42	21.797
600.76	21.025
601.09	21.450
601.42	21.112
601.76	21.715
602.09	21.741
602.42	22.578
602.76	21.520
603.09	22.508
603.42	21.865
603.76	21.331
604.09	21.912
604.42	22.716
604.76	22.519
605.09	21.435
605.42	21.670
605.75	21.541
606.09	21.826
606.42	20.851
606.75	22.078
607.09	21.758
607.42	21.533
607.75	21.536
608.08	21.518
608.42	21.060
608.75	21.831
609.08	22.123
609.41	22.030
609.75	21.623
610.08	21.418
610.41	21.111
610.74	21.697
611.07	21.964
611.41	23.093
611.74	21.908
612.07	21.520
612.40	22.648
612.73	21.582
613.07	21.766
613.40	22.812
613.73	22.048
614.06	22.092
614.39	21.827
614.72	21.289
615.06	22.961
615.39	21.725
615.72	21.851
616.05	22.067
616.38	21.425
616.71	21.590
617.05	22.298
617.38	21.559
617.71	22.264
618.04	23.429
618.37	21.942
618.70	21.980
619.03	22.569
619.36	21.274
619.69	22.441
620.03	22.863
620.36	23.176
620.69	21.984
621.02	22.783
621.35	23.320
621.68	23.384
622.01	22.750
622.34	21.708
622.67	22.950
623.00	22.052
623.33	22.942
623.66	22.737
623.99	22.012
624.32	22.433
624.65	21.729
624.99	22.348
625.32	21.380
625.65	21.838
625.98	21.676
626.31	21.613
626.64	23.657
626.97	23.386
627.30	22.329
627.63	23.484
627.96	23.001
628.29	22.757
628.62	23.009
628.95	23.747
629.28	22.883
629.61	23.330
629.94	23.558
630.26	22.332
630.59	23.621
630.92	22.974
631.25	23.590
631.58	22.467
631.91	22.807
632.24	22.592
632.57	22.955
632.90	21.352
633.23	24.353
633.56	23.929
633.89	22.441
634.22	22.346
