SpectraSuite Data File
++++++++++++++++++++++++++++++++++++
Date: Fri May 15 20:17:26 PDT 2015
User: schluterlab
Dark Spectrum Present: Yes
Reference Spectrum Present: Yes
Number of Sampled Component Spectra: 1
Spectrometers: USB2E3373
Integration Time (usec): 3000 (USB2E3373)
Spectra Averaged: 3 (USB2E3373)
Boxcar Smoothing: 0 (USB2E3373)
Correct for Electrical Dark: No (USB2E3373)
Strobe/Lamp Enabled: No (USB2E3373)
Correct for Detector Non-linearity: No (USB2E3373)
Correct for Stray Light: No (USB2E3373)
Number of Pixels in Processed Spectrum: 2048
>>>>>Begin Processed Spectral Data<<<<<
178.53	0.000
178.91	0.000
179.29	25.000
179.67	-500.000
180.04	128.571
180.42	200.000
180.80	-300.000
181.18	266.667
181.56	-0.000
181.94	0.000
182.31	700.000
182.69	-40.000
183.07	-166.667
183.45	60.000
183.83	66.667
184.20	-18.182
184.58	88.889
184.96	150.000
185.34	-266.667
185.72	-100.000
186.09	123.077
186.47	-900.000
186.85	83.333
187.23	144.444
187.61	200.000
187.98	-400.000
188.36	88.889
188.74	-33.333
189.12	47.059
189.49	16.667
189.87	0.000
190.25	57.143
190.63	50.000
191.00	-233.333
191.38	10.526
191.76	200.000
192.14	275.000
192.51	300.000
192.89	-133.333
193.27	-85.714
193.65	100.000
194.02	81.818
194.40	-10.000
194.78	0.000
195.15	-16.667
195.53	-75.000
195.91	75.000
196.29	-150.000
196.66	92.308
197.04	128.571
197.42	-22.222
197.79	-266.667
198.17	-30.769
198.55	1000.000
198.92	-233.333
199.30	-300.000
199.68	-180.000
200.05	166.667
200.43	0.000
200.81	-66.667
201.18	66.667
201.56	1700.000
201.94	-400.000
202.31	33.333
202.69	-220.000
203.07	125.000
203.44	-200.000
203.82	0.000
204.19	78.571
204.57	-300.000
204.95	50.000
205.32	30.000
205.70	-85.714
206.08	-175.000
206.45	211.111
206.83	57.143
207.20	-100.000
207.58	800.000
207.96	-166.667
208.33	-100.000
208.71	-250.000
209.08	-200.000
209.46	-200.000
209.84	20.000
210.21	-400.000
210.59	28.571
210.96	-66.667
211.34	75.000
211.71	80.000
212.09	14.286
212.46	-1800.000
212.84	0.000
213.22	60.000
213.59	-0.000
213.97	92.308
214.34	27.273
214.72	0.000
215.09	425.000
215.47	-30.769
215.84	-81.818
216.22	-166.667
216.59	-50.000
216.97	400.000
217.34	0.000
217.72	-140.000
218.09	75.000
218.47	162.500
218.84	-600.000
219.22	88.889
219.59	-80.000
219.97	166.667
220.34	75.000
220.72	-42.857
221.09	-100.000
221.47	350.000
221.84	-500.000
222.22	-700.000
222.59	18.182
222.97	0.000
223.34	-66.667
223.72	0.000
224.09	28.571
224.46	21.429
224.84	233.333
225.21	-60.000
225.59	53.333
225.96	-300.000
226.34	100.000
226.71	-28.571
227.08	-133.333
227.46	0.000
227.83	-700.000
228.21	-55.556
228.58	0.000
228.95	-37.500
229.33	100.000
229.70	0.000
230.08	-100.000
230.45	-14.286
230.82	14.286
231.20	-53.333
231.57	-7.143
231.95	-14.286
232.32	-60.000
232.69	14.286
233.07	-333.333
233.44	0.000
233.81	-90.000
234.19	22.222
234.56	-17.647
234.93	300.000
235.31	-150.000
235.68	-240.000
236.05	-7.692
236.43	-35.000
236.80	-11.765
237.17	21.875
237.55	-65.000
237.92	0.000
238.29	0.000
238.67	-6.667
239.04	32.353
239.41	-7.317
239.79	20.000
240.16	46.341
240.53	23.684
240.91	2.174
241.28	7.937
241.65	10.714
242.02	38.356
242.40	13.333
242.77	27.119
243.14	19.697
243.51	22.500
243.89	35.632
244.26	18.391
244.63	4.762
245.00	23.711
245.38	10.309
245.75	11.236
246.12	13.793
246.49	29.752
246.87	25.000
247.24	9.244
247.61	21.930
247.98	20.325
248.36	18.750
248.73	19.079
249.10	16.883
249.47	22.785
249.84	22.876
250.22	24.706
250.59	15.033
250.96	24.883
251.33	16.279
251.70	17.647
252.08	22.843
252.45	16.832
252.82	21.106
253.19	18.894
253.56	18.692
253.94	21.622
254.31	21.739
254.68	23.246
255.05	18.504
255.42	19.214
255.79	21.622
256.16	25.292
256.54	20.149
256.91	20.532
257.28	20.074
257.65	16.479
258.02	22.340
258.39	22.896
258.76	26.374
259.14	22.591
259.51	21.036
259.88	21.649
260.25	19.608
260.62	26.042
260.99	22.034
261.36	18.151
261.73	21.203
262.10	19.149
262.47	22.699
262.85	19.122
263.22	21.231
263.59	24.922
263.96	21.429
264.33	20.909
264.70	19.345
265.07	18.155
265.44	23.229
265.81	20.339
266.18	21.311
266.55	20.308
266.92	21.762
267.29	21.671
267.66	21.739
268.03	22.251
268.40	19.060
268.77	20.588
269.14	21.103
269.51	20.566
269.88	18.703
270.25	19.133
270.62	21.463
270.99	20.205
271.36	18.826
271.73	22.535
272.10	20.438
272.47	21.749
272.84	21.287
273.21	22.970
273.58	23.133
273.95	22.197
274.32	18.938
274.69	21.267
275.06	22.321
275.43	20.408
275.80	21.192
276.17	22.759
276.54	20.771
276.91	20.614
277.28	21.834
277.65	20.661
278.02	23.191
278.39	22.101
278.76	20.545
279.13	17.842
279.50	20.168
279.87	22.030
280.23	19.140
280.60	24.366
280.97	21.212
281.34	21.154
281.71	21.150
282.08	20.859
282.45	17.417
282.82	18.726
283.19	21.663
283.56	21.195
283.92	19.165
284.29	18.846
284.66	17.054
285.03	20.432
285.40	19.093
285.77	17.399
286.14	20.758
286.51	22.140
286.87	18.464
287.24	18.969
287.61	19.048
287.98	20.351
288.35	20.797
288.72	19.615
289.08	18.229
289.45	17.926
289.82	19.755
290.19	17.406
290.56	18.868
290.93	19.865
291.29	16.179
291.66	17.795
292.03	16.427
292.40	17.581
292.77	16.268
293.13	15.097
293.50	17.147
293.87	16.031
294.24	17.156
294.60	15.350
294.97	15.923
295.34	17.331
295.71	15.201
296.08	15.396
296.44	13.371
296.81	16.806
297.18	15.797
297.55	16.396
297.91	15.342
298.28	15.963
298.65	16.282
299.02	15.903
299.38	14.227
299.75	15.586
300.12	14.791
300.48	14.888
300.85	14.449
301.22	14.935
301.59	13.947
301.95	15.823
302.32	14.786
302.69	14.179
303.05	13.614
303.42	14.321
303.79	15.888
304.15	15.771
304.52	14.031
304.89	13.333
305.25	13.680
305.62	14.002
305.99	14.152
306.35	14.798
306.72	12.823
307.09	14.481
307.45	12.629
307.82	13.889
308.19	14.750
308.55	14.395
308.92	15.468
309.29	14.749
309.65	15.285
310.02	14.741
310.38	13.831
310.75	15.519
311.12	13.563
311.48	14.740
311.85	14.241
312.22	14.241
312.58	15.074
312.95	14.088
313.31	14.907
313.68	14.660
314.05	15.612
314.41	16.907
314.78	16.495
315.14	17.163
315.51	15.839
315.87	15.369
316.24	17.290
316.61	16.634
316.97	17.361
317.34	17.188
317.70	16.539
318.07	18.269
318.43	18.627
318.80	17.898
319.16	18.066
319.53	20.798
319.89	19.488
320.26	19.433
320.62	20.461
320.99	18.998
321.35	19.938
321.72	20.976
322.08	21.551
322.45	23.553
322.81	22.593
323.18	24.632
323.54	23.938
323.91	23.564
324.27	25.391
324.64	26.404
325.00	27.828
325.37	29.201
325.73	28.649
326.10	29.609
326.46	30.583
326.83	31.496
327.19	31.735
327.56	33.623
327.92	33.627
328.29	32.589
328.65	35.094
329.01	34.926
329.38	35.853
329.74	35.788
330.11	37.349
330.47	36.178
330.84	37.692
331.20	39.924
331.56	38.426
331.93	40.731
332.29	40.972
332.66	40.181
333.02	40.892
333.38	40.605
333.75	41.484
334.11	41.629
334.48	42.974
334.84	41.575
335.20	41.995
335.57	41.070
335.93	42.457
336.29	44.015
336.66	42.325
337.02	43.494
337.38	42.130
337.75	41.273
338.11	43.733
338.47	43.613
338.84	44.270
339.20	43.419
339.56	43.853
339.93	42.346
340.29	44.862
340.65	43.907
341.02	44.149
341.38	42.920
341.74	43.375
342.11	42.461
342.47	42.972
342.83	42.474
343.20	43.554
343.56	43.739
343.92	44.907
344.28	44.492
344.65	43.610
345.01	43.388
345.37	43.482
345.73	43.180
346.10	46.160
346.46	44.155
346.82	43.453
347.19	44.223
347.55	44.277
347.91	45.712
348.27	44.624
348.63	44.974
349.00	45.201
349.36	43.890
349.72	44.693
350.08	43.525
350.45	44.294
350.81	44.352
351.17	45.195
351.53	45.143
351.89	43.683
352.26	43.280
352.62	43.710
352.98	43.373
353.34	44.042
353.70	44.903
354.07	44.516
354.43	43.955
354.79	44.426
355.15	45.159
355.51	44.858
355.87	45.712
356.24	44.780
356.60	44.705
356.96	45.794
357.32	45.607
357.68	44.644
358.04	44.669
358.40	46.463
358.77	45.694
359.13	45.957
359.49	45.455
359.85	46.490
360.21	46.491
360.57	45.524
360.93	46.067
361.29	45.619
361.66	46.473
362.02	47.273
362.38	48.515
362.74	47.464
363.10	47.404
363.46	46.405
363.82	48.009
364.18	46.125
364.54	46.103
364.90	47.384
365.26	48.836
365.62	49.124
365.98	47.507
366.35	49.964
366.71	48.485
367.07	49.057
367.43	49.676
367.79	48.057
368.15	48.959
368.51	49.818
368.87	48.385
369.23	50.253
369.59	48.688
369.95	50.880
370.31	50.145
370.67	50.373
371.03	49.813
371.39	49.745
371.75	49.963
372.11	50.856
372.47	50.370
372.83	51.952
373.19	49.786
373.55	50.397
373.91	51.548
374.27	52.445
374.63	52.907
374.99	53.121
375.35	53.273
375.71	53.287
376.07	52.247
376.42	53.197
376.78	54.027
377.14	53.758
377.50	53.586
377.86	53.748
378.22	54.499
378.58	53.910
378.94	53.749
379.30	54.959
379.66	55.110
380.02	54.323
380.38	55.386
380.74	54.758
381.09	56.810
381.45	55.963
381.81	56.508
382.17	57.678
382.53	56.090
382.89	58.255
383.25	58.743
383.61	58.476
383.97	57.524
384.32	57.223
384.68	58.824
385.04	57.598
385.40	57.001
385.76	59.686
386.12	60.867
386.48	59.898
386.83	58.148
387.19	59.158
387.55	59.975
387.91	60.024
388.27	60.195
388.62	61.863
388.98	60.221
389.34	60.650
389.70	60.659
390.06	60.919
390.42	62.694
390.77	62.198
391.13	61.349
391.49	61.708
391.85	61.274
392.20	60.515
392.56	61.538
392.92	62.067
393.28	62.972
393.64	61.441
393.99	62.445
394.35	62.239
394.71	62.835
395.07	61.911
395.42	62.295
395.78	63.453
396.14	62.926
396.50	62.968
396.85	63.361
397.21	62.719
397.57	63.636
397.92	62.313
398.28	63.391
398.64	61.446
399.00	63.093
399.35	61.400
399.71	61.114
400.07	63.301
400.42	62.668
400.78	62.278
401.14	63.097
401.49	63.311
401.85	62.157
402.21	62.831
402.57	62.875
402.92	62.673
403.28	62.907
403.63	64.691
403.99	62.946
404.35	63.335
404.70	62.500
405.06	61.751
405.42	61.218
405.77	62.754
406.13	62.107
406.49	62.226
406.84	62.714
407.20	64.238
407.55	62.524
407.91	63.703
408.27	62.970
408.62	63.754
408.98	62.970
409.34	62.763
409.69	62.726
410.05	62.007
410.40	63.025
410.76	63.691
411.11	63.000
411.47	62.459
411.83	62.021
412.18	62.806
412.54	61.361
412.89	62.069
413.25	62.696
413.60	63.106
413.96	62.945
414.31	63.049
414.67	60.936
415.03	61.119
415.38	62.533
415.74	62.932
416.09	62.116
416.45	62.053
416.80	63.054
417.16	63.536
417.51	62.958
417.87	62.907
418.22	63.795
418.58	63.813
418.93	64.890
419.29	62.932
419.64	64.096
420.00	64.610
420.35	61.851
420.71	63.852
421.06	63.352
421.42	64.423
421.77	64.451
422.12	64.529
422.48	64.754
422.83	63.747
423.19	64.221
423.54	63.786
423.90	64.664
424.25	65.270
424.61	64.443
424.96	63.473
425.31	66.609
425.67	65.376
426.02	65.607
426.38	65.874
426.73	67.131
427.09	67.215
427.44	66.000
427.79	67.060
428.15	65.959
428.50	66.323
428.85	64.681
429.21	65.535
429.56	66.253
429.92	65.126
430.27	64.612
430.62	66.806
430.98	66.401
431.33	66.772
431.68	65.672
432.04	66.685
432.39	65.374
432.74	66.266
433.10	66.494
433.45	67.204
433.80	68.021
434.16	68.033
434.51	68.387
434.86	68.002
435.22	66.741
435.57	68.933
435.92	67.246
436.28	67.144
436.63	68.169
436.98	67.729
437.34	67.695
437.69	69.171
438.04	68.319
438.39	67.746
438.75	68.913
439.10	68.081
439.45	69.020
439.81	67.217
440.16	69.240
440.51	68.060
440.86	70.634
441.22	69.005
441.57	68.598
441.92	69.990
442.27	70.288
442.63	69.861
442.98	69.443
443.33	69.171
443.68	68.435
444.03	69.051
444.39	69.110
444.74	70.680
445.09	69.321
445.44	69.288
445.79	70.861
446.15	68.227
446.50	68.663
446.85	69.660
447.20	69.447
447.55	70.815
447.91	69.882
448.26	69.778
448.61	69.315
448.96	70.166
449.31	69.306
449.66	69.222
450.02	69.424
450.37	69.828
450.72	68.614
451.07	69.873
451.42	68.976
451.77	70.223
452.12	67.823
452.47	69.607
452.83	69.670
453.18	69.386
453.53	71.681
453.88	69.945
454.23	68.900
454.58	70.277
454.93	70.168
455.28	69.270
455.63	71.544
455.98	69.814
456.34	70.307
456.69	69.314
457.04	70.762
457.39	70.474
457.74	70.556
458.09	68.570
458.44	70.275
458.79	70.140
459.14	71.110
459.49	70.507
459.84	70.276
460.19	70.328
460.54	70.171
460.89	72.216
461.24	70.683
461.59	69.121
461.94	68.679
462.29	70.688
462.64	71.096
462.99	69.601
463.34	70.376
463.69	70.399
464.04	69.189
464.39	70.285
464.74	69.202
465.09	70.992
465.44	70.860
465.79	68.311
466.14	70.296
466.49	68.373
466.84	71.148
467.19	71.151
467.54	69.604
467.89	70.246
468.24	69.526
468.59	71.556
468.94	69.524
469.29	70.951
469.64	69.310
469.99	72.320
470.34	69.147
470.68	71.588
471.03	70.913
471.38	71.541
471.73	71.218
472.08	69.199
472.43	72.282
472.78	70.733
473.13	71.633
473.48	70.879
473.83	69.676
474.17	70.855
474.52	69.815
474.87	70.848
475.22	69.189
475.57	70.864
475.92	70.817
476.27	70.081
476.61	70.370
476.96	69.269
477.31	69.389
477.66	69.494
478.01	69.512
478.36	70.044
478.70	70.256
479.05	70.330
479.40	70.694
479.75	68.978
480.10	69.227
480.45	69.500
480.79	70.896
481.14	71.158
481.49	69.606
481.84	70.849
482.19	69.364
482.53	70.887
482.88	69.069
483.23	68.618
483.58	69.340
483.92	69.990
484.27	69.006
484.62	70.641
484.97	68.491
485.31	68.280
485.66	67.813
486.01	68.709
486.36	68.353
486.70	69.459
487.05	70.047
487.40	68.769
487.75	68.225
488.09	68.387
488.44	67.916
488.79	68.771
489.13	69.631
489.48	69.859
489.83	69.552
490.17	69.348
490.52	69.607
490.87	68.255
491.22	70.057
491.56	70.304
491.91	69.312
492.26	71.317
492.60	68.666
492.95	70.044
493.30	69.761
493.64	70.580
493.99	69.662
494.34	68.301
494.68	69.476
495.03	69.294
495.37	70.314
495.72	70.974
496.07	71.220
496.41	69.528
496.76	70.474
497.11	69.306
497.45	70.167
497.80	70.383
498.14	69.498
498.49	70.747
498.84	69.062
499.18	71.285
499.53	70.040
499.87	69.796
500.22	69.436
500.56	71.256
500.91	69.880
501.26	69.698
501.60	70.192
501.95	69.966
502.29	69.492
502.64	69.884
502.98	69.117
503.33	69.212
503.67	69.108
504.02	70.919
504.36	69.916
504.71	68.434
505.06	68.546
505.40	69.797
505.75	70.412
506.09	69.235
506.44	71.201
506.78	70.000
507.13	70.424
507.47	69.295
507.82	70.139
508.16	70.787
508.51	70.462
508.85	70.068
509.19	70.782
509.54	69.437
509.88	70.982
510.23	71.221
510.57	71.245
510.92	69.190
511.26	70.486
511.61	70.792
511.95	70.411
512.30	70.011
512.64	69.393
512.98	69.118
513.33	71.740
513.67	70.495
514.02	72.025
514.36	71.257
514.70	71.853
515.05	71.269
515.39	72.078
515.74	72.455
516.08	71.429
516.42	72.556
516.77	70.626
517.11	72.582
517.46	71.873
517.80	70.918
518.14	72.076
518.49	71.514
518.83	72.479
519.17	70.467
519.52	70.930
519.86	71.729
520.20	71.689
520.55	70.982
520.89	72.773
521.23	69.981
521.58	72.934
521.92	73.077
522.26	71.698
522.61	72.403
522.95	73.510
523.29	72.490
523.64	71.283
523.98	73.428
524.32	72.552
524.66	73.880
525.01	72.338
525.35	71.225
525.69	72.189
526.04	71.429
526.38	73.411
526.72	70.111
527.06	71.595
527.41	71.966
527.75	72.185
528.09	71.561
528.43	72.789
528.78	72.475
529.12	72.387
529.46	71.995
529.80	72.388
530.15	72.541
530.49	73.603
530.83	72.230
531.17	71.525
531.51	73.119
531.86	72.536
532.20	72.999
532.54	72.294
532.88	73.785
533.22	71.169
533.57	71.429
533.91	72.585
534.25	73.112
534.59	71.648
534.93	71.806
535.27	72.081
535.62	71.679
535.96	72.603
536.30	72.361
536.64	72.088
536.98	70.941
537.32	73.186
537.66	72.090
538.01	73.077
538.35	72.816
538.69	72.170
539.03	70.882
539.37	71.602
539.71	71.097
540.05	71.623
540.39	71.953
540.73	72.315
541.07	71.685
541.42	71.505
541.76	72.953
542.10	71.232
542.44	74.010
542.78	70.200
543.12	72.321
543.46	70.376
543.80	72.033
544.14	71.696
544.48	71.019
544.82	71.702
545.16	71.585
545.50	71.295
545.84	71.742
546.18	72.057
546.52	71.377
546.86	71.172
547.20	72.389
547.54	71.307
547.88	70.856
548.22	70.414
548.56	70.185
548.90	73.383
549.24	70.523
549.58	71.439
549.92	70.050
550.26	71.355
550.60	72.119
550.94	72.517
551.28	72.952
551.62	73.154
551.96	72.105
552.30	72.515
552.64	72.144
552.98	71.167
553.32	70.185
553.66	71.916
554.00	71.314
554.34	73.634
554.68	70.280
555.02	72.173
555.36	72.625
555.69	71.575
556.03	71.806
556.37	71.601
556.71	72.924
557.05	73.005
557.39	70.037
557.73	72.264
558.07	73.002
558.41	73.124
558.75	71.785
559.08	71.237
559.42	71.984
559.76	73.659
560.10	72.783
560.44	71.780
560.78	71.119
561.12	72.567
561.45	73.788
561.79	73.669
562.13	74.521
562.47	72.086
562.81	72.767
563.15	72.214
563.48	74.045
563.82	71.997
564.16	72.632
564.50	71.622
564.84	72.490
565.17	72.837
565.51	72.336
565.85	72.702
566.19	73.276
566.52	73.861
566.86	71.787
567.20	71.731
567.54	73.905
567.88	73.462
568.21	72.511
568.55	72.935
568.89	71.766
569.23	72.412
569.56	70.665
569.90	71.579
570.24	69.222
570.57	72.691
570.91	71.802
571.25	70.207
571.59	69.106
571.92	68.859
572.26	69.807
572.60	69.147
572.93	69.532
573.27	69.216
573.61	69.451
573.95	70.016
574.28	69.015
574.62	69.413
574.96	68.561
575.29	68.778
575.63	67.815
575.97	66.820
576.30	68.204
576.64	67.629
576.98	69.395
577.31	68.739
577.65	68.968
577.98	68.301
578.32	68.029
578.66	67.333
578.99	67.852
579.33	67.774
579.67	67.651
580.00	68.000
580.34	68.632
580.67	68.225
581.01	68.636
581.35	68.432
581.68	67.979
582.02	68.178
582.35	68.097
582.69	68.504
583.02	68.938
583.36	67.944
583.70	69.704
584.03	69.864
584.37	69.537
584.70	68.846
585.04	68.031
585.37	68.600
585.71	69.020
586.04	68.533
586.38	68.338
586.72	69.670
587.05	69.728
587.39	69.528
587.72	70.148
588.06	68.226
588.39	69.809
588.73	69.017
589.06	70.613
589.40	68.890
589.73	69.806
590.07	70.808
590.40	71.285
590.73	71.664
591.07	69.338
591.40	69.858
591.74	71.719
592.07	72.171
592.41	69.700
592.74	70.251
593.08	68.634
593.41	69.918
593.75	69.218
594.08	69.379
594.41	70.051
594.75	70.229
595.08	70.261
595.42	69.967
595.75	70.259
596.09	70.837
596.42	70.566
596.75	70.337
597.09	69.977
597.42	70.641
597.75	70.957
598.09	70.213
598.42	69.856
598.76	70.227
599.09	68.590
599.42	68.776
599.76	69.827
600.09	70.437
600.42	69.409
600.76	69.354
601.09	69.733
601.42	69.800
601.76	69.234
602.09	71.040
602.42	70.472
602.76	70.331
603.09	70.390
603.42	72.241
603.76	70.242
604.09	70.676
604.42	70.431
604.76	70.672
605.09	71.024
605.42	70.113
605.75	70.534
606.09	70.318
606.42	70.225
606.75	70.043
607.09	70.462
607.42	69.030
607.75	69.361
608.08	68.823
608.42	68.844
608.75	70.410
609.08	71.749
609.41	71.066
609.75	70.111
610.08	71.842
610.41	69.855
610.74	70.892
611.07	72.661
611.41	71.354
611.74	72.548
612.07	70.824
612.40	72.210
612.73	72.090
613.07	71.654
613.40	71.608
613.73	71.908
614.06	70.729
614.39	71.799
614.72	70.812
615.06	71.173
615.39	69.323
615.72	69.914
616.05	70.726
616.38	69.117
616.71	71.560
617.05	72.329
617.38	72.030
617.71	71.321
618.04	72.635
618.37	73.897
618.70	74.125
619.03	73.958
619.36	71.997
619.69	74.602
620.03	74.288
620.36	72.103
620.69	72.377
621.02	71.560
621.35	75.187
621.68	74.575
622.01	74.083
622.34	72.386
622.67	74.132
623.00	73.354
623.33	72.256
623.66	72.625
623.99	72.012
624.32	73.460
624.65	72.632
624.99	74.944
625.32	73.692
625.65	73.841
625.98	75.181
626.31	72.818
626.64	75.563
626.97	74.520
627.30	74.168
627.63	75.043
627.96	73.854
628.29	73.080
628.62	76.794
628.95	73.848
629.28	77.016
629.61	75.374
629.94	75.367
630.26	75.593
630.59	77.940
630.92	74.256
631.25	71.795
631.58	76.211
631.91	76.535
632.24	75.459
632.57	76.250
632.90	76.157
633.23	73.647
633.56	77.708
633.89	75.586
