SpectraSuite Data File
++++++++++++++++++++++++++++++++++++
Date: Fri May 15 17:17:11 PDT 2015
User: schluterlab
Dark Spectrum Present: Yes
Reference Spectrum Present: Yes
Number of Sampled Component Spectra: 1
Spectrometers: USB2E3373
Integration Time (usec): 3000 (USB2E3373)
Spectra Averaged: 3 (USB2E3373)
Boxcar Smoothing: 0 (USB2E3373)
Correct for Electrical Dark: No (USB2E3373)
Strobe/Lamp Enabled: No (USB2E3373)
Correct for Detector Non-linearity: No (USB2E3373)
Correct for Stray Light: No (USB2E3373)
Number of Pixels in Processed Spectrum: 2048
>>>>>Begin Processed Spectral Data<<<<<
178.53	0.000
178.91	0.000
179.29	137.500
179.67	-150.000
180.04	-28.571
180.42	125.000
180.80	1000.000
181.18	-133.333
181.56	50.000
181.94	350.000
182.31	400.000
182.69	180.000
183.07	0.000
183.45	20.000
183.83	50.000
184.20	63.636
184.58	22.222
184.96	100.000
185.34	-433.333
185.72	400.000
186.09	107.692
186.47	200.000
186.85	-0.000
187.23	11.111
187.61	-700.000
187.98	100.000
188.36	166.667
188.74	366.667
189.12	35.294
189.49	83.333
189.87	0.000
190.25	100.000
190.63	900.000
191.00	33.333
191.38	21.053
191.76	650.000
192.14	-375.000
192.51	400.000
192.89	-22.222
193.27	71.429
193.65	216.667
194.02	54.545
194.40	120.000
194.78	-50.000
195.15	91.667
195.53	25.000
195.91	100.000
196.29	-25.000
196.66	30.769
197.04	85.714
197.42	33.333
197.79	-100.000
198.17	-30.769
198.55	-400.000
198.92	0.000
199.30	1300.000
199.68	180.000
200.05	-133.333
200.43	0.000
200.81	233.333
201.18	0.000
201.56	500.000
201.94	150.000
202.31	-300.000
202.69	0.000
203.07	75.000
203.44	1100.000
203.82	0.000
204.19	107.143
204.57	-133.333
204.95	-112.500
205.32	90.000
205.70	100.000
206.08	250.000
206.45	300.000
206.83	135.714
207.20	42.857
207.58	-300.000
207.96	100.000
208.33	50.000
208.71	50.000
209.08	-150.000
209.46	900.000
209.84	100.000
210.21	-200.000
210.59	157.143
210.96	0.000
211.34	175.000
211.71	80.000
212.09	-71.429
212.46	-1300.000
212.84	0.000
213.22	120.000
213.59	-50.000
213.97	15.385
214.34	90.909
214.72	-66.667
215.09	200.000
215.47	46.154
215.84	27.273
216.22	-166.667
216.59	87.500
216.97	600.000
217.34	125.000
217.72	-20.000
218.09	100.000
218.47	75.000
218.84	800.000
219.22	44.444
219.59	140.000
219.97	-133.333
220.34	-25.000
220.72	142.857
221.09	-25.000
221.47	-50.000
221.84	-100.000
222.22	-200.000
222.59	136.364
222.97	108.333
223.34	200.000
223.72	57.143
224.09	23.810
224.46	64.286
224.84	266.667
225.21	30.000
225.59	66.667
225.96	200.000
226.34	-0.000
226.71	42.857
227.08	-100.000
227.46	12.500
227.83	-150.000
228.21	100.000
228.58	90.909
228.95	25.000
229.33	30.000
229.70	50.000
230.08	37.500
230.45	-85.714
230.82	42.857
231.20	-33.333
231.57	78.571
231.95	114.286
232.32	20.000
232.69	64.286
233.07	233.333
233.44	80.000
233.81	40.000
234.19	77.778
234.56	52.941
234.93	450.000
235.31	425.000
235.68	-200.000
236.05	7.692
236.43	5.000
236.80	17.647
237.17	62.500
237.55	20.000
237.92	14.815
238.29	52.778
238.67	50.000
239.04	17.647
239.41	17.073
239.79	10.000
240.16	43.902
240.53	42.105
240.91	-4.348
241.28	15.873
241.65	10.714
242.02	39.726
242.40	28.333
242.77	15.254
243.14	7.576
243.51	16.250
243.89	16.092
244.26	11.494
244.63	10.714
245.00	13.402
245.38	19.588
245.75	11.236
246.12	15.517
246.49	18.182
246.87	22.115
247.24	5.882
247.61	21.053
247.98	15.447
248.36	16.250
248.73	19.079
249.10	15.584
249.47	15.823
249.84	22.222
250.22	20.588
250.59	24.183
250.96	21.596
251.33	15.116
251.70	22.941
252.08	14.721
252.45	14.356
252.82	19.598
253.19	17.051
253.56	15.421
253.94	17.117
254.31	20.870
254.68	22.807
255.05	15.748
255.42	18.777
255.79	15.444
256.16	16.732
256.54	19.776
256.91	14.449
257.28	17.100
257.65	13.483
258.02	18.440
258.39	17.508
258.76	19.414
259.14	18.937
259.51	18.123
259.88	17.182
260.25	17.974
260.62	17.708
260.99	12.203
261.36	14.041
261.73	15.823
262.10	17.325
262.47	17.178
262.85	15.987
263.22	14.154
263.59	16.822
263.96	19.876
264.33	17.273
264.70	15.774
265.07	14.881
265.44	18.130
265.81	16.384
266.18	17.486
266.55	19.023
266.92	17.876
267.29	19.060
267.66	18.926
268.03	19.372
268.40	17.755
268.77	21.123
269.14	16.067
269.51	17.995
269.88	15.461
270.25	15.051
270.62	15.854
270.99	17.136
271.36	17.359
271.73	17.840
272.10	18.735
272.47	17.494
272.84	13.119
273.21	18.561
273.58	18.313
273.95	16.247
274.32	16.397
274.69	18.100
275.06	17.411
275.43	17.914
275.80	16.336
276.17	16.552
276.54	18.201
276.91	16.886
277.28	16.812
277.65	16.529
278.02	15.745
278.39	14.661
278.76	16.352
279.13	16.805
279.50	18.487
279.87	18.575
280.23	17.419
280.60	18.129
280.97	16.768
281.34	15.385
281.71	17.864
282.08	16.155
282.45	14.090
282.82	14.672
283.19	16.634
283.56	14.644
283.92	13.472
284.29	15.385
284.66	17.248
285.03	18.075
285.40	15.879
285.77	15.466
286.14	15.343
286.51	16.605
286.87	14.625
287.24	16.390
287.61	13.757
287.98	18.070
288.35	14.731
288.72	16.287
289.08	14.410
289.45	15.641
289.82	15.734
290.19	14.676
290.56	13.036
290.93	13.131
291.29	14.022
291.66	15.591
292.03	12.440
292.40	13.065
292.77	13.078
293.13	10.552
293.50	12.291
293.87	12.977
294.24	13.292
294.60	12.668
294.97	13.839
295.34	11.043
295.71	12.072
296.08	12.855
296.44	10.669
296.81	12.083
297.18	11.304
297.55	15.989
297.91	11.096
298.28	13.720
298.65	11.669
299.02	11.725
299.38	10.534
299.75	11.862
300.12	11.780
300.48	12.780
300.85	12.167
301.22	11.558
301.59	10.000
301.95	12.278
302.32	12.711
302.69	12.065
303.05	12.376
303.42	11.706
303.79	11.799
304.15	10.753
304.52	9.631
304.89	9.591
305.25	12.228
305.62	9.802
305.99	10.877
306.35	11.329
306.72	9.674
307.09	12.543
307.45	11.481
307.82	10.880
308.19	12.079
308.55	10.251
308.92	11.438
309.29	9.944
309.65	10.657
310.02	10.451
310.38	11.087
310.75	10.164
311.12	9.580
311.48	10.180
311.85	10.366
312.22	9.705
312.58	10.191
312.95	9.072
313.31	10.455
313.68	10.576
314.05	10.102
314.41	10.722
314.78	10.000
315.14	11.202
315.51	10.352
315.87	9.426
316.24	11.527
316.61	11.417
316.97	11.310
317.34	10.645
317.70	10.707
318.07	10.192
318.43	10.000
318.80	9.848
319.16	9.961
319.53	11.871
319.89	10.433
320.26	10.425
320.62	12.237
320.99	8.873
321.35	10.072
321.72	10.384
322.08	10.272
322.45	9.949
322.81	11.886
323.18	9.519
323.54	10.618
323.91	10.321
324.27	11.133
324.64	10.581
325.00	11.040
325.37	11.846
325.73	8.885
326.10	10.536
326.46	11.480
326.83	11.636
327.19	9.939
327.56	11.381
327.92	11.796
328.29	10.714
328.65	11.415
329.01	11.121
329.38	10.783
329.74	10.009
330.11	11.677
330.47	9.647
330.84	9.615
331.20	11.882
331.56	9.815
331.93	11.142
332.29	12.466
332.66	9.683
333.02	10.967
333.38	10.724
333.75	10.989
334.11	10.564
334.48	11.786
334.84	11.264
335.20	10.979
335.57	10.245
335.93	10.659
336.29	10.866
336.66	10.899
337.02	10.502
337.38	8.519
337.75	10.545
338.11	10.280
338.47	10.675
338.84	10.906
339.20	9.963
339.56	10.459
339.93	11.996
340.29	8.991
340.65	11.201
341.02	9.929
341.38	10.531
341.74	9.717
342.11	8.579
342.47	11.032
342.83	10.208
343.20	10.366
343.56	9.652
343.92	9.566
344.28	11.358
344.65	9.845
345.01	9.680
345.37	10.261
345.73	9.707
346.10	11.907
346.46	10.597
346.82	10.638
347.19	8.728
347.55	10.526
347.91	10.275
348.27	10.428
348.63	10.477
349.00	10.336
349.36	9.476
349.72	11.111
350.08	11.230
350.45	11.173
350.81	9.302
351.17	10.342
351.53	10.939
351.89	10.157
352.26	10.560
352.62	10.806
352.98	9.157
353.34	10.709
353.70	10.841
354.07	10.081
354.43	9.928
354.79	10.570
355.15	11.905
355.51	10.522
355.87	10.032
356.24	9.217
356.60	9.782
356.96	10.556
357.32	10.304
357.68	10.242
358.04	10.258
358.40	10.129
358.77	10.287
359.13	9.928
359.49	10.169
359.85	9.750
360.21	9.888
360.57	9.793
360.93	9.682
361.29	9.139
361.66	10.031
362.02	10.909
362.38	9.977
362.74	9.160
363.10	10.233
363.46	10.156
363.82	11.044
364.18	10.037
364.54	10.735
364.90	9.606
365.26	9.389
365.62	11.022
365.98	10.484
366.35	10.415
366.71	9.682
367.07	11.103
367.43	10.208
367.79	9.470
368.15	9.763
368.51	10.415
368.87	10.337
369.23	9.747
369.59	9.257
369.95	10.924
370.31	10.260
370.67	9.403
371.03	9.261
371.39	9.190
371.75	10.183
372.11	9.914
372.47	9.911
372.83	10.362
373.19	10.556
373.55	10.253
373.91	10.079
374.27	11.056
374.63	10.553
374.99	10.496
375.35	10.585
375.71	10.140
376.07	11.447
376.42	10.476
376.78	10.336
377.14	9.682
377.50	10.624
377.86	10.910
378.22	10.913
378.58	9.744
378.94	10.334
379.30	10.730
379.66	11.348
380.02	10.852
380.38	9.982
380.74	9.994
381.09	10.920
381.45	10.642
381.81	10.981
382.17	9.645
382.53	10.493
382.89	11.111
383.25	11.388
383.61	11.402
383.97	10.603
384.32	11.507
384.68	10.279
385.04	11.152
385.40	10.952
385.76	12.264
386.12	11.061
386.48	10.983
386.83	11.287
387.19	10.867
387.55	12.296
387.91	11.491
388.27	11.233
388.62	11.831
388.98	11.418
389.34	12.305
389.70	12.057
390.06	10.761
390.42	11.399
390.77	11.969
391.13	11.791
391.49	13.195
391.85	12.086
392.20	11.990
392.56	11.825
392.92	12.507
393.28	12.146
393.64	11.952
393.99	13.417
394.35	11.828
394.71	12.708
395.07	12.068
395.42	12.447
395.78	12.899
396.14	13.115
396.50	12.809
396.85	12.363
397.21	12.845
397.57	12.414
397.92	12.882
398.28	12.874
398.64	12.530
399.00	12.980
399.35	12.528
399.71	12.981
400.07	12.817
400.42	12.974
400.78	13.472
401.14	12.644
401.49	13.282
401.85	13.467
402.21	13.976
402.57	13.063
402.92	12.735
403.28	13.596
403.63	12.547
403.99	13.074
404.35	13.991
404.70	13.036
405.06	12.750
405.42	13.176
405.77	12.493
406.13	12.980
406.49	13.381
406.84	13.875
407.20	13.546
407.55	12.685
407.91	12.634
408.27	13.576
408.62	13.538
408.98	14.295
409.34	13.569
409.69	13.437
410.05	13.177
410.40	13.889
410.76	13.571
411.11	13.688
411.47	14.070
411.83	12.994
412.18	13.385
412.54	14.482
412.89	13.485
413.25	14.260
413.60	14.845
413.96	13.804
414.31	13.963
414.67	13.470
415.03	13.915
415.38	13.969
415.74	14.723
416.09	14.827
416.45	13.572
416.80	14.541
417.16	14.641
417.51	14.257
417.87	14.276
418.22	14.249
418.58	14.716
418.93	15.799
419.29	13.636
419.64	14.193
420.00	15.302
420.35	14.507
420.71	14.763
421.06	15.101
421.42	14.603
421.77	15.087
422.12	14.926
422.48	14.889
422.83	14.965
423.19	14.616
423.54	14.286
423.90	15.371
424.25	14.351
424.61	15.728
424.96	15.041
425.31	15.309
425.67	15.552
426.02	15.018
426.38	15.091
426.73	15.133
427.09	16.013
427.44	15.294
427.79	14.850
428.15	16.019
428.50	15.082
428.85	14.742
429.21	15.676
429.56	16.173
429.92	15.152
430.27	15.088
430.62	14.950
430.98	15.764
431.33	15.825
431.68	14.966
432.04	15.484
432.39	15.402
432.74	15.394
433.10	16.264
433.45	15.711
433.80	15.554
434.16	15.568
434.51	15.806
434.86	15.679
435.22	16.433
435.57	16.407
435.92	16.287
436.28	15.564
436.63	15.516
436.98	15.411
437.34	16.031
437.69	16.816
438.04	15.726
438.39	15.699
438.75	15.665
439.10	16.016
439.45	16.372
439.81	16.269
440.16	15.914
440.51	16.896
440.86	17.885
441.22	16.912
441.57	16.446
441.92	16.894
442.27	16.408
442.63	17.131
442.98	16.715
443.33	16.361
443.68	15.862
444.03	17.834
444.39	16.478
444.74	17.057
445.09	17.094
445.44	17.265
445.79	17.999
446.15	15.969
446.50	16.084
446.85	17.163
447.20	16.840
447.55	18.248
447.91	17.315
448.26	17.473
448.61	17.156
448.96	17.097
449.31	16.936
449.66	16.783
450.02	16.942
450.37	17.012
450.72	17.583
451.07	16.772
451.42	17.104
451.77	16.878
452.12	16.926
452.47	16.613
452.83	17.491
453.18	17.774
453.53	18.205
453.88	17.304
454.23	18.316
454.58	17.569
454.93	17.655
455.28	16.698
455.63	18.351
455.98	18.280
456.34	17.752
456.69	17.027
457.04	18.778
457.39	17.436
457.74	17.654
458.09	16.598
458.44	17.613
458.79	17.759
459.14	18.421
459.49	18.567
459.84	17.541
460.19	17.294
460.54	18.521
460.89	17.841
461.24	17.640
461.59	18.230
461.94	17.358
462.29	18.456
462.64	18.272
462.99	17.603
463.34	17.038
463.69	18.211
464.04	17.191
464.39	17.465
464.74	18.405
465.09	17.966
465.44	17.946
465.79	16.950
466.14	18.130
466.49	18.171
466.84	18.084
467.19	19.086
467.54	17.688
467.89	17.941
468.24	18.856
468.59	18.413
468.94	17.587
469.29	18.820
469.64	18.797
469.99	18.711
470.34	17.338
470.68	19.239
471.03	19.462
471.38	17.618
471.73	18.908
472.08	19.267
472.43	17.919
472.78	17.409
473.13	17.823
473.48	18.893
473.83	17.995
474.17	19.430
474.52	18.890
474.87	18.788
475.22	18.548
475.57	18.408
475.92	18.376
476.27	19.499
476.61	18.056
476.96	17.736
477.31	18.983
477.66	18.596
478.01	18.585
478.36	18.573
478.70	19.032
479.05	19.615
479.40	17.859
479.75	18.978
480.10	18.075
480.45	18.200
480.79	18.630
481.14	18.648
481.49	17.882
481.84	18.195
482.19	17.961
482.53	18.609
482.88	18.854
483.23	18.570
483.58	18.491
483.92	18.296
484.27	17.366
484.62	17.974
484.97	18.201
485.31	18.172
485.66	18.135
486.01	17.875
486.36	17.777
486.70	17.315
487.05	17.668
487.40	17.968
487.75	18.225
488.09	17.954
488.44	18.054
488.79	17.968
489.13	18.309
489.48	18.555
489.83	18.475
490.17	17.798
490.52	18.568
490.87	17.584
491.22	18.768
491.56	18.264
491.91	17.782
492.26	18.036
492.60	18.810
492.95	18.642
493.30	17.733
493.64	18.369
493.99	18.164
494.34	18.544
494.68	18.571
495.03	18.102
495.37	18.400
495.72	18.576
496.07	19.268
496.41	18.679
496.76	18.379
497.11	18.491
497.45	18.568
497.80	19.223
498.14	18.679
498.49	18.385
498.84	18.912
499.18	19.127
499.53	18.750
499.87	18.726
500.22	19.041
500.56	18.860
500.91	18.524
501.26	18.586
501.60	18.938
501.95	18.486
502.29	17.918
502.64	18.678
502.98	18.895
503.33	18.300
503.67	18.988
504.02	18.866
504.36	18.852
504.71	18.535
505.06	18.571
505.40	19.492
505.75	19.227
506.09	19.007
506.44	19.713
506.78	20.051
507.13	19.080
507.47	18.695
507.82	19.124
508.16	19.017
508.51	19.780
508.85	18.315
509.19	18.893
509.54	19.303
509.88	18.447
510.23	19.096
510.57	19.188
510.92	18.657
511.26	18.440
511.61	19.252
511.95	19.836
512.30	19.568
512.64	19.866
512.98	18.641
513.33	19.866
513.67	19.557
514.02	19.794
514.36	19.829
514.70	20.105
515.05	20.153
515.39	19.067
515.74	20.299
516.08	19.247
516.42	20.612
516.77	19.836
517.11	20.593
517.46	19.988
517.80	19.905
518.14	19.228
518.49	20.192
518.83	20.231
519.17	19.406
519.52	19.420
519.86	19.568
520.20	20.109
520.55	19.637
520.89	20.326
521.23	19.949
521.58	21.262
521.92	20.641
522.26	20.494
522.61	20.260
522.95	20.795
523.29	20.966
523.64	20.330
523.98	21.517
524.32	20.425
524.66	20.615
525.01	20.974
525.35	20.933
525.69	20.337
526.04	20.437
526.38	20.882
526.72	19.817
527.06	20.558
527.41	20.976
527.75	19.973
528.09	20.797
528.43	21.067
528.78	19.274
529.12	21.419
529.46	20.208
529.80	21.089
530.15	20.660
530.49	20.741
530.83	21.614
531.17	20.685
531.51	21.135
531.86	20.802
532.20	20.459
532.54	21.579
532.88	20.876
533.22	20.968
533.57	21.298
533.91	21.149
534.25	21.354
534.59	20.526
534.93	20.201
535.27	20.812
535.62	20.091
535.96	20.678
536.30	21.306
536.64	21.020
536.98	21.045
537.32	20.982
537.66	21.529
538.01	20.909
538.35	20.042
538.69	21.305
539.03	21.053
539.37	21.063
539.71	19.700
540.05	21.045
540.39	21.884
540.73	20.711
541.07	19.820
541.42	20.833
541.76	21.335
542.10	20.578
542.44	20.292
542.78	20.303
543.12	21.291
543.46	21.001
543.80	21.443
544.14	19.693
544.48	20.653
544.82	21.394
545.16	20.219
545.50	21.896
545.84	20.963
546.18	21.844
546.52	21.629
546.86	20.561
547.20	21.817
547.54	20.212
547.88	21.264
548.22	20.842
548.56	20.646
548.90	20.822
549.24	19.835
549.58	21.439
549.92	20.586
550.26	21.026
550.60	21.859
550.94	21.733
551.28	21.716
551.62	21.846
551.96	20.677
552.30	21.711
552.64	19.817
552.98	20.886
553.32	21.541
553.66	20.972
554.00	21.168
554.34	21.861
554.68	20.944
555.02	21.131
555.36	20.868
555.69	21.026
556.03	21.199
556.37	21.210
556.71	21.444
557.05	20.805
557.39	20.595
557.73	20.915
558.07	21.569
558.41	21.210
558.75	21.044
559.08	21.749
559.42	21.111
559.76	21.457
560.10	21.024
560.44	21.742
560.78	21.678
561.12	20.592
561.45	22.347
561.79	20.658
562.13	21.150
562.47	20.935
562.81	21.902
563.15	21.791
563.48	21.146
563.82	21.414
564.16	22.423
564.50	21.351
564.84	21.151
565.17	20.993
565.51	22.199
565.85	21.879
566.19	21.220
566.52	21.247
566.86	21.594
567.20	20.112
567.54	21.350
567.88	21.734
568.21	21.606
568.55	20.489
568.89	21.817
569.23	21.281
569.56	21.278
569.90	20.625
570.24	20.283
570.57	20.545
570.91	20.704
571.25	20.355
571.59	19.838
571.92	19.674
572.26	20.229
572.60	20.403
572.93	20.050
573.27	19.843
573.61	19.749
573.95	19.743
574.28	19.756
574.62	19.375
574.96	19.920
575.29	19.889
575.63	19.306
575.97	19.517
576.30	19.876
576.64	20.132
576.98	19.717
577.31	20.005
577.65	19.862
577.98	20.034
578.32	19.395
578.66	19.579
578.99	19.537
579.33	19.236
579.67	19.783
580.00	19.797
580.34	19.826
580.67	19.288
581.01	19.909
581.35	19.746
581.68	19.248
582.02	19.527
582.35	19.480
582.69	19.848
583.02	19.312
583.36	19.943
583.70	20.275
584.03	19.989
584.37	20.497
584.70	19.643
585.04	19.715
585.37	20.074
585.71	19.896
586.04	20.121
586.38	19.685
586.72	20.316
587.05	20.393
587.39	20.380
587.72	19.984
588.06	20.343
588.39	20.279
588.73	20.421
589.06	20.320
589.40	19.876
589.73	20.664
590.07	20.657
590.40	20.782
590.73	20.799
591.07	20.611
591.40	20.659
591.74	20.633
592.07	21.058
592.41	21.378
592.74	19.992
593.08	20.014
593.41	20.626
593.75	20.085
594.08	19.773
594.41	20.779
594.75	19.962
595.08	20.166
595.42	20.096
595.75	20.541
596.09	20.641
596.42	21.290
596.75	20.382
597.09	20.638
597.42	20.912
597.75	20.797
598.09	20.688
598.42	20.171
598.76	20.892
599.09	20.313
599.42	19.970
599.76	20.467
600.09	19.721
600.42	20.470
600.76	20.097
601.09	20.458
601.42	19.898
601.76	20.405
602.09	20.668
602.42	20.682
602.76	20.883
603.09	19.975
603.42	21.446
603.76	20.403
604.09	20.292
604.42	20.178
604.76	21.006
605.09	20.704
605.42	20.045
605.75	20.140
606.09	19.830
606.42	19.975
606.75	20.346
607.09	20.659
607.42	20.248
607.75	20.115
608.08	19.811
608.42	19.689
608.75	20.675
609.08	20.279
609.41	20.203
609.75	20.615
610.08	20.270
610.41	20.290
610.74	20.332
611.07	21.137
611.41	20.239
611.74	20.309
612.07	20.717
612.40	20.678
612.73	20.678
613.07	20.304
613.40	20.624
613.73	20.481
614.06	20.868
614.39	20.135
614.72	20.952
615.06	20.838
615.39	19.487
615.72	19.806
616.05	20.056
616.38	19.601
616.71	19.572
617.05	21.309
617.38	20.742
617.71	20.126
618.04	20.952
618.37	21.816
618.70	21.980
619.03	21.875
619.36	20.188
619.69	21.380
620.03	22.060
620.36	20.386
620.69	21.199
621.02	20.260
621.35	21.245
621.68	21.769
622.01	20.667
622.34	21.069
622.67	19.874
623.00	20.521
623.33	20.884
623.66	21.616
623.99	20.424
624.32	21.065
624.65	19.925
624.99	20.467
625.32	20.243
625.65	21.445
625.98	21.354
626.31	20.781
626.64	23.050
626.97	22.949
627.30	21.278
627.63	20.797
627.96	21.563
628.29	20.907
628.62	22.026
628.95	22.244
629.28	20.968
629.61	20.538
629.94	21.994
630.26	19.565
630.59	22.060
630.92	21.744
631.25	20.205
631.58	21.916
631.91	21.711
632.24	21.560
632.57	22.614
632.90	21.827
633.23	22.353
633.56	22.040
633.89	22.072
634.22	21.852
634.55	21.347
634.88	21.584
635.20	19.744
635.53	23.467
