SpectraSuite Data File
++++++++++++++++++++++++++++++++++++
Date: Fri May 15 20:06:54 PDT 2015
User: schluterlab
Dark Spectrum Present: Yes
Reference Spectrum Present: Yes
Number of Sampled Component Spectra: 1
Spectrometers: USB2E3373
Integration Time (usec): 3000 (USB2E3373)
Spectra Averaged: 3 (USB2E3373)
Boxcar Smoothing: 0 (USB2E3373)
Correct for Electrical Dark: No (USB2E3373)
Strobe/Lamp Enabled: No (USB2E3373)
Correct for Detector Non-linearity: No (USB2E3373)
Correct for Stray Light: No (USB2E3373)
Number of Pixels in Processed Spectrum: 2048
>>>>>Begin Processed Spectral Data<<<<<
178.53	0.000
178.91	0.000
179.29	75.000
179.67	-300.000
180.04	-100.000
180.42	150.000
180.80	800.000
181.18	33.333
181.56	400.000
181.94	-450.000
182.31	600.000
182.69	120.000
183.07	-33.333
183.45	100.000
183.83	133.333
184.20	-45.455
184.58	66.667
184.96	125.000
185.34	266.667
185.72	-200.000
186.09	53.846
186.47	-800.000
186.85	100.000
187.23	44.444
187.61	-300.000
187.98	33.333
188.36	-44.444
188.74	-100.000
189.12	29.412
189.49	-5.556
189.87	0.000
190.25	100.000
190.63	200.000
191.00	100.000
191.38	-10.526
191.76	100.000
192.14	100.000
192.51	-50.000
192.89	11.111
193.27	-128.571
193.65	66.667
194.02	81.818
194.40	80.000
194.78	-25.000
195.15	-8.333
195.53	-25.000
195.91	200.000
196.29	75.000
196.66	100.000
197.04	214.286
197.42	-44.444
197.79	-400.000
198.17	-46.154
198.55	1900.000
198.92	166.667
199.30	-700.000
199.68	-100.000
200.05	-333.333
200.43	0.000
200.81	-66.667
201.18	-33.333
201.56	600.000
201.94	-150.000
202.31	133.333
202.69	-100.000
203.07	175.000
203.44	600.000
203.82	0.000
204.19	85.714
204.57	-566.667
204.95	112.500
205.32	60.000
205.70	-14.286
206.08	25.000
206.45	122.222
206.83	21.429
207.20	-14.286
207.58	-0.000
207.96	0.000
208.33	10.000
208.71	-150.000
209.08	-116.667
209.46	-600.000
209.84	-20.000
210.21	100.000
210.59	42.857
210.96	83.333
211.34	-25.000
211.71	26.667
212.09	-85.714
212.46	-600.000
212.84	0.000
213.22	60.000
213.59	300.000
213.97	123.077
214.34	18.182
214.72	-33.333
215.09	425.000
215.47	-7.692
215.84	-36.364
216.22	-433.333
216.59	-62.500
216.97	500.000
217.34	-50.000
217.72	-240.000
218.09	12.500
218.47	100.000
218.84	100.000
219.22	-133.333
219.59	80.000
219.97	-0.000
220.34	-25.000
220.72	71.429
221.09	-125.000
221.47	-500.000
221.84	-250.000
222.22	-50.000
222.59	36.364
222.97	66.667
223.34	-133.333
223.72	14.286
224.09	4.762
224.46	14.286
224.84	400.000
225.21	0.000
225.59	-20.000
225.96	-50.000
226.34	200.000
226.71	14.286
227.08	-16.667
227.46	12.500
227.83	-250.000
228.21	33.333
228.58	9.091
228.95	0.000
229.33	50.000
229.70	6.250
230.08	0.000
230.45	-42.857
230.82	185.714
231.20	-6.667
231.57	42.857
231.95	128.571
232.32	-150.000
232.69	78.571
233.07	133.333
233.44	20.000
233.81	-80.000
234.19	177.778
234.56	64.706
234.93	250.000
235.31	300.000
235.68	-100.000
236.05	-15.385
236.43	0.000
236.80	52.941
237.17	50.000
237.55	65.000
237.92	70.370
238.29	19.444
238.67	86.667
239.04	47.059
239.41	48.780
239.79	63.333
240.16	70.732
240.53	65.789
240.91	52.174
241.28	41.270
241.65	60.714
242.02	54.795
242.40	56.667
242.77	61.017
243.14	53.030
243.51	56.250
243.89	65.517
244.26	44.828
244.63	54.762
245.00	47.423
245.38	52.577
245.75	51.685
246.12	42.241
246.49	57.851
246.87	59.615
247.24	59.664
247.61	60.526
247.98	65.041
248.36	50.625
248.73	65.132
249.10	57.143
249.47	56.962
249.84	58.170
250.22	53.529
250.59	65.359
250.96	57.746
251.33	52.907
251.70	62.353
252.08	59.898
252.45	52.475
252.82	58.291
253.19	63.134
253.56	58.411
253.94	61.712
254.31	63.043
254.68	63.158
255.05	53.150
255.42	61.135
255.79	55.598
256.16	58.366
256.54	58.955
256.91	58.555
257.28	53.903
257.65	57.678
258.02	60.993
258.39	60.943
258.76	63.370
259.14	58.472
259.51	54.045
259.88	56.701
260.25	56.536
260.62	62.847
260.99	55.254
261.36	59.932
261.73	59.494
262.10	59.574
262.47	57.362
262.85	58.621
263.22	57.231
263.59	60.748
263.96	56.211
264.33	61.212
264.70	60.417
265.07	58.036
265.44	62.040
265.81	62.147
266.18	60.109
266.55	55.784
266.92	60.622
267.29	62.924
267.66	60.614
268.03	60.471
268.40	59.269
268.77	59.893
269.14	57.794
269.51	59.383
269.88	58.603
270.25	56.633
270.62	55.122
270.99	59.079
271.36	56.479
271.73	57.042
272.10	59.854
272.47	60.757
272.84	58.168
273.21	55.220
273.58	56.867
273.95	57.208
274.32	57.275
274.69	53.846
275.06	59.375
275.43	58.050
275.80	57.174
276.17	60.460
276.54	52.677
276.91	57.456
277.28	54.803
277.65	52.893
278.02	54.894
278.39	55.361
278.76	55.975
279.13	51.867
279.50	54.832
279.87	56.156
280.23	55.484
280.60	55.750
280.97	58.990
281.34	55.577
281.71	57.495
282.08	54.601
282.45	54.990
282.82	53.475
283.19	54.739
283.56	53.565
283.92	53.510
284.29	54.423
284.66	52.132
285.03	53.045
285.40	55.198
285.77	52.548
286.14	52.888
286.51	56.458
286.87	49.909
287.24	51.750
287.61	52.381
287.98	54.561
288.35	49.220
288.72	50.788
289.08	51.562
289.45	52.724
289.82	49.825
290.19	47.611
290.56	48.027
290.93	48.148
291.29	46.071
291.66	46.772
292.03	45.295
292.40	49.355
292.77	44.019
293.13	43.182
293.50	43.247
293.87	45.038
294.24	46.059
294.60	43.964
294.97	43.155
295.34	45.552
295.71	44.113
296.08	43.199
296.44	41.110
296.81	39.722
297.18	41.594
297.55	42.547
297.91	40.411
298.28	40.765
298.65	39.620
299.02	40.431
299.38	40.629
299.75	41.931
300.12	39.529
300.48	40.184
300.85	38.910
301.22	38.182
301.59	38.684
301.95	37.848
302.32	40.986
302.69	38.557
303.05	37.995
303.42	37.983
303.79	37.850
304.15	38.112
304.52	37.812
304.89	36.608
305.25	37.651
305.62	36.523
305.99	34.971
306.35	37.457
306.72	35.208
307.09	35.462
307.45	36.280
307.82	34.722
308.19	37.050
308.55	35.224
308.92	35.948
309.29	35.978
309.65	35.199
310.02	37.074
310.38	34.907
310.75	35.738
311.12	35.630
311.48	36.161
311.85	34.346
312.22	35.338
312.58	34.501
312.95	34.045
313.31	34.576
313.68	35.183
314.05	34.388
314.41	34.639
314.78	34.433
315.14	34.327
315.51	34.576
315.87	33.607
316.24	35.086
316.61	33.760
316.97	35.218
317.34	33.789
317.70	33.270
318.07	32.596
318.43	34.510
318.80	32.955
319.16	35.352
319.53	32.764
319.89	32.087
320.26	32.287
320.62	33.400
320.99	31.628
321.35	33.607
321.72	33.229
322.08	33.233
322.45	34.416
322.81	33.694
323.18	33.268
323.54	32.239
323.91	33.009
324.27	33.398
324.64	33.052
325.00	31.934
325.37	33.242
325.73	31.278
326.10	33.787
326.46	32.287
326.83	32.108
327.19	32.694
327.56	33.536
327.92	32.042
328.29	32.679
328.65	32.453
329.01	31.801
329.38	32.903
329.74	32.861
330.11	30.677
330.47	30.241
330.84	31.923
331.20	33.555
331.56	30.278
331.93	32.785
332.29	31.256
332.66	30.950
333.02	30.948
333.38	30.706
333.75	32.326
334.11	30.081
334.48	31.550
334.84	31.136
335.20	31.565
335.57	30.009
335.93	30.262
336.29	30.847
336.66	30.427
337.02	30.112
337.38	29.259
337.75	30.545
338.11	30.478
338.47	30.292
338.84	31.146
339.20	31.170
339.56	30.734
339.93	30.797
340.29	30.367
340.65	31.183
341.02	30.674
341.38	29.558
341.74	29.505
342.11	29.549
342.47	29.537
342.83	29.412
343.20	28.571
343.56	31.043
343.92	30.469
344.28	30.316
344.65	29.965
345.01	30.942
345.37	29.184
345.73	29.707
346.10	30.889
346.46	29.689
346.82	28.396
347.19	29.260
347.55	29.908
347.91	29.612
348.27	28.213
348.63	28.620
349.00	29.122
349.36	29.260
349.72	29.436
350.08	29.754
350.45	29.130
350.81	29.485
351.17	28.583
351.53	28.816
351.89	27.498
352.26	29.040
352.62	29.113
352.98	28.514
353.34	28.180
353.70	29.126
354.07	28.306
354.43	28.503
354.79	27.911
355.15	28.492
355.51	28.165
355.87	28.317
356.24	27.977
356.60	26.839
356.96	28.730
357.32	28.355
357.68	27.600
358.04	28.837
358.40	28.617
358.77	28.788
359.13	28.423
359.49	27.735
359.85	27.847
360.21	28.947
360.57	26.473
360.93	27.458
361.29	26.435
361.66	28.135
362.02	27.652
362.38	28.027
362.74	28.085
363.10	28.668
363.46	28.688
363.82	28.700
364.18	27.897
364.54	27.721
364.90	27.025
365.26	27.220
365.62	28.540
365.98	28.079
366.35	27.240
366.71	28.086
367.07	27.721
367.43	26.671
367.79	27.491
368.15	26.490
368.51	27.458
368.87	26.202
369.23	26.643
369.59	27.624
369.95	28.006
370.31	25.795
370.67	26.418
371.03	27.035
371.39	26.185
371.75	28.278
372.11	25.392
372.47	26.775
372.83	26.828
373.19	27.104
373.55	26.643
373.91	26.854
374.27	27.356
374.63	27.997
374.99	26.879
375.35	26.741
375.71	26.993
376.07	27.037
376.42	26.599
376.78	26.510
377.14	25.863
377.50	25.631
377.86	26.439
378.22	26.228
378.58	26.282
378.94	27.032
379.30	26.138
379.66	26.520
380.02	25.935
380.38	25.746
380.74	25.374
381.09	27.423
381.45	26.728
381.81	26.218
382.17	26.269
382.53	26.858
382.89	25.738
383.25	27.131
383.61	25.793
383.97	25.460
384.32	26.642
384.68	25.635
385.04	25.858
385.40	25.825
385.76	26.792
386.12	27.232
386.48	26.820
386.83	25.301
387.19	26.313
387.55	26.976
387.91	26.222
388.27	25.336
388.62	26.935
388.98	25.046
389.34	26.109
389.70	26.290
390.06	25.551
390.42	25.712
390.77	26.880
391.13	25.032
391.49	25.744
391.85	26.446
392.20	25.989
392.56	25.747
392.92	26.307
393.28	26.592
393.64	25.405
393.99	27.085
394.35	25.490
394.71	26.564
395.07	25.644
395.42	25.015
395.78	25.798
396.14	26.103
396.50	26.443
396.85	26.658
397.21	26.003
397.57	25.329
397.92	26.064
398.28	26.379
398.64	24.940
399.00	26.467
399.35	24.549
399.71	25.790
400.07	26.663
400.42	25.581
400.78	25.842
401.14	25.650
401.49	26.027
401.85	25.472
402.21	25.904
402.57	26.187
402.92	24.969
403.28	26.128
403.63	25.977
403.99	26.339
404.35	25.921
404.70	25.714
405.06	24.912
405.42	25.109
405.77	24.521
406.13	25.087
406.49	24.926
406.84	25.672
407.20	25.948
407.55	25.370
407.91	24.465
408.27	25.494
408.62	26.338
408.98	25.693
409.34	24.597
409.69	24.935
410.05	25.616
410.40	25.309
410.76	25.271
411.11	25.250
411.47	25.444
411.83	24.608
412.18	25.032
412.54	24.782
412.89	25.431
413.25	25.872
413.60	25.280
413.96	26.074
414.31	25.366
414.67	25.337
415.03	24.567
415.38	24.608
415.74	25.668
416.09	26.388
416.45	26.941
416.80	25.843
417.16	25.622
417.51	25.250
417.87	23.924
418.22	25.194
418.58	24.950
418.93	25.705
419.29	24.456
419.64	24.109
420.00	25.882
420.35	25.134
420.71	25.577
421.06	25.046
421.42	25.481
421.77	24.740
422.12	24.745
422.48	25.609
422.83	25.290
423.19	25.451
423.54	24.633
423.90	24.617
424.25	25.660
424.61	25.092
424.96	24.913
425.31	25.592
425.67	25.411
426.02	25.854
426.38	25.986
426.73	25.787
427.09	25.759
427.44	25.294
427.79	25.221
428.15	25.243
428.50	25.197
428.85	25.430
429.21	25.806
429.56	24.744
429.92	25.732
430.27	24.511
430.62	24.569
430.98	24.204
431.33	26.130
431.68	25.536
432.04	24.986
432.39	25.442
432.74	24.354
433.10	25.115
433.45	24.612
433.80	24.898
434.16	24.488
434.51	25.269
434.86	24.913
435.22	24.734
435.57	25.702
435.92	24.251
436.28	24.866
436.63	24.872
436.98	25.087
437.34	24.622
437.69	25.045
438.04	24.957
438.39	24.130
438.75	25.258
439.10	25.071
439.45	24.589
439.81	25.076
440.16	25.416
440.51	25.851
440.86	25.680
441.22	24.604
441.57	24.448
441.92	25.289
442.27	25.554
442.63	25.535
442.98	25.158
443.33	25.264
443.68	24.775
444.03	25.236
444.39	24.102
444.74	25.362
445.09	25.334
445.44	24.672
445.79	26.199
446.15	24.449
446.50	24.903
446.85	25.505
447.20	24.870
447.55	25.725
447.91	23.858
448.26	25.953
448.61	26.022
448.96	25.129
449.31	25.087
449.66	25.029
450.02	24.415
450.37	25.489
450.72	24.742
451.07	24.873
451.42	24.594
451.77	24.834
452.12	24.701
452.47	24.340
452.83	24.617
453.18	25.047
453.53	24.083
453.88	25.501
454.23	24.770
454.58	24.496
454.93	25.322
455.28	23.492
455.63	24.861
455.98	25.917
456.34	25.670
456.69	25.159
457.04	25.205
457.39	25.820
457.74	25.393
458.09	24.603
458.44	24.751
458.79	24.818
459.14	25.114
459.49	25.433
459.84	24.478
460.19	24.636
460.54	25.795
460.89	24.489
461.24	24.099
461.59	25.059
461.94	24.403
462.29	25.090
462.64	24.850
462.99	25.051
463.34	24.200
463.69	24.324
464.04	24.516
464.39	24.924
464.74	25.092
465.09	25.203
465.44	25.793
465.79	23.810
466.14	25.827
466.49	25.244
466.84	25.402
467.19	24.781
467.54	24.713
467.89	24.384
468.24	24.392
468.59	25.016
468.94	24.571
469.29	25.115
469.64	25.290
469.99	25.368
470.34	23.823
470.68	25.205
471.03	25.265
471.38	24.608
471.73	24.230
472.08	23.270
472.43	23.960
472.78	24.263
473.13	24.966
473.48	25.277
473.83	24.408
474.17	25.453
474.52	24.505
474.87	24.424
475.22	24.527
475.57	24.449
475.92	24.739
476.27	25.611
476.61	25.058
476.96	24.038
477.31	24.608
477.66	24.382
478.01	24.649
478.36	24.619
478.70	25.068
479.05	24.176
479.40	24.589
479.75	24.244
480.10	24.117
480.45	24.350
480.79	25.579
481.14	24.385
481.49	24.778
481.84	24.180
482.19	24.556
482.53	24.892
482.88	24.535
483.23	24.472
483.58	24.292
483.92	24.685
484.27	24.157
484.62	24.115
484.97	24.337
485.31	24.386
485.66	24.342
486.01	25.201
486.36	25.054
486.70	25.495
487.05	25.307
487.40	25.414
487.75	25.268
488.09	24.567
488.44	24.656
488.79	25.588
489.13	25.601
489.48	23.942
489.83	24.709
490.17	24.000
490.52	24.388
490.87	24.202
491.22	24.833
491.56	24.431
491.91	23.757
492.26	24.793
492.60	23.560
492.95	24.840
493.30	23.742
493.64	24.705
493.99	23.865
494.34	24.369
494.68	24.619
495.03	23.990
495.37	23.994
495.72	24.331
496.07	23.951
496.41	24.198
496.76	24.182
497.11	24.220
497.45	23.675
497.80	24.470
498.14	23.597
498.49	24.581
498.84	24.052
499.18	24.548
499.53	24.504
499.87	23.492
500.22	23.393
500.56	24.559
500.91	23.946
501.26	23.777
501.60	23.906
501.95	24.454
502.29	25.278
502.64	23.890
502.98	24.371
503.33	23.727
503.67	24.819
504.02	24.291
504.36	24.097
504.71	23.687
505.06	23.704
505.40	24.670
505.75	23.866
506.09	23.720
506.44	24.127
506.78	24.592
507.13	23.992
507.47	23.081
507.82	24.092
508.16	23.719
508.51	23.977
508.85	24.490
509.19	23.417
509.54	24.021
509.88	23.409
510.23	24.314
510.57	23.944
510.92	23.241
511.26	24.277
511.61	24.752
511.95	24.219
512.30	24.335
512.64	24.040
512.98	23.695
513.33	24.622
513.67	24.446
514.02	24.371
514.36	24.229
514.70	24.184
515.05	24.501
515.39	23.731
515.74	24.491
516.08	24.387
516.42	24.735
516.77	23.815
517.11	23.976
517.46	24.057
517.80	23.719
518.14	23.882
518.49	24.099
518.83	23.815
519.17	23.833
519.52	22.913
519.86	23.709
520.20	23.694
520.55	23.139
520.89	24.718
521.23	21.913
521.58	24.353
521.92	23.205
522.26	24.268
522.61	24.091
522.95	24.437
523.29	24.396
523.64	23.825
523.98	24.109
524.32	23.067
524.66	23.880
525.01	23.506
525.35	23.850
525.69	23.367
526.04	23.148
526.38	24.578
526.72	22.498
527.06	23.671
527.41	23.483
527.75	23.257
528.09	23.588
528.43	23.295
528.78	23.762
529.12	24.065
529.46	23.327
529.80	23.813
530.15	23.762
530.49	23.636
530.83	23.803
531.17	23.304
531.51	24.008
531.86	23.114
532.20	23.104
532.54	23.349
532.88	23.751
533.22	22.782
533.57	23.526
533.91	23.695
534.25	24.544
534.59	23.797
534.93	23.726
535.27	23.414
535.62	23.655
535.96	23.810
536.30	24.406
536.64	24.259
536.98	23.484
537.32	23.471
537.66	24.895
538.01	24.476
538.35	23.717
538.69	24.101
539.03	23.513
539.37	23.284
539.71	23.722
540.05	22.607
540.39	24.169
540.73	23.361
541.07	24.033
541.42	23.858
541.76	24.363
542.10	23.400
542.44	23.558
542.78	22.780
543.12	22.940
543.46	23.922
543.80	24.150
544.14	22.897
544.48	24.117
544.82	22.761
545.16	24.249
545.50	24.700
545.84	24.646
546.18	23.759
546.52	23.143
546.86	23.724
547.20	23.677
547.54	23.604
547.88	24.253
548.22	23.669
548.56	24.472
548.90	25.135
549.24	23.760
549.58	23.836
549.92	23.946
550.26	23.736
550.60	23.866
550.94	23.226
551.28	23.261
551.62	24.538
551.96	23.383
552.30	24.342
552.64	23.907
552.98	24.191
553.32	23.823
553.66	24.238
554.00	24.161
554.34	23.781
554.68	23.525
555.02	23.661
555.36	23.111
555.69	23.663
556.03	23.340
556.37	23.345
556.71	23.177
557.05	23.192
557.39	22.230
557.73	23.988
558.07	23.529
558.41	23.354
558.75	22.525
559.08	23.168
559.42	24.048
559.76	22.898
560.10	23.165
560.44	23.232
560.78	23.497
561.12	23.625
561.45	23.963
561.79	23.529
562.13	23.208
562.47	23.165
562.81	23.055
563.15	23.413
563.48	24.045
563.82	24.640
564.16	22.981
564.50	23.176
564.84	23.896
565.17	23.005
565.51	24.454
565.85	23.663
566.19	23.607
566.52	23.794
566.86	24.743
567.20	23.724
567.54	24.209
567.88	25.015
568.21	25.170
568.55	23.587
568.89	24.333
569.23	25.325
569.56	24.606
569.90	25.944
570.24	24.749
570.57	24.582
570.91	25.270
571.25	24.400
571.59	24.977
571.92	24.385
572.26	24.728
572.60	25.271
572.93	24.694
573.27	24.608
573.61	24.851
573.95	25.014
574.28	24.576
574.62	24.460
574.96	24.931
575.29	24.331
575.63	24.566
575.97	24.397
576.30	25.499
576.64	24.450
576.98	25.097
577.31	25.338
577.65	25.000
577.98	25.000
578.32	24.713
578.66	24.522
578.99	24.661
579.33	24.632
579.67	24.678
580.00	25.190
580.34	24.900
580.67	24.753
581.01	24.712
581.35	25.022
581.68	24.483
582.02	25.307
582.35	25.404
582.69	25.302
583.02	25.315
583.36	25.432
583.70	25.312
584.03	25.966
584.37	25.776
584.70	25.055
585.04	24.016
585.37	24.619
585.71	25.253
586.04	25.139
586.38	24.727
586.72	24.792
587.05	25.823
587.39	25.217
587.72	25.150
588.06	24.799
588.39	24.779
588.73	25.549
589.06	25.277
589.40	25.164
589.73	25.265
590.07	25.189
590.40	25.000
590.73	26.400
591.07	25.615
591.40	24.844
591.74	24.796
592.07	24.768
592.41	24.912
592.74	25.368
593.08	24.275
593.41	25.305
593.75	24.828
594.08	24.614
594.41	24.636
594.75	25.038
595.08	24.972
595.42	24.365
595.75	24.596
596.09	24.902
596.42	24.721
596.75	25.400
597.09	24.556
597.42	24.706
597.75	24.920
598.09	24.129
598.42	24.188
598.76	24.367
599.09	24.639
599.42	24.214
599.76	24.643
600.09	24.284
600.42	24.981
600.76	24.591
601.09	24.809
601.42	24.207
601.76	24.613
602.09	24.505
602.42	24.136
602.76	24.915
603.09	25.042
603.42	25.711
603.76	24.153
604.09	24.625
604.42	24.746
604.76	25.189
605.09	24.314
605.42	25.147
605.75	24.343
606.09	24.204
606.42	23.812
606.75	23.939
607.09	24.440
607.42	23.571
607.75	23.268
608.08	23.450
608.42	23.253
608.75	24.530
609.08	24.664
609.41	23.655
609.75	25.101
610.08	24.563
610.41	23.768
610.74	24.866
611.07	24.910
611.41	23.508
611.74	23.827
612.07	23.876
612.40	24.453
612.73	24.237
613.07	23.735
613.40	24.070
613.73	22.776
614.06	24.096
614.39	24.309
614.72	24.090
615.06	23.855
615.39	24.236
615.72	23.305
616.05	24.022
616.38	23.647
616.71	23.180
617.05	23.780
617.38	23.821
617.71	25.157
618.04	24.508
618.37	25.347
618.70	24.158
619.03	24.861
619.36	22.142
619.69	23.578
620.03	24.105
620.36	23.534
620.69	23.840
621.02	23.165
621.35	23.071
621.68	23.724
622.01	23.250
622.34	23.224
622.67	24.054
623.00	22.129
623.33	23.857
623.66	23.934
623.99	23.449
624.32	22.433
624.65	23.308
624.99	23.627
625.32	22.062
625.65	23.645
625.98	23.932
626.31	22.610
626.64	23.657
626.97	22.949
627.30	23.643
627.63	23.744
627.96	22.372
628.29	22.109
628.62	23.304
628.95	21.643
629.28	22.581
629.61	21.236
629.94	23.754
630.26	23.024
630.59	23.205
630.92	22.667
631.25	21.641
631.58	22.137
631.91	22.368
632.24	23.165
632.57	23.295
632.90	22.657
633.23	22.000
633.56	22.166
633.89	20.838
