SpectraSuite Data File
++++++++++++++++++++++++++++++++++++
Date: Fri May 15 17:33:29 PDT 2015
User: schluterlab
Dark Spectrum Present: Yes
Reference Spectrum Present: Yes
Number of Sampled Component Spectra: 1
Spectrometers: USB2E3373
Integration Time (usec): 3000 (USB2E3373)
Spectra Averaged: 3 (USB2E3373)
Boxcar Smoothing: 0 (USB2E3373)
Correct for Electrical Dark: No (USB2E3373)
Strobe/Lamp Enabled: No (USB2E3373)
Correct for Detector Non-linearity: No (USB2E3373)
Correct for Stray Light: No (USB2E3373)
Number of Pixels in Processed Spectrum: 2048
>>>>>Begin Processed Spectral Data<<<<<
178.53	0.000
178.91	0.000
179.29	137.500
179.67	-300.000
180.04	114.286
180.42	50.000
180.80	-200.000
181.18	33.333
181.56	200.000
181.94	350.000
182.31	1200.000
182.69	-280.000
183.07	0.000
183.45	80.000
183.83	-0.000
184.20	54.545
184.58	200.000
184.96	-175.000
185.34	-266.667
185.72	-300.000
186.09	38.462
186.47	-500.000
186.85	133.333
187.23	55.556
187.61	-0.000
187.98	-100.000
188.36	44.444
188.74	0.000
189.12	64.706
189.49	38.889
189.87	0.000
190.25	7.143
190.63	400.000
191.00	66.667
191.38	21.053
191.76	150.000
192.14	-25.000
192.51	50.000
192.89	100.000
193.27	-14.286
193.65	16.667
194.02	136.364
194.40	20.000
194.78	-75.000
195.15	41.667
195.53	-62.500
195.91	325.000
196.29	-50.000
196.66	61.538
197.04	200.000
197.42	33.333
197.79	-400.000
198.17	-69.231
198.55	600.000
198.92	-200.000
199.30	0.000
199.68	-140.000
200.05	233.333
200.43	0.000
200.81	166.667
201.18	-333.333
201.56	300.000
201.94	250.000
202.31	-100.000
202.69	-140.000
203.07	150.000
203.44	1100.000
203.82	0.000
204.19	64.286
204.57	-466.667
204.95	100.000
205.32	80.000
205.70	-71.429
206.08	125.000
206.45	255.556
206.83	78.571
207.20	-71.429
207.58	200.000
207.96	266.667
208.33	70.000
208.71	0.000
209.08	50.000
209.46	-300.000
209.84	20.000
210.21	400.000
210.59	142.857
210.96	50.000
211.34	275.000
211.71	73.333
212.09	57.143
212.46	-900.000
212.84	0.000
213.22	110.000
213.59	350.000
213.97	92.308
214.34	45.455
214.72	-16.667
215.09	350.000
215.47	-30.769
215.84	90.909
216.22	-466.667
216.59	-12.500
216.97	750.000
217.34	225.000
217.72	-300.000
218.09	162.500
218.47	-12.500
218.84	-500.000
219.22	66.667
219.59	-120.000
219.97	-0.000
220.34	200.000
220.72	128.571
221.09	-125.000
221.47	-200.000
221.84	-550.000
222.22	-450.000
222.59	-27.273
222.97	25.000
223.34	100.000
223.72	0.000
224.09	66.667
224.46	14.286
224.84	100.000
225.21	60.000
225.59	20.000
225.96	350.000
226.34	25.000
226.71	-85.714
227.08	66.667
227.46	75.000
227.83	-400.000
228.21	66.667
228.58	0.000
228.95	0.000
229.33	60.000
229.70	68.750
230.08	-25.000
230.45	0.000
230.82	214.286
231.20	-6.667
231.57	107.143
231.95	157.143
232.32	70.000
232.69	0.000
233.07	300.000
233.44	20.000
233.81	-30.000
234.19	233.333
234.56	17.647
234.93	-150.000
235.31	350.000
235.68	40.000
236.05	7.692
236.43	30.000
236.80	111.765
237.17	56.250
237.55	65.000
237.92	25.926
238.29	36.111
238.67	60.000
239.04	55.882
239.41	31.707
239.79	43.333
240.16	41.463
240.53	60.526
240.91	41.304
241.28	46.032
241.65	42.857
242.02	43.836
242.40	66.667
242.77	49.153
243.14	45.455
243.51	56.250
243.89	52.874
244.26	37.931
244.63	51.190
245.00	62.887
245.38	43.299
245.75	48.315
246.12	39.655
246.49	52.893
246.87	62.500
247.24	48.739
247.61	58.772
247.98	42.276
248.36	43.125
248.73	49.342
249.10	48.701
249.47	53.165
249.84	47.712
250.22	48.235
250.59	57.516
250.96	51.643
251.33	44.767
251.70	56.471
252.08	48.223
252.45	39.604
252.82	53.266
253.19	55.760
253.56	45.794
253.94	47.297
254.31	49.130
254.68	58.333
255.05	50.787
255.42	51.965
255.79	49.035
256.16	52.918
256.54	51.493
256.91	47.909
257.28	50.186
257.65	50.187
258.02	49.645
258.39	46.465
258.76	52.015
259.14	51.827
259.51	51.133
259.88	53.952
260.25	52.614
260.62	53.125
260.99	51.525
261.36	50.342
261.73	48.734
262.10	45.593
262.47	44.172
262.85	48.589
263.22	51.385
263.59	48.287
263.96	50.311
264.33	51.515
264.70	49.702
265.07	50.595
265.44	50.992
265.81	50.000
266.18	47.814
266.55	47.044
266.92	46.891
267.29	50.131
267.66	47.826
268.03	49.738
268.40	46.214
268.77	51.872
269.14	47.722
269.51	50.386
269.88	48.628
270.25	47.194
270.62	44.878
270.99	50.384
271.36	46.455
271.73	48.122
272.10	49.392
272.47	48.227
272.84	47.030
273.21	47.796
273.58	51.325
273.95	48.284
274.32	42.956
274.69	45.928
275.06	49.777
275.43	47.392
275.80	47.682
276.17	46.897
276.54	43.897
276.91	46.491
277.28	44.105
277.65	43.595
278.02	45.106
278.39	44.420
278.76	46.122
279.13	42.324
279.50	44.538
279.87	44.060
280.23	43.226
280.60	44.639
280.97	48.283
281.34	45.769
281.71	45.791
282.08	44.376
282.45	44.814
282.82	46.139
283.19	46.615
283.56	43.931
283.92	43.454
284.29	45.000
284.66	42.442
285.03	42.240
285.40	42.155
285.77	42.882
286.14	43.863
286.51	45.572
286.87	40.585
287.24	43.278
287.61	43.210
287.98	42.632
288.35	40.035
288.72	43.257
289.08	40.104
289.45	40.422
289.82	42.133
290.19	40.102
290.56	38.593
290.93	40.067
291.29	36.672
291.66	38.740
292.03	36.523
292.40	39.194
292.77	35.566
293.13	33.929
293.50	35.357
293.87	35.420
294.24	35.549
294.60	35.618
294.97	34.673
295.34	33.896
295.71	35.022
296.08	33.483
296.44	32.717
296.81	33.333
297.18	34.203
297.55	33.469
297.91	33.836
298.28	33.509
298.65	32.157
299.02	31.806
299.38	32.421
299.75	32.552
300.12	32.723
300.48	31.225
300.85	30.672
301.22	30.519
301.59	30.263
301.95	30.886
302.32	31.388
302.69	30.970
303.05	30.817
303.42	30.511
303.79	29.673
304.15	32.139
304.52	29.132
304.89	28.772
305.25	31.235
305.62	28.588
305.99	29.240
306.35	29.595
306.72	28.234
307.09	29.190
307.45	29.736
307.82	28.935
308.19	29.849
308.55	29.335
308.92	28.214
309.29	29.050
309.65	28.418
310.02	29.923
310.38	28.650
310.75	30.601
311.12	28.418
311.48	27.784
311.85	28.901
312.22	27.848
312.58	27.919
312.95	28.175
313.31	27.640
313.68	27.853
314.05	26.531
314.41	27.320
314.78	26.907
315.14	27.749
315.51	27.950
315.87	28.074
316.24	28.210
316.61	27.953
316.97	27.679
317.34	26.563
317.70	28.298
318.07	27.788
318.43	28.235
318.80	27.462
319.16	28.906
319.53	28.585
319.89	27.854
320.26	27.632
320.62	29.388
320.99	29.332
321.35	29.599
321.72	29.491
322.08	30.312
322.45	29.746
322.81	28.782
323.18	29.146
323.54	28.475
323.91	29.503
324.27	31.250
324.64	32.022
325.00	31.478
325.37	33.609
325.73	30.916
326.10	31.971
326.46	33.184
326.83	33.246
327.19	32.607
327.56	32.580
327.92	33.803
328.29	32.321
328.65	34.811
329.01	33.272
329.38	33.641
329.74	34.089
330.11	34.198
330.47	34.323
330.84	35.481
331.20	37.452
331.56	36.111
331.93	36.347
332.29	35.564
332.66	36.109
333.02	36.803
333.38	35.289
333.75	37.637
334.11	35.452
334.48	37.081
334.84	37.271
335.20	38.243
335.57	38.169
335.93	37.940
336.29	38.490
336.66	36.785
337.02	39.312
337.38	38.426
337.75	37.636
338.11	38.864
338.47	39.507
338.84	38.170
339.20	38.208
339.56	39.450
339.93	39.212
340.29	37.798
340.65	38.530
341.02	39.007
341.38	37.876
341.74	37.014
342.11	37.175
342.47	37.900
342.83	38.841
343.20	37.544
343.56	39.391
343.92	37.378
344.28	38.856
344.65	38.774
345.01	38.634
345.37	36.754
345.73	37.490
346.10	38.740
346.46	38.520
346.82	37.398
347.19	38.238
347.55	39.599
347.91	39.563
348.27	36.783
348.63	39.438
349.00	38.638
349.36	38.736
349.72	38.474
350.08	38.689
350.45	38.069
350.81	38.704
351.17	37.296
351.53	38.939
351.89	37.820
352.26	36.640
352.62	38.306
352.98	37.751
353.34	37.601
353.70	39.239
354.07	37.984
354.43	38.591
354.79	39.802
355.15	37.460
355.51	38.924
355.87	38.835
356.24	37.684
356.60	38.884
356.96	39.286
357.32	37.780
357.68	37.138
358.04	38.126
358.40	37.701
358.77	38.198
359.13	38.191
359.49	37.827
359.85	38.300
360.21	39.553
360.57	37.643
360.93	37.973
361.29	37.462
361.66	40.282
362.02	38.409
362.38	39.223
362.74	39.213
363.10	39.503
363.46	39.288
363.82	40.120
364.18	38.598
364.54	39.265
364.90	38.925
365.26	39.374
365.62	40.949
365.98	39.150
366.35	39.913
366.71	40.946
367.07	40.203
367.43	38.893
367.79	40.495
368.15	39.698
368.51	39.476
368.87	38.909
369.23	39.856
369.59	40.087
369.95	40.469
370.31	40.173
370.67	40.373
371.03	40.105
371.39	40.263
371.75	40.952
372.11	40.300
372.47	40.163
372.83	40.028
373.19	39.658
373.55	40.072
373.91	41.109
374.27	40.609
374.63	40.991
374.99	41.135
375.35	41.435
375.71	41.259
376.07	42.065
376.42	41.633
376.78	42.215
377.14	41.435
377.50	41.501
377.86	42.102
378.22	43.586
378.58	42.500
378.94	42.533
379.30	41.859
379.66	43.386
380.02	42.060
380.38	42.788
380.74	42.370
381.09	42.883
381.45	43.058
381.81	43.245
382.17	42.386
382.53	44.722
382.89	44.256
383.25	44.306
383.61	43.902
383.97	44.190
384.32	44.778
384.68	44.396
385.04	43.076
385.40	43.746
385.76	44.780
386.12	44.631
386.48	44.700
386.83	45.656
387.19	44.994
387.55	45.922
387.91	44.315
388.27	44.322
388.62	46.193
388.98	45.918
389.34	45.472
389.70	46.302
390.06	45.060
390.42	45.790
390.77	45.716
391.13	46.028
391.49	45.925
391.85	45.029
392.20	45.072
392.56	46.345
392.92	46.976
393.28	47.524
393.64	46.186
393.99	47.900
394.35	45.984
394.71	47.510
395.07	46.763
395.42	46.752
395.78	45.863
396.14	46.343
396.50	47.876
396.85	47.135
397.21	46.366
397.57	45.580
397.92	47.633
398.28	47.011
398.64	47.530
399.00	48.420
399.35	45.767
399.71	46.295
400.07	47.037
400.42	47.736
400.78	47.459
401.14	47.308
401.49	47.111
401.85	46.557
402.21	46.446
402.57	47.250
402.92	46.801
403.28	47.556
403.63	47.667
403.99	48.087
404.35	47.158
404.70	46.250
405.06	47.532
405.42	46.302
405.77	46.601
406.13	48.021
406.49	46.832
406.84	47.616
407.20	48.043
407.55	47.457
407.91	47.393
408.27	47.164
408.62	48.123
408.98	47.073
409.34	48.017
409.69	46.770
410.05	46.244
410.40	47.654
410.76	48.492
411.11	48.125
411.47	48.192
411.83	47.269
412.18	48.713
412.54	46.380
412.89	46.983
413.25	47.473
413.60	47.702
413.96	46.687
414.31	47.256
414.67	46.183
415.03	46.205
415.38	46.997
415.74	47.492
416.09	47.812
416.45	47.670
416.80	47.389
417.16	47.721
417.51	47.635
417.87	48.110
418.22	49.158
418.58	48.227
418.93	47.712
419.29	46.223
419.64	48.283
420.00	49.811
420.35	47.821
420.71	48.420
421.06	48.189
421.42	49.399
421.77	49.364
422.12	47.616
422.48	48.674
422.83	48.782
423.19	47.912
423.54	47.149
423.90	47.644
424.25	49.541
424.61	49.082
424.96	48.664
425.31	49.278
425.67	49.120
426.02	49.588
426.38	49.906
426.73	49.879
427.09	50.949
427.44	50.118
427.79	49.853
428.15	50.607
428.50	50.575
428.85	49.386
429.21	50.255
429.56	51.752
429.92	50.180
430.27	50.326
430.62	50.340
430.98	50.000
431.33	51.157
431.68	50.131
432.04	50.811
432.39	49.002
432.74	49.850
433.10	50.460
433.45	50.956
433.80	51.596
434.16	51.579
434.51	51.022
434.86	50.755
435.22	49.523
435.57	51.404
435.92	51.437
436.28	51.044
436.63	50.485
436.98	51.564
437.34	50.393
437.69	51.938
438.04	52.023
438.39	50.214
438.75	52.034
439.10	51.613
439.45	52.282
439.81	52.538
440.16	52.316
440.51	51.463
440.86	51.964
441.22	51.188
441.57	53.091
441.92	53.148
442.27	52.661
442.63	52.195
442.98	52.096
443.33	52.309
443.68	52.149
444.03	51.913
444.39	52.435
444.74	53.233
445.09	52.673
445.44	51.852
445.79	53.430
446.15	51.817
446.50	51.137
446.85	52.550
447.20	51.825
447.55	51.897
447.91	53.356
448.26	53.045
448.61	53.483
448.96	53.701
449.31	52.254
449.66	53.136
450.02	54.079
450.37	52.697
450.72	52.062
451.07	52.532
451.42	51.873
451.77	53.345
452.12	51.376
452.47	52.865
452.83	53.416
453.18	53.321
453.53	51.580
453.88	52.095
454.23	51.690
454.58	53.526
454.93	53.351
455.28	51.619
455.63	53.255
455.98	53.758
456.34	52.554
456.69	53.304
457.04	53.182
457.39	53.341
457.74	54.172
458.09	51.854
458.44	53.013
458.79	51.933
459.14	53.719
459.49	52.657
459.84	53.243
460.19	52.791
460.54	53.117
460.89	54.148
461.24	53.665
461.59	53.147
461.94	51.321
462.29	52.895
462.64	52.691
462.99	52.877
463.34	52.643
463.69	52.188
464.04	52.542
464.39	54.336
464.74	53.374
465.09	52.901
465.44	53.780
465.79	53.798
466.14	53.820
466.49	53.191
466.84	52.766
467.19	54.693
467.54	51.852
467.89	53.569
468.24	52.555
468.59	53.841
468.94	51.937
469.29	53.443
469.64	53.657
469.99	54.520
470.34	51.672
470.68	54.437
471.03	53.291
471.38	52.140
471.73	51.611
472.08	52.035
472.43	53.020
472.78	50.446
473.13	53.741
473.48	52.704
473.83	52.802
474.17	53.821
474.52	52.904
474.87	54.061
475.22	53.935
475.57	53.134
475.92	53.319
476.27	53.609
476.61	54.282
476.96	52.147
477.31	52.623
477.66	52.865
478.01	53.004
478.36	52.451
478.70	53.616
479.05	53.352
479.40	53.948
479.75	53.024
480.10	53.047
480.45	53.750
480.79	54.431
481.14	54.406
481.49	52.808
481.84	53.523
482.19	52.619
482.53	53.669
482.88	53.461
483.23	52.831
483.58	52.594
483.92	53.146
484.27	52.826
484.62	53.205
484.97	53.441
485.31	54.046
485.66	55.427
486.01	57.651
486.36	57.319
486.70	55.802
487.05	55.260
487.40	53.904
487.75	54.169
488.09	52.627
488.44	52.785
488.79	52.409
489.13	53.606
489.48	53.356
489.83	51.570
490.17	51.416
490.52	51.594
490.87	51.134
491.22	52.865
491.56	51.755
491.91	51.482
492.26	53.379
492.60	51.679
492.95	53.074
493.30	51.050
493.64	52.800
493.99	52.850
494.34	51.845
494.68	53.095
495.03	51.776
495.37	51.325
495.72	53.306
496.07	52.878
496.41	52.736
496.76	52.418
497.11	51.700
497.45	52.554
497.80	52.725
498.14	51.366
498.49	52.666
498.84	50.848
499.18	52.460
499.53	52.183
499.87	52.432
500.22	52.275
500.56	52.496
500.91	51.908
501.26	50.519
501.60	51.943
501.95	52.935
502.29	52.542
502.64	53.234
502.98	53.922
503.33	52.257
503.67	52.096
504.02	51.857
504.36	52.944
504.71	51.364
505.06	51.686
505.40	52.538
505.75	53.196
506.09	50.786
506.44	51.899
506.78	52.653
507.13	51.551
507.47	50.078
507.82	52.511
508.16	51.928
508.51	52.781
508.85	50.916
509.19	52.688
509.54	51.421
509.88	51.564
510.23	50.672
510.57	51.256
510.92	50.373
511.26	51.500
511.61	51.540
511.95	52.274
512.30	51.386
512.64	51.029
512.98	51.432
513.33	52.098
513.67	51.563
514.02	52.002
514.36	52.229
514.70	51.923
515.05	51.763
515.39	50.649
515.74	52.096
516.08	51.405
516.42	52.238
516.77	50.907
517.11	51.513
517.46	51.227
517.80	51.132
518.14	50.398
518.49	50.240
518.83	50.972
519.17	50.758
519.52	51.214
519.86	51.020
520.20	51.397
520.55	50.594
520.89	50.878
521.23	50.918
521.58	50.347
521.92	50.449
522.26	50.228
522.61	50.844
522.95	52.384
523.29	50.191
523.64	50.699
523.98	51.069
524.32	49.356
524.66	50.704
525.01	51.104
525.35	51.264
525.69	50.572
526.04	49.339
526.38	51.881
526.72	50.229
527.06	50.454
527.41	50.396
527.75	50.268
528.09	50.963
528.43	52.532
528.78	51.023
529.12	51.935
529.46	51.007
529.80	51.235
530.15	52.013
530.49	50.640
530.83	50.137
531.17	49.765
531.51	51.026
531.86	50.306
532.20	50.104
532.54	50.715
532.88	50.924
533.22	50.470
533.57	51.376
533.91	51.240
534.25	51.823
534.59	52.085
534.93	50.094
535.27	50.761
535.62	50.292
535.96	51.402
536.30	51.319
536.64	51.206
536.98	50.105
537.32	53.272
537.66	51.192
538.01	50.909
538.35	51.456
538.69	49.734
539.03	50.444
539.37	52.019
539.71	51.943
540.05	51.324
540.39	51.662
540.73	51.185
541.07	51.243
541.42	52.083
541.76	52.237
542.10	50.998
542.44	52.189
542.78	50.929
543.12	52.541
543.46	52.086
543.80	52.325
544.14	50.067
544.48	51.632
544.82	51.470
545.16	52.596
545.50	51.268
545.84	51.487
546.18	51.560
546.52	50.757
546.86	51.977
547.20	51.574
547.54	50.530
547.88	52.446
548.22	51.216
548.56	51.715
548.90	50.876
549.24	50.207
549.58	51.763
549.92	50.250
550.26	50.696
550.60	51.524
550.94	51.830
551.28	50.696
551.62	53.077
551.96	51.429
552.30	53.216
552.64	50.353
552.98	50.985
553.32	51.284
553.66	51.887
554.00	51.606
554.34	51.551
554.68	49.853
555.02	51.042
555.36	51.832
555.69	51.282
556.03	50.964
556.37	50.961
556.71	50.181
557.05	52.349
557.39	50.929
557.73	50.750
558.07	51.433
558.41	50.613
558.75	51.052
559.08	51.143
559.42	51.746
559.76	51.641
560.10	52.064
560.44	51.378
560.78	51.888
561.12	53.315
561.45	52.214
561.79	52.241
562.13	52.590
562.47	50.288
562.81	52.161
563.15	51.128
563.48	52.122
563.82	53.397
564.16	52.646
564.50	53.514
564.84	52.878
565.17	52.381
565.51	54.167
565.85	53.361
566.19	52.387
566.52	53.619
566.86	54.306
567.20	54.421
567.54	53.832
567.88	55.302
568.21	55.260
568.55	54.565
568.89	56.417
569.23	56.620
569.56	55.867
569.90	57.450
570.24	56.978
570.57	57.418
570.91	58.906
571.25	57.251
571.59	57.864
571.92	56.652
572.26	57.095
572.60	56.527
572.93	56.134
573.27	56.897
573.61	57.220
573.95	58.001
574.28	56.939
574.62	57.793
574.96	57.442
575.29	56.562
575.63	55.714
575.97	56.546
576.30	56.621
576.64	56.185
576.98	58.198
577.31	58.491
577.65	58.899
577.98	58.390
578.32	58.457
578.66	56.888
578.99	56.528
579.33	56.083
579.67	56.397
580.00	56.962
580.34	57.313
580.67	56.924
581.01	57.517
581.35	58.161
581.68	59.043
582.02	58.800
582.35	59.034
582.69	58.259
583.02	57.573
583.36	57.630
583.70	58.126
584.03	57.409
584.37	57.820
584.70	56.731
585.04	56.684
585.37	57.666
585.71	57.961
586.04	57.690
586.38	57.109
586.72	57.561
587.05	58.637
587.39	58.289
587.72	59.103
588.06	58.290
588.39	57.790
588.73	57.357
589.06	57.175
589.40	56.205
589.73	56.736
590.07	57.893
590.40	57.469
590.73	57.166
591.07	56.828
591.40	56.990
591.74	56.787
592.07	56.540
592.41	57.023
592.74	57.228
593.08	57.457
593.41	58.550
593.75	57.802
594.08	56.437
594.41	56.587
594.75	56.908
595.08	57.056
595.42	58.410
595.75	57.792
596.09	57.271
596.42	57.379
596.75	55.639
597.09	56.082
597.42	56.549
597.75	56.574
598.09	55.591
598.42	55.505
598.76	56.242
599.09	57.011
599.42	57.635
599.76	56.922
600.09	56.938
600.42	56.558
600.76	56.835
601.09	56.756
601.42	56.365
601.76	56.491
602.09	56.106
602.42	57.709
602.76	57.088
603.09	58.306
603.42	59.156
603.76	57.056
604.09	57.513
604.42	57.699
604.76	57.588
605.09	57.084
605.42	57.336
605.75	57.180
606.09	56.985
606.42	56.214
606.75	56.623
607.09	55.824
607.42	56.358
607.75	57.105
608.08	56.424
608.42	55.733
608.75	56.675
609.08	57.250
609.41	56.041
609.75	56.351
610.08	56.415
610.41	55.749
610.74	56.655
611.07	58.140
611.41	56.409
611.74	56.716
612.07	54.925
612.40	57.221
612.73	55.819
613.07	55.231
613.40	55.635
613.73	56.240
614.06	56.038
614.39	55.838
614.72	55.686
615.06	56.816
615.39	55.513
615.72	55.167
616.05	55.587
616.38	54.359
616.71	55.352
617.05	55.466
617.38	55.563
617.71	55.912
618.04	55.937
618.37	56.305
618.70	55.842
619.03	56.250
619.36	53.329
619.69	55.800
620.03	55.953
620.36	54.936
620.69	54.604
621.02	54.817
621.35	55.104
621.68	54.592
622.01	55.417
622.34	54.429
622.67	54.495
623.00	53.752
623.33	54.802
623.66	54.525
623.99	55.446
624.32	55.133
624.65	54.211
624.99	56.584
625.32	54.966
625.65	55.538
625.98	53.022
626.31	53.283
626.64	53.813
626.97	54.450
627.30	55.254
627.63	53.813
627.96	54.268
628.29	53.932
628.62	51.917
628.95	51.202
629.28	55.444
629.61	53.240
629.94	53.568
630.26	52.866
630.59	54.214
630.92	53.436
631.25	52.103
631.58	54.295
631.91	50.219
632.24	50.803
632.57	53.068
632.90	52.669
633.23	50.353
633.56	53.023
633.89	50.308
634.22	51.235
