SpectraSuite Data File
++++++++++++++++++++++++++++++++++++
Date: Fri May 15 20:14:58 PDT 2015
User: schluterlab
Dark Spectrum Present: Yes
Reference Spectrum Present: Yes
Number of Sampled Component Spectra: 1
Spectrometers: USB2E3373
Integration Time (usec): 3000 (USB2E3373)
Spectra Averaged: 3 (USB2E3373)
Boxcar Smoothing: 0 (USB2E3373)
Correct for Electrical Dark: No (USB2E3373)
Strobe/Lamp Enabled: No (USB2E3373)
Correct for Detector Non-linearity: No (USB2E3373)
Correct for Stray Light: No (USB2E3373)
Number of Pixels in Processed Spectrum: 2048
>>>>>Begin Processed Spectral Data<<<<<
178.53	0.000
178.91	0.000
179.29	162.500
179.67	-100.000
180.04	57.143
180.42	0.000
180.80	-600.000
181.18	-0.000
181.56	200.000
181.94	150.000
182.31	200.000
182.69	-60.000
183.07	-200.000
183.45	20.000
183.83	183.333
184.20	9.091
184.58	166.667
184.96	25.000
185.34	-166.667
185.72	-400.000
186.09	153.846
186.47	-300.000
186.85	116.667
187.23	-11.111
187.61	-300.000
187.98	-200.000
188.36	-11.111
188.74	100.000
189.12	52.941
189.49	44.444
189.87	0.000
190.25	107.143
190.63	450.000
191.00	-200.000
191.38	5.263
191.76	800.000
192.14	75.000
192.51	350.000
192.89	77.778
193.27	-142.857
193.65	83.333
194.02	-9.091
194.40	30.000
194.78	-50.000
195.15	25.000
195.53	-125.000
195.91	75.000
196.29	-25.000
196.66	84.615
197.04	57.143
197.42	66.667
197.79	-566.667
198.17	-84.615
198.55	1300.000
198.92	100.000
199.30	-100.000
199.68	80.000
200.05	-333.333
200.43	0.000
200.81	0.000
201.18	-66.667
201.56	1300.000
201.94	-350.000
202.31	-133.333
202.69	-120.000
203.07	150.000
203.44	600.000
203.82	0.000
204.19	21.429
204.57	-466.667
204.95	100.000
205.32	40.000
205.70	214.286
206.08	0.000
206.45	222.222
206.83	64.286
207.20	14.286
207.58	-200.000
207.96	-100.000
208.33	-50.000
208.71	125.000
209.08	33.333
209.46	-500.000
209.84	-80.000
210.21	-1100.000
210.59	157.143
210.96	116.667
211.34	50.000
211.71	53.333
212.09	-42.857
212.46	0.000
212.84	0.000
213.22	-50.000
213.59	200.000
213.97	69.231
214.34	72.727
214.72	50.000
215.09	75.000
215.47	46.154
215.84	-18.182
216.22	200.000
216.59	-12.500
216.97	300.000
217.34	200.000
217.72	0.000
218.09	12.500
218.47	62.500
218.84	-100.000
219.22	-44.444
219.59	60.000
219.97	133.333
220.34	150.000
220.72	71.429
221.09	125.000
221.47	200.000
221.84	-100.000
222.22	-450.000
222.59	90.909
222.97	41.667
223.34	-200.000
223.72	-14.286
224.09	33.333
224.46	10.714
224.84	233.333
225.21	-30.000
225.59	-20.000
225.96	-100.000
226.34	325.000
226.71	-57.143
227.08	66.667
227.46	12.500
227.83	-800.000
228.21	-66.667
228.58	-54.545
228.95	50.000
229.33	60.000
229.70	50.000
230.08	100.000
230.45	0.000
230.82	71.429
231.20	-40.000
231.57	100.000
231.95	-71.429
232.32	-10.000
232.69	64.286
233.07	366.667
233.44	-40.000
233.81	-50.000
234.19	33.333
234.56	82.353
234.93	-550.000
235.31	350.000
235.68	-120.000
236.05	-53.846
236.43	10.000
236.80	52.941
237.17	21.875
237.55	10.000
237.92	37.037
238.29	36.111
238.67	76.667
239.04	41.176
239.41	39.024
239.79	10.000
240.16	34.146
240.53	42.105
240.91	50.000
241.28	38.095
241.65	53.571
242.02	54.795
242.40	56.667
242.77	44.068
243.14	53.030
243.51	45.000
243.89	54.023
244.26	35.632
244.63	48.810
245.00	45.361
245.38	59.794
245.75	49.438
246.12	42.241
246.49	39.669
246.87	55.769
247.24	40.336
247.61	51.754
247.98	55.285
248.36	45.625
248.73	47.368
249.10	45.455
249.47	42.405
249.84	54.902
250.22	48.235
250.59	48.366
250.96	51.643
251.33	51.744
251.70	61.765
252.08	51.777
252.45	51.485
252.82	50.754
253.19	50.230
253.56	46.729
253.94	51.802
254.31	49.130
254.68	57.456
255.05	40.945
255.42	48.472
255.79	51.351
256.16	49.805
256.54	47.761
256.91	46.768
257.28	47.212
257.65	46.816
258.02	48.582
258.39	48.822
258.76	52.015
259.14	51.163
259.51	48.220
259.88	52.234
260.25	47.386
260.62	56.250
260.99	45.763
261.36	46.575
261.73	50.949
262.10	49.848
262.47	52.147
262.85	51.411
263.22	48.923
263.59	48.287
263.96	50.000
264.33	51.212
264.70	46.726
265.07	47.619
265.44	51.558
265.81	50.847
266.18	52.186
266.55	50.900
266.92	47.668
267.29	50.392
267.66	51.151
268.03	50.785
268.40	51.958
268.77	53.476
269.14	47.722
269.51	50.900
269.88	45.387
270.25	49.490
270.62	47.805
270.99	48.593
271.36	47.433
271.73	46.714
272.10	51.582
272.47	48.700
272.84	52.723
273.21	47.332
273.58	50.602
273.95	49.199
274.32	49.654
274.69	46.380
275.06	46.875
275.43	48.980
275.80	47.903
276.17	51.494
276.54	44.111
276.91	50.000
277.28	48.253
277.65	47.107
278.02	45.532
278.39	45.514
278.76	49.895
279.13	44.813
279.50	49.160
279.87	47.084
280.23	47.527
280.60	48.343
280.97	47.071
281.34	47.692
281.71	48.871
282.08	45.603
282.45	44.031
282.82	45.560
283.19	47.776
283.56	49.711
283.92	47.249
284.29	46.346
284.66	45.736
285.03	46.758
285.40	45.936
285.77	43.409
286.14	45.848
286.51	50.185
286.87	43.327
287.24	49.171
287.61	43.563
287.98	45.614
288.35	44.887
288.72	46.760
289.08	44.097
289.45	44.112
289.82	43.531
290.19	42.833
290.56	42.196
290.93	43.603
291.29	41.602
291.66	41.732
292.03	42.424
292.40	40.000
292.77	40.829
293.13	38.636
293.50	40.364
293.87	39.084
294.24	38.022
294.60	38.301
294.97	38.988
295.34	37.730
295.71	38.748
296.08	39.462
296.44	36.415
296.81	39.028
297.18	36.087
297.55	36.992
297.91	36.301
298.28	37.203
298.65	35.142
299.02	36.388
299.38	34.063
299.75	36.138
300.12	34.424
300.48	37.154
300.85	35.234
301.22	35.974
301.59	34.868
301.95	36.329
302.32	36.576
302.69	34.080
303.05	33.911
303.42	34.620
303.79	33.528
304.15	34.528
304.52	33.413
304.89	34.386
305.25	32.930
305.62	34.072
305.99	33.099
306.35	33.295
306.72	33.633
307.09	34.094
307.45	35.017
307.82	33.218
308.19	36.005
308.55	33.479
308.92	34.641
309.29	31.620
309.65	33.692
310.02	33.993
310.38	33.919
310.75	34.208
311.12	35.630
311.48	33.510
311.85	33.508
312.22	33.544
312.58	34.076
312.95	33.618
313.31	32.816
313.68	34.555
314.05	34.592
314.41	35.567
314.78	35.670
315.14	35.252
315.51	35.611
315.87	36.578
316.24	35.187
316.61	35.531
316.97	35.913
317.34	36.621
317.70	36.138
318.07	35.385
318.43	36.373
318.80	35.795
319.16	37.891
319.53	37.607
319.89	38.287
320.26	37.247
320.62	39.017
320.99	38.518
321.35	38.746
321.72	40.602
322.08	39.678
322.45	40.711
322.81	41.749
323.18	41.119
323.54	41.120
323.91	40.701
324.27	41.699
324.64	42.790
325.00	42.792
325.37	43.985
325.73	43.880
326.10	43.233
326.46	44.843
326.83	45.407
327.19	45.859
327.56	45.873
327.92	49.296
328.29	46.161
328.65	47.453
329.01	47.978
329.38	48.664
329.74	49.953
330.11	49.212
330.47	47.774
330.84	50.385
331.20	50.951
331.56	48.148
331.93	50.502
332.29	51.329
332.66	49.683
333.02	51.394
333.38	50.229
333.75	51.832
334.11	49.150
334.48	51.224
334.84	52.839
335.20	51.601
335.57	50.317
335.93	49.864
336.29	52.118
336.66	51.771
337.02	50.465
337.38	51.481
337.75	52.000
338.11	50.676
338.47	53.741
338.84	51.386
339.20	50.548
339.56	51.743
339.93	51.388
340.29	51.743
340.65	50.717
341.02	50.709
341.38	49.735
341.74	50.972
342.11	49.133
342.47	50.178
342.83	51.298
343.20	50.436
343.56	50.609
343.92	50.399
344.28	51.067
344.65	50.518
345.01	48.747
345.37	49.117
345.73	50.628
346.10	50.561
346.46	49.874
346.82	50.000
347.19	49.543
347.55	50.710
347.91	49.272
348.27	49.798
348.63	52.044
349.00	49.467
349.36	49.543
349.72	51.244
350.08	50.410
350.45	49.002
350.81	52.159
351.17	48.127
351.53	51.429
351.89	50.454
352.26	50.720
352.62	50.242
352.98	48.755
353.34	49.517
353.70	49.838
354.07	49.677
354.43	50.520
354.79	49.711
355.15	50.079
355.51	51.028
355.87	50.324
356.24	50.000
356.60	50.040
356.96	50.317
357.32	48.722
357.68	49.414
358.04	49.435
358.40	50.000
358.77	51.196
359.13	50.280
359.49	49.076
359.85	50.078
360.21	50.159
360.57	50.650
360.93	50.832
361.29	48.036
361.66	49.530
362.02	50.909
362.38	50.571
362.74	51.476
363.10	51.994
363.46	50.037
363.82	51.991
364.18	49.742
364.54	49.706
364.90	50.896
365.26	50.873
365.62	51.752
365.98	50.440
366.35	52.003
366.71	51.367
367.07	51.524
367.43	50.252
367.79	50.530
368.15	50.969
368.51	51.202
368.87	50.036
369.23	50.181
369.59	51.822
369.95	51.173
370.31	51.879
370.67	52.612
371.03	51.307
371.39	51.860
371.75	53.040
372.11	52.425
372.47	52.885
372.83	51.952
373.19	51.997
373.55	53.069
373.91	53.060
374.27	53.579
374.63	54.415
374.99	54.255
375.35	53.482
375.71	54.056
376.07	53.792
376.42	54.694
376.78	53.893
377.14	53.622
377.50	53.187
377.86	54.886
378.22	54.116
378.58	55.385
378.94	55.009
379.30	55.022
379.66	55.047
380.02	55.733
380.38	54.230
380.74	54.219
381.09	56.012
381.45	55.963
381.81	55.830
382.17	55.838
382.53	55.590
382.89	56.372
383.25	57.187
383.61	56.463
383.97	57.206
384.32	55.285
384.68	56.533
385.04	56.618
385.40	57.498
385.76	58.050
386.12	57.309
386.48	59.068
386.83	58.085
387.19	57.265
387.55	58.344
387.91	59.169
388.27	57.448
388.62	58.527
388.98	58.502
389.34	58.838
389.70	58.856
390.06	57.583
390.42	57.319
390.77	60.366
391.13	58.260
391.49	60.414
391.85	59.649
392.20	60.013
392.56	59.186
392.92	58.779
393.28	60.024
393.64	59.219
393.99	60.376
394.35	60.405
394.71	60.792
395.07	58.580
395.42	59.745
395.78	60.651
396.14	58.764
396.50	60.748
396.85	60.077
397.21	60.652
397.57	60.125
397.92	57.819
398.28	59.483
398.64	58.012
399.00	59.819
399.35	59.029
399.71	59.908
400.07	59.915
400.42	59.547
400.78	59.706
401.14	59.105
401.49	59.023
401.85	59.720
402.21	60.120
402.57	61.562
402.92	60.038
403.28	60.464
403.63	60.467
403.99	60.140
404.35	61.274
404.70	58.512
405.06	60.400
405.42	59.913
405.77	59.791
406.13	59.139
406.49	59.858
406.84	60.880
407.20	60.325
407.55	60.399
407.91	60.294
408.27	58.955
408.62	59.754
408.98	59.519
409.34	60.161
409.69	60.078
410.05	58.929
410.40	59.815
410.76	60.676
411.11	59.938
411.47	59.961
411.83	59.196
412.18	60.425
412.54	59.114
412.89	58.805
413.25	59.988
413.60	59.689
413.96	58.896
414.31	57.988
414.67	58.627
415.03	59.920
415.38	59.661
415.74	60.391
416.09	60.157
416.45	60.837
416.80	58.956
417.16	60.704
417.51	60.759
417.87	59.257
418.22	60.298
418.58	60.067
418.93	60.376
419.29	58.579
419.64	58.911
420.00	62.720
420.35	59.582
420.71	59.235
421.06	60.467
421.42	59.916
421.77	60.983
422.12	60.613
422.48	59.285
422.83	59.687
423.19	59.819
423.54	60.494
423.90	60.306
424.25	60.620
424.61	60.832
424.96	60.046
425.31	61.467
425.67	62.265
426.02	62.544
426.38	63.056
426.73	60.896
427.09	61.772
427.44	63.000
427.79	62.758
428.15	61.104
428.50	61.841
428.85	60.749
429.21	62.252
429.56	61.348
429.92	61.325
430.27	61.053
430.62	61.945
430.98	62.633
431.33	62.250
431.68	61.591
432.04	62.605
432.39	60.981
432.74	60.433
433.10	61.954
433.45	62.067
433.80	62.914
434.16	60.997
434.51	62.849
434.86	62.253
435.22	61.582
435.57	63.381
435.92	62.096
436.28	61.896
436.63	62.179
436.98	61.356
437.34	62.613
437.69	62.314
438.04	60.912
438.39	62.370
438.75	63.024
439.10	62.592
439.45	63.238
439.81	62.080
440.16	64.727
440.51	63.463
440.86	64.048
441.22	62.783
441.57	63.631
441.92	64.376
442.27	63.803
442.63	63.330
442.98	63.010
443.33	62.938
443.68	63.979
444.03	64.282
444.39	62.961
444.74	64.771
445.09	64.087
445.44	63.761
445.79	64.312
446.15	62.390
446.50	62.285
446.85	64.718
447.20	63.816
447.55	64.732
447.91	63.339
448.26	63.802
448.61	64.594
448.96	63.110
449.31	63.815
449.66	63.763
450.02	64.404
450.37	65.086
450.72	64.548
451.07	64.367
451.42	62.984
451.77	63.351
452.12	62.919
452.47	64.070
452.83	63.663
453.18	64.390
453.53	65.297
453.88	64.481
454.23	62.754
454.58	65.995
454.93	64.497
455.28	61.524
455.63	63.732
455.98	63.860
456.34	64.049
456.69	64.549
457.04	63.894
457.39	63.062
457.74	63.906
458.09	63.626
458.44	63.604
458.79	63.249
459.14	64.760
459.49	64.239
459.84	63.452
460.19	63.714
460.54	63.447
460.89	64.602
461.24	63.478
461.59	63.955
461.94	62.516
462.29	63.993
462.64	62.791
462.99	64.184
463.34	63.908
463.69	63.063
464.04	64.407
464.39	64.645
464.74	63.374
465.09	65.377
465.44	63.935
465.79	62.698
466.14	63.797
466.49	63.657
466.84	63.593
467.19	63.892
467.54	63.857
467.89	63.298
468.24	62.348
468.59	63.492
468.94	63.683
469.29	63.082
469.64	63.773
469.99	65.032
470.34	62.867
470.68	64.355
471.03	64.827
471.38	64.194
471.73	64.216
472.08	61.737
472.43	64.362
472.78	62.029
473.13	64.558
473.48	63.388
473.83	61.395
474.17	64.249
474.52	62.285
474.87	63.697
475.22	64.613
475.57	63.354
475.92	63.796
476.27	63.388
476.61	64.178
476.96	62.298
477.31	63.440
477.66	62.079
478.01	64.346
478.36	62.255
478.70	63.295
479.05	62.912
479.40	62.745
479.75	62.774
480.10	61.854
480.45	63.750
480.79	64.602
481.14	63.627
481.49	63.645
481.84	63.272
482.19	63.471
482.53	63.165
482.88	63.484
483.23	62.812
483.58	62.264
483.92	63.843
484.27	62.671
484.62	62.125
484.97	62.231
485.31	62.572
485.66	62.816
486.01	64.152
486.36	62.994
486.70	64.270
487.05	63.837
487.40	63.495
487.75	63.521
488.09	63.164
488.44	62.930
488.79	62.271
489.13	63.462
489.48	61.907
489.83	62.332
490.17	61.888
490.52	62.448
490.87	61.268
491.22	62.846
491.56	62.334
491.91	62.620
492.26	63.199
492.60	60.653
492.95	63.601
493.30	61.602
493.64	62.770
493.99	63.140
494.34	61.699
494.68	61.714
495.03	61.460
495.37	62.169
495.72	62.645
496.07	63.073
496.41	61.651
496.76	62.828
497.11	61.947
497.45	62.243
497.80	63.774
498.14	61.401
498.49	61.960
498.84	62.824
499.18	62.600
499.53	62.103
499.87	61.381
500.22	61.622
500.56	63.187
500.91	62.249
501.26	61.048
501.60	62.518
501.95	62.397
502.29	62.809
502.64	63.127
502.98	63.789
503.33	61.575
503.67	61.831
504.02	63.148
504.36	61.801
504.71	62.475
505.06	61.047
505.40	61.980
505.75	62.835
506.09	61.784
506.44	63.193
506.78	62.857
507.13	61.686
507.47	61.305
507.82	62.340
508.16	61.701
508.51	62.592
508.85	62.951
509.19	62.906
509.54	61.716
509.88	61.650
510.23	62.614
510.57	62.747
510.92	59.915
511.26	62.575
511.61	63.696
511.95	61.205
512.30	62.639
512.64	61.992
512.98	61.482
513.33	61.612
513.67	61.626
514.02	63.272
514.36	62.971
514.70	64.802
515.05	63.278
515.39	62.279
515.74	64.072
516.08	62.463
516.42	62.309
516.77	63.019
517.11	64.451
517.46	63.495
517.80	62.098
518.14	62.829
518.49	60.998
518.83	62.394
519.17	61.249
519.52	62.345
519.86	61.645
520.20	61.908
520.55	61.101
520.89	63.425
521.23	62.508
521.58	63.533
521.92	63.077
522.26	62.329
522.61	62.013
522.95	63.046
523.29	61.563
523.64	62.325
523.98	63.448
524.32	62.887
524.66	63.636
525.01	63.571
525.35	62.605
525.69	62.559
526.04	62.765
526.38	63.943
526.72	61.936
527.06	60.960
527.41	62.137
527.75	61.662
528.09	64.518
528.43	64.078
528.78	64.158
529.12	62.258
529.46	62.313
529.80	61.748
530.15	63.828
530.49	62.761
530.83	63.953
531.17	61.921
531.51	62.996
531.86	62.203
532.20	63.396
532.54	62.151
532.88	62.971
533.22	62.769
533.57	62.385
533.91	62.272
534.25	64.714
534.59	63.631
534.93	61.863
535.27	62.944
535.62	63.124
535.96	62.166
536.30	62.401
536.64	64.094
536.98	61.742
537.32	62.945
537.66	63.885
538.01	63.636
538.35	62.760
538.69	62.450
539.03	62.269
539.37	61.709
539.71	62.918
540.05	62.390
540.39	61.981
540.73	62.901
541.07	63.191
541.42	62.702
541.76	63.248
542.10	63.248
542.44	61.432
542.78	61.666
543.12	62.363
543.46	62.517
543.80	61.971
544.14	59.880
544.48	61.892
544.82	62.816
545.16	62.910
545.50	62.083
545.84	63.456
546.18	63.121
546.52	62.509
546.86	62.832
547.20	62.017
547.54	60.777
547.88	62.704
548.22	60.947
548.56	61.741
548.90	63.881
549.24	61.915
549.58	61.001
549.92	61.615
550.26	62.930
550.60	62.974
550.94	63.406
551.28	62.597
551.62	62.154
551.96	64.135
552.30	62.573
552.64	62.623
552.98	62.307
553.32	62.839
553.66	62.554
554.00	63.504
554.34	63.811
554.68	62.021
555.02	63.095
555.36	63.276
555.69	60.659
556.03	63.312
556.37	61.851
556.71	63.105
557.05	62.938
557.39	62.825
557.73	62.369
558.07	64.329
558.41	63.017
558.75	61.886
559.08	62.963
559.42	64.444
559.76	63.411
560.10	61.774
560.44	62.249
560.78	61.469
561.12	63.188
561.45	63.879
561.79	62.745
562.13	63.165
562.47	63.597
562.81	61.455
563.15	62.694
563.48	63.861
563.82	63.693
564.16	64.415
564.50	60.608
564.84	62.450
565.17	62.039
565.51	64.891
565.85	63.512
566.19	64.390
566.52	64.410
566.86	63.496
567.20	63.076
567.54	65.268
567.88	64.558
568.21	64.423
568.55	63.043
568.89	64.784
569.23	64.035
569.56	63.529
569.90	65.246
570.24	63.156
570.57	64.145
570.91	65.354
571.25	64.255
571.59	63.345
571.92	61.837
572.26	63.678
572.60	62.605
572.93	62.880
573.27	62.727
573.61	62.888
573.95	63.162
574.28	62.685
574.62	63.514
574.96	63.151
575.29	63.301
575.63	61.648
575.97	62.429
576.30	62.890
576.64	62.305
576.98	63.475
577.31	63.554
577.65	63.394
577.98	63.779
578.32	63.045
578.66	63.486
578.99	62.401
579.33	62.028
579.67	62.528
580.00	62.911
580.34	63.408
580.67	62.067
581.01	63.953
581.35	63.415
581.68	63.767
582.02	64.012
582.35	63.473
582.69	63.771
583.02	62.999
583.36	63.497
583.70	63.915
584.03	64.526
584.37	64.794
584.70	63.269
585.04	63.394
585.37	63.415
585.71	63.367
586.04	63.540
586.38	64.070
586.72	64.218
587.05	64.616
587.39	63.601
587.72	64.790
588.06	64.268
588.39	64.426
588.73	63.217
589.06	64.481
589.40	63.152
589.73	63.928
590.07	64.086
590.40	65.402
590.73	66.269
591.07	63.783
591.40	63.936
591.74	62.624
592.07	64.518
592.41	64.664
592.74	63.720
593.08	62.906
593.41	63.328
593.75	64.050
594.08	62.925
594.41	63.137
594.75	63.740
595.08	63.942
595.42	64.556
595.75	65.190
596.09	64.504
596.42	63.869
596.75	63.810
597.09	63.554
597.42	64.770
597.75	64.498
598.09	63.241
598.42	63.042
598.76	64.136
599.09	63.341
599.42	62.599
599.76	63.168
600.09	63.650
600.42	63.419
600.76	63.001
601.09	64.275
601.42	61.966
601.76	64.272
602.09	63.531
602.42	65.206
602.76	64.389
603.09	64.327
603.42	66.095
603.76	64.194
604.09	64.156
604.42	64.171
604.76	65.198
605.09	65.219
605.42	63.251
605.75	64.799
606.09	63.907
606.42	63.261
606.75	63.550
607.09	63.473
607.42	63.181
607.75	63.410
608.08	62.893
608.42	62.449
608.75	64.241
609.08	64.873
609.41	63.807
609.75	63.054
610.08	65.302
610.41	63.720
610.74	64.408
611.07	64.703
611.41	64.660
611.74	65.618
612.07	63.758
612.40	64.825
612.73	65.311
613.07	64.342
613.40	62.856
613.73	63.458
614.06	63.606
614.39	63.959
614.72	64.258
615.06	65.251
615.39	63.592
615.72	63.025
616.05	63.743
616.38	63.476
616.71	64.343
617.05	65.349
617.38	64.488
617.71	65.220
618.04	66.032
618.37	65.637
618.70	64.752
619.03	66.458
619.36	65.340
619.69	66.945
620.03	65.595
620.36	64.878
620.69	62.812
621.02	64.373
621.35	66.805
621.68	66.071
622.01	66.583
622.34	64.884
622.67	66.167
623.00	65.237
623.33	65.625
623.66	65.819
623.99	64.826
624.32	66.084
624.65	65.639
624.99	66.065
625.32	64.822
625.65	65.357
625.98	65.592
626.31	64.339
626.64	66.118
626.97	64.311
627.30	66.550
627.63	64.818
627.96	65.678
628.29	66.142
628.62	66.863
628.95	64.729
629.28	66.331
629.61	65.304
629.94	67.742
630.26	64.328
630.59	67.014
630.92	65.333
631.25	63.385
631.58	65.419
631.91	65.241
632.24	65.826
632.57	65.000
632.90	67.616
633.23	65.647
633.56	67.380
633.89	64.488
