SpectraSuite Data File
++++++++++++++++++++++++++++++++++++
Date: Fri May 15 17:12:34 PDT 2015
User: schluterlab
Dark Spectrum Present: Yes
Reference Spectrum Present: Yes
Number of Sampled Component Spectra: 1
Spectrometers: USB2E3373
Integration Time (usec): 3000 (USB2E3373)
Spectra Averaged: 3 (USB2E3373)
Boxcar Smoothing: 0 (USB2E3373)
Correct for Electrical Dark: No (USB2E3373)
Strobe/Lamp Enabled: No (USB2E3373)
Correct for Detector Non-linearity: No (USB2E3373)
Correct for Stray Light: No (USB2E3373)
Number of Pixels in Processed Spectrum: 2048
>>>>>Begin Processed Spectral Data<<<<<
178.53	0.000
178.91	0.000
179.29	150.000
179.67	50.000
180.04	-142.857
180.42	75.000
180.80	-500.000
181.18	33.333
181.56	-0.000
181.94	-200.000
182.31	900.000
182.69	140.000
183.07	-100.000
183.45	260.000
183.83	166.667
184.20	63.636
184.58	44.444
184.96	-75.000
185.34	-133.333
185.72	100.000
186.09	69.231
186.47	-100.000
186.85	-0.000
187.23	77.778
187.61	-400.000
187.98	0.000
188.36	-11.111
188.74	133.333
189.12	41.176
189.49	33.333
189.87	0.000
190.25	85.714
190.63	300.000
191.00	-100.000
191.38	36.842
191.76	350.000
192.14	-150.000
192.51	700.000
192.89	-100.000
193.27	-28.571
193.65	-66.667
194.02	-0.000
194.40	10.000
194.78	-112.500
195.15	0.000
195.53	12.500
195.91	200.000
196.29	-50.000
196.66	100.000
197.04	114.286
197.42	44.444
197.79	-233.333
198.17	-84.615
198.55	600.000
198.92	0.000
199.30	-200.000
199.68	20.000
200.05	-166.667
200.43	0.000
200.81	-100.000
201.18	33.333
201.56	100.000
201.94	-300.000
202.31	-133.333
202.69	0.000
203.07	-275.000
203.44	-800.000
203.82	0.000
204.19	42.857
204.57	-133.333
204.95	-75.000
205.32	50.000
205.70	42.857
206.08	-25.000
206.45	166.667
206.83	78.571
207.20	-28.571
207.58	300.000
207.96	133.333
208.33	-60.000
208.71	50.000
209.08	16.667
209.46	100.000
209.84	-20.000
210.21	-1300.000
210.59	-28.571
210.96	-50.000
211.34	25.000
211.71	33.333
212.09	-100.000
212.46	-1300.000
212.84	0.000
213.22	10.000
213.59	250.000
213.97	100.000
214.34	54.545
214.72	-33.333
215.09	250.000
215.47	7.692
215.84	-9.091
216.22	-133.333
216.59	50.000
216.97	550.000
217.34	-50.000
217.72	-220.000
218.09	62.500
218.47	75.000
218.84	-100.000
219.22	-55.556
219.59	80.000
219.97	200.000
220.34	50.000
220.72	85.714
221.09	-175.000
221.47	-150.000
221.84	-300.000
222.22	-800.000
222.59	36.364
222.97	75.000
223.34	-266.667
223.72	35.714
224.09	57.143
224.46	64.286
224.84	33.333
225.21	-20.000
225.59	-6.667
225.96	300.000
226.34	250.000
226.71	14.286
227.08	183.333
227.46	-100.000
227.83	100.000
228.21	77.778
228.58	45.455
228.95	50.000
229.33	110.000
229.70	68.750
230.08	-62.500
230.45	-14.286
230.82	214.286
231.20	20.000
231.57	35.714
231.95	128.571
232.32	-50.000
232.69	57.143
233.07	200.000
233.44	-60.000
233.81	-30.000
234.19	-55.556
234.56	29.412
234.93	150.000
235.31	175.000
235.68	-40.000
236.05	-15.385
236.43	15.000
236.80	64.706
237.17	12.500
237.55	40.000
237.92	-3.704
238.29	25.000
238.67	20.000
239.04	41.176
239.41	-7.317
239.79	6.667
240.16	43.902
240.53	31.579
240.91	10.870
241.28	22.222
241.65	33.929
242.02	42.466
242.40	28.333
242.77	37.288
243.14	15.152
243.51	31.250
243.89	32.184
244.26	26.437
244.63	23.810
245.00	26.804
245.38	26.804
245.75	22.472
246.12	25.862
246.49	26.446
246.87	37.500
247.24	30.252
247.61	21.930
247.98	24.390
248.36	32.500
248.73	26.974
249.10	29.870
249.47	27.848
249.84	24.183
250.22	24.706
250.59	30.719
250.96	31.925
251.33	25.000
251.70	26.471
252.08	32.487
252.45	29.208
252.82	31.658
253.19	30.415
253.56	25.234
253.94	32.883
254.31	32.174
254.68	31.579
255.05	26.772
255.42	28.821
255.79	24.710
256.16	25.292
256.54	33.582
256.91	31.559
257.28	30.483
257.65	29.213
258.02	28.014
258.39	30.303
258.76	27.839
259.14	32.890
259.51	32.039
259.88	26.804
260.25	27.451
260.62	33.333
260.99	27.458
261.36	27.397
261.73	25.633
262.10	27.660
262.47	26.994
262.85	28.840
263.22	30.769
263.59	27.414
263.96	31.056
264.33	30.909
264.70	27.976
265.07	29.464
265.44	28.895
265.81	27.684
266.18	30.328
266.55	28.278
266.92	29.016
267.29	29.243
267.66	28.645
268.03	28.796
268.40	27.415
268.77	31.283
269.14	27.818
269.51	29.820
269.88	28.678
270.25	26.020
270.62	25.610
270.99	27.366
271.36	26.895
271.73	29.812
272.10	28.224
272.47	28.132
272.84	30.446
273.21	26.450
273.58	29.398
273.95	29.519
274.32	26.097
274.69	26.018
275.06	29.464
275.43	24.943
275.80	30.022
276.17	28.046
276.54	26.552
276.91	28.509
277.28	28.166
277.65	28.099
278.02	25.106
278.39	28.884
278.76	28.721
279.13	23.029
279.50	28.151
279.87	29.158
280.23	24.731
280.60	26.706
280.97	26.465
281.34	26.346
281.71	29.569
282.08	27.607
282.45	25.636
282.82	26.255
283.19	26.499
283.56	26.012
283.92	25.427
284.29	24.423
284.66	25.388
285.03	24.951
285.40	24.764
285.77	23.902
286.14	24.368
286.51	27.306
286.87	25.411
287.24	23.573
287.61	24.868
287.98	25.088
288.35	25.303
288.72	26.270
289.08	22.049
289.45	24.605
289.82	25.699
290.19	24.061
290.56	23.499
290.93	23.906
291.29	21.263
291.66	22.362
292.03	21.531
292.40	24.032
292.77	22.010
293.13	19.968
293.50	23.065
293.87	21.985
294.24	20.247
294.60	21.162
294.97	21.875
295.34	22.086
295.71	20.417
296.08	22.422
296.44	19.061
296.81	21.806
297.18	21.014
297.55	21.816
297.91	20.822
298.28	20.053
298.65	19.810
299.02	19.811
299.38	19.015
299.75	18.483
300.12	19.503
300.48	18.972
300.85	20.025
301.22	18.442
301.59	19.474
301.95	18.481
302.32	20.752
302.69	18.657
303.05	17.946
303.42	18.555
303.79	18.575
304.15	19.833
304.52	17.479
304.89	17.193
305.25	17.797
305.62	16.919
305.99	18.830
306.35	18.035
306.72	18.335
307.09	18.016
307.45	18.370
307.82	17.245
308.19	17.886
308.55	18.103
308.92	18.192
309.29	16.313
309.65	18.622
310.02	17.162
310.38	18.441
310.75	17.923
311.12	16.685
311.48	16.755
311.85	17.696
312.22	16.139
312.58	16.879
312.95	15.368
313.31	16.563
313.68	15.707
314.05	17.041
314.41	17.938
314.78	17.216
315.14	18.088
315.51	16.253
315.87	15.881
316.24	17.492
316.61	17.618
316.97	16.468
317.34	16.309
317.70	16.348
318.07	16.731
318.43	17.059
318.80	16.761
319.16	16.992
319.53	18.139
319.89	16.339
320.26	16.296
320.62	18.054
320.99	15.553
321.35	16.958
321.72	17.238
322.08	15.911
322.45	16.853
322.81	17.191
323.18	16.977
323.54	16.409
323.91	17.429
324.27	16.016
324.64	16.573
325.00	17.609
325.37	17.080
325.73	16.682
326.10	16.803
326.46	17.848
326.83	15.748
327.19	16.652
327.56	15.986
327.92	17.782
328.29	15.804
328.65	16.792
329.01	16.636
329.38	16.774
329.74	17.092
330.11	16.589
330.47	15.399
330.84	15.673
331.20	17.966
331.56	15.833
331.93	17.717
332.29	17.690
332.66	16.380
333.02	15.985
333.38	16.957
333.75	17.399
334.11	16.115
334.48	15.956
334.84	16.667
335.20	16.651
335.57	16.047
335.93	17.254
336.29	16.851
336.66	15.985
337.02	15.335
337.38	15.463
337.75	16.091
338.11	15.780
338.47	17.153
338.84	16.636
339.20	15.356
339.56	15.963
339.93	16.473
340.29	15.046
340.65	16.846
341.02	15.514
341.38	16.991
341.74	15.283
342.11	14.905
342.47	15.480
342.83	16.955
343.20	15.854
343.56	15.391
343.92	15.589
344.28	15.969
344.65	16.149
345.01	15.212
345.37	15.223
345.73	16.067
346.10	15.789
346.46	15.896
346.82	15.876
347.19	15.960
347.55	14.620
347.91	16.019
348.27	15.521
348.63	16.014
349.00	14.520
349.36	15.295
349.72	15.837
350.08	14.836
350.45	16.042
350.81	14.452
351.17	15.228
351.53	16.163
351.89	15.524
352.26	14.160
352.62	15.806
352.98	15.020
353.34	14.895
353.70	16.990
354.07	16.290
354.43	15.612
354.79	15.607
355.15	14.524
355.51	15.823
355.87	15.372
356.24	14.763
356.60	14.228
356.96	15.397
357.32	15.575
357.68	14.464
358.04	14.540
358.40	15.514
358.77	15.630
359.13	14.331
359.49	14.869
359.85	13.885
360.21	15.152
360.57	13.542
360.93	15.280
361.29	14.275
361.66	15.282
362.02	15.227
362.38	15.080
362.74	14.383
363.10	14.974
363.46	14.752
363.82	15.552
364.18	14.244
364.54	14.338
364.90	14.767
365.26	14.556
365.62	15.620
365.98	14.589
366.35	14.130
366.71	15.004
367.07	14.296
367.43	13.587
367.79	14.417
368.15	14.501
368.51	14.202
368.87	14.070
369.23	13.718
369.59	14.504
369.95	14.883
370.31	14.162
370.67	14.552
371.03	13.592
371.39	13.421
371.75	14.945
372.11	14.551
372.47	14.571
372.83	15.046
373.19	13.552
373.55	14.296
373.91	15.263
374.27	14.245
374.63	14.860
374.99	14.397
375.35	14.763
375.71	14.895
376.07	14.185
376.42	15.034
376.78	14.362
377.14	14.353
377.50	14.143
377.86	14.592
378.22	14.742
378.58	14.359
378.94	13.548
379.30	14.223
379.66	15.235
380.02	13.979
380.38	14.364
380.74	13.645
381.09	15.951
381.45	14.434
381.81	14.867
382.17	14.023
382.53	15.053
382.89	15.191
383.25	15.246
383.61	14.756
383.97	13.968
384.32	13.508
384.68	14.427
385.04	13.419
385.40	14.997
385.76	15.031
386.12	14.618
386.48	15.326
386.83	14.394
387.19	15.263
387.55	15.433
387.91	13.998
388.27	13.858
388.62	15.041
388.98	14.733
389.34	14.991
389.70	15.103
390.06	14.349
390.42	14.249
390.77	14.716
391.13	14.754
391.49	14.942
391.85	14.360
392.20	14.124
392.56	14.240
392.92	14.269
393.28	15.153
393.64	14.414
393.99	16.238
394.35	14.295
394.71	15.006
395.07	15.273
395.42	14.693
395.78	14.072
396.14	15.195
396.50	16.043
396.85	14.681
397.21	15.163
397.57	14.984
397.92	15.219
398.28	14.828
398.64	14.759
399.00	15.011
399.35	14.616
399.71	15.336
400.07	14.631
400.42	14.565
400.78	15.432
401.14	14.459
401.49	15.068
401.85	15.478
402.21	15.361
402.57	15.125
402.92	14.178
403.28	14.787
403.63	15.385
403.99	15.051
404.35	15.053
404.70	14.881
405.06	15.159
405.42	15.973
405.77	13.713
406.13	14.959
406.49	15.157
406.84	15.098
407.20	15.834
407.55	14.037
407.91	14.104
408.27	15.296
408.62	15.692
408.98	15.650
409.34	15.366
409.69	14.858
410.05	14.594
410.40	15.556
410.76	15.923
411.11	15.125
411.47	15.253
411.83	15.254
412.18	15.637
412.54	14.357
412.89	15.086
413.25	15.102
413.60	15.590
413.96	14.785
414.31	15.244
414.67	14.753
415.03	14.581
415.38	15.666
415.74	15.700
416.09	15.480
416.45	15.665
416.80	14.937
417.16	14.986
417.51	16.123
417.87	14.668
418.22	14.702
418.58	15.050
418.93	15.799
419.29	14.597
419.64	14.647
420.00	16.688
420.35	14.985
420.71	15.917
421.06	15.777
421.42	15.625
421.77	16.705
422.12	14.642
422.48	16.080
422.83	14.965
423.19	15.688
423.54	15.285
423.90	14.723
424.25	15.155
424.61	15.667
424.96	15.215
425.31	16.291
425.67	15.669
426.02	16.313
426.38	15.780
426.73	16.344
427.09	15.696
427.44	15.471
427.79	16.028
428.15	16.019
428.50	15.627
428.85	15.233
429.21	16.355
429.56	16.712
429.92	16.281
430.27	16.040
430.62	15.055
430.98	15.393
431.33	16.299
431.68	16.484
432.04	16.546
432.39	15.459
432.74	15.695
433.10	16.609
433.45	15.651
433.80	16.019
434.16	15.346
434.51	15.645
434.86	15.679
435.22	15.480
435.57	16.282
435.92	17.066
436.28	16.518
436.63	15.573
436.98	16.280
437.34	15.729
437.69	16.518
438.04	16.296
438.39	16.432
438.75	15.968
439.10	16.016
439.45	17.042
439.81	16.820
440.16	17.221
440.51	16.597
440.86	17.100
441.22	17.081
441.57	15.784
441.92	17.261
442.27	16.741
442.63	17.719
442.98	16.772
443.33	16.750
443.68	16.923
444.03	17.486
444.39	16.970
444.74	17.614
445.09	17.706
445.44	16.695
445.79	17.483
446.15	17.566
446.50	16.528
446.85	17.109
447.20	16.893
447.55	18.527
447.91	17.202
448.26	18.099
448.61	17.386
448.96	16.810
449.31	16.763
449.66	17.480
450.02	17.741
450.37	16.775
450.72	17.239
451.07	16.962
451.42	17.291
451.77	16.998
452.12	17.165
452.47	17.257
452.83	17.197
453.18	16.445
453.53	18.078
453.88	17.851
454.23	17.025
454.58	18.010
454.93	18.363
455.28	16.508
455.63	17.545
455.98	17.799
456.34	17.944
456.69	17.598
457.04	17.643
457.39	16.889
457.74	17.291
458.09	17.540
458.44	17.437
458.79	17.311
459.14	17.449
459.49	18.328
459.84	18.218
460.19	16.990
460.54	17.665
460.89	17.443
461.24	17.826
461.59	17.815
461.94	17.421
462.29	17.913
462.64	18.671
462.99	17.739
463.34	17.524
463.69	16.538
464.04	17.615
464.39	16.980
464.74	18.098
465.09	17.904
465.44	17.138
465.79	16.837
466.14	17.161
466.49	17.481
466.84	18.679
467.19	17.710
467.54	17.816
467.89	17.751
468.24	18.552
468.59	17.778
468.94	17.714
469.29	18.689
469.64	18.455
469.99	18.500
470.34	17.816
470.68	17.450
471.03	17.834
471.38	18.046
471.73	18.557
472.08	17.639
472.43	17.584
472.78	16.724
473.13	18.367
473.48	17.915
473.83	17.497
474.17	17.358
474.52	17.869
474.87	17.818
475.22	17.999
475.57	18.012
475.92	17.828
476.27	17.986
476.61	18.692
476.96	17.234
477.31	17.739
477.66	17.416
478.01	17.799
478.36	18.192
478.70	18.271
479.05	17.912
479.40	17.859
479.75	17.675
480.10	17.819
480.45	17.750
480.79	18.278
481.14	17.725
481.49	17.241
481.84	18.002
482.19	17.540
482.53	17.890
482.88	17.947
483.23	17.946
483.58	17.500
483.92	17.280
484.27	17.730
484.62	17.884
484.97	17.164
485.31	17.305
485.66	16.953
486.01	16.991
486.36	17.142
486.70	17.369
487.05	17.534
487.40	18.149
487.75	17.972
488.09	17.336
488.44	17.263
488.79	18.155
489.13	18.510
489.48	17.315
489.83	17.489
490.17	17.753
490.52	18.014
490.87	17.816
491.22	18.481
491.56	17.742
491.91	18.212
492.26	17.550
492.60	17.994
492.95	18.347
493.30	18.173
493.64	18.615
493.99	17.440
494.34	17.621
494.68	17.810
495.03	17.518
495.37	17.812
495.72	18.223
496.07	18.049
496.41	17.642
496.76	17.780
497.11	17.513
497.45	18.568
497.80	18.063
498.14	17.437
498.49	17.725
498.84	17.764
499.18	17.620
499.53	17.907
499.87	17.704
500.22	17.705
500.56	18.507
500.91	18.022
501.26	17.696
501.60	17.609
501.95	17.564
502.29	17.772
502.64	18.340
502.98	17.810
503.33	17.723
503.67	17.349
504.02	18.328
504.36	18.209
504.71	17.273
505.06	17.816
505.40	17.716
505.75	17.887
506.09	18.398
506.44	18.172
506.78	18.367
507.13	18.201
507.47	17.128
507.82	16.987
508.16	17.750
508.51	18.311
508.85	17.635
509.19	17.722
509.54	17.855
509.88	17.530
510.23	17.805
510.57	17.638
510.92	17.111
511.26	17.730
511.61	18.042
511.95	18.027
512.30	18.792
512.64	18.475
512.98	17.855
513.33	18.970
513.67	17.794
514.02	19.451
514.36	18.914
514.70	18.298
515.05	19.095
515.39	16.942
515.74	18.922
516.08	18.290
516.42	18.375
516.77	18.081
517.11	17.685
517.46	18.552
517.80	18.772
518.14	17.759
518.49	18.930
518.83	17.861
519.17	17.404
519.52	17.584
519.86	17.227
520.20	17.436
520.55	16.573
520.89	18.444
521.23	18.366
521.58	19.432
521.92	18.526
522.26	18.152
522.61	17.857
522.95	18.477
523.29	17.980
523.64	18.361
523.98	18.471
524.32	18.686
524.66	18.694
525.01	18.766
525.35	17.693
525.69	17.306
526.04	17.989
526.38	19.520
526.72	17.789
527.06	18.353
527.41	18.734
527.75	18.097
528.09	18.405
528.43	19.041
528.78	17.690
529.12	18.323
529.46	17.479
529.80	17.479
530.15	18.746
530.49	18.451
530.83	17.852
531.17	17.058
531.51	18.399
531.86	18.151
532.20	16.841
532.54	18.788
532.88	18.480
533.22	19.019
533.57	18.152
533.91	17.950
534.25	18.555
534.59	18.153
534.93	16.992
535.27	18.020
535.62	17.563
535.96	17.547
536.30	18.799
536.64	18.332
536.98	17.770
537.32	19.061
537.66	17.812
538.01	18.741
538.35	18.585
538.69	17.643
539.03	18.729
539.37	19.448
539.71	18.678
540.05	18.194
540.39	18.006
540.73	17.992
541.07	18.923
541.42	18.952
541.76	19.133
542.10	18.651
542.44	17.651
542.78	17.550
543.12	17.651
543.46	18.081
543.80	18.043
544.14	17.290
544.48	17.988
544.82	18.319
545.16	18.443
545.50	18.091
545.84	19.122
546.18	19.291
546.52	17.736
546.86	18.548
547.20	19.099
547.54	18.516
547.88	18.274
548.22	18.540
548.56	18.272
548.90	18.261
549.24	18.595
549.58	17.842
549.92	17.441
550.26	18.828
550.60	17.993
550.94	18.521
551.28	18.624
551.62	18.538
551.96	18.571
552.30	17.763
552.64	17.842
552.98	18.214
553.32	18.759
553.66	17.852
554.00	18.321
554.34	18.981
554.68	18.215
555.02	18.527
555.36	17.876
555.69	17.875
556.03	17.702
556.37	17.794
556.71	19.206
557.05	17.748
557.39	17.249
557.73	18.966
558.07	19.005
558.41	18.300
558.75	19.096
559.08	19.070
559.42	17.698
559.76	18.495
560.10	18.349
560.44	18.690
560.78	18.462
561.12	17.983
561.45	18.833
561.79	18.277
562.13	19.233
562.47	18.058
562.81	18.012
563.15	18.618
563.48	18.529
563.82	18.943
564.16	18.872
564.50	18.176
564.84	18.608
565.17	18.243
565.51	18.579
565.85	18.519
566.19	18.767
566.52	18.901
566.86	18.380
567.20	17.808
567.54	17.701
567.88	18.864
568.21	18.609
568.55	18.207
568.89	17.608
569.23	18.151
569.56	18.082
569.90	17.580
570.24	17.901
570.57	17.818
570.91	18.090
571.25	18.283
571.59	17.378
571.92	17.452
572.26	17.723
572.60	17.147
572.93	17.509
573.27	17.429
573.61	18.109
573.95	17.286
574.28	16.870
574.62	17.213
574.96	17.776
575.29	17.567
575.63	17.388
575.97	17.593
576.30	17.768
576.64	17.272
576.98	17.632
577.31	17.842
577.65	17.729
577.98	17.688
578.32	17.080
578.66	17.043
578.99	17.197
579.33	17.962
579.67	17.689
580.00	17.418
580.34	17.289
580.67	17.409
581.01	17.699
581.35	17.593
581.68	17.300
582.02	17.581
582.35	17.493
582.69	17.374
583.02	17.518
583.36	17.625
583.70	17.887
584.03	18.210
584.37	17.702
584.70	17.940
585.04	17.176
585.37	17.690
585.71	17.502
586.04	17.297
586.38	17.311
586.72	17.905
587.05	17.851
587.39	17.864
587.72	18.316
588.06	17.658
588.39	17.915
588.73	17.979
589.06	18.265
589.40	17.905
589.73	18.182
590.07	18.391
590.40	18.344
590.73	18.781
591.07	18.109
591.40	18.299
591.74	18.009
592.07	18.553
592.41	19.125
592.74	17.802
593.08	17.185
593.41	17.792
593.75	17.534
594.08	17.439
594.41	17.686
594.75	18.015
595.08	18.199
595.42	17.998
595.75	18.701
596.09	18.491
596.42	18.644
596.75	17.851
597.09	18.223
597.42	18.790
597.75	17.911
598.09	17.836
598.42	17.825
598.76	17.889
599.09	18.229
599.42	17.696
599.76	17.419
600.09	17.722
600.42	18.158
600.76	17.533
601.09	17.863
601.42	17.391
601.76	18.142
602.09	17.822
602.42	18.534
602.76	17.530
603.09	18.023
603.42	18.102
603.76	17.984
604.09	18.104
604.42	17.555
604.76	18.514
605.09	18.601
605.42	18.014
605.75	17.776
606.09	18.004
606.42	17.932
606.75	17.879
607.09	18.418
607.42	18.033
607.75	17.718
608.08	17.251
608.42	17.908
608.75	18.458
609.08	17.539
609.41	18.071
609.75	17.087
610.08	18.372
610.41	17.778
610.74	17.504
611.07	17.519
611.41	18.319
611.74	18.017
612.07	17.291
612.40	18.271
612.73	18.023
613.07	17.435
613.40	18.053
613.73	17.571
614.06	17.696
614.39	17.936
614.72	17.031
615.06	17.877
615.39	17.795
615.72	17.169
616.05	18.101
616.38	16.980
616.71	16.942
617.05	18.159
617.38	18.479
617.71	17.925
618.04	18.413
618.37	18.852
618.70	18.086
619.03	19.375
619.36	17.221
619.69	18.726
620.03	18.408
620.36	17.954
620.69	18.130
621.02	18.502
621.35	19.585
621.68	18.793
622.01	17.417
622.34	17.159
622.67	18.454
623.00	17.917
623.33	17.835
623.66	17.801
623.99	18.306
624.32	18.327
624.65	17.895
624.99	18.811
625.32	17.286
625.65	18.225
625.98	18.695
626.31	17.789
626.64	18.284
626.97	18.674
627.30	18.476
627.63	18.284
627.96	17.520
628.29	18.686
628.62	18.781
628.95	18.938
629.28	19.153
629.61	16.949
629.94	18.768
630.26	19.170
630.59	18.730
630.92	19.179
631.25	18.564
631.58	19.604
631.91	16.667
632.24	18.578
632.57	19.091
632.90	17.438
633.23	20.941
633.56	17.884
633.89	19.112
