SpectraSuite Data File
++++++++++++++++++++++++++++++++++++
Date: Fri May 15 20:10:04 PDT 2015
User: schluterlab
Dark Spectrum Present: Yes
Reference Spectrum Present: Yes
Number of Sampled Component Spectra: 1
Spectrometers: USB2E3373
Integration Time (usec): 3000 (USB2E3373)
Spectra Averaged: 3 (USB2E3373)
Boxcar Smoothing: 0 (USB2E3373)
Correct for Electrical Dark: No (USB2E3373)
Strobe/Lamp Enabled: No (USB2E3373)
Correct for Detector Non-linearity: No (USB2E3373)
Correct for Stray Light: No (USB2E3373)
Number of Pixels in Processed Spectrum: 2048
>>>>>Begin Processed Spectral Data<<<<<
178.53	0.000
178.91	0.000
179.29	62.500
179.67	-150.000
180.04	-28.571
180.42	50.000
180.80	0.000
181.18	-33.333
181.56	400.000
181.94	100.000
182.31	400.000
182.69	-120.000
183.07	33.333
183.45	-20.000
183.83	-0.000
184.20	54.545
184.58	233.333
184.96	50.000
185.34	-466.667
185.72	-50.000
186.09	61.538
186.47	-800.000
186.85	-50.000
187.23	155.556
187.61	-200.000
187.98	200.000
188.36	66.667
188.74	-166.667
189.12	52.941
189.49	33.333
189.87	0.000
190.25	50.000
190.63	100.000
191.00	100.000
191.38	31.579
191.76	200.000
192.14	-200.000
192.51	200.000
192.89	22.222
193.27	-142.857
193.65	100.000
194.02	109.091
194.40	0.000
194.78	-37.500
195.15	8.333
195.53	-25.000
195.91	225.000
196.29	-250.000
196.66	123.077
197.04	42.857
197.42	33.333
197.79	-133.333
198.17	-61.538
198.55	600.000
198.92	133.333
199.30	300.000
199.68	40.000
200.05	-133.333
200.43	0.000
200.81	0.000
201.18	33.333
201.56	600.000
201.94	-150.000
202.31	100.000
202.69	-160.000
203.07	-175.000
203.44	700.000
203.82	0.000
204.19	28.571
204.57	-333.333
204.95	12.500
205.32	50.000
205.70	200.000
206.08	-75.000
206.45	200.000
206.83	42.857
207.20	14.286
207.58	100.000
207.96	-66.667
208.33	-140.000
208.71	-300.000
209.08	-183.333
209.46	-400.000
209.84	-60.000
210.21	-600.000
210.59	14.286
210.96	100.000
211.34	-225.000
211.71	46.667
212.09	-157.143
212.46	-1100.000
212.84	0.000
213.22	150.000
213.59	-0.000
213.97	46.154
214.34	54.545
214.72	183.333
215.09	525.000
215.47	7.692
215.84	9.091
216.22	-300.000
216.59	-12.500
216.97	50.000
217.34	225.000
217.72	-40.000
218.09	-12.500
218.47	87.500
218.84	300.000
219.22	-111.111
219.59	-200.000
219.97	66.667
220.34	175.000
220.72	-14.286
221.09	25.000
221.47	100.000
221.84	-800.000
222.22	-450.000
222.59	109.091
222.97	41.667
223.34	400.000
223.72	-50.000
224.09	-9.524
224.46	14.286
224.84	100.000
225.21	50.000
225.59	26.667
225.96	-50.000
226.34	375.000
226.71	-142.857
227.08	16.667
227.46	-25.000
227.83	0.000
228.21	66.667
228.58	-27.273
228.95	137.500
229.33	70.000
229.70	56.250
230.08	-62.500
230.45	28.571
230.82	200.000
231.20	-60.000
231.57	57.143
231.95	157.143
232.32	110.000
232.69	57.143
233.07	66.667
233.44	220.000
233.81	-130.000
234.19	111.111
234.56	17.647
234.93	-0.000
235.31	225.000
235.68	-20.000
236.05	-7.692
236.43	15.000
236.80	88.235
237.17	68.750
237.55	95.000
237.92	37.037
238.29	27.778
238.67	63.333
239.04	35.294
239.41	34.146
239.79	63.333
240.16	82.927
240.53	60.526
240.91	41.304
241.28	63.492
241.65	69.643
242.02	61.644
242.40	63.333
242.77	57.627
243.14	68.182
243.51	66.250
243.89	66.667
244.26	57.471
244.63	66.667
245.00	55.670
245.38	52.577
245.75	46.067
246.12	53.448
246.49	55.372
246.87	67.308
247.24	55.462
247.61	63.158
247.98	66.667
248.36	51.875
248.73	63.816
249.10	51.299
249.47	63.924
249.84	56.863
250.22	61.765
250.59	58.824
250.96	55.399
251.33	62.791
251.70	62.353
252.08	66.497
252.45	53.465
252.82	60.804
253.19	59.447
253.56	54.673
253.94	57.658
254.31	56.957
254.68	63.158
255.05	58.268
255.42	62.445
255.79	57.529
256.16	59.922
256.54	58.955
256.91	58.935
257.28	55.390
257.65	61.798
258.02	55.674
258.39	56.566
258.76	60.806
259.14	60.465
259.51	61.165
259.88	57.045
260.25	57.516
260.62	67.708
260.99	50.847
261.36	57.192
261.73	58.861
262.10	56.839
262.47	60.123
262.85	60.502
263.22	60.000
263.59	60.125
263.96	59.938
264.33	59.394
264.70	61.607
265.07	60.417
265.44	62.323
265.81	53.672
266.18	62.568
266.55	57.584
266.92	59.326
267.29	58.486
267.66	59.079
268.03	56.545
268.40	58.225
268.77	61.497
269.14	54.436
269.51	61.440
269.88	56.359
270.25	57.908
270.62	55.610
270.99	54.987
271.36	55.501
271.73	55.399
272.10	57.664
272.47	59.574
272.84	57.426
273.21	56.148
273.58	57.831
273.95	56.522
274.32	53.811
274.69	54.299
275.06	58.482
275.43	55.782
275.80	53.642
276.17	54.713
276.54	54.390
276.91	57.237
277.28	53.275
277.65	55.165
278.02	53.191
278.39	52.298
278.76	54.298
279.13	52.282
279.50	52.521
279.87	54.212
280.23	52.903
280.60	52.242
280.97	54.343
281.34	51.923
281.71	52.772
282.08	53.374
282.45	52.838
282.82	49.807
283.19	53.191
283.56	50.867
283.92	51.613
284.29	51.346
284.66	52.519
285.03	51.081
285.40	50.851
285.77	45.694
286.14	51.444
286.51	50.185
286.87	49.177
287.24	50.829
287.61	48.854
287.98	50.877
288.35	47.487
288.72	50.438
289.08	47.222
289.45	49.385
289.82	45.979
290.19	45.051
290.56	47.684
290.93	44.613
291.29	44.530
291.66	44.724
292.03	44.338
292.40	44.839
292.77	42.105
293.13	41.558
293.50	43.096
293.87	40.763
294.24	40.649
294.60	40.238
294.97	42.560
295.34	42.791
295.71	39.940
296.08	38.864
296.44	40.114
296.81	37.083
297.18	40.000
297.55	38.211
297.91	38.082
298.28	38.391
298.65	36.499
299.02	36.119
299.38	35.568
299.75	38.069
300.12	36.518
300.48	34.651
300.85	36.248
301.22	35.455
301.59	35.789
301.95	35.949
302.32	35.538
302.69	35.572
303.05	36.510
303.42	33.624
303.79	34.696
304.15	36.679
304.52	32.342
304.89	31.930
305.25	33.535
305.62	31.855
305.99	33.684
306.35	34.220
306.72	32.508
307.09	34.892
307.45	33.180
307.82	32.176
308.19	34.611
308.55	32.388
308.92	34.532
309.29	32.179
309.65	31.862
310.02	32.233
310.38	32.711
310.75	32.896
311.12	33.046
311.48	31.495
311.85	29.215
312.22	30.591
312.58	31.423
312.95	32.444
313.31	31.988
313.68	31.518
314.05	30.306
314.41	32.268
314.78	32.268
315.14	32.374
315.51	32.091
315.87	31.250
316.24	32.457
316.61	31.890
316.97	30.258
317.34	30.664
317.70	29.637
318.07	30.288
318.43	30.784
318.80	29.924
319.16	30.664
319.53	31.339
319.89	30.413
320.26	31.073
320.62	30.792
320.99	29.854
321.35	31.038
321.72	30.945
322.08	30.816
322.45	29.645
322.81	29.077
323.18	28.557
323.54	29.054
323.91	28.919
324.27	29.785
324.64	29.775
325.00	29.562
325.37	30.119
325.73	30.190
326.10	30.336
326.46	29.955
326.83	28.871
327.19	29.207
327.56	29.018
327.92	28.697
328.29	27.857
328.65	29.434
329.01	28.217
329.38	29.309
329.74	28.140
330.11	28.267
330.47	28.015
330.84	29.615
331.20	30.133
331.56	28.519
331.93	27.945
332.29	28.506
332.66	26.154
333.02	28.439
333.38	26.856
333.75	28.571
334.11	26.768
334.48	29.012
334.84	28.297
335.20	29.277
335.57	26.745
335.93	27.371
336.29	28.821
336.66	25.704
337.02	26.022
337.38	27.778
337.75	27.727
338.11	26.420
338.47	27.555
338.84	27.449
339.20	27.148
339.56	27.064
339.93	26.768
340.29	27.156
340.65	28.226
341.02	27.128
341.38	26.637
341.74	26.148
342.11	24.783
342.47	26.868
342.83	27.076
343.20	25.436
343.56	27.217
343.92	27.192
344.28	27.071
344.65	26.511
345.01	25.065
345.37	25.820
345.73	26.444
346.10	26.057
346.46	26.661
346.82	25.777
347.19	26.018
347.55	26.149
347.91	26.699
348.27	25.869
348.63	26.320
349.00	26.333
349.36	26.268
349.72	26.949
350.08	25.000
350.45	26.257
350.81	25.997
351.17	25.326
351.53	26.367
351.89	25.681
352.26	24.480
352.62	25.161
352.98	25.141
353.34	25.926
353.70	25.728
354.07	25.081
354.43	25.620
354.79	24.608
355.15	25.635
355.51	25.554
355.87	25.000
356.24	23.980
356.60	24.899
356.96	25.476
357.32	24.681
357.68	24.238
358.04	25.929
358.40	24.357
358.77	25.120
359.13	24.019
359.49	23.883
359.85	24.961
360.21	24.960
360.57	24.024
360.93	25.113
361.29	22.961
361.66	24.530
362.02	24.394
362.38	24.524
362.74	24.905
363.10	25.056
363.46	24.314
363.82	25.770
364.18	24.945
364.54	23.162
364.90	23.728
365.26	22.926
365.62	23.796
365.98	24.707
366.35	25.783
366.71	24.169
367.07	24.020
367.43	24.083
367.79	23.180
368.15	24.192
368.51	23.889
368.87	22.326
369.23	22.310
369.59	23.761
369.95	24.047
370.31	23.844
370.67	23.134
371.03	23.301
371.39	23.268
371.75	23.223
372.11	23.395
372.47	24.334
372.83	23.350
373.19	22.325
373.55	22.816
373.91	23.110
374.27	23.033
374.63	24.121
374.99	23.404
375.35	23.747
375.71	23.566
376.07	23.666
376.42	23.469
376.78	22.886
377.14	22.343
377.50	22.510
377.86	23.159
378.22	22.336
378.58	22.308
378.94	22.873
379.30	22.707
379.66	22.759
380.02	21.888
380.38	22.276
380.74	22.681
381.09	23.374
381.45	22.936
381.81	22.394
382.17	22.906
382.53	22.111
382.89	22.473
383.25	23.086
383.61	23.171
383.97	21.397
384.32	22.889
384.68	22.724
385.04	21.324
385.40	22.215
385.76	22.516
386.12	23.351
386.48	22.478
386.83	22.321
387.19	22.283
387.55	22.271
387.91	22.188
388.27	22.283
388.62	22.530
388.98	20.994
389.34	21.611
389.70	22.623
390.06	21.460
390.42	22.150
390.77	21.256
391.13	21.942
391.49	22.574
391.85	21.118
392.20	21.657
392.56	21.360
392.92	22.607
393.28	22.936
393.64	22.042
393.99	21.505
394.35	21.316
394.71	22.031
395.07	21.999
395.42	21.251
395.78	21.238
396.14	21.185
396.50	21.433
396.85	21.636
397.21	21.992
397.57	21.630
397.92	21.510
398.28	22.069
398.64	21.084
399.00	21.953
399.35	20.993
399.71	21.999
400.07	21.886
400.42	20.747
400.78	21.984
401.14	21.174
401.49	21.203
401.85	20.780
402.21	21.506
402.57	20.813
402.92	20.577
403.28	21.742
403.63	21.501
403.99	21.237
404.35	21.611
404.70	20.893
405.06	20.212
405.42	21.380
405.77	20.628
406.13	21.362
406.49	20.722
406.84	21.088
407.20	20.951
407.55	20.798
407.91	20.254
408.27	20.714
408.62	22.154
408.98	21.134
409.34	21.871
409.69	21.382
410.05	20.813
410.40	21.111
410.76	20.989
411.11	20.500
411.47	21.302
411.83	19.586
412.18	20.656
412.54	19.725
412.89	20.443
413.25	20.638
413.60	20.373
413.96	20.061
414.31	20.915
414.67	20.077
415.03	19.241
415.38	20.366
415.74	20.261
416.09	21.163
416.45	21.540
416.80	21.018
417.16	20.994
417.51	21.386
417.87	19.817
418.22	20.207
418.58	20.736
418.93	20.815
419.29	19.846
419.64	20.026
420.00	21.851
420.35	20.239
420.71	20.352
421.06	20.503
421.42	20.192
421.77	21.156
422.12	20.261
422.48	20.087
422.83	20.650
423.19	20.937
423.54	20.165
423.90	19.729
424.25	20.264
424.61	20.991
424.96	20.151
425.31	21.086
425.67	20.716
426.02	21.614
426.38	20.539
426.73	20.823
427.09	20.063
427.44	20.353
427.79	21.509
428.15	20.692
428.50	19.806
428.85	19.717
429.21	20.487
429.56	20.377
429.92	19.877
430.27	20.050
430.62	19.812
430.98	20.594
431.33	20.978
431.68	19.990
432.04	19.899
432.39	20.023
432.74	19.663
433.10	20.287
433.45	19.534
433.80	19.675
434.16	19.778
434.51	21.290
434.86	20.732
435.22	19.910
435.57	20.586
435.92	20.778
436.28	19.559
436.63	19.281
436.98	19.351
437.34	20.085
437.69	20.155
438.04	19.430
438.39	18.876
438.75	20.219
439.10	19.751
439.45	20.329
439.81	19.633
440.16	19.596
440.51	20.060
440.86	20.906
441.22	20.249
441.57	20.751
441.92	20.776
442.27	20.843
442.63	21.360
442.98	20.391
443.33	19.699
443.68	19.894
444.03	20.268
444.39	20.708
444.74	20.569
445.09	21.214
445.44	20.228
445.79	21.145
446.15	20.154
446.50	19.967
446.85	19.660
447.20	20.751
447.55	21.875
447.91	20.417
448.26	21.002
448.61	21.013
448.96	20.826
449.31	20.809
449.66	20.383
450.02	21.050
450.37	20.925
450.72	20.790
451.07	20.949
451.42	20.662
451.77	20.976
452.12	20.993
452.47	21.249
452.83	20.495
453.18	21.316
453.53	21.239
453.88	21.311
454.23	21.512
454.58	20.907
454.93	20.876
455.28	20.508
455.63	22.133
455.98	21.828
456.34	21.584
456.69	21.665
457.04	22.117
457.39	21.567
457.74	21.040
458.09	21.189
458.44	20.948
458.79	21.793
459.14	21.854
459.49	22.567
459.84	21.433
460.19	21.784
460.54	21.638
460.89	21.364
461.24	21.739
461.59	22.150
461.94	20.692
462.29	21.170
462.64	21.794
462.99	21.056
463.34	20.167
463.69	21.429
464.04	22.034
464.39	21.710
464.74	22.025
465.09	22.021
465.44	21.870
465.79	21.655
466.14	22.805
466.49	21.219
466.84	21.951
467.19	22.591
467.54	21.009
467.89	21.478
468.24	21.594
468.59	22.794
468.94	22.159
469.29	22.033
469.64	21.258
469.99	21.163
470.34	21.092
470.68	22.222
471.03	22.010
471.38	20.827
471.73	21.569
472.08	21.370
472.43	21.745
472.78	21.316
473.13	21.497
473.48	21.954
473.83	20.610
474.17	21.308
474.52	21.698
474.87	21.576
475.22	21.904
475.57	20.779
475.92	22.326
476.27	22.061
476.61	21.528
476.96	20.636
477.31	22.282
477.66	21.685
478.01	21.505
478.36	21.623
478.70	22.621
479.05	22.198
479.40	22.258
479.75	21.689
480.10	21.966
480.45	21.800
480.79	22.256
481.14	21.926
481.49	21.034
481.84	23.021
482.19	22.357
482.53	21.583
482.88	21.480
483.23	21.353
483.58	21.132
483.92	21.200
484.27	21.513
484.62	22.501
484.97	21.103
485.31	21.929
485.66	24.449
486.01	25.280
486.36	25.255
486.70	24.631
487.05	23.654
487.40	22.751
487.75	22.056
488.09	20.797
488.44	19.601
488.79	20.134
489.13	20.393
489.48	20.522
489.83	20.852
490.17	19.910
490.52	20.924
490.87	20.083
491.22	21.633
491.56	21.015
491.91	20.220
492.26	21.439
492.60	20.921
492.95	21.840
493.30	20.274
493.64	21.218
493.99	20.580
494.34	20.777
494.68	20.476
495.03	20.876
495.37	20.461
495.72	21.201
496.07	21.122
496.41	21.085
496.76	21.142
497.11	21.425
497.45	21.241
497.80	21.393
498.14	20.268
498.49	20.518
498.84	19.860
499.18	20.633
499.53	20.238
499.87	20.866
500.22	20.673
500.56	20.625
500.91	20.030
501.26	20.267
501.60	20.266
501.95	20.621
502.29	20.436
502.64	20.849
502.98	19.734
503.33	19.933
503.67	20.530
504.02	20.723
504.36	21.524
504.71	20.051
505.06	19.426
505.40	20.102
505.75	19.948
506.09	19.919
506.44	21.150
506.78	20.357
507.13	20.010
507.47	20.052
507.82	19.231
508.16	19.704
508.51	19.990
508.85	19.309
509.19	18.893
509.54	20.107
509.88	18.501
510.23	18.989
510.57	19.669
510.92	18.497
511.26	18.603
511.61	19.527
511.95	19.507
512.30	19.069
512.64	18.865
512.98	19.034
513.33	19.922
513.67	19.386
514.02	20.080
514.36	19.943
514.70	19.755
515.05	19.506
515.39	18.772
515.74	19.401
516.08	18.948
516.42	18.787
516.77	20.187
517.11	18.694
517.46	19.449
517.80	18.236
518.14	18.187
518.49	18.149
518.83	18.469
519.17	18.375
519.52	18.828
519.86	17.647
520.20	18.348
520.55	17.573
520.89	18.130
521.23	18.303
521.58	18.675
521.92	18.590
522.26	18.087
522.61	18.571
522.95	17.152
523.29	17.598
523.64	18.043
523.98	18.665
524.32	16.946
524.66	18.182
525.01	18.506
525.35	17.563
525.69	16.431
526.04	17.063
526.38	18.677
526.72	16.416
527.06	17.056
527.41	17.282
527.75	16.823
528.09	17.409
528.43	18.906
528.78	17.096
529.12	17.742
529.46	17.479
529.80	17.796
530.15	18.350
530.49	17.172
530.83	17.237
531.17	17.461
531.51	17.510
531.86	16.723
532.20	16.562
532.54	17.495
532.88	16.975
533.22	17.608
533.57	17.628
533.91	17.428
534.25	18.294
534.59	17.126
534.93	17.873
535.27	16.688
535.62	16.915
535.96	17.743
536.30	17.744
536.64	17.436
536.98	16.725
537.32	17.496
537.66	17.882
538.01	17.273
538.35	16.990
538.69	17.776
539.03	16.678
539.37	17.497
539.71	17.178
540.05	16.701
540.39	17.867
540.73	17.503
541.07	17.472
541.42	17.339
541.76	16.862
542.10	15.760
542.44	17.234
542.78	16.449
543.12	16.827
543.46	17.107
543.80	17.071
544.14	15.688
544.48	17.921
544.82	17.293
545.16	18.101
545.50	18.758
545.84	17.139
546.18	17.518
546.52	17.159
546.86	16.319
547.20	17.454
547.54	16.537
547.88	18.886
548.22	16.831
548.56	17.546
548.90	17.790
549.24	15.978
549.58	16.502
549.92	16.655
550.26	16.337
550.60	17.026
550.94	17.476
551.28	16.538
551.62	16.308
551.96	16.090
552.30	17.763
552.64	17.278
552.98	16.385
553.32	17.118
553.66	16.691
554.00	16.350
554.34	16.027
554.68	16.888
555.02	16.815
555.36	16.455
555.69	16.923
556.03	16.488
556.37	17.509
556.71	16.318
557.05	17.375
557.39	15.688
557.73	16.192
558.07	15.762
558.41	16.616
558.75	16.446
559.08	15.524
559.42	16.508
559.76	16.813
560.10	16.514
560.44	18.094
560.78	17.483
561.12	17.772
561.45	18.271
561.79	17.647
562.13	17.601
562.47	16.835
562.81	17.579
563.15	17.066
563.48	17.256
563.82	18.051
564.16	17.758
564.50	17.230
564.84	17.671
565.17	17.237
565.51	18.374
565.85	16.598
566.19	17.374
566.52	18.700
566.86	17.609
567.20	17.746
567.54	18.674
567.88	19.039
568.21	19.627
568.55	18.859
568.89	19.969
569.23	19.162
569.56	20.928
569.90	21.356
570.24	20.990
570.57	20.909
570.91	21.750
571.25	20.848
571.59	20.803
571.92	20.474
572.26	20.380
572.60	20.310
572.93	20.144
573.27	20.533
573.61	20.883
573.95	21.109
574.28	21.266
574.62	21.053
574.96	21.616
575.29	21.201
575.63	20.368
575.97	20.331
576.30	20.692
576.64	20.689
576.98	21.184
577.31	21.135
577.65	21.583
577.98	21.872
578.32	21.543
578.66	21.019
578.99	20.824
579.33	19.860
579.67	20.111
580.00	21.013
580.34	20.871
580.67	20.846
581.01	21.374
581.35	21.878
581.68	22.299
582.02	22.628
582.35	22.377
582.69	22.030
583.02	21.534
583.36	21.126
583.70	20.898
584.03	20.851
584.37	21.203
584.70	20.797
585.04	20.829
585.37	21.572
585.71	22.365
586.04	21.987
586.38	21.339
586.72	21.636
587.05	22.415
587.39	22.449
587.72	22.444
588.06	22.557
588.39	21.675
588.73	21.795
589.06	21.820
589.40	21.880
589.73	21.431
590.07	21.601
590.40	21.633
590.73	21.005
591.07	21.332
591.40	20.926
591.74	21.176
592.07	22.217
592.41	22.527
592.74	21.904
593.08	23.053
593.41	23.229
593.75	23.095
594.08	22.348
594.41	22.307
594.75	21.947
595.08	22.626
595.42	23.003
595.75	22.982
596.09	22.478
596.42	21.248
596.75	21.803
597.09	21.412
597.42	22.403
597.75	22.400
598.09	20.779
598.42	22.067
598.76	21.793
599.09	23.077
599.42	22.812
599.76	23.288
600.09	23.077
600.42	23.465
600.76	22.957
601.09	22.366
601.42	22.013
601.76	22.509
602.09	22.731
602.42	23.252
602.76	23.005
603.09	22.965
603.42	23.746
603.76	22.702
604.09	22.074
604.42	22.927
604.76	22.919
605.09	22.441
605.42	22.799
605.75	22.767
606.09	22.675
606.42	23.186
606.75	22.597
607.09	22.769
607.42	21.843
607.75	23.002
608.08	21.968
608.42	22.522
608.75	22.699
609.08	22.671
609.41	22.843
609.75	22.026
610.08	22.916
610.41	22.850
610.74	22.672
611.07	22.326
611.41	22.107
611.74	23.188
612.07	20.824
612.40	21.554
612.73	21.751
613.07	21.822
613.40	22.757
613.73	20.873
614.06	22.092
614.39	22.448
614.72	22.073
615.06	22.123
615.39	21.998
615.72	22.551
616.05	22.011
616.38	21.709
616.71	21.284
617.05	21.742
617.38	21.182
617.71	20.881
618.04	22.476
618.37	21.816
618.70	20.924
619.03	22.153
619.36	19.971
619.69	20.546
620.03	21.402
620.36	21.245
620.69	21.271
621.02	20.413
621.35	20.000
621.68	21.173
622.01	19.500
622.34	20.511
622.67	20.899
623.00	20.674
623.33	21.723
623.66	21.017
623.99	21.029
624.32	21.445
624.65	20.226
624.99	21.520
625.32	21.077
625.65	20.896
625.98	20.870
626.31	19.950
626.64	20.711
626.97	20.506
627.30	21.191
627.63	20.537
627.96	19.766
628.29	18.316
628.62	20.354
628.95	20.040
629.28	19.456
629.61	19.043
629.94	20.626
630.26	19.170
630.59	21.124
630.92	20.821
631.25	18.974
631.58	19.493
631.91	18.421
632.24	18.463
632.57	17.614
632.90	17.675
633.23	19.529
633.56	18.766
633.89	18.249
