SpectraSuite Data File
++++++++++++++++++++++++++++++++++++
Date: Fri May 15 20:13:03 PDT 2015
User: schluterlab
Dark Spectrum Present: Yes
Reference Spectrum Present: Yes
Number of Sampled Component Spectra: 1
Spectrometers: USB2E3373
Integration Time (usec): 3000 (USB2E3373)
Spectra Averaged: 3 (USB2E3373)
Boxcar Smoothing: 0 (USB2E3373)
Correct for Electrical Dark: No (USB2E3373)
Strobe/Lamp Enabled: No (USB2E3373)
Correct for Detector Non-linearity: No (USB2E3373)
Correct for Stray Light: No (USB2E3373)
Number of Pixels in Processed Spectrum: 2048
>>>>>Begin Processed Spectral Data<<<<<
178.53	0.000
178.91	0.000
179.29	75.000
179.67	-750.000
180.04	-85.714
180.42	250.000
180.80	100.000
181.18	-100.000
181.56	200.000
181.94	350.000
182.31	-0.000
182.69	120.000
183.07	33.333
183.45	-140.000
183.83	16.667
184.20	-18.182
184.58	66.667
184.96	-150.000
185.34	-33.333
185.72	100.000
186.09	107.692
186.47	-800.000
186.85	16.667
187.23	44.444
187.61	-500.000
187.98	-66.667
188.36	88.889
188.74	-33.333
189.12	76.471
189.49	22.222
189.87	0.000
190.25	57.143
190.63	600.000
191.00	-33.333
191.38	26.316
191.76	200.000
192.14	-25.000
192.51	600.000
192.89	22.222
193.27	-57.143
193.65	-33.333
194.02	63.636
194.40	-20.000
194.78	-75.000
195.15	0.000
195.53	-100.000
195.91	-0.000
196.29	-50.000
196.66	107.692
197.04	57.143
197.42	77.778
197.79	-400.000
198.17	-69.231
198.55	700.000
198.92	-133.333
199.30	200.000
199.68	40.000
200.05	-433.333
200.43	0.000
200.81	-200.000
201.18	33.333
201.56	200.000
201.94	-200.000
202.31	-366.667
202.69	-60.000
203.07	75.000
203.44	500.000
203.82	0.000
204.19	78.571
204.57	0.000
204.95	12.500
205.32	50.000
205.70	42.857
206.08	-100.000
206.45	200.000
206.83	135.714
207.20	57.143
207.58	-300.000
207.96	-233.333
208.33	-10.000
208.71	25.000
209.08	-183.333
209.46	-800.000
209.84	0.000
210.21	400.000
210.59	-14.286
210.96	33.333
211.34	-100.000
211.71	80.000
212.09	-14.286
212.46	-1700.000
212.84	0.000
213.22	40.000
213.59	150.000
213.97	115.385
214.34	-9.091
214.72	16.667
215.09	175.000
215.47	30.769
215.84	-9.091
216.22	33.333
216.59	-37.500
216.97	-350.000
217.34	50.000
217.72	20.000
218.09	100.000
218.47	150.000
218.84	500.000
219.22	-55.556
219.59	160.000
219.97	33.333
220.34	75.000
220.72	-100.000
221.09	25.000
221.47	400.000
221.84	-350.000
222.22	0.000
222.59	18.182
222.97	58.333
223.34	66.667
223.72	-7.143
224.09	38.095
224.46	50.000
224.84	33.333
225.21	60.000
225.59	60.000
225.96	150.000
226.34	100.000
226.71	28.571
227.08	133.333
227.46	25.000
227.83	-450.000
228.21	66.667
228.58	9.091
228.95	62.500
229.33	160.000
229.70	25.000
230.08	12.500
230.45	-14.286
230.82	157.143
231.20	20.000
231.57	150.000
231.95	57.143
232.32	-100.000
232.69	21.429
233.07	0.000
233.44	40.000
233.81	-30.000
234.19	111.111
234.56	17.647
234.93	-200.000
235.31	0.000
235.68	-80.000
236.05	-15.385
236.43	-20.000
236.80	29.412
237.17	25.000
237.55	15.000
237.92	0.000
238.29	8.333
238.67	16.667
239.04	-5.882
239.41	-24.390
239.79	13.333
240.16	7.317
240.53	-13.158
240.91	-2.174
241.28	9.524
241.65	23.214
242.02	24.658
242.40	8.333
242.77	15.254
243.14	-3.030
243.51	11.250
243.89	26.437
244.26	10.345
244.63	7.143
245.00	10.309
245.38	20.619
245.75	11.236
246.12	7.759
246.49	13.223
246.87	17.308
247.24	16.807
247.61	11.404
247.98	5.691
248.36	15.625
248.73	11.184
249.10	11.039
249.47	6.962
249.84	11.765
250.22	15.882
250.59	14.379
250.96	18.310
251.33	11.047
251.70	12.941
252.08	17.259
252.45	10.891
252.82	11.055
253.19	17.051
253.56	7.944
253.94	7.207
254.31	14.348
254.68	12.281
255.05	9.843
255.42	10.044
255.79	11.583
256.16	15.175
256.54	16.045
256.91	10.266
257.28	8.178
257.65	10.861
258.02	10.993
258.39	18.855
258.76	12.088
259.14	14.618
259.51	13.916
259.88	11.340
260.25	14.706
260.62	13.194
260.99	9.153
261.36	10.616
261.73	12.025
262.10	9.422
262.47	13.190
262.85	16.301
263.22	11.385
263.59	17.134
263.96	11.801
264.33	14.848
264.70	8.929
265.07	8.631
265.44	14.164
265.81	10.169
266.18	12.295
266.55	12.853
266.92	13.731
267.29	13.055
267.66	10.742
268.03	14.660
268.40	11.227
268.77	14.706
269.14	9.832
269.51	14.396
269.88	10.723
270.25	10.714
270.62	11.463
270.99	9.207
271.36	11.491
271.73	12.676
272.10	13.139
272.47	11.820
272.84	11.386
273.21	13.225
273.58	13.012
273.95	12.815
274.32	10.162
274.69	11.312
275.06	13.616
275.43	10.658
275.80	12.362
276.17	10.115
276.54	11.991
276.91	10.965
277.28	8.952
277.65	12.397
278.02	11.064
278.39	12.035
278.76	11.111
279.13	11.203
279.50	13.235
279.87	11.663
280.23	9.032
280.60	11.306
280.97	11.717
281.34	10.962
281.71	14.168
282.08	11.656
282.45	8.611
282.82	10.039
283.19	10.832
283.56	11.175
283.92	10.247
284.29	8.846
284.66	12.403
285.03	10.413
285.40	11.531
285.77	9.490
286.14	10.469
286.51	12.177
286.87	9.689
287.24	11.418
287.61	8.818
287.98	12.632
288.35	12.305
288.72	10.683
289.08	11.458
289.45	12.127
289.82	10.839
290.19	8.874
290.56	8.919
290.93	10.101
291.29	8.937
291.66	9.606
292.03	9.729
292.40	10.000
292.77	10.526
293.13	7.630
293.50	8.801
293.87	7.786
294.24	8.655
294.60	8.644
294.97	10.417
295.34	7.822
295.71	9.687
296.08	9.567
296.44	6.686
296.81	6.944
297.18	9.130
297.55	9.892
297.91	7.808
298.28	10.686
298.65	7.870
299.02	8.221
299.38	6.566
299.75	8.414
300.12	9.162
300.48	7.510
300.85	8.999
301.22	8.701
301.59	8.289
301.95	8.734
302.32	9.468
302.69	9.328
303.05	9.158
303.42	8.468
303.79	8.411
304.15	8.961
304.52	6.302
304.89	7.602
305.25	6.416
305.62	8.401
305.99	7.018
306.35	6.127
306.72	6.299
307.09	7.982
307.45	8.611
307.82	8.218
308.19	8.246
308.55	8.833
308.92	9.259
309.29	8.156
309.65	7.750
310.02	7.921
310.38	8.342
310.75	9.617
311.12	9.365
311.48	8.908
311.85	8.796
312.22	8.439
312.58	9.660
312.95	8.111
313.31	8.282
313.68	9.215
314.05	8.673
314.41	9.691
314.78	10.000
315.14	10.072
315.51	11.594
315.87	9.939
316.24	11.628
316.61	12.697
316.97	12.004
317.34	11.719
317.70	12.715
318.07	12.885
318.43	12.745
318.80	12.595
319.16	15.137
319.53	15.005
319.89	15.453
320.26	15.789
320.62	16.550
320.99	16.493
321.35	17.061
321.72	18.380
322.08	19.436
322.45	21.015
322.81	19.745
323.18	19.333
323.54	21.332
323.91	21.227
324.27	24.609
324.64	26.217
325.00	25.274
325.37	29.109
325.73	26.292
326.10	29.700
326.46	30.493
326.83	31.409
327.19	32.084
327.56	33.275
327.92	34.859
328.29	34.554
328.65	37.075
329.01	38.051
329.38	39.724
329.74	39.282
330.11	40.315
330.47	40.631
330.84	41.731
331.20	45.817
331.56	43.519
331.93	45.114
332.29	46.838
332.66	45.249
333.02	46.468
333.38	45.555
333.75	48.535
334.11	47.986
334.48	48.595
334.84	51.190
335.20	50.595
335.57	49.955
335.93	51.852
336.29	52.302
336.66	53.588
337.02	53.810
337.38	52.222
337.75	53.727
338.11	53.922
338.47	54.745
338.84	55.453
339.20	55.393
339.56	55.229
339.93	55.774
340.29	56.239
340.65	56.272
341.02	56.028
341.38	55.929
341.74	55.212
342.11	54.593
342.47	58.007
342.83	57.180
343.20	57.143
343.56	57.739
343.92	58.105
344.28	56.960
344.65	57.254
345.01	59.205
345.37	55.929
345.73	58.410
346.10	58.844
346.46	58.621
346.82	58.183
347.19	57.772
347.55	59.148
347.91	59.223
348.27	57.639
348.63	58.859
349.00	59.229
349.36	60.100
349.72	60.199
350.08	60.000
350.45	59.377
350.81	60.050
351.17	58.795
351.53	60.816
351.89	58.629
352.26	58.880
352.62	61.452
352.98	59.598
353.34	59.098
353.70	61.570
354.07	59.597
354.43	60.128
354.79	61.685
355.15	59.762
355.51	61.155
355.87	61.650
356.24	59.380
356.60	62.409
356.96	62.302
357.32	61.661
357.68	61.923
358.04	62.278
358.40	61.013
358.77	62.919
359.13	61.169
359.49	61.864
359.85	62.793
360.21	62.998
360.57	63.275
360.93	62.179
361.29	62.689
361.66	63.009
362.02	65.606
362.38	64.433
362.74	65.556
363.10	66.366
363.46	63.603
363.82	65.665
364.18	63.247
364.54	64.412
364.90	65.663
365.26	65.211
365.62	66.277
365.98	65.249
366.35	66.861
366.71	66.149
367.07	66.546
367.43	65.349
367.79	65.583
368.15	66.260
368.51	66.788
368.87	66.475
369.23	66.065
369.59	67.784
369.95	67.449
370.31	66.763
370.67	69.030
371.03	66.393
371.39	67.980
371.75	67.912
372.11	68.117
372.47	69.453
372.83	68.559
373.19	67.546
373.55	67.653
373.91	69.114
374.27	70.234
374.63	69.419
374.99	70.213
375.35	68.384
375.71	70.140
376.07	70.927
376.42	71.497
376.78	70.403
377.14	70.684
377.50	71.182
377.86	71.687
378.22	71.602
378.58	71.667
378.94	72.149
379.30	72.489
379.66	73.166
380.02	71.674
380.38	72.368
380.74	71.694
381.09	72.883
381.45	72.355
381.81	71.931
382.17	73.604
382.53	74.516
382.89	74.702
383.25	74.238
383.61	75.122
383.97	75.175
384.32	74.171
384.68	74.118
385.04	74.877
385.40	75.047
385.76	76.289
386.12	76.455
386.48	77.011
386.83	76.284
387.19	76.618
387.55	76.412
387.91	76.711
388.27	77.900
388.62	78.351
388.98	78.146
389.34	77.452
389.70	78.061
390.06	76.149
390.42	76.943
390.77	79.006
391.13	78.058
391.49	79.560
391.85	79.922
392.20	77.213
392.56	76.923
392.92	79.859
393.28	79.894
393.64	78.318
393.99	80.627
394.35	78.874
394.71	80.204
395.07	76.996
395.42	78.142
395.78	79.414
396.14	79.697
396.50	80.279
396.85	80.554
397.21	80.451
397.57	79.937
397.92	80.228
398.28	80.172
398.64	78.072
399.00	79.966
399.35	80.248
399.71	78.920
400.07	80.230
400.42	79.070
400.78	80.220
401.14	78.887
401.49	80.584
401.85	80.926
402.21	79.398
402.57	82.125
402.92	80.113
403.28	80.890
403.63	81.526
403.99	80.995
404.35	81.824
404.70	78.929
405.06	80.494
405.42	79.242
405.77	80.476
406.13	81.432
406.49	79.870
406.84	81.907
407.20	79.831
407.55	79.073
407.91	80.414
408.27	80.752
408.62	81.415
408.98	80.715
409.34	80.979
409.69	79.974
410.05	80.542
410.40	80.309
410.76	80.277
411.11	81.875
411.47	80.145
411.83	81.230
412.18	81.725
412.54	79.838
412.89	80.111
413.25	82.070
413.60	80.062
413.96	79.202
414.31	80.305
414.67	79.538
415.03	80.559
415.38	79.112
415.74	81.694
416.09	82.364
416.45	80.689
416.80	79.247
417.16	81.768
417.51	81.213
417.87	81.943
418.22	83.225
418.58	83.746
418.93	82.257
419.29	79.834
419.64	83.020
420.00	83.312
420.35	83.224
420.71	82.685
421.06	82.443
421.42	82.572
421.77	82.312
422.12	82.350
422.48	82.999
422.83	81.497
423.19	83.747
423.54	82.481
423.90	84.217
424.25	82.893
424.61	82.742
424.96	81.998
425.31	84.460
425.67	84.448
426.02	83.863
426.38	84.659
426.73	83.777
427.09	84.177
427.44	84.176
427.79	84.090
428.15	83.192
428.50	86.372
428.85	85.688
429.21	84.437
429.56	85.445
429.92	84.592
430.27	82.406
430.62	85.102
430.98	86.359
431.33	84.700
431.68	83.935
432.04	85.075
432.39	83.856
432.74	82.261
433.10	84.310
433.45	84.229
433.80	87.174
434.16	85.873
434.51	85.699
434.86	86.121
435.22	85.418
435.57	86.588
435.92	86.527
436.28	83.840
436.63	84.940
436.98	84.125
437.34	86.025
437.69	87.001
438.04	85.128
438.39	84.239
438.75	87.857
439.10	85.512
439.45	85.514
439.81	84.465
440.16	87.589
440.51	86.269
440.86	87.190
441.22	85.520
441.57	86.921
441.92	88.248
442.27	87.417
442.63	86.831
442.98	86.043
443.33	87.423
443.68	86.207
444.03	87.134
444.39	86.621
444.74	90.301
445.09	87.416
445.44	87.806
445.79	87.055
446.15	85.573
446.50	84.914
446.85	87.088
447.20	86.131
447.55	87.891
447.91	85.561
448.26	85.714
448.61	86.068
448.96	86.001
449.31	86.127
449.66	85.250
450.02	85.967
450.37	88.500
450.72	86.025
451.07	87.405
451.42	85.705
451.77	85.775
452.12	84.390
452.47	86.285
452.83	86.278
453.18	86.781
453.53	85.525
453.88	86.460
454.23	85.802
454.58	86.209
454.93	85.503
455.28	83.810
455.63	85.741
455.98	86.470
456.34	84.610
456.69	85.324
457.04	84.373
457.39	83.961
457.74	85.369
458.09	85.521
458.44	85.255
458.79	85.322
459.14	84.897
459.49	86.328
459.84	85.787
460.19	86.772
460.54	85.452
460.89	87.045
461.24	85.963
461.59	85.926
461.94	84.780
462.29	86.248
462.64	84.850
462.99	83.683
463.34	85.188
463.69	84.299
464.04	84.383
464.39	85.688
464.74	84.663
465.09	85.839
465.44	86.209
465.79	83.844
466.14	85.918
466.49	86.256
466.84	85.068
467.19	84.418
467.54	82.886
467.89	84.586
468.24	83.151
468.59	84.635
468.94	82.667
469.29	84.787
469.64	83.254
469.99	85.634
470.34	84.027
470.68	85.831
471.03	83.439
471.38	83.951
471.73	82.563
472.08	82.564
472.43	84.295
472.78	82.248
473.13	84.694
473.48	84.365
473.83	82.316
474.17	84.067
474.52	84.684
474.87	82.121
475.22	84.686
475.57	83.682
475.92	83.050
476.27	84.633
476.61	83.796
476.96	81.818
477.31	83.667
477.66	82.079
478.01	82.875
478.36	83.388
478.70	84.394
479.05	83.407
479.40	82.353
479.75	82.377
480.10	82.284
480.45	84.150
480.79	83.787
481.14	84.068
481.49	83.744
481.84	84.218
482.19	83.302
482.53	83.405
482.88	81.862
483.23	82.869
483.58	80.991
483.92	81.462
484.27	81.358
484.62	82.609
484.97	82.670
485.31	83.707
485.66	84.847
486.01	87.665
486.36	87.465
486.70	87.063
487.05	84.811
487.40	83.997
487.75	83.014
488.09	80.964
488.44	81.155
488.79	80.538
489.13	81.130
489.48	80.761
489.83	81.166
490.17	79.775
490.52	80.370
490.87	79.269
491.22	80.277
491.56	80.787
491.91	79.015
492.26	81.867
492.60	79.990
492.95	81.849
493.30	79.580
493.64	80.943
493.99	79.758
494.34	80.631
494.68	80.143
495.03	79.270
495.37	80.520
495.72	79.960
496.07	80.537
496.41	79.953
496.76	80.977
497.11	80.438
497.45	78.616
497.80	81.382
498.14	78.937
498.49	79.837
498.84	78.743
499.18	79.769
499.53	78.770
499.87	79.475
500.22	79.228
500.56	80.736
500.91	78.916
501.26	78.596
501.60	80.472
501.95	79.961
502.29	78.692
502.64	79.054
502.98	81.352
503.33	78.338
503.67	78.458
504.02	79.863
504.36	79.762
504.71	77.475
505.06	77.655
505.40	77.766
505.75	79.845
506.09	76.837
506.44	79.004
506.78	79.184
507.13	79.421
507.47	76.554
507.82	77.938
508.16	78.183
508.51	79.433
508.85	78.336
509.19	77.914
509.54	77.265
509.88	77.886
510.23	79.075
510.57	78.087
510.92	75.213
511.26	77.250
511.61	78.438
511.95	76.658
512.30	76.885
512.64	75.904
512.98	77.204
513.33	77.784
513.67	76.123
514.02	77.803
514.36	76.971
514.70	77.797
515.05	78.261
515.39	77.450
515.74	78.623
516.08	76.449
516.42	75.854
516.77	76.712
517.11	77.626
517.46	77.618
517.80	77.116
518.14	75.750
518.49	75.781
518.83	75.699
519.17	74.833
519.52	75.192
519.86	75.150
520.20	75.273
520.55	75.109
520.89	75.408
521.23	75.111
521.58	76.530
521.92	75.192
522.26	74.431
522.61	75.260
522.95	77.550
523.29	76.048
523.64	75.286
523.98	75.178
524.32	76.418
524.66	75.416
525.01	75.519
525.35	73.364
525.69	76.768
526.04	74.339
526.38	75.292
526.72	73.578
527.06	74.189
527.41	75.594
527.75	73.123
528.09	74.817
528.43	76.502
528.78	75.974
529.12	75.290
529.46	76.803
529.80	73.084
530.15	75.446
530.49	74.949
530.83	77.086
531.17	72.733
531.51	75.923
531.86	74.847
532.20	75.087
532.54	75.221
532.88	75.291
533.22	74.530
533.57	74.902
533.91	75.979
534.25	75.521
534.59	76.074
534.93	73.631
535.27	74.112
535.62	75.632
535.96	76.517
536.30	74.340
536.64	75.258
536.98	73.101
537.32	75.391
537.66	75.386
538.01	74.755
538.35	73.370
538.69	72.969
539.03	73.684
539.37	75.774
539.71	74.847
540.05	74.745
540.39	75.416
540.73	74.338
541.07	75.345
541.42	75.605
541.76	75.155
542.10	74.880
542.44	75.747
542.78	74.054
543.12	74.519
543.46	75.035
543.80	76.544
544.14	72.764
544.48	74.350
544.82	75.256
545.16	75.410
545.50	73.698
545.84	75.354
546.18	76.312
546.52	73.901
546.86	73.904
547.20	73.247
547.54	73.852
547.88	76.630
548.22	74.819
548.56	73.945
548.90	75.067
549.24	73.760
549.58	72.073
549.92	73.052
550.26	74.139
550.60	73.680
550.94	74.683
551.28	75.270
551.62	74.846
551.96	73.759
552.30	74.269
552.64	73.977
552.98	73.136
553.32	73.395
553.66	73.149
554.00	73.869
554.34	74.815
554.68	71.165
555.02	73.661
555.36	73.448
555.69	73.553
556.03	73.305
556.37	72.456
556.71	73.213
557.05	74.198
557.39	71.450
557.73	74.663
558.07	74.811
558.41	74.273
558.75	72.175
559.08	73.128
559.42	73.730
559.76	74.299
560.10	74.083
560.44	72.897
560.78	73.217
561.12	75.670
561.45	76.247
561.79	75.280
562.13	76.366
562.47	73.094
562.81	74.568
563.15	73.061
563.48	74.257
563.82	74.743
564.16	76.184
564.50	75.541
564.84	75.502
565.17	74.245
565.51	76.434
565.85	76.132
566.19	73.276
566.52	74.933
566.86	75.964
567.20	76.214
567.54	78.102
567.88	78.910
568.21	77.828
568.55	76.196
568.89	79.107
569.23	79.779
569.56	79.466
569.90	81.486
570.24	78.936
570.57	81.309
570.91	81.771
571.25	80.039
571.59	80.193
571.92	79.052
572.26	80.193
572.60	79.535
572.93	78.255
573.27	79.530
573.61	80.489
573.95	80.339
574.28	79.608
574.62	81.134
574.96	79.307
575.29	79.909
575.63	77.740
575.97	78.585
576.30	79.252
576.64	78.437
576.98	81.416
577.31	80.831
577.65	81.583
577.98	81.741
578.32	80.918
578.66	79.519
578.99	78.849
579.33	79.365
579.67	77.618
580.00	79.797
580.34	79.328
580.67	78.759
581.01	80.211
581.35	80.900
581.68	81.303
582.02	82.235
582.35	81.727
582.69	81.048
583.02	79.662
583.36	79.986
583.70	79.803
584.03	80.623
584.37	79.785
584.70	79.368
585.04	78.368
585.37	79.263
585.71	79.709
586.04	80.358
586.38	79.354
586.72	79.857
587.05	79.405
587.39	81.577
587.72	81.821
588.06	79.325
588.39	79.180
588.73	79.548
589.06	78.865
589.40	77.394
589.73	79.189
590.07	79.343
590.40	78.947
590.73	78.336
591.07	78.541
591.40	78.673
591.74	78.824
592.07	77.597
592.41	77.959
592.74	78.455
593.08	79.113
593.41	80.297
593.75	78.999
594.08	78.407
594.41	79.258
594.75	78.855
595.08	79.266
595.42	80.604
595.75	79.685
596.09	79.359
596.42	77.801
596.75	78.686
597.09	77.449
597.42	78.681
597.75	79.157
598.09	76.550
598.42	77.166
598.76	78.893
599.09	78.245
599.42	77.681
599.76	78.442
600.09	78.695
600.42	77.331
600.76	78.492
601.09	79.275
601.42	78.222
601.76	78.444
602.09	78.548
602.42	78.265
602.76	78.353
603.09	79.776
603.42	80.226
603.76	78.427
604.09	78.088
604.42	78.130
604.76	79.083
605.09	79.570
605.42	77.788
605.75	77.627
606.09	78.386
606.42	78.440
606.75	78.182
607.09	77.670
607.42	77.315
607.75	78.375
608.08	76.640
608.42	74.920
608.75	77.783
609.08	77.529
609.41	77.614
609.75	76.361
610.08	78.482
610.41	77.633
610.74	78.059
611.07	78.398
611.41	76.803
611.74	79.638
612.07	76.713
612.40	77.243
612.73	77.571
613.07	76.603
613.40	77.899
613.73	77.057
614.06	77.240
614.39	78.455
614.72	75.966
615.06	77.821
615.39	76.365
615.72	76.964
616.05	76.983
616.38	76.866
616.71	77.554
617.05	76.714
617.38	76.116
617.71	77.673
618.04	77.206
618.37	78.058
618.70	78.482
619.03	77.708
619.36	74.674
619.69	77.104
620.03	77.575
620.36	76.180
620.69	75.375
621.02	74.006
621.35	75.353
621.68	74.660
622.01	77.333
622.34	76.377
622.67	74.921
623.00	74.885
623.33	77.515
623.66	75.617
623.99	75.113
624.32	75.970
624.65	76.316
624.99	76.448
625.32	75.360
625.65	76.198
625.98	76.229
626.31	73.982
626.64	76.863
626.97	76.353
627.30	74.956
627.63	74.523
627.96	74.663
628.29	72.988
628.62	73.156
628.95	73.246
629.28	73.790
629.61	74.277
629.94	73.314
630.26	72.332
630.59	76.275
630.92	73.231
631.25	72.410
631.58	75.661
631.91	74.232
632.24	74.885
632.57	74.091
632.90	70.937
633.23	69.765
633.56	73.804
633.89	72.380
634.22	72.963
634.55	74.460
634.88	73.819
635.20	72.821
635.53	75.733
635.86	72.042
636.19	73.221
