SpectraSuite Data File
++++++++++++++++++++++++++++++++++++
Date: Fri May 15 20:14:11 PDT 2015
User: schluterlab
Dark Spectrum Present: Yes
Reference Spectrum Present: Yes
Number of Sampled Component Spectra: 1
Spectrometers: USB2E3373
Integration Time (usec): 3000 (USB2E3373)
Spectra Averaged: 3 (USB2E3373)
Boxcar Smoothing: 0 (USB2E3373)
Correct for Electrical Dark: No (USB2E3373)
Strobe/Lamp Enabled: No (USB2E3373)
Correct for Detector Non-linearity: No (USB2E3373)
Correct for Stray Light: No (USB2E3373)
Number of Pixels in Processed Spectrum: 2048
>>>>>Begin Processed Spectral Data<<<<<
178.53	0.000
178.91	0.000
179.29	50.000
179.67	-150.000
180.04	14.286
180.42	75.000
180.80	500.000
181.18	133.333
181.56	400.000
181.94	500.000
182.31	-400.000
182.69	-40.000
183.07	266.667
183.45	40.000
183.83	50.000
184.20	54.545
184.58	66.667
184.96	-250.000
185.34	-100.000
185.72	-600.000
186.09	69.231
186.47	500.000
186.85	-16.667
187.23	122.222
187.61	-100.000
187.98	-200.000
188.36	66.667
188.74	-66.667
189.12	-17.647
189.49	22.222
189.87	0.000
190.25	42.857
190.63	100.000
191.00	-366.667
191.38	5.263
191.76	-50.000
192.14	225.000
192.51	-50.000
192.89	0.000
193.27	-28.571
193.65	216.667
194.02	163.636
194.40	-30.000
194.78	-150.000
195.15	-16.667
195.53	50.000
195.91	25.000
196.29	25.000
196.66	38.462
197.04	42.857
197.42	-22.222
197.79	-366.667
198.17	-123.077
198.55	800.000
198.92	-333.333
199.30	-200.000
199.68	-60.000
200.05	-300.000
200.43	0.000
200.81	-33.333
201.18	100.000
201.56	1100.000
201.94	200.000
202.31	-166.667
202.69	-360.000
203.07	-0.000
203.44	100.000
203.82	0.000
204.19	14.286
204.57	-300.000
204.95	150.000
205.32	100.000
205.70	-71.429
206.08	25.000
206.45	155.556
206.83	85.714
207.20	-114.286
207.58	-500.000
207.96	-166.667
208.33	-50.000
208.71	-125.000
209.08	-216.667
209.46	-600.000
209.84	-240.000
210.21	-500.000
210.59	42.857
210.96	83.333
211.34	0.000
211.71	53.333
212.09	-28.571
212.46	-1700.000
212.84	0.000
213.22	90.000
213.59	-0.000
213.97	53.846
214.34	154.545
214.72	33.333
215.09	375.000
215.47	107.692
215.84	0.000
216.22	-33.333
216.59	-12.500
216.97	450.000
217.34	-75.000
217.72	-100.000
218.09	-12.500
218.47	112.500
218.84	0.000
219.22	-33.333
219.59	60.000
219.97	366.667
220.34	150.000
220.72	14.286
221.09	-200.000
221.47	-150.000
221.84	-450.000
222.22	-350.000
222.59	18.182
222.97	0.000
223.34	66.667
223.72	-7.143
224.09	4.762
224.46	-3.571
224.84	333.333
225.21	-10.000
225.59	-20.000
225.96	-100.000
226.34	200.000
226.71	57.143
227.08	16.667
227.46	-87.500
227.83	-50.000
228.21	-22.222
228.58	45.455
228.95	12.500
229.33	140.000
229.70	-50.000
230.08	-125.000
230.45	-100.000
230.82	-28.571
231.20	-33.333
231.57	64.286
231.95	28.571
232.32	-50.000
232.69	-14.286
233.07	100.000
233.44	20.000
233.81	70.000
234.19	11.111
234.56	-5.882
234.93	150.000
235.31	75.000
235.68	-240.000
236.05	-61.538
236.43	-30.000
236.80	11.765
237.17	28.125
237.55	-5.000
237.92	-14.815
238.29	-2.778
238.67	-6.667
239.04	2.941
239.41	-26.829
239.79	-40.000
240.16	17.073
240.53	-10.526
240.91	6.522
241.28	9.524
241.65	10.714
242.02	34.247
242.40	5.000
242.77	0.000
243.14	-3.030
243.51	13.750
243.89	13.793
244.26	-4.598
244.63	9.524
245.00	10.309
245.38	10.309
245.75	10.112
246.12	8.621
246.49	5.785
246.87	14.423
247.24	4.202
247.61	0.000
247.98	10.569
248.36	-1.875
248.73	8.553
249.10	12.338
249.47	6.962
249.84	3.922
250.22	2.353
250.59	7.190
250.96	12.676
251.33	1.744
251.70	16.471
252.08	5.584
252.45	0.990
252.82	2.513
253.19	5.991
253.56	7.009
253.94	5.856
254.31	11.304
254.68	9.649
255.05	11.024
255.42	10.480
255.79	9.653
256.16	5.837
256.54	8.582
256.91	5.703
257.28	1.115
257.65	3.745
258.02	6.738
258.39	6.061
258.76	11.722
259.14	11.628
259.51	8.091
259.88	10.653
260.25	9.804
260.62	9.028
260.99	5.424
261.36	5.822
261.73	6.646
262.10	6.687
262.47	6.135
262.85	6.270
263.22	9.846
263.59	7.788
263.96	6.522
264.33	7.273
264.70	7.440
265.07	3.571
265.44	7.649
265.81	7.910
266.18	7.923
266.55	8.997
266.92	9.067
267.29	7.833
267.66	7.928
268.03	5.759
268.40	4.961
268.77	10.160
269.14	10.552
269.51	7.712
269.88	7.731
270.25	6.122
270.62	5.366
270.99	6.650
271.36	4.645
271.73	8.216
272.10	10.219
272.47	6.856
272.84	7.673
273.21	10.441
273.58	9.880
273.95	8.238
274.32	6.467
274.69	4.977
275.06	8.036
275.43	7.029
275.80	7.726
276.17	5.057
276.54	5.353
276.91	9.430
277.28	6.332
277.65	7.645
278.02	7.234
278.39	6.346
278.76	6.918
279.13	4.357
279.50	7.773
279.87	7.559
280.23	7.527
280.60	9.552
280.97	7.879
281.34	6.923
281.71	9.035
282.08	7.771
282.45	4.697
282.82	5.985
283.19	7.157
283.56	6.551
283.92	3.985
284.29	5.962
284.66	6.395
285.03	6.090
285.40	5.293
285.77	8.084
286.14	7.401
286.51	8.672
286.87	3.473
287.24	6.077
287.61	5.996
287.98	7.719
288.35	7.279
288.72	6.480
289.08	7.118
289.45	6.327
289.82	7.168
290.19	6.143
290.56	5.317
290.93	7.912
291.29	6.009
291.66	6.142
292.03	7.177
292.40	5.806
292.77	2.871
293.13	3.571
293.50	6.373
293.87	7.176
294.24	5.100
294.60	5.663
294.97	5.357
295.34	5.368
295.71	4.918
296.08	4.783
296.44	3.556
296.81	6.667
297.18	5.507
297.55	5.556
297.91	5.616
298.28	8.707
298.65	4.885
299.02	4.178
299.38	2.599
299.75	3.310
300.12	3.927
300.48	4.743
300.85	4.183
301.22	4.156
301.59	3.684
301.95	5.316
302.32	5.837
302.69	5.224
303.05	4.703
303.42	5.978
303.79	4.206
304.15	4.301
304.52	4.875
304.89	4.211
305.25	4.116
305.62	3.967
305.99	4.444
306.35	4.046
306.72	4.049
307.09	4.789
307.45	5.166
307.82	3.819
308.19	4.762
308.55	4.253
308.92	5.556
309.29	4.469
309.65	3.660
310.02	4.180
310.38	4.720
310.75	3.497
311.12	5.274
311.48	4.454
311.85	4.293
312.22	4.641
312.58	5.096
312.95	3.202
313.31	3.313
313.68	4.712
314.05	3.878
314.41	5.670
314.78	4.639
315.14	5.344
315.51	6.211
315.87	2.971
316.24	5.662
316.61	5.610
316.97	5.159
317.34	4.688
317.70	5.545
318.07	3.462
318.43	5.686
318.80	5.398
319.16	4.199
319.53	6.173
319.89	4.331
320.26	5.061
320.62	5.918
320.99	3.445
321.35	5.139
321.72	6.334
322.08	4.834
322.45	5.482
322.81	5.305
323.18	3.238
323.54	5.598
323.91	5.161
324.27	5.664
324.64	5.712
325.00	6.569
325.37	6.520
325.73	4.714
326.10	4.814
326.46	6.188
326.83	5.337
327.19	4.882
327.56	6.169
327.92	5.370
328.29	5.268
328.65	5.000
329.01	5.882
329.38	4.516
329.74	4.249
330.11	5.190
330.47	5.009
330.84	3.942
331.20	5.703
331.56	5.000
331.93	6.667
332.29	6.141
332.66	4.977
333.02	4.368
333.38	5.041
333.75	5.861
334.11	5.103
334.48	5.712
334.84	6.044
335.20	4.849
335.57	5.077
335.93	4.968
336.29	6.169
336.66	5.813
337.02	4.368
337.38	5.093
337.75	5.818
338.11	6.853
338.47	6.478
338.84	6.007
339.20	5.576
339.56	5.872
339.93	6.177
340.29	4.862
340.65	5.466
341.02	5.585
341.38	4.779
341.74	4.947
342.11	4.593
342.47	4.804
342.83	5.969
343.20	4.878
343.56	5.478
343.92	5.846
344.28	6.490
344.65	5.959
345.01	4.927
345.37	4.878
345.73	6.695
346.10	4.659
346.46	5.887
346.82	5.401
347.19	4.156
347.55	5.013
347.91	5.421
348.27	5.093
348.63	5.196
349.00	5.168
349.36	4.821
349.72	5.556
350.08	5.164
350.45	6.385
350.81	4.485
351.17	4.723
351.53	6.122
351.89	4.294
352.26	5.120
352.62	5.726
352.98	5.060
353.34	4.831
353.70	5.259
354.07	5.403
354.43	5.765
354.79	4.872
355.15	5.952
355.51	6.171
355.87	5.340
356.24	5.302
356.60	4.931
356.96	6.746
357.32	5.511
357.68	4.300
358.04	4.362
358.40	5.868
358.77	6.061
359.13	4.484
359.49	5.855
359.85	4.914
360.21	5.901
360.57	5.738
360.93	5.825
361.29	4.230
361.66	5.016
362.02	5.227
362.38	5.864
362.74	4.921
363.10	5.117
363.46	5.930
363.82	6.011
364.18	5.240
364.54	5.515
364.90	5.448
365.26	5.750
365.62	6.496
365.98	4.839
366.35	6.628
366.71	5.469
367.07	5.878
367.43	5.104
367.79	5.654
368.15	6.030
368.51	4.953
368.87	5.025
369.23	4.621
369.59	5.758
369.95	5.792
370.31	6.214
370.67	5.149
371.03	5.825
371.39	5.106
371.75	5.568
372.11	5.421
372.47	5.325
372.83	4.613
373.19	6.419
373.55	5.704
373.91	5.832
374.27	5.457
374.63	5.240
374.99	5.532
375.35	5.850
375.71	5.734
376.07	5.548
376.42	5.782
376.78	5.436
377.14	5.619
377.50	5.578
377.86	5.355
378.22	5.488
378.58	6.090
378.94	5.734
379.30	6.114
379.66	6.959
380.02	5.334
380.38	4.808
380.74	5.506
381.09	7.117
381.45	6.055
381.81	5.922
382.17	6.916
382.53	6.121
382.89	5.524
383.25	6.285
383.61	7.561
383.97	5.778
384.32	7.067
384.68	6.254
385.04	6.311
385.40	6.472
385.76	6.730
386.12	6.404
386.48	6.194
386.83	6.214
387.19	6.532
387.55	6.838
387.91	6.479
388.27	6.899
388.62	7.552
388.98	6.691
389.34	6.996
389.70	7.893
390.06	5.916
390.42	7.124
390.77	6.540
391.13	6.936
391.49	6.339
391.85	6.953
392.20	7.031
392.56	6.548
392.92	7.751
393.28	7.311
393.64	7.628
393.99	7.524
394.35	7.021
394.71	7.471
395.07	7.480
395.42	6.982
395.78	7.101
396.14	7.755
396.50	7.800
396.85	7.276
397.21	8.020
397.57	7.461
397.92	8.328
398.28	7.644
398.64	7.289
399.00	8.409
399.35	7.731
399.71	7.582
400.07	7.557
400.42	7.956
400.78	8.083
401.14	7.804
401.49	7.921
401.85	7.252
402.21	7.590
402.57	7.875
402.92	7.591
403.28	8.333
403.63	8.323
403.99	7.015
404.35	8.495
404.70	7.738
405.06	7.932
405.42	8.390
405.77	7.147
406.13	7.509
406.49	7.874
406.84	7.396
407.20	8.368
407.55	7.534
407.91	7.487
408.27	7.648
408.62	8.738
408.98	8.010
409.34	8.055
409.69	7.429
410.05	8.251
410.40	7.531
410.76	8.203
411.11	8.187
411.47	8.284
411.83	7.345
412.18	7.593
412.54	8.365
412.89	7.143
413.25	7.521
413.60	8.447
413.96	7.546
414.31	9.085
414.67	7.890
415.03	8.123
415.38	7.311
415.74	7.622
416.09	8.687
416.45	8.238
416.80	7.535
417.16	8.218
417.51	8.927
417.87	7.692
418.22	8.161
418.58	7.960
418.93	9.028
419.29	7.362
419.64	8.296
420.00	8.564
420.35	7.343
420.71	8.445
421.06	8.165
421.42	8.293
421.77	8.439
422.12	7.946
422.48	8.013
422.83	8.469
423.19	8.070
423.54	7.407
423.90	8.363
424.25	8.553
424.61	8.813
424.96	9.175
425.31	9.012
425.67	8.862
426.02	8.598
426.38	8.579
426.73	9.746
427.09	8.924
427.44	9.294
427.79	9.016
428.15	9.102
428.50	8.722
428.85	8.108
429.21	9.225
429.56	9.218
429.92	8.577
430.27	9.023
430.62	8.155
430.98	9.023
431.33	9.516
431.68	9.262
432.04	8.944
432.39	9.241
432.74	8.238
433.10	9.713
433.45	9.200
433.80	8.416
434.16	8.366
434.51	9.355
434.86	8.769
435.22	8.805
435.57	8.734
435.92	8.862
436.28	8.706
436.63	9.127
436.98	8.980
437.34	8.106
437.69	10.137
438.04	9.402
438.39	9.530
438.75	9.047
439.10	9.677
439.45	9.312
439.81	9.358
440.16	10.036
440.51	9.672
440.86	9.909
441.22	9.163
441.57	9.603
441.92	10.336
442.27	10.144
442.63	9.797
442.98	10.167
443.33	9.516
443.68	9.761
444.03	10.482
444.39	9.395
444.74	9.755
445.09	10.078
445.44	9.402
445.79	10.315
446.15	10.132
446.50	9.540
446.85	10.521
447.20	10.010
447.55	10.603
447.91	10.265
448.26	9.960
448.61	10.132
448.96	10.098
449.31	9.653
449.66	10.337
450.02	10.439
450.37	9.959
450.72	10.023
451.07	9.937
451.42	10.237
451.77	9.765
452.12	9.988
452.47	9.466
452.83	10.365
453.18	10.057
453.53	10.809
453.88	10.504
454.23	10.940
454.58	10.264
454.93	10.954
455.28	9.841
455.63	10.601
455.98	10.283
456.34	10.536
456.69	10.546
457.04	10.649
457.39	10.146
457.74	9.976
458.09	9.712
458.44	10.064
458.79	9.524
459.14	11.270
459.49	11.761
459.84	10.660
460.19	10.680
460.54	10.880
460.89	10.795
461.24	10.248
461.59	11.283
461.94	9.748
462.29	11.158
462.64	11.229
462.99	11.036
463.34	10.223
463.69	10.682
464.04	10.775
464.39	10.794
464.74	10.675
465.09	10.979
465.44	11.079
465.79	10.431
466.14	11.460
466.49	10.581
466.84	11.243
467.19	11.452
467.54	10.600
467.89	11.244
468.24	11.010
468.59	10.857
468.94	10.794
469.29	10.951
469.64	11.757
469.99	11.563
470.34	10.444
470.68	11.633
471.03	11.323
471.38	10.984
471.73	10.994
472.08	10.787
472.43	10.671
472.78	10.624
473.13	11.565
473.48	11.466
473.83	11.270
474.17	11.658
474.52	11.232
474.87	11.758
475.22	10.433
475.57	10.277
475.92	11.794
476.27	10.419
476.61	11.400
476.96	10.764
477.31	11.574
477.66	10.506
478.01	10.780
478.36	11.275
478.70	11.093
479.05	11.703
479.40	12.030
479.75	11.262
480.10	11.572
480.45	10.950
480.79	11.732
481.14	11.732
481.49	10.690
481.84	11.631
482.19	10.617
482.53	11.415
482.88	11.695
483.23	11.468
483.58	10.991
483.92	11.326
484.27	11.577
484.62	11.475
484.97	11.277
485.31	11.199
485.66	10.290
486.01	10.980
486.36	11.017
486.70	11.045
487.05	11.057
487.40	11.246
487.75	11.296
488.09	10.321
488.44	11.142
488.79	11.393
489.13	11.619
489.48	11.116
489.83	11.570
490.17	10.831
490.52	11.640
490.87	11.985
491.22	12.273
491.56	11.243
491.91	11.090
492.26	11.279
492.60	11.756
492.95	12.346
493.30	11.578
493.64	11.493
493.99	12.029
494.34	11.068
494.68	11.714
495.03	11.095
495.37	11.629
495.72	11.913
496.07	11.561
496.41	11.509
496.76	11.608
497.11	11.411
497.45	12.220
497.80	12.664
498.14	11.773
498.49	11.275
498.84	11.776
499.18	11.948
499.53	11.954
499.87	11.576
500.22	11.968
500.56	11.397
500.91	11.797
501.26	11.913
501.60	11.461
501.95	11.499
502.29	11.768
502.64	11.631
502.98	11.988
503.33	10.807
503.67	11.518
504.02	12.170
504.36	11.974
504.71	11.616
505.06	11.978
505.40	11.624
505.75	12.371
506.09	11.657
506.44	12.988
506.78	12.551
507.13	12.254
507.47	11.645
507.82	11.538
508.16	12.573
508.51	12.277
508.85	12.664
509.19	12.347
509.54	12.118
509.88	11.219
510.23	11.781
510.57	12.507
510.92	11.567
511.26	12.330
511.61	12.761
511.95	12.274
512.30	11.752
512.64	12.799
512.98	11.960
513.33	13.206
513.67	11.711
514.02	13.730
514.36	13.257
514.70	13.695
515.05	12.808
515.39	12.869
515.74	13.353
516.08	13.030
516.42	13.545
516.77	13.517
517.11	13.056
517.46	12.747
517.80	13.647
518.14	12.921
518.49	12.861
518.83	12.151
519.17	12.068
519.52	11.960
519.86	12.005
520.20	12.758
520.55	12.383
520.89	13.551
521.23	13.553
521.58	13.438
521.92	13.654
522.26	13.012
522.61	12.727
522.95	13.709
523.29	13.151
523.64	13.659
523.98	13.999
524.32	12.887
524.66	14.085
525.01	13.831
525.35	14.193
525.69	11.852
526.04	13.161
526.38	14.397
526.72	12.492
527.06	13.230
527.41	12.797
527.75	13.338
528.09	13.754
528.43	13.572
528.78	13.135
529.12	12.968
529.46	12.930
529.80	13.490
530.15	14.257
530.49	13.939
530.83	13.953
531.17	13.163
531.51	14.090
531.86	13.324
532.20	12.457
532.54	13.683
532.88	13.621
533.22	13.978
533.57	13.958
533.91	12.663
534.25	14.583
534.59	13.406
534.93	13.342
535.27	13.135
535.62	13.027
535.96	13.829
536.30	14.248
536.64	13.301
536.98	13.449
537.32	14.083
537.66	14.165
538.01	12.867
538.35	13.592
538.69	14.115
539.03	13.739
539.37	14.132
539.71	14.656
540.05	13.714
540.39	13.435
540.73	13.808
541.07	14.710
541.42	13.642
541.76	13.627
542.10	12.526
542.44	13.551
542.78	12.663
543.12	12.569
543.46	14.673
543.80	13.116
544.14	12.617
544.48	13.724
544.82	13.671
545.16	13.798
545.50	13.885
545.84	12.890
546.18	13.546
546.52	13.627
546.86	13.875
547.20	13.805
547.54	13.428
547.88	13.927
548.22	13.281
548.56	14.446
548.90	14.286
549.24	13.705
549.58	13.752
549.92	14.510
550.26	14.286
550.60	14.424
550.94	14.787
551.28	14.529
551.62	14.385
551.96	14.436
552.30	14.254
552.64	13.822
552.98	14.487
553.32	13.695
553.66	14.078
554.00	14.015
554.34	14.476
554.68	14.454
555.02	14.360
555.36	14.211
555.69	13.919
556.03	14.276
556.37	14.306
556.71	14.368
557.05	15.436
557.39	13.606
557.73	14.393
558.07	13.952
558.41	14.701
558.75	13.952
559.08	14.342
559.42	14.206
559.76	14.652
560.10	13.761
560.44	13.850
560.78	14.755
561.12	14.739
561.45	14.406
561.79	14.496
562.13	14.478
562.47	13.022
562.81	14.265
563.15	14.316
563.48	14.427
563.82	14.894
564.16	14.415
564.50	13.919
564.84	14.726
565.17	13.615
565.51	13.798
565.85	13.717
566.19	14.058
566.52	14.812
566.86	14.267
567.20	13.885
567.54	14.416
567.88	14.236
568.21	14.762
568.55	13.533
568.89	14.630
569.23	14.059
569.56	13.441
569.90	13.561
570.24	13.844
570.57	13.527
570.91	14.221
571.25	12.792
571.59	13.111
571.92	12.830
572.26	12.923
572.60	13.364
572.93	13.367
573.27	13.072
573.61	12.977
573.95	12.916
574.28	13.003
574.62	13.221
574.96	13.239
575.29	13.226
575.63	12.801
575.97	12.795
576.30	12.651
576.64	12.768
576.98	13.282
577.31	12.730
577.65	13.578
577.98	13.166
578.32	12.638
578.66	12.830
578.99	13.079
579.33	12.591
579.67	12.970
580.00	13.190
580.34	13.109
580.67	12.611
581.01	13.256
581.35	13.286
581.68	13.127
582.02	12.810
582.35	12.739
582.69	13.226
583.02	13.053
583.36	13.579
583.70	13.629
584.03	14.012
584.37	13.806
584.70	13.626
585.04	13.109
585.37	13.980
585.71	13.824
586.04	13.565
586.38	13.550
586.72	13.716
587.05	13.692
587.39	13.391
587.72	13.723
588.06	13.590
588.39	13.814
588.73	13.645
589.06	14.416
589.40	14.207
589.73	14.969
590.07	14.162
590.40	14.590
590.73	15.157
591.07	14.801
591.40	14.826
591.74	14.480
592.07	15.121
592.41	14.973
592.74	14.576
593.08	14.286
593.41	14.465
593.75	14.033
594.08	13.835
594.41	14.556
594.75	14.656
595.08	14.945
595.42	14.428
595.75	14.908
596.09	14.816
596.42	14.427
596.75	15.231
597.09	15.080
597.42	15.131
597.75	15.025
598.09	15.256
598.42	15.162
598.76	14.801
599.09	14.704
599.42	14.589
599.76	14.786
600.09	14.970
600.42	15.163
600.76	14.339
601.09	14.427
601.42	14.924
601.76	14.927
602.09	15.223
602.42	14.996
602.76	15.492
603.09	14.909
603.42	15.134
603.76	15.081
604.09	14.500
604.42	15.186
604.76	15.131
605.09	15.128
605.42	15.350
605.75	14.623
606.09	15.329
606.42	14.679
606.75	15.152
607.09	15.516
607.42	14.887
607.75	15.142
608.08	14.690
608.42	15.167
608.75	15.470
609.08	16.243
609.41	16.142
609.75	15.121
610.08	14.628
610.41	15.024
610.74	15.212
611.07	15.297
611.41	15.568
611.74	15.991
612.07	15.150
612.40	16.193
612.73	15.480
613.07	14.567
613.40	15.263
613.73	14.885
614.06	16.694
614.39	15.680
614.72	15.406
615.06	15.754
615.39	15.284
615.72	15.662
616.05	15.587
616.38	15.442
616.71	15.474
617.05	15.689
617.38	16.091
617.71	15.031
618.04	16.317
618.37	16.646
618.70	15.776
619.03	16.458
619.36	16.208
619.69	16.452
620.03	16.728
620.36	15.737
620.69	15.703
621.02	15.673
621.35	16.183
621.68	17.262
622.01	16.583
622.34	17.159
622.67	17.271
623.00	17.228
623.33	15.777
623.66	15.782
623.99	16.490
624.32	17.795
624.65	15.714
624.99	16.780
625.32	15.997
625.65	16.261
625.98	17.325
626.31	16.209
626.64	17.678
626.97	18.150
627.30	16.375
627.63	17.331
627.96	17.161
628.29	17.576
628.62	17.797
628.95	16.733
629.28	17.440
629.61	16.451
629.94	18.182
630.26	17.688
630.59	17.690
630.92	17.538
631.25	18.154
631.58	17.511
631.91	15.022
632.24	16.743
632.57	17.500
632.90	16.726
633.23	17.765
633.56	18.514
633.89	17.633
634.22	17.284
634.55	17.662
634.88	18.519
635.20	18.205
635.53	18.133
635.86	17.295
636.19	18.499
636.52	17.602
636.85	17.246
637.18	18.113
637.51	17.862
637.83	18.134
638.16	19.509
638.49	18.120
638.82	18.026
639.15	17.368
639.48	17.882
639.81	17.015
640.13	18.470
640.46	17.930
640.79	15.906
641.12	19.645
641.45	17.417
641.77	18.963
642.10	18.325
642.43	18.006
642.76	17.657
643.09	20.194
643.41	19.094
643.74	18.287
644.07	19.212
644.40	17.736
644.73	20.665
645.05	21.477
645.38	19.400
645.71	18.617
