SpectraSuite Data File
++++++++++++++++++++++++++++++++++++
Date: Fri May 15 17:19:00 PDT 2015
User: schluterlab
Dark Spectrum Present: Yes
Reference Spectrum Present: Yes
Number of Sampled Component Spectra: 1
Spectrometers: USB2E3373
Integration Time (usec): 3000 (USB2E3373)
Spectra Averaged: 3 (USB2E3373)
Boxcar Smoothing: 0 (USB2E3373)
Correct for Electrical Dark: No (USB2E3373)
Strobe/Lamp Enabled: No (USB2E3373)
Correct for Detector Non-linearity: No (USB2E3373)
Correct for Stray Light: No (USB2E3373)
Number of Pixels in Processed Spectrum: 2048
>>>>>Begin Processed Spectral Data<<<<<
178.53	0.000
178.91	0.000
179.29	212.500
179.67	-250.000
180.04	-157.143
180.42	50.000
180.80	300.000
181.18	-133.333
181.56	-450.000
181.94	-150.000
182.31	-500.000
182.69	140.000
183.07	66.667
183.45	120.000
183.83	133.333
184.20	54.545
184.58	-66.667
184.96	-300.000
185.34	-333.333
185.72	0.000
186.09	-7.692
186.47	0.000
186.85	-50.000
187.23	-11.111
187.61	-600.000
187.98	166.667
188.36	88.889
188.74	-33.333
189.12	70.588
189.49	77.778
189.87	0.000
190.25	71.429
190.63	150.000
191.00	-66.667
191.38	63.158
191.76	550.000
192.14	-275.000
192.51	350.000
192.89	-11.111
193.27	57.143
193.65	-166.667
194.02	63.636
194.40	50.000
194.78	12.500
195.15	58.333
195.53	12.500
195.91	75.000
196.29	150.000
196.66	30.769
197.04	71.429
197.42	77.778
197.79	-33.333
198.17	-100.000
198.55	-1100.000
198.92	0.000
199.30	700.000
199.68	0.000
200.05	-200.000
200.43	0.000
200.81	266.667
201.18	166.667
201.56	100.000
201.94	50.000
202.31	-100.000
202.69	-140.000
203.07	-150.000
203.44	1300.000
203.82	0.000
204.19	135.714
204.57	-200.000
204.95	-37.500
205.32	90.000
205.70	71.429
206.08	175.000
206.45	266.667
206.83	71.429
207.20	142.857
207.58	-200.000
207.96	-66.667
208.33	60.000
208.71	275.000
209.08	33.333
209.46	-600.000
209.84	140.000
210.21	100.000
210.59	100.000
210.96	116.667
211.34	375.000
211.71	106.667
212.09	42.857
212.46	-1000.000
212.84	0.000
213.22	110.000
213.59	50.000
213.97	176.923
214.34	227.273
214.72	100.000
215.09	-25.000
215.47	15.385
215.84	-18.182
216.22	133.333
216.59	-25.000
216.97	100.000
217.34	100.000
217.72	40.000
218.09	187.500
218.47	-12.500
218.84	-200.000
219.22	77.778
219.59	-40.000
219.97	33.333
220.34	-75.000
220.72	57.143
221.09	175.000
221.47	850.000
221.84	-250.000
222.22	-100.000
222.59	127.273
222.97	141.667
223.34	166.667
223.72	35.714
224.09	28.571
224.46	60.714
224.84	-100.000
225.21	10.000
225.59	80.000
225.96	400.000
226.34	-25.000
226.71	28.571
227.08	50.000
227.46	-12.500
227.83	150.000
228.21	77.778
228.58	163.636
228.95	162.500
229.33	-60.000
229.70	93.750
230.08	87.500
230.45	28.571
230.82	128.571
231.20	46.667
231.57	64.286
231.95	157.143
232.32	90.000
232.69	71.429
233.07	433.333
233.44	-60.000
233.81	20.000
234.19	66.667
234.56	52.941
234.93	-50.000
235.31	125.000
235.68	20.000
236.05	-7.692
236.43	40.000
236.80	64.706
237.17	50.000
237.55	75.000
237.92	55.556
238.29	36.111
238.67	70.000
239.04	23.529
239.41	19.512
239.79	13.333
240.16	46.341
240.53	10.526
240.91	32.609
241.28	22.222
241.65	30.357
242.02	21.918
242.40	25.000
242.77	22.034
243.14	12.121
243.51	28.750
243.89	34.483
244.26	18.391
244.63	21.429
245.00	15.464
245.38	35.052
245.75	0.000
246.12	14.655
246.49	21.488
246.87	26.923
247.24	14.286
247.61	10.526
247.98	22.764
248.36	18.750
248.73	23.684
249.10	14.935
249.47	23.418
249.84	24.837
250.22	17.647
250.59	19.608
250.96	26.291
251.33	19.186
251.70	18.824
252.08	20.812
252.45	19.307
252.82	17.588
253.19	19.355
253.56	15.421
253.94	22.072
254.31	17.391
254.68	24.561
255.05	18.898
255.42	17.467
255.79	18.919
256.16	20.233
256.54	18.284
256.91	21.673
257.28	17.472
257.65	17.603
258.02	18.440
258.39	22.559
258.76	19.048
259.14	18.272
259.51	23.301
259.88	19.244
260.25	18.627
260.62	19.444
260.99	16.610
261.36	15.753
261.73	15.506
262.10	20.061
262.47	17.178
262.85	17.241
263.22	15.385
263.59	18.692
263.96	20.497
264.33	23.333
264.70	15.774
265.07	21.131
265.44	20.397
265.81	21.469
266.18	19.672
266.55	20.051
266.92	21.244
267.29	20.104
267.66	20.205
268.03	17.539
268.40	18.538
268.77	19.519
269.14	17.506
269.51	18.509
269.88	19.202
270.25	20.153
270.62	16.098
270.99	17.647
271.36	18.582
271.73	20.188
272.10	19.221
272.47	18.913
272.84	17.574
273.21	20.186
273.58	18.795
273.95	17.620
274.32	16.397
274.69	17.647
275.06	17.411
275.43	17.007
275.80	18.102
276.17	18.391
276.54	18.630
276.91	17.105
277.28	17.031
277.65	16.322
278.02	18.298
278.39	19.475
278.76	18.029
279.13	13.693
279.50	15.336
279.87	18.790
280.23	15.914
280.60	18.129
280.97	18.384
281.34	15.577
281.71	17.454
282.08	16.360
282.45	14.873
282.82	14.479
283.19	16.441
283.56	16.570
283.92	15.750
284.29	15.000
284.66	17.248
285.03	15.717
285.40	17.958
285.77	16.520
286.14	15.162
286.51	18.635
286.87	15.356
287.24	15.654
287.61	16.578
287.98	15.614
288.35	15.945
288.72	17.163
289.08	15.625
289.45	17.575
289.82	15.909
290.19	16.041
290.56	13.894
290.93	14.478
291.29	16.641
291.66	14.803
292.03	13.876
292.40	16.290
292.77	13.557
293.13	13.149
293.50	13.354
293.87	14.809
294.24	14.529
294.60	14.903
294.97	13.690
295.34	13.497
295.71	13.264
296.08	11.958
296.44	12.091
296.81	12.083
297.18	13.913
297.55	14.499
297.91	13.425
298.28	14.248
298.65	11.669
299.02	12.668
299.38	10.534
299.75	14.483
300.12	11.780
300.48	11.067
300.85	12.421
301.22	12.857
301.59	11.711
301.95	13.291
302.32	14.527
302.69	11.940
303.05	10.891
303.42	12.453
303.79	13.551
304.15	12.664
304.52	11.296
304.89	11.111
305.25	11.743
305.62	10.852
305.99	11.228
306.35	12.370
306.72	11.361
307.09	10.832
307.45	11.481
307.82	12.037
308.19	12.311
308.55	12.214
308.92	13.290
309.29	11.844
309.65	11.948
310.02	12.431
310.38	13.172
310.75	13.115
311.12	12.379
311.48	13.043
311.85	12.461
312.22	10.865
312.58	12.633
312.95	12.166
313.31	13.043
313.68	11.518
314.05	13.367
314.41	14.433
314.78	13.608
315.14	14.286
315.51	15.217
315.87	15.266
316.24	16.582
316.61	16.043
316.97	16.071
317.34	16.504
317.70	16.348
318.07	17.019
318.43	16.863
318.80	17.140
319.16	19.434
319.53	17.949
319.89	18.406
320.26	18.927
320.62	20.863
320.99	20.146
321.35	20.555
321.72	21.495
322.08	22.860
322.45	23.350
322.81	22.790
323.18	23.062
323.54	24.228
323.91	24.635
324.27	27.148
324.64	27.247
325.00	26.734
325.37	30.028
325.73	29.556
326.10	29.973
326.46	31.659
326.83	32.721
327.19	33.653
327.56	35.100
327.92	36.884
328.29	36.250
328.65	38.302
329.01	39.430
329.38	39.447
329.74	40.132
330.11	41.149
330.47	42.208
330.84	43.365
331.20	45.342
331.56	43.333
331.93	46.393
332.29	47.113
332.66	47.149
333.02	47.584
333.38	46.196
333.75	49.817
334.11	48.433
334.48	49.320
334.84	51.190
335.20	51.144
335.57	51.677
335.93	50.678
336.29	53.315
336.66	51.499
337.02	52.509
337.38	52.593
337.75	52.455
338.11	55.546
338.47	54.562
338.84	54.159
339.20	55.667
339.56	55.963
339.93	55.685
340.29	56.972
340.65	56.720
341.02	56.649
341.38	57.434
341.74	57.862
342.11	54.679
342.47	55.516
342.83	55.882
343.20	56.446
343.56	56.522
343.92	58.016
344.28	57.387
344.65	56.045
345.01	56.785
345.37	55.677
345.73	57.741
346.10	58.412
346.46	56.939
346.82	56.056
347.19	55.777
347.55	58.062
347.91	57.929
348.27	57.235
348.63	58.859
349.00	57.014
349.36	59.435
349.72	58.955
350.08	58.934
350.45	58.101
350.81	58.887
351.17	57.329
351.53	58.939
351.89	57.969
352.26	58.400
352.62	60.081
352.98	57.108
353.34	57.488
353.70	58.900
354.07	58.306
354.43	59.167
354.79	59.538
355.15	60.476
355.51	59.098
355.87	60.032
356.24	58.646
356.60	60.226
356.96	60.079
357.32	58.866
357.68	58.796
358.04	60.582
358.40	60.370
358.77	61.164
359.13	60.689
359.49	59.399
359.85	61.310
360.21	60.606
360.57	60.597
360.93	61.120
361.29	58.837
361.66	61.520
362.02	62.348
362.38	62.452
362.74	63.058
363.10	62.227
363.46	62.639
363.82	62.660
364.18	62.214
364.54	62.353
364.90	62.867
365.26	62.664
365.62	63.869
365.98	63.196
366.35	64.166
366.71	63.267
367.07	64.369
367.43	63.048
367.79	63.534
368.15	63.891
368.51	64.385
368.87	63.173
369.23	62.527
369.59	65.233
369.95	64.150
370.31	63.150
370.67	64.328
371.03	63.779
371.39	64.260
371.75	64.835
372.11	64.194
372.47	67.456
372.83	66.004
373.19	63.909
373.55	65.343
373.91	65.659
374.27	66.265
374.63	65.757
374.99	66.596
375.35	66.365
375.71	68.182
376.07	67.205
376.42	66.871
376.78	66.577
377.14	66.486
377.50	66.999
377.86	65.997
378.22	67.071
378.58	66.603
378.94	67.234
379.30	67.311
379.66	68.527
380.02	67.198
380.38	68.168
380.74	66.966
381.09	67.546
381.45	68.012
381.81	67.181
382.17	68.655
382.53	67.520
382.89	68.801
383.25	69.073
383.61	68.171
383.97	69.460
384.32	67.980
384.68	69.040
385.04	68.934
385.40	69.508
385.76	69.686
386.12	70.116
386.48	70.179
386.83	69.245
387.19	71.184
387.55	71.895
387.91	69.438
388.27	69.231
388.62	70.799
388.98	68.263
389.34	68.957
389.70	70.479
390.06	69.792
390.42	69.754
390.77	70.438
391.13	70.429
391.49	70.440
391.85	70.695
392.20	68.989
392.56	69.485
392.92	70.699
393.28	70.696
393.64	69.429
393.99	71.034
394.35	70.715
394.71	69.668
395.07	70.396
395.42	68.852
395.78	69.902
396.14	70.618
396.50	70.006
396.85	69.350
397.21	69.612
397.57	70.408
397.92	69.383
398.28	70.057
398.64	67.530
399.00	71.445
399.35	69.582
399.71	67.949
400.07	69.770
400.42	68.911
400.78	70.729
401.14	68.542
401.49	68.791
401.85	68.373
402.21	68.554
402.57	68.938
402.92	68.130
403.28	68.860
403.63	69.357
403.99	68.750
404.35	68.832
404.70	66.607
405.06	68.331
405.42	68.179
405.77	67.751
406.13	68.102
406.49	68.206
406.84	69.438
407.20	68.934
407.55	68.126
407.91	67.914
408.27	69.025
408.62	67.385
408.98	67.221
409.34	66.914
409.69	67.313
410.05	65.825
410.40	68.704
410.76	67.672
411.11	67.938
411.47	68.376
411.83	67.859
412.18	68.855
412.54	67.041
412.89	65.517
413.25	68.953
413.60	66.087
413.96	65.644
414.31	66.890
414.67	66.325
415.03	67.377
415.38	65.862
415.74	67.687
416.09	67.407
416.45	67.725
416.80	65.962
417.16	69.682
417.51	67.155
417.87	66.362
418.22	68.718
418.58	67.625
418.93	66.520
419.29	65.237
419.64	67.466
420.00	68.325
420.35	67.284
420.71	67.132
421.06	66.851
421.42	67.308
421.77	67.919
422.12	66.459
422.48	67.190
422.83	67.923
423.19	68.115
423.54	66.608
423.90	67.609
424.25	68.025
424.61	67.931
424.96	68.235
425.31	69.440
425.67	69.073
426.02	69.788
426.38	68.817
426.73	69.431
427.09	70.316
427.44	70.529
427.79	70.831
428.15	68.689
428.50	70.624
428.85	69.349
429.21	70.968
429.56	70.512
429.92	70.416
430.27	69.023
430.62	68.688
430.98	70.594
431.33	69.821
431.68	69.335
432.04	70.878
432.39	69.823
432.74	69.092
433.10	70.862
433.45	70.191
433.80	73.535
434.16	71.413
434.51	70.806
434.86	71.487
435.22	72.462
435.57	72.489
435.92	71.557
436.28	71.795
436.63	71.535
436.98	72.132
437.34	71.869
437.69	73.107
438.04	71.396
438.39	70.495
438.75	73.588
439.10	72.213
439.45	72.976
439.81	72.661
440.16	74.762
440.51	72.955
440.86	75.589
441.22	72.851
441.57	74.779
441.92	74.134
442.27	75.554
442.63	74.036
442.98	74.612
443.33	72.621
443.68	72.732
444.03	74.317
444.39	74.225
444.74	75.418
445.09	75.056
445.44	75.100
445.79	75.864
446.15	73.073
446.50	73.821
446.85	74.389
447.20	75.182
447.55	74.275
447.91	76.086
448.26	75.583
448.61	74.554
448.96	76.535
449.31	75.549
449.66	74.042
450.02	76.155
450.37	76.526
450.72	75.830
451.07	75.759
451.42	75.843
451.77	76.130
452.12	74.342
452.47	75.660
452.83	75.265
453.18	75.775
453.53	75.790
453.88	76.321
454.23	76.337
454.58	77.456
454.93	75.580
455.28	73.841
455.63	76.131
455.98	76.188
456.34	75.351
456.69	76.557
457.04	76.560
457.39	75.213
457.74	76.481
458.09	74.691
458.44	76.536
458.79	76.078
459.14	76.087
459.49	76.358
459.84	76.481
460.19	77.488
460.54	75.795
460.89	77.045
461.24	76.522
461.59	77.375
461.94	75.094
462.29	76.417
462.64	76.877
462.99	76.506
463.34	77.399
463.69	75.547
464.04	78.148
464.39	77.320
464.74	77.178
465.09	76.606
465.44	76.457
465.79	76.020
466.14	77.423
466.49	76.136
466.84	77.454
467.19	75.657
467.54	76.309
467.89	75.869
468.24	75.791
468.59	77.778
468.94	76.508
469.29	76.262
469.64	76.008
469.99	78.486
470.34	75.973
470.68	79.791
471.03	77.919
471.38	77.960
471.73	77.801
472.08	77.748
472.43	78.523
472.78	75.805
473.13	78.095
473.48	77.068
473.83	75.841
474.17	78.756
474.52	76.835
474.87	77.030
475.22	77.730
475.57	77.640
475.92	78.497
476.27	77.590
476.61	78.125
476.96	76.631
477.31	78.799
477.66	77.472
478.01	78.776
478.36	76.198
478.70	79.010
479.05	77.857
479.40	78.643
479.75	77.581
480.10	77.368
480.45	77.900
480.79	79.003
481.14	79.303
481.49	77.931
481.84	78.909
482.19	77.643
482.53	78.321
482.88	77.804
483.23	76.919
483.58	77.500
483.92	76.573
484.27	76.664
484.62	78.037
484.97	77.114
485.31	77.348
485.66	77.458
486.01	77.961
486.36	77.166
486.70	76.414
487.05	76.636
487.40	77.146
487.75	76.761
488.09	76.329
488.44	76.169
488.79	76.279
489.13	78.205
489.48	78.324
489.83	77.848
490.17	77.169
490.52	78.938
490.87	77.001
491.22	78.988
491.56	78.226
491.91	76.769
492.26	77.978
492.60	77.015
492.95	78.455
493.30	76.844
493.64	78.389
493.99	78.599
494.34	78.835
494.68	78.952
495.03	76.788
495.37	79.195
495.72	77.436
496.07	79.512
496.41	78.066
496.76	78.259
497.11	77.736
497.45	78.234
497.80	79.415
498.14	77.496
498.49	78.009
498.84	78.393
499.18	78.966
499.53	79.365
499.87	77.286
500.22	79.278
500.56	79.022
500.91	79.317
501.26	78.151
501.60	78.160
501.95	79.185
502.29	79.564
502.64	79.151
502.98	78.589
503.33	78.963
503.67	78.313
504.02	79.961
504.36	79.416
504.71	79.040
505.06	79.467
505.40	78.223
505.75	79.278
506.09	79.625
506.44	79.979
506.78	79.898
507.13	78.594
507.47	78.590
507.82	79.915
508.16	80.190
508.51	79.591
508.85	79.853
509.19	80.043
509.54	79.410
509.88	78.479
510.23	79.613
510.57	80.652
510.92	78.518
511.26	81.015
511.61	80.968
511.95	80.110
512.30	80.987
512.64	80.746
512.98	80.853
513.33	81.030
513.67	81.410
514.02	81.693
514.36	81.771
514.70	82.284
515.05	82.902
515.39	81.759
515.74	83.174
516.08	81.530
516.42	81.095
516.77	82.680
517.11	83.383
517.46	84.022
517.80	81.406
518.14	82.854
518.49	83.774
518.83	82.503
519.17	81.686
519.52	80.935
519.86	82.113
520.20	82.382
520.55	82.802
520.89	82.811
521.23	83.217
521.58	83.470
521.92	83.333
522.26	83.735
522.61	83.701
522.95	85.497
523.29	83.164
523.64	82.783
523.98	83.927
524.32	83.570
524.66	84.187
525.01	84.351
525.35	83.992
525.69	84.444
526.04	83.730
526.38	83.982
526.72	81.818
527.06	83.917
527.41	82.388
527.75	83.579
528.09	83.522
528.43	86.631
528.78	85.215
529.12	84.000
529.46	83.496
529.80	82.014
530.15	85.479
530.49	85.320
530.83	84.815
531.17	82.874
531.51	84.815
531.86	84.432
532.20	83.368
532.54	84.275
532.88	85.421
533.22	84.341
533.57	83.486
533.91	85.313
534.25	85.612
534.59	84.349
534.93	82.756
535.27	85.406
535.62	84.640
535.96	84.671
536.30	84.697
536.64	85.941
536.98	83.624
537.32	85.989
537.66	84.783
538.01	85.035
538.35	85.576
538.69	84.288
539.03	84.005
539.37	84.118
539.71	84.185
540.05	85.472
540.39	83.934
540.73	84.937
541.07	85.221
541.42	83.804
541.76	86.304
542.10	84.584
542.44	84.642
542.78	85.134
543.12	85.027
543.46	85.953
543.80	86.190
544.14	82.977
544.48	84.011
544.82	86.124
545.16	86.817
545.50	83.578
545.84	86.190
546.18	85.319
546.52	85.004
546.86	84.184
547.20	85.408
547.54	84.876
547.88	86.549
548.22	83.761
548.56	83.179
548.90	85.243
549.24	85.399
549.58	85.402
549.92	82.988
550.26	84.835
550.60	86.543
550.94	86.408
551.28	85.549
551.62	86.846
551.96	86.541
552.30	87.792
552.64	86.248
552.98	84.459
553.32	85.378
553.66	85.776
554.00	87.007
554.34	86.632
554.68	83.702
555.02	86.533
555.36	87.958
555.69	87.473
556.03	84.797
556.37	85.196
556.71	86.065
557.05	86.130
557.39	85.353
557.73	87.706
558.07	87.179
558.41	84.763
558.75	86.204
559.08	85.579
559.42	87.619
559.76	86.950
560.10	85.627
560.44	87.863
560.78	86.853
561.12	85.896
561.45	87.070
561.79	86.905
562.13	86.870
562.47	86.475
562.81	85.663
563.15	86.389
563.48	85.502
563.82	85.999
564.16	86.490
564.50	86.216
564.84	85.944
565.17	85.915
565.51	88.456
565.85	88.477
566.19	86.538
566.52	87.936
566.86	87.853
567.20	86.800
567.54	86.679
567.88	88.869
568.21	87.839
568.55	86.413
568.89	87.885
569.23	87.675
569.56	86.690
569.90	87.617
570.24	85.262
570.57	86.945
570.91	86.581
571.25	84.676
571.59	83.993
571.92	82.904
572.26	83.454
572.60	84.651
572.93	82.993
573.27	83.417
573.61	83.831
573.95	83.779
574.28	83.872
574.62	83.270
574.96	82.573
575.29	82.458
575.63	81.394
575.97	83.600
576.30	83.582
576.64	82.490
576.98	84.479
577.31	83.313
577.65	83.968
577.98	83.791
578.32	82.774
578.66	81.754
578.99	82.592
579.33	82.888
579.67	82.513
580.00	83.747
580.34	83.458
580.67	82.542
581.01	83.598
581.35	83.312
581.68	83.980
582.02	83.465
582.35	83.380
582.69	83.794
583.02	83.358
583.36	83.322
583.70	84.709
584.03	84.292
584.37	85.940
584.70	84.258
585.04	82.150
585.37	83.219
585.71	84.473
586.04	83.863
586.38	83.436
586.72	84.763
587.05	85.471
587.39	85.155
587.72	85.703
588.06	85.192
588.39	85.132
588.73	85.653
589.06	85.780
589.40	84.998
589.73	85.615
590.07	86.782
590.40	85.642
590.73	87.068
591.07	85.835
591.40	85.708
591.74	87.014
592.07	85.668
592.41	87.412
592.74	86.380
593.08	83.619
593.41	85.799
593.75	84.331
594.08	84.930
594.41	84.825
594.75	85.611
595.08	86.076
595.42	86.161
595.75	85.993
596.09	86.083
596.42	85.407
596.75	86.501
597.09	85.239
597.42	86.269
597.75	86.532
598.09	84.382
598.42	85.695
598.76	85.199
599.09	84.936
599.42	84.653
599.76	84.650
600.09	84.276
600.42	84.268
600.76	84.361
601.09	85.496
601.42	84.371
601.76	85.193
602.09	84.736
602.42	87.110
602.76	86.333
603.09	86.711
603.42	88.587
603.76	85.968
604.09	86.513
604.42	86.844
604.76	87.628
605.09	85.878
605.42	86.005
605.75	86.033
606.09	86.794
606.42	85.488
606.75	85.411
607.09	85.407
607.42	85.246
607.75	85.391
608.08	83.783
608.42	85.199
608.75	87.373
609.08	87.394
609.41	86.091
609.75	85.534
610.08	86.321
610.41	84.831
610.74	85.666
611.07	86.925
611.41	87.753
611.74	87.313
612.07	85.760
612.40	87.418
612.73	88.192
613.07	87.064
613.40	85.613
613.73	86.849
614.06	87.479
614.39	86.182
614.72	86.667
615.06	86.145
615.39	85.044
615.72	84.553
616.05	86.480
616.38	84.729
616.71	86.667
617.05	86.535
617.38	87.932
617.71	87.170
618.04	88.444
618.37	89.660
618.70	88.977
619.03	89.514
619.36	87.337
619.69	89.538
620.03	89.774
620.36	88.412
620.69	85.296
621.02	87.156
621.35	90.373
621.68	90.051
622.01	89.250
622.34	86.113
622.67	88.565
623.00	88.055
623.33	87.729
623.66	88.033
623.99	87.065
624.32	87.300
624.65	88.722
624.99	88.262
625.32	87.339
625.65	89.631
625.98	89.605
626.31	88.778
626.64	88.995
626.97	88.307
627.30	88.529
627.63	88.475
627.96	90.476
628.29	88.992
628.62	90.167
628.95	89.279
629.28	91.633
629.61	89.033
629.94	88.563
630.26	88.834
630.59	92.924
630.92	92.205
631.25	87.590
631.58	90.749
631.91	88.048
632.24	92.087
632.57	90.341
632.90	91.222
633.23	89.294
633.56	90.932
633.89	91.985
634.22	90.000
