SpectraSuite Data File
++++++++++++++++++++++++++++++++++++
Date: Fri May 15 17:18:56 PDT 2015
User: schluterlab
Dark Spectrum Present: Yes
Reference Spectrum Present: Yes
Number of Sampled Component Spectra: 1
Spectrometers: USB2E3373
Integration Time (usec): 3000 (USB2E3373)
Spectra Averaged: 3 (USB2E3373)
Boxcar Smoothing: 0 (USB2E3373)
Correct for Electrical Dark: No (USB2E3373)
Strobe/Lamp Enabled: No (USB2E3373)
Correct for Detector Non-linearity: No (USB2E3373)
Correct for Stray Light: No (USB2E3373)
Number of Pixels in Processed Spectrum: 2048
>>>>>Begin Processed Spectral Data<<<<<
178.53	0.000
178.91	0.000
179.29	187.500
179.67	0.000
180.04	-185.714
180.42	50.000
180.80	1000.000
181.18	-500.000
181.56	-50.000
181.94	550.000
182.31	300.000
182.69	80.000
183.07	-166.667
183.45	100.000
183.83	116.667
184.20	100.000
184.58	11.111
184.96	-175.000
185.34	-100.000
185.72	400.000
186.09	38.462
186.47	400.000
186.85	33.333
187.23	33.333
187.61	-200.000
187.98	233.333
188.36	11.111
188.74	0.000
189.12	41.176
189.49	50.000
189.87	0.000
190.25	107.143
190.63	450.000
191.00	133.333
191.38	-10.526
191.76	650.000
192.14	-150.000
192.51	400.000
192.89	11.111
193.27	85.714
193.65	100.000
194.02	109.091
194.40	110.000
194.78	-112.500
195.15	-58.333
195.53	100.000
195.91	225.000
196.29	200.000
196.66	53.846
197.04	14.286
197.42	133.333
197.79	0.000
198.17	-30.769
198.55	-300.000
198.92	333.333
199.30	-500.000
199.68	0.000
200.05	0.000
200.43	0.000
200.81	100.000
201.18	66.667
201.56	400.000
201.94	350.000
202.31	-100.000
202.69	160.000
203.07	-0.000
203.44	1900.000
203.82	0.000
204.19	128.571
204.57	33.333
204.95	12.500
205.32	140.000
205.70	85.714
206.08	175.000
206.45	333.333
206.83	92.857
207.20	42.857
207.58	-200.000
207.96	-133.333
208.33	-100.000
208.71	75.000
209.08	-216.667
209.46	-300.000
209.84	-40.000
210.21	200.000
210.59	228.571
210.96	266.667
211.34	150.000
211.71	100.000
212.09	142.857
212.46	-1200.000
212.84	0.000
213.22	50.000
213.59	100.000
213.97	153.846
214.34	63.636
214.72	0.000
215.09	200.000
215.47	69.231
215.84	81.818
216.22	133.333
216.59	-12.500
216.97	850.000
217.34	50.000
217.72	-60.000
218.09	100.000
218.47	125.000
218.84	300.000
219.22	22.222
219.59	100.000
219.97	233.333
220.34	-0.000
220.72	42.857
221.09	-50.000
221.47	350.000
221.84	-350.000
222.22	-350.000
222.59	36.364
222.97	83.333
223.34	133.333
223.72	50.000
224.09	76.190
224.46	42.857
224.84	133.333
225.21	100.000
225.59	60.000
225.96	750.000
226.34	150.000
226.71	128.571
227.08	50.000
227.46	100.000
227.83	200.000
228.21	200.000
228.58	18.182
228.95	25.000
229.33	-20.000
229.70	87.500
230.08	100.000
230.45	-28.571
230.82	185.714
231.20	26.667
231.57	142.857
231.95	114.286
232.32	90.000
232.69	92.857
233.07	233.333
233.44	100.000
233.81	-60.000
234.19	111.111
234.56	-23.529
234.93	400.000
235.31	250.000
235.68	60.000
236.05	53.846
236.43	-10.000
236.80	41.176
237.17	40.625
237.55	50.000
237.92	22.222
238.29	30.556
238.67	40.000
239.04	38.235
239.41	2.439
239.79	33.333
240.16	43.902
240.53	10.526
240.91	34.783
241.28	33.333
241.65	19.643
242.02	24.658
242.40	16.667
242.77	44.068
243.14	19.697
243.51	23.750
243.89	41.379
244.26	8.046
244.63	23.810
245.00	29.897
245.38	21.649
245.75	24.719
246.12	20.690
246.49	16.529
246.87	23.077
247.24	17.647
247.61	9.649
247.98	26.829
248.36	23.125
248.73	21.711
249.10	17.532
249.47	16.456
249.84	20.261
250.22	18.824
250.59	15.686
250.96	21.596
251.33	16.860
251.70	14.118
252.08	21.827
252.45	16.832
252.82	19.598
253.19	18.433
253.56	16.822
253.94	19.369
254.31	19.565
254.68	19.737
255.05	14.961
255.42	21.397
255.79	16.602
256.16	16.732
256.54	19.776
256.91	18.251
257.28	13.011
257.65	18.352
258.02	17.376
258.39	20.539
258.76	20.513
259.14	15.947
259.51	20.065
259.88	14.089
260.25	16.667
260.62	19.444
260.99	16.271
261.36	13.699
261.73	19.304
262.10	18.541
262.47	15.951
262.85	15.361
263.22	16.923
263.59	17.134
263.96	17.391
264.33	17.273
264.70	15.774
265.07	18.452
265.44	17.564
265.81	15.537
266.18	18.306
266.55	17.224
266.92	19.430
267.29	18.277
267.66	16.880
268.03	17.801
268.40	16.449
268.77	16.845
269.14	18.225
269.51	19.537
269.88	14.963
270.25	16.837
270.62	13.415
270.99	15.345
271.36	16.870
271.73	17.136
272.10	18.005
272.47	18.203
272.84	14.109
273.21	18.561
273.58	18.313
273.95	16.934
274.32	14.781
274.69	15.837
275.06	20.536
275.43	14.966
275.80	16.556
276.17	17.011
276.54	16.274
276.91	16.447
277.28	16.594
277.65	17.355
278.02	16.170
278.39	15.098
278.76	16.143
279.13	12.863
279.50	15.336
279.87	16.415
280.23	13.978
280.60	15.789
280.97	17.172
281.34	14.808
281.71	20.123
282.08	13.497
282.45	14.873
282.82	15.637
283.19	16.054
283.56	14.258
283.92	14.042
284.29	15.385
284.66	12.984
285.03	17.289
285.40	15.312
285.77	13.533
286.14	15.884
286.51	14.391
286.87	13.711
287.24	16.022
287.61	13.757
287.98	15.965
288.35	15.078
288.72	15.412
289.08	14.931
289.45	16.344
289.82	14.510
290.19	14.164
290.56	13.722
290.93	13.131
291.29	11.556
291.66	14.803
292.03	13.876
292.40	12.903
292.77	14.195
293.13	11.851
293.50	10.622
293.87	13.740
294.24	13.292
294.60	11.624
294.97	13.244
295.34	13.344
295.71	12.966
296.08	13.602
296.44	12.233
296.81	12.361
297.18	12.319
297.55	13.957
297.91	13.562
298.28	13.325
298.65	11.398
299.02	11.186
299.38	9.850
299.75	12.000
300.12	10.602
300.48	11.726
300.85	12.041
301.22	12.727
301.59	11.974
301.95	11.646
302.32	14.137
302.69	12.065
303.05	11.510
303.42	11.831
303.79	12.033
304.15	11.708
304.52	11.058
304.89	12.047
305.25	12.349
305.62	10.735
305.99	10.994
306.35	10.867
306.72	10.799
307.09	11.631
307.45	13.088
307.82	10.995
308.19	12.079
308.55	11.559
308.92	12.527
309.29	11.173
309.65	11.087
310.02	12.211
310.38	11.855
310.75	13.770
311.12	12.487
311.48	12.089
311.85	12.356
312.22	12.658
312.58	12.739
312.95	11.846
313.31	12.422
313.68	13.508
314.05	12.857
314.41	13.196
314.78	13.093
315.14	14.183
315.51	14.596
315.87	14.139
316.24	15.976
316.61	17.618
316.97	16.766
317.34	15.820
317.70	16.539
318.07	16.250
318.43	17.059
318.80	17.992
319.16	18.359
319.53	18.803
319.89	18.110
320.26	20.040
320.62	20.361
320.99	20.146
321.35	21.583
321.72	21.703
322.08	22.356
322.45	22.132
322.81	22.986
323.18	23.749
323.54	25.676
323.91	26.388
324.27	27.734
324.64	29.213
325.00	29.015
325.37	31.956
325.73	31.732
326.10	33.878
326.46	35.336
326.83	36.483
327.19	37.053
327.56	38.923
327.92	40.317
328.29	40.714
328.65	42.264
329.01	44.485
329.38	46.820
329.74	47.781
330.11	48.563
330.47	49.258
330.84	52.212
331.20	51.996
331.56	52.037
331.93	55.799
332.29	55.545
332.66	54.480
333.02	56.413
333.38	56.829
333.75	58.883
334.11	57.565
334.48	59.746
334.84	60.623
335.20	61.665
335.57	60.653
335.93	62.150
336.29	62.983
336.66	62.943
337.02	63.755
337.38	64.167
337.75	64.818
338.11	64.292
338.47	65.693
338.84	64.880
339.20	65.631
339.56	66.972
339.93	65.622
340.29	67.890
340.65	67.921
341.02	66.135
341.38	68.850
341.74	67.314
342.11	66.638
342.47	68.594
342.83	69.291
343.20	68.815
343.56	68.261
343.92	68.556
344.28	70.453
344.65	70.984
345.01	67.589
345.37	68.040
345.73	70.293
346.10	71.268
346.46	69.638
346.82	69.804
347.19	68.994
347.55	71.596
347.91	71.117
348.27	70.412
348.63	72.658
349.00	70.550
349.36	74.065
349.72	74.378
350.08	73.033
350.45	69.034
350.81	72.674
351.17	72.720
351.53	72.327
351.89	71.594
352.26	72.880
352.62	73.710
352.98	71.406
353.34	71.176
353.70	73.867
354.07	73.387
354.43	72.938
354.79	74.484
355.15	72.778
355.51	75.475
355.87	74.595
356.24	74.715
356.60	73.727
356.96	75.635
357.32	74.441
357.68	74.824
358.04	74.717
358.40	77.170
358.77	76.475
359.13	75.901
359.49	74.884
359.85	75.507
360.21	77.113
360.57	74.751
360.93	77.383
361.29	75.680
361.66	77.900
362.02	77.348
362.38	77.685
362.74	78.198
363.10	79.308
363.46	78.873
363.82	78.137
364.18	78.524
364.54	76.912
364.90	77.706
365.26	77.729
365.62	78.467
365.98	79.399
366.35	79.825
366.71	80.414
367.07	79.390
367.43	81.237
367.79	80.565
368.15	79.182
368.51	79.752
368.87	79.325
369.23	78.556
369.59	82.289
369.95	80.718
370.31	81.503
370.67	80.672
371.03	80.657
371.39	81.838
371.75	82.051
372.11	80.385
372.47	83.432
372.83	81.121
373.19	80.528
373.55	81.011
373.91	81.641
374.27	81.999
374.63	82.627
374.99	82.553
375.35	83.983
375.71	85.594
376.07	84.972
376.42	84.082
376.78	82.483
377.14	83.345
377.50	83.533
377.86	84.471
378.22	83.599
378.58	84.872
378.94	83.617
379.30	83.468
379.66	85.580
380.02	84.611
380.38	83.567
380.74	85.099
381.09	84.847
381.45	85.505
381.81	85.133
382.17	84.074
382.53	84.447
382.89	86.441
383.25	86.497
383.61	86.220
383.97	87.365
384.32	86.241
384.68	84.954
385.04	85.784
385.40	86.932
385.76	88.616
386.12	88.228
386.48	89.272
386.83	87.825
387.19	87.302
387.55	89.021
387.91	85.147
388.27	86.203
388.62	87.539
388.98	87.231
389.34	86.508
389.70	87.073
390.06	86.469
390.42	87.435
390.77	89.012
391.13	86.885
391.49	88.680
391.85	86.940
392.20	86.755
392.56	87.985
392.92	86.260
393.28	86.851
393.64	86.547
393.99	88.777
394.35	89.880
394.71	87.356
395.07	86.172
395.42	84.882
395.78	86.450
396.14	87.264
396.50	86.113
396.85	87.830
397.21	86.654
397.57	86.771
397.92	85.500
398.28	86.667
398.64	84.819
399.00	85.214
399.35	83.804
399.71	84.434
400.07	87.001
400.42	84.333
400.78	86.712
401.14	84.634
401.49	85.229
401.85	85.619
402.21	84.398
402.57	85.688
402.92	84.128
403.28	84.962
403.63	85.372
403.99	84.311
404.35	84.260
404.70	82.798
405.06	82.961
405.42	81.976
405.77	82.336
406.13	83.644
406.49	82.001
406.84	83.985
407.20	83.504
407.55	82.614
407.91	82.219
408.27	83.110
408.62	81.785
408.98	81.824
409.34	83.953
409.69	80.749
410.05	80.111
410.40	82.346
410.76	82.027
411.11	81.500
411.47	82.774
411.83	80.665
412.18	82.432
412.54	81.086
412.89	80.234
413.25	82.070
413.60	81.801
413.96	79.939
414.31	81.037
414.67	80.949
415.03	80.360
415.38	80.091
415.74	81.173
416.09	81.385
416.45	79.946
416.80	81.824
417.16	82.320
417.51	82.079
417.87	80.965
418.22	82.189
418.58	80.870
418.93	81.630
419.29	79.513
419.64	81.918
420.00	83.564
420.35	81.254
420.71	81.774
421.06	80.540
421.42	81.911
421.77	82.601
422.12	81.612
422.48	81.213
422.83	81.961
423.19	81.716
423.54	82.305
423.90	80.624
424.25	82.606
424.61	83.782
424.96	83.217
425.31	85.731
425.67	84.683
426.02	83.804
426.38	85.535
426.73	86.320
427.09	84.810
427.44	84.765
427.79	83.795
428.15	83.981
428.50	84.494
428.85	84.951
429.21	86.248
429.56	86.092
429.92	84.232
430.27	83.659
430.62	83.586
430.98	83.546
431.33	84.490
431.68	83.883
432.04	86.473
432.39	84.313
432.74	84.125
433.10	85.977
433.45	86.559
433.80	87.464
434.16	85.873
434.51	84.731
434.86	87.398
435.22	86.652
435.57	87.336
435.92	86.407
436.28	85.748
436.63	87.678
436.98	87.196
437.34	87.175
437.69	88.849
438.04	87.635
438.39	87.111
438.75	89.982
439.10	89.247
439.45	88.984
439.81	88.135
440.16	90.618
440.51	89.075
440.86	90.816
441.22	88.688
441.57	89.404
441.92	89.244
442.27	90.466
442.63	90.632
442.98	88.857
443.33	88.703
443.68	88.647
444.03	89.071
444.39	89.621
444.74	90.580
445.09	89.866
445.44	89.630
445.79	91.800
446.15	88.932
446.50	89.517
446.85	90.329
447.20	89.312
447.55	89.397
447.91	89.622
448.26	90.381
448.61	91.422
448.96	89.501
449.31	90.636
449.66	90.534
450.02	90.816
450.37	90.931
450.72	90.378
451.07	91.392
451.42	89.076
451.77	89.030
452.12	89.354
452.47	91.436
452.83	90.989
453.18	90.006
453.53	90.329
453.88	91.439
454.23	90.289
454.58	92.569
454.93	91.302
455.28	90.984
455.63	92.064
455.98	91.521
456.34	92.593
456.69	91.105
457.04	93.195
457.39	91.252
457.74	92.080
458.09	90.112
458.44	91.281
458.79	90.812
459.14	91.304
459.49	90.687
459.84	90.130
460.19	92.536
460.54	92.359
460.89	93.352
461.24	92.174
461.59	93.290
461.94	92.264
462.29	93.185
462.64	92.890
462.99	92.079
463.34	93.602
463.69	92.986
464.04	92.736
464.39	91.753
464.74	89.571
465.09	92.639
465.44	92.152
465.79	91.100
466.14	91.961
466.49	91.719
466.84	92.267
467.19	92.553
467.54	92.720
467.89	92.925
468.24	92.153
468.59	93.397
468.94	93.714
469.29	93.902
469.64	93.848
469.99	96.356
470.34	94.061
470.68	94.183
471.03	93.347
471.38	94.579
471.73	96.499
472.08	93.555
472.43	96.174
472.78	95.751
473.13	96.259
473.48	95.700
473.83	94.085
474.17	95.142
474.52	94.639
474.87	94.545
475.22	95.851
475.57	93.394
475.92	94.185
476.27	92.433
476.61	95.370
476.96	94.367
477.31	92.915
477.66	93.371
478.01	95.059
478.36	93.301
478.70	95.759
479.05	94.835
479.40	94.330
479.75	92.753
480.10	95.084
480.45	94.500
480.79	95.368
481.14	96.824
481.49	94.581
481.84	95.898
482.19	94.668
482.53	95.396
482.88	94.033
483.23	94.530
483.58	95.189
483.92	94.627
484.27	94.303
484.62	94.307
484.97	93.532
485.31	93.425
485.66	90.596
486.01	89.943
486.36	88.349
486.70	87.784
487.05	89.926
487.40	89.814
487.75	90.958
488.09	90.822
488.44	91.678
488.79	92.529
489.13	93.269
489.48	94.912
489.83	95.202
490.17	94.382
490.52	95.473
490.87	94.401
491.22	96.514
491.56	95.778
491.91	94.598
492.26	97.910
492.60	95.106
492.95	98.770
493.30	95.799
493.64	98.625
493.99	95.797
494.34	95.922
494.68	96.476
495.03	97.859
495.37	97.203
495.72	97.577
496.07	97.415
496.41	96.462
496.76	95.394
497.11	95.482
497.45	96.563
497.80	98.537
498.14	95.678
498.49	97.004
498.84	97.904
499.18	98.594
499.53	97.520
499.87	97.228
500.22	96.785
500.56	97.932
500.91	98.695
501.26	97.479
501.60	98.229
501.95	97.331
502.29	97.385
502.64	97.346
502.98	98.569
503.33	97.166
503.67	96.048
504.02	97.801
504.36	97.674
504.71	96.970
505.06	96.930
505.40	98.528
505.75	98.866
506.09	98.023
506.44	100.257
506.78	99.694
507.13	98.397
507.47	97.963
507.82	100.962
508.16	100.528
508.51	100.367
508.85	99.529
509.19	101.543
509.54	100.643
509.88	100.647
510.23	100.646
510.57	101.390
510.92	99.200
511.26	102.510
511.61	101.705
511.95	99.178
512.30	103.825
512.64	101.614
512.98	102.134
513.33	101.791
513.67	102.615
514.02	104.005
514.36	104.571
514.70	105.012
515.05	107.051
515.39	104.309
515.74	105.389
516.08	104.304
516.42	105.948
516.77	103.803
517.11	105.282
517.46	106.344
517.80	106.019
518.14	105.573
518.49	104.627
518.83	105.529
519.17	105.761
519.52	105.033
519.86	104.502
520.20	106.440
520.55	106.191
520.89	105.082
521.23	107.093
521.58	107.256
521.92	106.603
522.26	108.068
522.61	107.987
522.95	108.874
523.29	105.146
523.64	106.925
523.98	108.166
524.32	107.796
524.66	108.963
525.01	108.701
525.35	107.323
525.69	110.909
526.04	108.069
526.38	109.144
526.72	107.325
527.06	106.809
527.41	108.443
527.75	106.769
528.09	108.571
528.43	108.103
528.78	108.845
529.12	107.032
529.46	107.537
529.80	106.016
530.15	108.119
530.49	109.226
530.83	111.218
531.17	106.783
531.51	110.397
531.86	110.673
532.20	109.951
532.54	109.598
532.88	108.008
533.22	109.610
533.57	106.684
533.91	108.812
534.25	107.943
534.59	107.505
534.93	105.035
535.27	104.886
535.62	105.379
535.96	107.502
536.30	106.135
536.64	107.719
536.98	106.481
537.32	110.384
537.66	109.046
538.01	109.371
538.35	109.154
538.69	106.858
539.03	106.972
539.37	107.604
539.71	107.839
540.05	106.721
540.39	108.795
540.73	106.904
541.07	108.218
541.42	106.519
541.76	108.396
542.10	108.396
542.44	107.505
542.78	107.089
543.12	108.448
543.46	107.789
543.80	108.258
544.14	105.073
544.48	107.595
544.82	108.202
545.16	107.787
545.50	105.274
545.84	109.207
546.18	110.567
546.52	110.382
546.86	107.908
547.20	109.800
547.54	107.067
547.88	108.220
548.22	106.575
548.56	105.343
548.90	106.806
549.24	107.025
549.58	107.264
549.92	107.577
550.26	108.571
550.60	111.524
550.94	110.306
551.28	110.974
551.62	113.077
551.96	112.632
552.30	108.918
552.64	107.334
552.98	107.454
553.32	108.702
553.66	109.216
554.00	109.270
554.34	109.749
554.68	110.103
555.02	109.375
555.36	111.444
555.69	108.571
556.03	109.208
556.37	107.972
556.71	109.747
557.05	111.111
557.39	108.104
557.73	111.094
558.07	111.689
558.41	113.629
558.75	113.328
559.08	111.584
559.42	112.619
559.76	113.611
560.10	109.862
560.44	111.914
560.78	109.790
561.12	109.591
561.45	109.909
561.79	110.364
562.13	111.001
562.47	108.561
562.81	112.320
563.15	108.815
563.48	109.760
563.82	110.158
564.16	109.401
564.50	109.527
564.84	108.902
565.17	106.841
565.51	112.705
565.85	112.277
566.19	109.881
566.52	110.590
566.86	108.355
567.20	108.095
567.54	108.942
567.88	109.842
568.21	107.862
568.55	106.902
568.89	106.982
569.23	105.874
569.56	103.109
569.90	103.532
570.24	100.447
570.57	100.800
570.91	99.756
571.25	98.389
571.59	98.007
571.92	95.170
572.26	96.739
572.60	96.899
572.93	95.827
573.27	96.426
573.61	97.763
573.95	96.423
574.28	95.975
574.62	94.584
574.96	94.365
575.29	94.296
575.63	93.237
575.97	94.985
576.30	95.446
576.64	94.914
576.98	94.466
577.31	95.576
577.65	94.083
577.98	94.315
578.32	93.535
578.66	91.640
578.99	93.191
579.33	93.580
579.67	93.666
580.00	94.228
580.34	94.701
580.67	94.387
581.01	94.404
581.35	93.002
581.68	94.037
582.02	92.531
582.35	92.553
582.69	93.027
583.02	93.634
583.36	94.204
583.70	95.976
584.03	97.331
584.37	98.419
584.70	96.209
585.04	94.249
585.37	95.086
585.71	95.285
586.04	95.083
586.38	94.692
586.72	97.532
587.05	97.343
587.39	96.925
587.72	97.840
588.06	97.730
588.39	97.237
588.73	97.405
589.06	99.641
589.40	98.341
589.73	99.160
590.07	101.057
590.40	101.354
590.73	102.142
591.07	102.332
591.40	101.336
591.74	103.982
592.07	103.015
592.41	101.943
592.74	101.513
593.08	97.904
593.41	98.847
593.75	98.397
594.08	97.494
594.41	97.926
594.75	99.924
595.08	99.357
595.42	99.816
595.75	101.089
596.09	101.134
596.42	101.778
596.75	101.643
597.09	101.048
597.42	102.529
597.75	104.489
598.09	100.589
598.42	101.038
598.76	101.845
599.09	98.958
599.42	97.575
599.76	98.232
600.09	98.002
600.42	100.341
600.76	97.920
601.09	99.504
601.42	99.138
601.76	99.127
602.09	101.196
602.42	101.853
602.76	100.976
603.09	102.367
603.42	103.554
603.76	101.452
604.09	100.648
604.42	102.073
604.76	103.427
605.09	102.834
605.42	101.354
605.75	101.270
606.09	99.958
606.42	99.166
606.75	100.476
607.09	100.703
607.42	100.354
607.75	101.465
608.08	99.506
608.42	100.457
608.75	104.193
609.08	103.288
609.41	103.046
609.75	103.024
610.08	102.346
610.41	101.449
610.74	103.267
611.07	104.289
611.41	103.581
611.74	106.343
612.07	102.623
612.40	103.337
612.73	107.006
613.07	105.062
613.40	103.939
613.73	104.477
614.06	105.509
614.39	104.061
614.72	101.513
615.06	104.469
615.39	102.620
615.72	101.938
616.05	104.358
616.38	103.476
616.71	106.422
617.05	107.350
617.38	105.845
617.71	106.730
618.04	108.063
618.37	107.629
618.70	107.459
619.03	108.542
619.36	110.347
619.69	113.116
620.03	110.665
620.36	108.011
620.69	108.922
621.02	111.544
621.35	113.278
621.68	114.626
622.01	114.500
622.34	111.652
622.67	112.539
623.00	110.337
623.33	110.823
623.66	108.676
623.99	110.061
624.32	111.255
624.65	108.797
624.99	111.512
625.32	110.690
625.65	112.569
625.98	113.054
626.31	110.973
626.64	116.898
626.97	115.271
627.30	114.623
627.63	113.172
627.96	115.454
