SpectraSuite Data File
++++++++++++++++++++++++++++++++++++
Date: Fri May 15 17:20:48 PDT 2015
User: schluterlab
Dark Spectrum Present: Yes
Reference Spectrum Present: Yes
Number of Sampled Component Spectra: 1
Spectrometers: USB2E3373
Integration Time (usec): 3000 (USB2E3373)
Spectra Averaged: 3 (USB2E3373)
Boxcar Smoothing: 0 (USB2E3373)
Correct for Electrical Dark: No (USB2E3373)
Strobe/Lamp Enabled: No (USB2E3373)
Correct for Detector Non-linearity: No (USB2E3373)
Correct for Stray Light: No (USB2E3373)
Number of Pixels in Processed Spectrum: 2048
>>>>>Begin Processed Spectral Data<<<<<
178.53	0.000
178.91	0.000
179.29	125.000
179.67	-650.000
180.04	-142.857
180.42	150.000
180.80	600.000
181.18	-233.333
181.56	100.000
181.94	150.000
182.31	-900.000
182.69	0.000
183.07	100.000
183.45	180.000
183.83	-16.667
184.20	9.091
184.58	11.111
184.96	-175.000
185.34	-0.000
185.72	150.000
186.09	-7.692
186.47	-500.000
186.85	66.667
187.23	55.556
187.61	-1100.000
187.98	66.667
188.36	88.889
188.74	-133.333
189.12	64.706
189.49	44.444
189.87	0.000
190.25	114.286
190.63	300.000
191.00	-100.000
191.38	26.316
191.76	550.000
192.14	200.000
192.51	500.000
192.89	111.111
193.27	57.143
193.65	-66.667
194.02	72.727
194.40	0.000
194.78	-125.000
195.15	-8.333
195.53	75.000
195.91	-25.000
196.29	200.000
196.66	100.000
197.04	-0.000
197.42	66.667
197.79	-333.333
198.17	-38.462
198.55	700.000
198.92	-300.000
199.30	1600.000
199.68	-20.000
200.05	-133.333
200.43	0.000
200.81	266.667
201.18	400.000
201.56	-100.000
201.94	-100.000
202.31	-200.000
202.69	-160.000
203.07	75.000
203.44	800.000
203.82	0.000
204.19	35.714
204.57	100.000
204.95	-25.000
205.32	100.000
205.70	42.857
206.08	150.000
206.45	233.333
206.83	164.286
207.20	14.286
207.58	-0.000
207.96	-100.000
208.33	-50.000
208.71	200.000
209.08	83.333
209.46	-200.000
209.84	140.000
210.21	-900.000
210.59	28.571
210.96	133.333
211.34	75.000
211.71	106.667
212.09	-71.429
212.46	-1500.000
212.84	0.000
213.22	130.000
213.59	-100.000
213.97	123.077
214.34	172.727
214.72	100.000
215.09	225.000
215.47	7.692
215.84	54.545
216.22	200.000
216.59	-50.000
216.97	250.000
217.34	0.000
217.72	20.000
218.09	150.000
218.47	62.500
218.84	-100.000
219.22	22.222
219.59	40.000
219.97	33.333
220.34	75.000
220.72	85.714
221.09	-150.000
221.47	400.000
221.84	-50.000
222.22	-550.000
222.59	127.273
222.97	41.667
223.34	-133.333
223.72	-14.286
224.09	61.905
224.46	25.000
224.84	166.667
225.21	110.000
225.59	46.667
225.96	100.000
226.34	175.000
226.71	-14.286
227.08	0.000
227.46	0.000
227.83	-200.000
228.21	166.667
228.58	63.636
228.95	75.000
229.33	30.000
229.70	-6.250
230.08	-75.000
230.45	100.000
230.82	114.286
231.20	73.333
231.57	57.143
231.95	71.429
232.32	0.000
232.69	78.571
233.07	300.000
233.44	60.000
233.81	60.000
234.19	133.333
234.56	82.353
234.93	200.000
235.31	325.000
235.68	-120.000
236.05	-30.769
236.43	5.000
236.80	35.294
237.17	28.125
237.55	25.000
237.92	37.037
238.29	27.778
238.67	6.667
239.04	23.529
239.41	-21.951
239.79	10.000
240.16	41.463
240.53	7.895
240.91	-6.522
241.28	19.048
241.65	32.143
242.02	36.986
242.40	31.667
242.77	3.390
243.14	4.545
243.51	18.750
243.89	17.241
244.26	9.195
244.63	9.524
245.00	13.402
245.38	20.619
245.75	2.247
246.12	10.345
246.49	14.876
246.87	11.538
247.24	5.042
247.61	15.789
247.98	21.138
248.36	15.625
248.73	24.342
249.10	14.935
249.47	14.557
249.84	19.608
250.22	15.294
250.59	12.418
250.96	17.840
251.33	15.116
251.70	13.529
252.08	20.305
252.45	13.861
252.82	14.070
253.19	21.659
253.56	17.757
253.94	18.468
254.31	17.391
254.68	17.544
255.05	11.417
255.42	21.397
255.79	18.147
256.16	15.564
256.54	18.657
256.91	14.449
257.28	13.011
257.65	12.734
258.02	15.248
258.39	18.519
258.76	17.949
259.14	17.276
259.51	16.828
259.88	16.838
260.25	16.340
260.62	17.361
260.99	10.508
261.36	15.068
261.73	16.772
262.10	16.717
262.47	15.951
262.85	15.987
263.22	15.692
263.59	17.134
263.96	16.149
264.33	16.364
264.70	13.988
265.07	15.774
265.44	13.881
265.81	14.972
266.18	13.934
266.55	14.653
266.92	12.694
267.29	16.449
267.66	14.578
268.03	17.277
268.40	13.577
268.77	20.053
269.14	15.588
269.51	15.424
269.88	14.713
270.25	11.480
270.62	12.683
270.99	13.811
271.36	13.447
271.73	15.258
272.10	16.058
272.47	13.475
272.84	14.356
273.21	16.009
273.58	15.663
273.95	16.934
274.32	12.471
274.69	13.801
275.06	16.071
275.43	13.379
275.80	13.245
276.17	14.483
276.54	14.775
276.91	15.132
277.28	16.376
277.65	17.769
278.02	15.957
278.39	12.473
278.76	14.046
279.13	10.581
279.50	14.916
279.87	12.527
280.23	13.333
280.60	15.789
280.97	13.737
281.34	14.038
281.71	15.606
282.08	16.155
282.45	12.524
282.82	12.934
283.19	16.634
283.56	13.102
283.92	13.852
284.29	13.269
284.66	14.341
285.03	13.949
285.40	14.178
285.77	12.127
286.14	15.704
286.51	15.498
286.87	12.980
287.24	12.339
287.61	13.228
287.98	15.263
288.35	13.345
288.72	15.587
289.08	12.674
289.45	15.114
289.82	14.336
290.19	13.652
290.56	12.350
290.93	12.963
291.29	12.789
291.66	14.488
292.03	13.557
292.40	12.258
292.77	13.716
293.13	11.526
293.50	12.291
293.87	12.977
294.24	14.065
294.60	12.966
294.97	13.095
295.34	12.577
295.71	13.860
296.08	12.706
296.44	12.091
296.81	13.333
297.18	12.319
297.55	13.957
297.91	14.521
298.28	15.303
298.65	13.704
299.02	11.995
299.38	11.765
299.75	13.103
300.12	12.042
300.48	13.175
300.85	13.688
301.22	13.247
301.59	14.342
301.95	13.924
302.32	13.748
302.69	12.562
303.05	13.861
303.42	12.080
303.79	13.902
304.15	14.934
304.52	10.939
304.89	13.099
305.25	13.075
305.62	12.602
305.99	12.982
306.35	13.179
306.72	12.823
307.09	13.797
307.45	13.548
307.82	13.542
308.19	14.634
308.55	14.722
308.92	13.508
309.29	13.184
309.65	12.487
310.02	12.651
310.38	14.819
310.75	13.770
311.12	12.917
311.48	13.043
311.85	14.136
312.22	13.080
312.58	13.907
312.95	13.447
313.31	13.665
313.68	13.717
314.05	11.837
314.41	14.227
314.78	14.330
315.14	14.697
315.51	15.217
315.87	13.627
316.24	14.863
316.61	14.075
316.97	15.476
317.34	14.551
317.70	13.767
318.07	14.038
318.43	15.392
318.80	14.205
319.16	15.137
319.53	15.575
319.89	13.878
320.26	15.486
320.62	16.550
320.99	14.196
321.35	15.211
321.72	15.576
322.08	15.609
322.45	14.721
322.81	15.815
323.18	14.524
323.54	16.409
323.91	16.261
324.27	15.234
324.64	16.479
325.00	17.609
325.37	18.274
325.73	17.135
326.10	17.166
326.46	17.399
326.83	16.885
327.19	18.221
327.56	19.114
327.92	18.662
328.29	18.304
328.65	18.774
329.01	19.577
329.38	18.986
329.74	19.075
330.11	20.019
330.47	20.130
330.84	19.808
331.20	21.103
331.56	20.463
331.93	21.644
332.29	21.815
332.66	22.172
333.02	21.654
333.38	21.265
333.75	21.612
334.11	20.770
334.48	22.393
334.84	21.429
335.20	22.324
335.57	21.215
335.93	23.126
336.29	21.915
336.66	21.889
337.02	22.119
337.38	21.759
337.75	21.545
338.11	22.453
338.47	23.084
338.84	22.643
339.20	22.212
339.56	22.202
339.93	23.545
340.29	22.752
340.65	22.939
341.02	22.163
341.38	23.451
341.74	23.145
342.11	22.444
342.47	21.708
342.83	23.356
343.20	22.300
343.56	23.826
343.92	22.675
344.28	22.203
344.65	21.503
345.01	21.435
345.37	22.372
345.73	22.259
346.10	23.037
346.46	22.624
346.82	21.031
347.19	21.446
347.55	21.387
347.91	22.249
348.27	21.342
348.63	22.232
349.00	22.642
349.36	22.444
349.72	22.554
350.08	21.148
350.45	21.628
350.81	21.013
351.17	20.684
351.53	22.041
351.89	19.983
352.26	21.280
352.62	22.661
352.98	21.928
353.34	20.290
353.70	22.249
354.07	21.129
354.43	21.377
354.79	21.305
355.15	21.032
355.51	21.123
355.87	22.896
356.24	21.044
356.60	20.614
356.96	23.254
357.32	21.486
357.68	21.579
358.04	21.729
358.40	20.981
358.77	23.126
359.13	22.018
359.49	21.803
359.85	21.685
360.21	21.611
360.57	21.270
360.93	22.088
361.29	21.601
361.66	22.257
362.02	20.758
362.38	21.325
362.74	21.272
363.10	22.047
363.46	21.572
363.82	22.539
364.18	21.550
364.54	21.765
364.90	22.079
365.26	22.125
365.62	23.212
365.98	22.214
366.35	22.651
366.71	22.247
367.07	22.859
367.43	21.783
367.79	21.979
368.15	21.536
368.51	21.850
368.87	21.464
369.23	22.238
369.59	22.449
369.95	22.654
370.31	22.832
370.67	22.463
371.03	22.479
371.39	22.903
371.75	22.711
372.11	22.825
372.47	23.151
372.83	22.569
373.19	23.181
373.55	22.094
373.91	22.966
374.27	22.608
374.63	23.475
374.99	23.191
375.35	23.955
375.71	23.776
376.07	23.244
376.42	23.605
376.78	23.893
377.14	24.171
377.50	23.373
377.86	23.963
378.22	24.378
378.58	23.782
378.94	24.323
379.30	24.392
379.66	25.141
380.02	24.096
380.38	24.772
380.74	24.417
381.09	25.583
381.45	24.832
381.81	24.985
382.17	26.142
382.53	25.484
382.89	25.738
383.25	26.136
383.61	26.098
383.97	25.651
384.32	26.642
384.68	25.944
385.04	25.184
385.40	25.638
385.76	27.421
386.12	27.426
386.48	26.756
386.83	26.696
387.19	27.289
387.55	27.039
387.91	26.895
388.27	26.923
388.62	27.942
388.98	26.765
389.34	27.420
389.70	27.843
390.06	27.250
390.42	27.850
390.77	27.731
391.13	28.058
391.49	28.331
391.85	27.420
392.20	27.746
392.56	28.608
392.92	27.716
393.28	28.007
393.64	27.147
393.99	28.527
394.35	28.147
394.71	27.969
395.07	27.718
395.42	27.262
395.78	27.818
396.14	28.625
396.50	27.711
396.85	28.075
397.21	28.008
397.57	28.401
397.92	27.561
398.28	28.046
398.64	26.988
399.00	28.047
399.35	26.016
399.71	27.743
400.07	27.509
400.42	27.907
400.78	28.047
401.14	27.102
401.49	27.457
401.85	27.971
402.21	28.193
402.57	27.437
402.92	27.478
403.28	28.258
403.63	28.373
403.99	27.551
404.35	27.733
404.70	27.381
405.06	28.026
405.42	28.216
405.77	26.729
406.13	27.998
406.49	27.176
406.84	27.384
407.20	26.791
407.55	26.401
407.91	27.473
408.27	26.769
408.62	26.954
408.98	26.433
409.34	27.509
409.69	27.326
410.05	26.909
410.40	27.160
410.76	27.684
411.11	27.375
411.47	27.285
411.83	26.554
412.18	26.641
412.54	27.029
412.89	27.278
413.25	27.617
413.60	27.143
413.96	26.994
414.31	27.317
414.67	26.812
415.03	27.031
415.38	26.828
415.74	27.296
416.09	27.694
416.45	28.292
416.80	27.826
417.16	28.177
417.51	27.848
417.87	28.162
418.22	28.044
418.58	28.428
418.93	28.276
419.29	27.401
419.64	28.062
420.00	28.841
420.35	28.239
420.71	29.101
421.06	29.036
421.42	28.305
421.77	28.902
422.12	28.490
422.48	29.128
422.83	28.886
423.19	28.894
423.54	28.454
423.90	28.681
424.25	28.530
424.61	29.192
424.96	28.920
425.31	29.289
425.67	30.223
426.02	30.271
426.38	30.808
426.73	30.448
427.09	31.456
427.44	30.059
427.79	30.583
428.15	30.340
428.50	30.224
428.85	29.238
429.21	30.843
429.56	31.105
429.92	29.687
430.27	28.922
430.62	30.005
430.98	29.777
431.33	30.389
431.68	30.403
432.04	29.793
432.39	29.207
432.74	30.006
433.10	31.149
433.45	31.123
433.80	29.774
434.16	30.803
434.51	29.839
434.86	30.139
435.22	30.847
435.57	32.127
435.92	31.317
436.28	30.590
436.63	31.489
436.98	31.112
437.34	30.974
437.69	30.948
438.04	30.997
438.39	30.727
438.75	31.633
439.10	31.409
439.45	31.589
439.81	30.826
440.16	31.710
440.51	32.358
440.86	32.568
441.22	30.882
441.57	32.395
441.92	32.162
442.27	32.151
442.63	32.602
442.98	31.878
443.33	31.330
443.68	31.724
444.03	32.091
444.39	31.776
444.74	32.497
445.09	32.461
445.44	31.681
445.79	32.594
446.15	30.947
446.50	31.503
446.85	32.412
447.20	31.908
447.55	32.143
447.91	32.149
448.26	32.214
448.61	32.527
448.96	32.645
449.31	32.659
449.66	32.811
450.02	32.915
450.37	32.602
450.72	32.932
451.07	33.038
451.42	32.459
451.77	31.585
452.12	31.041
452.47	31.874
452.83	32.627
453.18	32.574
453.53	32.048
453.88	32.665
454.23	33.190
454.58	33.942
454.93	32.925
455.28	31.492
455.63	33.788
455.98	32.592
456.34	33.333
456.69	32.338
457.04	33.207
457.39	33.840
457.74	33.495
458.09	32.313
458.44	31.714
458.79	32.549
459.14	31.522
459.49	33.552
459.84	32.995
460.19	33.617
460.54	32.946
460.89	33.580
461.24	32.919
461.59	33.789
461.94	33.648
462.29	32.992
462.64	34.020
462.99	33.040
463.34	33.102
463.69	33.333
464.04	33.414
464.39	32.990
464.74	32.454
465.09	33.313
465.44	33.641
465.79	32.086
466.14	33.580
466.49	32.662
466.84	32.719
467.19	33.730
467.54	32.695
467.89	33.291
468.24	33.273
468.59	34.286
468.94	33.016
469.29	34.098
469.64	33.561
469.99	34.828
470.34	32.901
470.68	33.855
471.03	34.183
471.38	34.165
471.73	33.403
472.08	33.514
472.43	34.631
472.78	33.585
473.13	34.082
473.48	34.007
473.83	33.811
474.17	34.003
474.52	34.461
474.87	33.818
475.22	33.923
475.57	33.427
475.92	33.955
476.27	33.760
476.61	33.854
476.96	32.794
477.31	34.181
477.66	33.596
478.01	33.970
478.36	33.170
478.70	34.747
479.05	34.560
479.40	33.704
479.75	33.994
480.10	33.794
480.45	34.050
480.79	34.743
481.14	34.119
481.49	33.990
481.84	35.135
482.19	33.442
482.53	33.573
482.88	32.983
483.23	33.589
483.58	33.349
483.92	34.027
484.27	33.090
484.62	33.931
484.97	33.416
485.31	33.418
485.66	32.053
486.01	32.548
486.36	31.864
486.70	31.441
487.05	32.745
487.40	32.575
487.75	32.930
488.09	32.818
488.44	33.735
488.79	33.806
489.13	34.615
489.48	33.989
489.83	34.215
490.17	34.652
490.52	33.995
490.87	33.873
491.22	34.241
491.56	35.057
491.91	33.987
492.26	34.322
492.60	34.405
492.95	34.530
493.30	33.952
493.64	34.578
493.99	35.072
494.34	33.738
494.68	35.238
495.03	33.577
495.37	33.710
495.72	35.740
496.07	34.537
496.41	34.764
496.76	34.316
497.11	34.420
497.45	34.845
497.80	34.107
498.14	34.029
498.49	35.551
498.84	34.581
499.18	35.643
499.53	34.474
499.87	34.630
500.22	33.877
500.56	35.098
500.91	33.936
501.26	33.959
501.60	35.219
501.95	34.498
502.29	35.448
502.64	35.473
502.98	34.632
503.33	34.582
503.67	34.747
504.02	34.262
504.36	35.181
504.71	35.152
505.06	33.820
505.40	34.772
505.75	35.103
506.09	34.161
506.44	35.421
506.78	35.204
507.13	35.574
507.47	34.465
507.82	34.562
508.16	34.707
508.51	35.310
508.85	35.583
509.19	34.859
509.54	34.370
509.88	34.358
510.23	35.449
510.57	35.489
510.92	33.795
511.26	35.516
511.61	35.699
511.95	34.959
512.30	35.754
512.64	34.391
512.98	34.868
513.33	35.534
513.67	35.873
514.02	36.556
514.36	36.457
514.70	36.072
515.05	36.075
515.39	35.478
515.74	36.228
516.08	36.999
516.42	36.514
516.77	35.401
517.11	35.727
517.46	36.445
517.80	36.830
518.14	36.069
518.49	34.615
518.83	35.115
519.17	35.476
519.52	35.524
519.86	35.534
520.20	35.358
520.55	36.398
520.89	35.508
521.23	36.162
521.58	35.521
521.92	36.667
522.26	36.044
522.61	36.039
522.95	37.550
523.29	37.675
523.64	37.230
523.98	37.200
524.32	35.438
524.66	37.132
525.01	36.883
525.35	37.395
525.69	35.623
526.04	35.780
526.38	36.835
526.72	35.579
527.06	37.030
527.41	37.467
527.75	37.198
528.09	37.076
528.43	37.542
528.78	35.842
529.12	37.355
529.46	36.127
529.80	35.402
530.15	36.964
530.49	36.633
530.83	38.304
531.17	37.542
531.51	36.799
531.86	35.350
532.20	36.674
532.54	36.215
532.88	36.550
533.22	36.626
533.57	36.435
533.91	36.292
534.25	36.719
534.59	36.947
534.93	34.865
535.27	35.025
535.62	35.710
535.96	36.008
536.30	36.214
536.64	36.527
536.98	36.516
537.32	37.767
537.66	36.676
538.01	37.692
538.35	36.061
538.69	35.752
539.03	35.748
539.37	36.137
539.71	35.310
540.05	36.388
540.39	36.981
540.73	36.611
541.07	37.155
541.42	36.828
541.76	36.683
542.10	36.958
542.44	36.206
542.78	34.825
543.12	36.401
543.46	36.300
543.80	37.266
544.14	35.648
544.48	35.376
544.82	35.680
545.16	37.090
545.50	35.981
545.84	37.465
546.18	37.163
546.52	36.842
546.86	36.592
547.20	36.195
547.54	35.194
547.88	36.821
548.22	36.818
548.56	35.224
548.90	36.388
549.24	34.366
549.58	36.037
549.92	35.096
550.26	36.044
550.60	36.357
550.94	37.192
551.28	36.708
551.62	37.231
551.96	36.917
552.30	36.550
552.64	35.402
552.98	35.373
553.32	36.091
553.66	35.849
554.00	36.204
554.34	37.297
554.68	36.209
555.02	37.426
555.36	35.976
555.69	36.410
556.03	36.545
556.37	34.306
556.71	36.606
557.05	35.570
557.39	36.580
557.73	36.807
558.07	35.445
558.41	36.753
558.75	37.412
559.08	36.407
559.42	36.508
559.76	36.429
560.10	35.703
560.44	35.517
560.78	36.224
561.12	36.178
561.45	36.613
561.79	35.924
562.13	36.125
562.47	36.547
562.81	35.879
563.15	36.460
563.48	36.775
563.82	36.239
564.16	36.212
564.50	35.135
564.84	36.680
565.17	35.882
565.51	35.929
565.85	36.008
566.19	36.605
566.52	36.126
566.86	37.082
567.20	34.994
567.54	35.097
567.88	37.786
568.21	36.086
568.55	35.109
568.89	34.805
569.23	34.665
569.56	33.625
569.90	33.983
570.24	33.420
570.57	34.182
570.91	34.054
571.25	33.180
571.59	32.918
571.92	32.711
572.26	33.122
572.60	33.147
572.93	33.229
573.27	32.696
573.61	32.488
573.95	32.878
574.28	32.468
574.62	32.240
574.96	31.987
575.29	31.878
575.63	31.018
575.97	32.014
576.30	32.527
576.64	32.397
576.98	32.510
577.31	31.973
577.65	32.248
577.98	32.206
578.32	32.117
578.66	31.464
578.99	31.212
579.33	32.026
579.67	31.845
580.00	31.722
580.34	32.090
580.67	31.503
581.01	31.916
581.35	31.891
581.68	31.785
582.02	31.547
582.35	31.588
582.69	32.061
583.02	31.809
583.36	32.363
583.70	32.632
584.03	32.611
584.37	32.891
584.70	32.967
585.04	31.891
585.37	32.113
585.71	32.066
586.04	31.694
586.38	31.768
586.72	32.224
587.05	32.958
587.39	32.429
587.72	33.160
588.06	32.521
588.39	32.954
588.73	32.112
589.06	32.648
589.40	33.011
589.73	33.479
590.07	33.912
590.40	34.017
590.73	34.061
591.07	33.927
591.40	33.927
591.74	33.439
592.07	34.740
592.41	34.320
592.74	32.895
593.08	32.239
593.41	32.191
593.75	32.221
594.08	32.578
594.41	33.115
594.75	33.244
595.08	32.917
595.42	33.493
595.75	33.233
596.09	33.034
596.42	33.485
596.75	33.837
597.09	33.895
597.42	33.695
597.75	33.852
598.09	33.228
598.42	33.574
598.76	33.462
599.09	32.572
599.42	33.119
599.76	32.807
600.09	33.032
600.42	32.449
600.76	32.392
601.09	33.092
601.42	32.158
601.76	32.632
602.09	32.797
602.42	34.204
602.76	32.980
603.09	33.887
603.42	34.030
603.76	32.540
604.09	32.928
604.42	33.545
604.76	33.378
605.09	34.415
605.42	33.770
605.75	33.231
606.09	33.079
606.42	33.111
606.75	33.680
607.09	32.923
607.42	32.743
607.75	32.371
608.08	32.749
608.42	32.481
608.75	33.590
609.08	33.881
609.41	33.147
609.75	33.972
610.08	33.600
610.41	33.092
610.74	32.960
611.07	34.470
611.41	33.679
611.74	34.222
612.07	33.940
612.40	34.847
612.73	34.746
613.07	33.971
613.40	34.409
613.73	33.408
614.06	34.057
614.39	33.728
614.72	33.501
615.06	34.302
615.39	32.806
615.72	33.100
616.05	34.134
616.38	33.219
616.71	34.373
617.05	34.466
617.38	34.192
617.71	35.094
618.04	34.857
618.37	35.183
618.70	34.653
619.03	34.653
619.36	34.515
619.69	35.027
620.03	35.573
620.36	34.835
620.69	34.618
621.02	35.398
621.35	35.685
621.68	37.075
622.01	34.750
622.34	35.275
622.67	36.041
623.00	34.916
623.33	35.747
623.66	34.256
623.99	35.098
624.32	35.361
624.65	34.511
624.99	35.967
625.32	34.344
625.65	36.214
625.98	35.939
626.31	36.492
626.64	36.395
626.97	36.562
627.30	35.989
627.63	37.955
627.96	36.478
628.29	36.355
628.62	37.856
628.95	36.874
629.28	36.492
629.61	36.590
629.94	36.657
630.26	37.055
630.59	37.981
630.92	36.718
631.25	35.487
631.58	37.885
631.91	37.061
632.24	38.647
632.57	37.159
632.90	36.892
633.23	38.941
633.56	40.050
633.89	36.868
634.22	39.383
