SpectraSuite Data File
++++++++++++++++++++++++++++++++++++
Date: Fri May 15 17:12:37 PDT 2015
User: schluterlab
Dark Spectrum Present: Yes
Reference Spectrum Present: Yes
Number of Sampled Component Spectra: 1
Spectrometers: USB2E3373
Integration Time (usec): 3000 (USB2E3373)
Spectra Averaged: 3 (USB2E3373)
Boxcar Smoothing: 0 (USB2E3373)
Correct for Electrical Dark: No (USB2E3373)
Strobe/Lamp Enabled: No (USB2E3373)
Correct for Detector Non-linearity: No (USB2E3373)
Correct for Stray Light: No (USB2E3373)
Number of Pixels in Processed Spectrum: 2048
>>>>>Begin Processed Spectral Data<<<<<
178.53	0.000
178.91	0.000
179.29	87.500
179.67	200.000
180.04	28.571
180.42	50.000
180.80	600.000
181.18	-500.000
181.56	-500.000
181.94	350.000
182.31	100.000
182.69	80.000
183.07	-33.333
183.45	-40.000
183.83	-166.667
184.20	27.273
184.58	11.111
184.96	-325.000
185.34	166.667
185.72	100.000
186.09	46.154
186.47	500.000
186.85	-33.333
187.23	133.333
187.61	-200.000
187.98	-233.333
188.36	0.000
188.74	-66.667
189.12	82.353
189.49	72.222
189.87	0.000
190.25	21.429
190.63	-50.000
191.00	300.000
191.38	42.105
191.76	100.000
192.14	-325.000
192.51	150.000
192.89	-33.333
193.27	-100.000
193.65	50.000
194.02	136.364
194.40	10.000
194.78	-162.500
195.15	-16.667
195.53	-75.000
195.91	175.000
196.29	-125.000
196.66	23.077
197.04	14.286
197.42	44.444
197.79	-400.000
198.17	30.769
198.55	900.000
198.92	-366.667
199.30	-300.000
199.68	-40.000
200.05	-333.333
200.43	0.000
200.81	233.333
201.18	-200.000
201.56	-400.000
201.94	-50.000
202.31	-300.000
202.69	-140.000
203.07	75.000
203.44	1300.000
203.82	0.000
204.19	78.571
204.57	-200.000
204.95	50.000
205.32	30.000
205.70	214.286
206.08	-125.000
206.45	200.000
206.83	42.857
207.20	-100.000
207.58	600.000
207.96	-200.000
208.33	-10.000
208.71	-75.000
209.08	-66.667
209.46	100.000
209.84	-40.000
210.21	-300.000
210.59	71.429
210.96	83.333
211.34	-50.000
211.71	0.000
212.09	-57.143
212.46	-1000.000
212.84	0.000
213.22	40.000
213.59	200.000
213.97	76.923
214.34	72.727
214.72	0.000
215.09	125.000
215.47	69.231
215.84	18.182
216.22	-33.333
216.59	-50.000
216.97	250.000
217.34	-150.000
217.72	-100.000
218.09	212.500
218.47	100.000
218.84	0.000
219.22	33.333
219.59	80.000
219.97	-166.667
220.34	-25.000
220.72	242.857
221.09	100.000
221.47	250.000
221.84	-400.000
222.22	-500.000
222.59	18.182
222.97	100.000
223.34	-266.667
223.72	21.429
224.09	9.524
224.46	42.857
224.84	66.667
225.21	-10.000
225.59	0.000
225.96	0.000
226.34	200.000
226.71	-28.571
227.08	-116.667
227.46	50.000
227.83	150.000
228.21	-11.111
228.58	9.091
228.95	25.000
229.33	20.000
229.70	56.250
230.08	87.500
230.45	-14.286
230.82	-57.143
231.20	40.000
231.57	35.714
231.95	42.857
232.32	-130.000
232.69	92.857
233.07	66.667
233.44	20.000
233.81	-40.000
234.19	33.333
234.56	41.176
234.93	-200.000
235.31	300.000
235.68	-80.000
236.05	-15.385
236.43	0.000
236.80	11.765
237.17	28.125
237.55	30.000
237.92	-7.407
238.29	52.778
238.67	56.667
239.04	32.353
239.41	4.878
239.79	6.667
240.16	41.463
240.53	39.474
240.91	41.304
241.28	34.921
241.65	16.071
242.02	31.507
242.40	20.000
242.77	35.593
243.14	24.242
243.51	26.250
243.89	39.080
244.26	14.943
244.63	16.667
245.00	25.773
245.38	40.206
245.75	23.596
246.12	27.586
246.49	30.579
246.87	30.769
247.24	30.252
247.61	18.421
247.98	34.959
248.36	29.375
248.73	34.868
249.10	23.377
249.47	39.241
249.84	30.719
250.22	32.353
250.59	31.373
250.96	29.108
251.33	26.163
251.70	30.588
252.08	29.442
252.45	32.673
252.82	35.176
253.19	27.650
253.56	26.636
253.94	31.982
254.31	30.435
254.68	33.772
255.05	28.740
255.42	30.568
255.79	27.027
256.16	32.296
256.54	33.582
256.91	33.080
257.28	30.112
257.65	28.464
258.02	29.787
258.39	29.966
258.76	31.502
259.14	30.565
259.51	27.832
259.88	28.866
260.25	24.837
260.62	32.292
260.99	24.746
261.36	28.767
261.73	31.013
262.10	28.875
262.47	29.448
262.85	26.019
263.22	28.308
263.59	30.218
263.96	31.366
264.33	32.424
264.70	30.952
265.07	27.976
265.44	32.578
265.81	32.203
266.18	29.235
266.55	29.306
266.92	30.052
267.29	29.243
267.66	31.202
268.03	32.723
268.40	28.982
268.77	32.888
269.14	28.058
269.51	29.563
269.88	28.928
270.25	27.551
270.62	25.854
270.99	30.179
271.36	26.650
271.73	27.934
272.10	28.710
272.47	30.969
272.84	27.475
273.21	29.466
273.58	30.361
273.95	28.604
274.32	25.404
274.69	28.281
275.06	26.339
275.43	25.850
275.80	25.607
276.17	27.586
276.54	30.621
276.91	29.167
277.28	27.948
277.65	28.099
278.02	27.021
278.39	27.790
278.76	26.834
279.13	24.481
279.50	27.731
279.87	30.454
280.23	29.247
280.60	28.655
280.97	27.879
281.34	26.538
281.71	28.747
282.08	28.834
282.45	27.006
282.82	27.606
283.19	28.240
283.56	27.168
283.92	26.376
284.29	26.346
284.66	24.612
285.03	26.326
285.40	25.709
285.77	25.132
286.14	25.632
286.51	28.229
286.87	25.777
287.24	26.703
287.61	25.573
287.98	26.140
288.35	24.437
288.72	27.145
289.08	24.479
289.45	26.011
289.82	25.699
290.19	24.744
290.56	25.386
290.93	25.421
291.29	22.650
291.66	23.307
292.03	25.359
292.40	24.355
292.77	22.967
293.13	21.753
293.50	20.789
293.87	21.985
294.24	22.411
294.60	21.013
294.97	21.875
295.34	22.239
295.71	21.162
296.08	20.628
296.44	19.915
296.81	21.389
297.18	22.174
297.55	22.493
297.91	20.685
298.28	21.108
298.65	19.674
299.02	20.485
299.38	17.921
299.75	19.862
300.12	20.419
300.48	17.655
300.85	20.406
301.22	18.701
301.59	19.211
301.95	20.759
302.32	20.363
302.69	18.781
303.05	20.297
303.42	18.929
303.79	19.393
304.15	20.430
304.52	19.025
304.89	17.544
305.25	17.676
305.62	17.736
305.99	17.661
306.35	17.457
306.72	18.335
307.09	18.472
307.45	19.288
307.82	19.329
308.19	18.815
308.55	18.103
308.92	18.736
309.29	18.883
309.65	17.653
310.02	18.922
310.38	18.222
310.75	19.454
311.12	17.653
311.48	18.664
311.85	18.429
312.22	17.405
312.58	18.153
312.95	17.076
313.31	17.495
313.68	17.487
314.05	17.143
314.41	18.041
314.78	17.629
315.14	18.191
315.51	19.048
315.87	17.213
316.24	17.998
316.61	18.209
316.97	17.460
317.34	17.578
317.70	17.878
318.07	17.885
318.43	17.647
318.80	17.235
319.16	17.676
319.53	18.613
319.89	17.224
320.26	17.308
320.62	18.756
320.99	16.806
321.35	18.397
321.72	17.238
322.08	17.221
322.45	16.650
322.81	17.780
323.18	16.977
323.54	18.243
323.91	17.332
324.27	18.066
324.64	18.258
325.00	17.062
325.37	19.376
325.73	18.132
326.10	17.439
326.46	18.117
326.83	18.723
327.19	17.524
327.56	17.984
327.92	17.165
328.29	17.143
328.65	18.113
329.01	16.728
329.38	17.972
329.74	16.714
330.11	18.350
330.47	15.492
330.84	17.019
331.20	17.681
331.56	16.667
331.93	17.626
332.29	18.332
332.66	17.828
333.02	18.030
333.38	15.399
333.75	17.491
334.11	17.099
334.48	17.135
334.84	17.491
335.20	16.743
335.57	16.591
335.93	17.254
336.29	16.483
336.66	15.895
337.02	15.892
337.38	16.296
337.75	16.727
338.11	16.772
338.47	16.606
338.84	17.560
339.20	17.093
339.56	16.697
339.93	17.726
340.29	17.339
340.65	17.473
341.02	16.667
341.38	15.487
341.74	16.078
342.11	15.078
342.47	16.014
342.83	16.696
343.20	16.289
343.56	16.174
343.92	17.095
344.28	18.019
344.65	16.667
345.01	15.817
345.37	15.980
345.73	17.908
346.10	16.739
346.46	16.400
346.82	16.776
347.19	14.796
347.55	17.210
347.91	16.667
348.27	16.734
348.63	15.417
349.00	16.079
349.36	16.791
349.72	16.998
350.08	15.984
350.45	16.042
350.81	16.113
351.17	15.717
351.53	16.000
351.89	16.102
352.26	15.680
352.62	15.968
352.98	16.386
353.34	15.459
353.70	17.557
354.07	16.210
354.43	15.612
354.79	15.607
355.15	16.746
355.51	16.456
355.87	15.615
356.24	15.498
356.60	16.168
356.96	15.635
357.32	16.613
357.68	15.637
358.04	15.347
358.40	16.801
358.77	15.550
359.13	15.292
359.49	15.177
359.85	15.913
360.21	15.072
360.57	15.302
360.93	15.280
361.29	15.332
361.66	15.361
362.02	16.136
362.38	16.222
362.74	14.989
363.10	16.178
363.46	15.271
363.82	17.205
364.18	16.310
364.54	14.926
364.90	15.556
365.26	15.866
365.62	16.642
365.98	15.616
366.35	16.315
366.71	16.778
367.07	16.763
367.43	14.450
367.79	16.254
368.15	15.578
368.51	15.659
368.87	15.147
369.23	14.874
369.59	15.816
369.95	16.202
370.31	15.173
370.67	15.970
371.03	16.355
371.39	15.974
371.75	16.337
372.11	15.692
372.47	15.533
372.83	15.472
373.19	16.976
373.55	15.523
373.91	16.055
374.27	16.300
374.63	15.147
374.99	14.823
375.35	15.111
375.71	16.364
376.07	15.379
376.42	15.306
376.78	15.503
377.14	15.708
377.50	16.003
377.86	16.198
378.22	15.826
378.58	14.808
378.94	15.312
379.30	15.284
379.66	15.423
380.02	15.819
380.38	14.851
380.74	14.961
381.09	15.521
381.45	15.535
381.81	15.423
382.17	15.355
382.53	16.552
382.89	14.815
383.25	15.495
383.61	14.695
383.97	14.921
384.32	15.510
384.68	15.356
385.04	15.441
385.40	15.868
385.76	16.038
386.12	16.365
386.48	15.900
386.83	15.092
387.19	15.751
387.55	15.935
387.91	16.320
388.27	15.079
388.62	15.670
388.98	16.145
389.34	16.115
389.70	15.413
390.06	15.293
390.42	15.415
390.77	16.547
391.13	15.700
391.49	15.524
391.85	16.309
392.20	15.694
392.56	15.702
392.92	17.029
393.28	15.920
393.64	16.396
393.99	16.803
394.35	15.370
394.71	15.964
395.07	15.085
395.42	15.179
395.78	16.482
396.14	16.267
396.50	16.550
396.85	16.162
397.21	16.040
397.57	15.611
397.92	15.458
398.28	16.034
398.64	15.843
399.00	16.084
399.35	15.463
399.71	16.083
400.07	15.719
400.42	15.667
400.78	15.983
401.14	16.152
401.49	16.617
401.85	17.063
402.21	15.723
402.57	16.375
402.92	16.186
403.28	16.416
403.63	16.141
403.99	16.008
404.35	16.927
404.70	16.131
405.06	16.157
405.42	16.097
405.77	16.037
406.13	16.123
406.49	15.453
406.84	16.137
407.20	16.978
407.55	16.484
407.91	16.310
408.27	16.444
408.62	17.662
408.98	16.759
409.34	16.667
409.69	16.021
410.05	16.379
410.40	16.728
410.76	16.767
411.11	16.813
411.47	17.291
411.83	16.761
412.18	17.117
412.54	16.854
412.89	16.256
413.25	17.268
413.60	16.211
413.96	16.687
414.31	17.012
414.67	15.908
415.03	17.044
415.38	17.298
415.74	16.808
416.09	16.917
416.45	17.218
416.80	17.581
417.16	17.749
417.51	16.389
417.87	17.145
418.22	17.163
418.58	17.659
418.93	17.743
419.29	16.901
419.64	17.304
420.00	18.325
420.35	17.493
420.71	18.348
421.06	16.820
421.42	18.149
421.77	18.092
422.12	16.572
422.48	17.271
422.83	17.517
423.19	17.381
423.54	17.460
423.90	16.902
424.25	17.738
424.61	17.258
424.96	17.305
425.31	17.678
425.67	17.840
426.02	17.668
426.38	17.157
426.73	17.978
427.09	18.101
427.44	18.118
427.79	17.678
428.15	18.386
428.50	17.626
428.85	17.629
429.21	17.827
429.56	18.706
429.92	18.387
430.27	18.045
430.62	16.937
430.98	17.887
431.33	18.297
431.68	17.792
432.04	18.446
432.39	17.741
432.74	17.559
433.10	18.793
433.45	17.682
433.80	17.818
434.16	18.172
434.51	18.172
434.86	18.235
435.22	19.013
435.57	18.590
435.92	18.144
436.28	18.724
436.63	18.026
436.98	17.439
437.34	18.088
437.69	18.485
438.04	17.721
438.39	17.593
438.75	18.579
439.10	18.223
439.45	18.077
439.81	19.021
440.16	18.290
440.51	19.104
440.86	20.121
441.22	18.948
441.57	18.543
441.92	19.675
442.27	19.401
442.63	19.647
442.98	19.586
443.33	18.364
443.68	19.098
444.03	19.722
444.39	20.020
444.74	19.732
445.09	19.209
445.44	19.316
445.79	20.423
446.15	19.604
446.50	18.968
446.85	20.404
447.20	18.665
447.55	20.592
447.91	19.910
448.26	20.376
448.61	20.092
448.96	20.539
449.31	19.538
449.66	19.628
450.02	19.795
450.37	19.917
450.72	19.645
451.07	20.443
451.42	19.975
451.77	20.313
452.12	20.634
452.47	20.476
452.83	19.494
453.18	20.557
453.53	20.038
453.88	19.794
454.23	20.959
454.58	21.411
454.93	20.425
455.28	20.254
455.63	20.273
455.98	20.325
456.34	19.923
456.69	20.584
457.04	20.983
457.39	21.142
457.74	19.952
458.09	19.482
458.44	21.358
458.79	20.000
459.14	21.281
459.49	20.896
459.84	21.038
460.19	21.359
460.54	20.477
460.89	20.966
461.24	20.497
461.59	20.309
461.94	20.440
462.29	21.472
462.64	21.728
462.99	21.259
463.34	20.654
463.69	21.042
464.04	20.702
464.39	21.164
464.74	21.534
465.09	21.273
465.44	21.639
465.79	20.862
466.14	20.810
466.49	20.184
466.84	20.702
467.19	21.777
467.54	21.137
467.89	20.594
468.24	21.533
468.59	21.587
468.94	21.587
469.29	21.902
469.64	21.668
469.99	22.705
470.34	21.297
470.68	22.371
471.03	23.496
471.38	21.469
471.73	22.619
472.08	22.185
472.43	21.544
472.78	21.659
473.13	23.061
473.48	21.498
473.83	21.793
474.17	22.280
474.52	21.761
474.87	21.879
475.22	21.782
475.57	22.191
475.92	22.436
476.27	22.526
476.61	22.106
476.96	21.417
477.31	22.715
477.66	21.348
478.01	21.617
478.36	21.242
478.70	22.077
479.05	21.648
479.40	22.893
479.75	21.794
480.10	22.017
480.45	21.750
480.79	22.407
481.14	22.439
481.49	21.773
481.84	22.104
482.19	21.422
482.53	21.823
482.88	22.005
483.23	21.929
483.58	21.368
483.92	22.120
484.27	21.331
484.62	21.470
484.97	20.854
485.31	20.918
485.66	20.956
486.01	20.114
486.36	19.145
486.70	19.532
487.05	20.192
487.40	20.476
487.75	19.944
488.09	20.519
488.44	20.564
488.79	20.844
489.13	22.236
489.48	22.488
489.83	21.883
490.17	21.618
490.52	21.894
490.87	22.397
491.22	22.111
491.56	22.486
491.91	22.323
492.26	22.654
492.60	22.457
492.95	22.774
493.30	22.374
493.64	22.790
493.99	22.947
494.34	22.524
494.68	22.238
495.03	23.114
495.37	22.522
495.72	22.514
496.07	22.780
496.41	23.538
496.76	22.248
497.11	22.310
497.45	23.198
497.80	23.713
498.14	22.504
498.49	22.956
498.84	22.754
499.18	22.540
499.53	23.661
499.87	22.763
500.22	22.552
500.56	22.542
500.91	23.243
501.26	22.739
501.60	23.069
501.95	22.950
502.29	22.712
502.64	23.214
502.98	23.236
503.33	22.574
503.67	22.699
504.02	23.216
504.36	23.107
504.71	23.485
505.06	23.603
505.40	23.401
505.75	24.072
506.09	22.757
506.44	24.076
506.78	23.163
507.13	23.992
507.47	23.238
507.82	23.024
508.16	22.662
508.51	24.239
508.85	24.071
509.19	23.310
509.54	23.592
509.88	24.056
510.23	23.884
510.57	23.624
510.92	23.721
511.26	23.350
511.61	24.532
511.95	24.603
512.30	24.335
512.64	25.097
512.98	24.705
513.33	25.014
513.67	23.820
514.02	25.343
514.36	24.914
514.70	25.524
515.05	25.264
515.39	24.734
515.74	25.629
516.08	25.463
516.42	25.265
516.77	25.688
517.11	24.154
517.46	25.075
517.80	24.732
518.14	24.617
518.49	25.300
518.83	24.301
519.17	23.833
519.52	24.393
519.86	25.090
520.20	25.273
520.55	24.328
520.89	25.910
521.23	25.269
521.58	26.057
521.92	27.949
522.26	25.764
522.61	25.779
522.95	26.689
523.29	26.620
523.64	26.302
523.98	26.118
524.32	25.451
524.66	26.697
525.01	26.299
525.35	26.896
525.69	26.532
526.04	25.463
526.38	26.654
526.72	25.638
527.06	25.486
527.41	26.385
527.75	26.072
528.09	25.781
528.43	27.076
528.78	26.073
529.12	26.452
529.46	25.211
529.80	25.902
530.15	28.053
530.49	25.926
530.83	25.992
531.17	27.199
531.51	25.376
531.86	26.173
532.20	25.400
532.54	26.821
532.88	26.694
533.22	26.344
533.57	25.885
533.91	25.979
534.25	26.823
534.59	25.722
534.93	25.928
535.27	24.492
535.62	26.053
535.96	25.766
536.30	25.792
536.64	26.120
536.98	25.505
537.32	26.529
537.66	27.279
538.01	26.853
538.35	25.520
538.69	26.165
539.03	25.632
539.37	26.581
539.71	25.835
540.05	26.341
540.39	26.316
540.73	26.569
541.07	27.003
541.42	26.075
541.76	26.084
542.10	26.497
542.44	25.782
542.78	25.327
543.12	25.000
543.46	26.217
543.80	25.815
544.14	24.499
544.48	25.716
544.82	26.452
545.16	26.776
545.50	26.969
545.84	26.841
546.18	26.809
546.52	26.244
546.86	27.247
547.20	26.538
547.54	25.795
547.88	26.019
548.22	24.589
548.56	25.726
548.90	27.291
549.24	25.964
549.58	26.023
549.92	25.518
550.26	26.740
550.60	27.509
550.94	27.334
551.28	26.816
551.62	27.462
551.96	26.617
552.30	26.243
552.64	26.798
552.98	25.668
553.32	25.892
553.66	26.270
554.00	27.007
554.34	26.883
554.68	26.844
555.02	27.530
555.36	25.729
555.69	25.788
556.03	24.625
556.37	25.552
556.71	25.704
557.05	26.547
557.39	26.617
557.73	27.061
558.07	27.979
558.41	27.259
558.75	28.371
559.08	26.950
559.42	26.587
559.76	27.942
560.10	27.599
560.44	26.359
560.78	26.154
561.12	26.234
561.45	26.564
561.79	26.541
562.13	27.395
562.47	26.259
562.81	26.513
563.15	26.587
563.48	26.874
563.82	26.836
564.16	27.019
564.50	25.811
564.84	26.305
565.17	26.090
565.51	26.639
565.85	26.337
566.19	25.928
566.52	25.603
566.86	25.835
567.20	24.969
567.54	25.669
567.88	25.835
568.21	25.735
568.55	24.185
568.89	24.641
569.23	23.736
569.56	22.986
569.90	22.858
570.24	23.148
570.57	22.364
570.91	22.900
571.25	22.098
571.59	21.426
571.92	21.393
572.26	21.256
572.60	21.395
572.93	21.776
573.27	21.129
573.61	22.017
573.95	21.737
574.28	20.922
574.62	20.951
574.96	21.042
575.29	21.025
575.63	20.472
575.97	20.710
576.30	21.113
576.64	20.477
576.98	20.978
577.31	20.447
577.65	20.803
577.98	20.351
578.32	20.250
578.66	19.772
578.99	20.496
579.33	19.935
579.67	20.691
580.00	20.506
580.34	20.522
580.67	20.500
581.01	20.605
581.35	20.349
581.68	20.055
582.02	19.710
582.35	20.037
582.69	20.043
583.02	20.167
583.36	20.511
583.70	21.469
584.03	21.101
584.37	21.598
584.70	20.879
585.04	20.881
585.37	20.614
585.71	20.785
586.04	20.978
586.38	20.912
586.72	21.004
587.05	21.404
587.39	21.471
587.72	21.186
588.06	21.118
588.39	21.020
588.73	21.337
589.06	22.016
589.40	22.364
589.73	22.599
590.07	22.734
590.40	22.755
590.73	23.188
591.07	22.646
591.40	23.553
591.74	22.805
592.07	23.469
592.41	22.924
592.74	23.059
593.08	22.319
593.41	21.845
593.75	22.080
594.08	21.490
594.41	22.052
594.75	21.641
595.08	22.474
595.42	22.451
595.75	22.569
596.09	22.478
596.42	22.530
596.75	24.112
597.09	23.052
597.42	23.126
597.75	22.584
598.09	23.495
598.42	22.744
598.76	22.394
599.09	22.436
599.42	21.751
599.76	22.047
600.09	22.474
600.42	22.290
600.76	21.434
601.09	22.099
601.42	21.582
601.76	21.794
602.09	22.236
602.42	23.126
602.76	21.817
603.09	22.550
603.42	22.868
603.76	21.452
604.09	22.236
604.42	22.885
604.76	23.142
605.09	23.355
605.42	22.889
605.75	22.942
606.09	22.251
606.42	22.227
606.75	22.900
607.09	22.769
607.42	22.020
607.75	22.602
608.08	22.102
608.42	23.253
608.75	23.277
609.08	23.119
609.41	23.249
609.75	23.942
610.08	24.164
610.41	23.527
610.74	23.549
611.07	23.411
611.41	23.871
611.74	24.574
612.07	23.394
612.40	24.453
612.73	23.220
613.07	23.116
613.40	23.796
613.73	22.720
614.06	24.374
614.39	24.817
614.72	23.081
615.06	24.302
615.39	23.690
615.72	23.950
616.05	23.966
616.38	22.963
616.71	24.098
617.05	25.510
617.38	24.639
617.71	24.591
618.04	25.968
618.37	26.166
618.70	25.479
619.03	26.389
619.36	24.168
619.69	27.445
620.03	26.516
620.36	25.894
620.69	26.624
621.02	25.841
621.35	28.382
621.68	27.211
622.01	27.333
622.34	28.252
622.67	26.735
623.00	26.799
623.33	26.601
623.66	25.954
623.99	25.416
624.32	26.616
624.65	25.789
624.99	27.540
625.32	25.398
625.65	27.730
625.98	26.511
626.31	27.265
626.64	27.296
626.97	28.098
627.30	28.897
627.63	28.076
627.96	27.403
628.29	28.770
628.62	28.810
628.95	29.860
629.28	29.839
629.61	29.212
629.94	29.130
630.26	29.348
630.59	31.738
630.92	30.564
631.25	28.615
631.58	30.947
631.91	29.605
632.24	30.046
632.57	31.591
632.90	30.605
633.23	31.294
633.56	31.738
633.89	30.703
634.22	31.852
