SpectraSuite Data File
++++++++++++++++++++++++++++++++++++
Date: Fri May 15 17:28:07 PDT 2015
User: schluterlab
Dark Spectrum Present: Yes
Reference Spectrum Present: Yes
Number of Sampled Component Spectra: 1
Spectrometers: USB2E3373
Integration Time (usec): 3000 (USB2E3373)
Spectra Averaged: 3 (USB2E3373)
Boxcar Smoothing: 0 (USB2E3373)
Correct for Electrical Dark: No (USB2E3373)
Strobe/Lamp Enabled: No (USB2E3373)
Correct for Detector Non-linearity: No (USB2E3373)
Correct for Stray Light: No (USB2E3373)
Number of Pixels in Processed Spectrum: 2048
>>>>>Begin Processed Spectral Data<<<<<
178.53	0.000
178.91	0.000
179.29	75.000
179.67	0.000
180.04	-57.143
180.42	300.000
180.80	-100.000
181.18	200.000
181.56	-250.000
181.94	150.000
182.31	800.000
182.69	-120.000
183.07	166.667
183.45	-20.000
183.83	-50.000
184.20	45.455
184.58	66.667
184.96	-250.000
185.34	-200.000
185.72	-450.000
186.09	38.462
186.47	-1000.000
186.85	83.333
187.23	55.556
187.61	-100.000
187.98	-466.667
188.36	100.000
188.74	-66.667
189.12	41.176
189.49	77.778
189.87	0.000
190.25	28.571
190.63	600.000
191.00	166.667
191.38	15.789
191.76	-50.000
192.14	-25.000
192.51	-50.000
192.89	0.000
193.27	-14.286
193.65	100.000
194.02	154.545
194.40	60.000
194.78	-25.000
195.15	-8.333
195.53	-12.500
195.91	100.000
196.29	-175.000
196.66	46.154
197.04	71.429
197.42	-66.667
197.79	-33.333
198.17	-76.923
198.55	1600.000
198.92	-166.667
199.30	100.000
199.68	80.000
200.05	-400.000
200.43	0.000
200.81	300.000
201.18	133.333
201.56	400.000
201.94	-200.000
202.31	66.667
202.69	-200.000
203.07	-50.000
203.44	600.000
203.82	0.000
204.19	42.857
204.57	-100.000
204.95	-75.000
205.32	60.000
205.70	85.714
206.08	100.000
206.45	200.000
206.83	-7.143
207.20	-142.857
207.58	800.000
207.96	333.333
208.33	-80.000
208.71	100.000
209.08	-100.000
209.46	-1000.000
209.84	80.000
210.21	-1300.000
210.59	14.286
210.96	16.667
211.34	100.000
211.71	100.000
212.09	14.286
212.46	-1200.000
212.84	0.000
213.22	210.000
213.59	550.000
213.97	61.538
214.34	54.545
214.72	-50.000
215.09	-25.000
215.47	38.462
215.84	118.182
216.22	-133.333
216.59	37.500
216.97	350.000
217.34	50.000
217.72	-140.000
218.09	75.000
218.47	75.000
218.84	100.000
219.22	-166.667
219.59	80.000
219.97	400.000
220.34	200.000
220.72	57.143
221.09	-100.000
221.47	200.000
221.84	-300.000
222.22	-800.000
222.59	45.455
222.97	33.333
223.34	0.000
223.72	0.000
224.09	14.286
224.46	42.857
224.84	266.667
225.21	60.000
225.59	60.000
225.96	-250.000
226.34	100.000
226.71	-71.429
227.08	0.000
227.46	25.000
227.83	0.000
228.21	144.444
228.58	27.273
228.95	0.000
229.33	50.000
229.70	93.750
230.08	-50.000
230.45	-14.286
230.82	57.143
231.20	-20.000
231.57	64.286
231.95	314.286
232.32	-20.000
232.69	21.429
233.07	333.333
233.44	60.000
233.81	70.000
234.19	11.111
234.56	88.235
234.93	50.000
235.31	75.000
235.68	-180.000
236.05	15.385
236.43	5.000
236.80	47.059
237.17	40.625
237.55	30.000
237.92	3.704
238.29	25.000
238.67	66.667
239.04	38.235
239.41	4.878
239.79	50.000
240.16	53.659
240.53	31.579
240.91	19.565
241.28	50.794
241.65	25.000
242.02	53.425
242.40	40.000
242.77	30.508
243.14	34.848
243.51	38.750
243.89	48.276
244.26	25.287
244.63	34.524
245.00	37.113
245.38	42.268
245.75	30.337
246.12	25.000
246.49	40.496
246.87	45.192
247.24	32.773
247.61	40.351
247.98	38.211
248.36	37.500
248.73	42.763
249.10	39.610
249.47	40.506
249.84	34.641
250.22	43.529
250.59	40.523
250.96	40.376
251.33	39.535
251.70	45.882
252.08	38.071
252.45	39.109
252.82	44.221
253.19	40.553
253.56	35.981
253.94	41.441
254.31	40.435
254.68	45.614
255.05	36.614
255.42	42.358
255.79	39.768
256.16	43.580
256.54	45.522
256.91	40.304
257.28	41.264
257.65	40.824
258.02	41.135
258.39	38.384
258.76	42.857
259.14	37.874
259.51	40.777
259.88	42.268
260.25	40.523
260.62	40.278
260.99	40.000
261.36	41.781
261.73	39.557
262.10	41.033
262.47	39.264
262.85	38.245
263.22	40.923
263.59	40.498
263.96	36.335
264.33	37.273
264.70	38.690
265.07	41.667
265.44	41.360
265.81	40.395
266.18	41.530
266.55	37.789
266.92	42.746
267.29	40.209
267.66	39.642
268.03	38.743
268.40	42.559
268.77	40.642
269.14	37.410
269.51	37.275
269.88	41.147
270.25	37.245
270.62	35.854
270.99	38.619
271.36	39.609
271.73	39.202
272.10	40.389
272.47	40.898
272.84	36.386
273.21	40.371
273.58	39.759
273.95	37.071
274.32	37.875
274.69	36.652
275.06	41.071
275.43	40.136
275.80	38.411
276.17	35.862
276.54	35.974
276.91	35.307
277.28	38.210
277.65	39.669
278.02	37.234
278.39	39.825
278.76	36.688
279.13	34.440
279.50	40.546
279.87	34.557
280.23	38.065
280.60	35.088
280.97	36.364
281.34	35.577
281.71	39.836
282.08	34.560
282.45	34.834
282.82	36.680
283.19	38.298
283.56	38.343
283.92	36.812
284.29	35.769
284.66	39.147
285.03	37.132
285.40	38.185
285.77	33.743
286.14	38.809
286.51	37.085
286.87	34.552
287.24	35.543
287.61	34.039
287.98	37.719
288.35	35.529
288.72	36.252
289.08	35.069
289.45	35.852
289.82	36.538
290.19	33.788
290.56	31.561
290.93	34.512
291.29	30.046
291.66	32.756
292.03	33.014
292.40	31.935
292.77	30.781
293.13	30.195
293.50	29.439
293.87	32.519
294.24	28.748
294.60	28.912
294.97	29.762
295.34	29.755
295.71	29.657
296.08	29.148
296.44	27.881
296.81	27.917
297.18	28.841
297.55	28.997
297.91	28.904
298.28	27.573
298.65	26.594
299.02	29.650
299.38	24.897
299.75	28.000
300.12	27.356
300.48	27.931
300.85	28.390
301.22	27.013
301.59	26.184
301.95	26.582
302.32	27.626
302.69	27.363
303.05	28.218
303.42	28.144
303.79	27.921
304.15	25.926
304.52	25.565
304.89	26.784
305.25	26.271
305.62	24.504
305.99	27.368
306.35	26.243
306.72	25.984
307.09	25.428
307.45	26.177
307.82	25.347
308.19	27.178
308.55	26.499
308.92	28.322
309.29	24.916
309.65	26.157
310.02	26.073
310.38	26.564
310.75	26.120
311.12	28.418
311.48	26.405
311.85	26.597
312.22	24.367
312.58	27.495
312.95	25.720
313.31	26.605
313.68	27.120
314.05	27.245
314.41	27.629
314.78	28.351
315.14	27.544
315.51	27.847
315.87	28.484
316.24	28.311
316.61	28.051
316.97	28.770
317.34	28.516
317.70	28.967
318.07	28.077
318.43	30.294
318.80	29.167
319.16	28.906
319.53	31.054
319.89	28.543
320.26	29.352
320.62	30.391
320.99	28.601
321.35	31.655
321.72	32.918
322.08	31.923
322.45	33.401
322.81	32.220
323.18	32.483
323.54	34.266
323.91	33.496
324.27	33.789
324.64	33.146
325.00	34.033
325.37	34.619
325.73	33.092
326.10	35.150
326.46	35.426
326.83	36.395
327.19	36.181
327.56	37.098
327.92	37.852
328.29	35.625
328.65	38.302
329.01	38.603
329.38	38.802
329.74	37.960
330.11	38.740
330.47	38.590
330.84	39.904
331.20	41.255
331.56	38.333
331.93	40.548
332.29	41.430
332.66	41.810
333.02	39.870
333.38	40.147
333.75	40.751
334.11	39.928
334.48	42.339
334.84	41.392
335.20	41.446
335.57	41.160
335.93	41.915
336.29	43.370
336.66	43.233
337.02	42.565
337.38	40.278
337.75	42.727
338.11	41.569
338.47	42.609
338.84	42.237
339.20	42.962
339.56	41.651
339.93	43.509
340.29	43.119
340.65	42.563
341.02	43.528
341.38	42.655
341.74	41.873
342.11	41.161
342.47	43.950
342.83	43.599
343.20	42.422
343.56	41.913
343.92	43.047
344.28	44.492
344.65	43.092
345.01	42.869
345.37	43.650
345.73	43.766
346.10	45.211
346.46	42.725
346.82	41.571
347.19	42.228
347.55	43.442
347.91	43.285
348.27	42.926
348.63	43.441
349.00	44.217
349.36	44.472
349.72	44.279
350.08	43.443
350.45	44.453
350.81	43.688
351.17	43.078
351.53	43.837
351.89	43.600
352.26	43.760
352.62	44.597
352.98	44.177
353.34	44.847
353.70	45.793
354.07	43.306
354.43	43.475
354.79	43.931
355.15	43.333
355.51	44.937
355.87	45.955
356.24	46.166
356.60	44.220
356.96	45.873
357.32	45.128
357.68	44.722
358.04	45.638
358.40	44.775
358.77	45.614
359.13	45.877
359.49	44.915
359.85	46.568
360.21	47.049
360.57	45.907
360.93	46.218
361.29	45.619
361.66	46.944
362.02	47.500
362.38	47.449
362.74	47.388
363.10	47.780
363.46	46.701
363.82	48.535
364.18	47.749
364.54	46.544
364.90	48.817
365.26	47.016
365.62	48.467
365.98	48.021
366.35	49.308
366.71	49.076
367.07	50.073
367.43	47.807
367.79	48.410
368.15	47.667
368.51	49.381
368.87	48.816
369.23	48.520
369.59	49.854
369.95	49.194
370.31	49.350
370.67	48.209
371.03	49.515
371.39	48.067
371.75	51.502
372.11	48.716
372.47	51.627
372.83	51.455
373.19	50.285
373.55	49.603
373.91	51.548
374.27	52.516
374.63	51.902
374.99	50.993
375.35	51.671
375.71	52.378
376.07	52.317
376.42	51.361
376.78	53.423
377.14	51.997
377.50	52.789
377.86	53.280
378.22	52.967
378.58	53.333
378.94	52.048
379.30	52.651
379.66	54.859
380.02	53.832
380.38	53.500
380.74	54.099
381.09	53.865
381.45	53.945
381.81	54.041
382.17	54.759
382.53	54.841
382.89	55.053
383.25	55.569
383.61	55.671
383.97	55.492
384.32	55.785
384.68	56.718
385.04	55.208
385.40	55.320
385.76	57.421
386.12	55.886
386.48	58.621
386.83	58.212
387.19	57.509
387.55	56.713
387.91	57.274
388.27	56.716
388.62	60.541
388.98	58.625
389.34	58.651
389.70	57.924
390.06	58.276
390.42	59.132
390.77	60.301
391.13	58.638
391.49	58.603
391.85	60.169
392.20	58.380
392.56	59.695
392.92	59.248
393.28	59.139
393.64	59.099
393.99	61.129
394.35	60.911
394.71	60.089
395.07	60.151
395.42	60.049
395.78	60.782
396.14	59.899
396.50	60.431
396.85	61.494
397.21	60.714
397.57	60.000
397.92	59.617
398.28	61.092
398.64	60.361
399.00	61.964
399.35	59.989
399.71	59.506
400.07	61.548
400.42	60.894
400.78	62.033
401.14	60.799
401.49	60.750
401.85	61.609
402.21	60.723
402.57	61.813
402.92	61.041
403.28	62.030
403.63	62.232
403.99	61.288
404.35	62.773
404.70	60.893
405.06	61.868
405.42	62.213
405.77	61.883
406.13	61.816
406.49	61.220
406.84	62.531
407.20	62.793
407.55	62.138
407.91	62.567
408.27	63.161
408.62	63.015
408.98	61.738
409.34	63.135
409.69	62.468
410.05	62.007
410.40	62.160
410.76	62.304
411.11	63.562
411.47	63.051
411.83	62.649
412.18	63.642
412.54	61.923
412.89	61.946
413.25	63.959
413.60	62.050
413.96	60.920
414.31	63.110
414.67	62.091
415.03	62.850
415.38	63.185
415.74	62.606
416.09	63.619
416.45	63.065
416.80	62.723
417.16	64.917
417.51	63.757
417.87	62.777
418.22	63.277
418.58	65.753
418.93	64.013
419.29	63.316
419.64	63.966
420.00	65.995
420.35	64.418
420.71	65.431
421.06	64.579
421.42	65.565
421.77	66.243
422.12	65.721
422.48	65.457
422.83	65.081
423.19	65.858
423.54	65.256
423.90	66.196
424.25	66.935
424.61	67.319
424.96	65.970
425.31	67.822
425.67	66.901
426.02	68.787
426.38	69.505
426.73	70.339
427.09	69.937
427.44	68.882
427.79	68.945
428.15	69.235
428.50	69.897
428.85	68.366
429.21	69.610
429.56	69.757
429.92	67.797
430.27	67.870
430.62	69.158
430.98	69.108
431.33	69.295
431.68	68.603
432.04	70.542
432.39	69.538
432.74	71.317
433.10	71.207
433.45	69.534
433.80	72.084
434.16	71.302
434.51	70.860
434.86	72.300
435.22	72.406
435.57	73.300
435.92	70.898
436.28	71.020
436.63	71.306
436.98	70.973
437.34	71.990
437.69	73.345
438.04	72.251
438.39	72.999
438.75	73.103
439.10	73.062
439.45	73.159
439.81	73.578
440.16	73.990
440.51	72.418
440.86	74.864
441.22	72.172
441.57	73.620
441.92	73.820
442.27	74.390
442.63	73.662
442.98	74.268
443.33	71.619
443.68	73.156
444.03	72.777
444.39	73.487
444.74	75.753
445.09	73.942
445.44	75.385
445.79	75.658
446.15	74.504
446.50	73.378
446.85	75.186
447.20	74.348
447.55	74.275
447.91	73.942
448.26	74.730
448.61	74.554
448.96	75.674
449.31	73.526
449.66	74.797
450.02	74.558
450.37	76.645
450.72	74.399
451.07	75.696
451.42	73.845
451.77	74.262
452.12	73.445
452.47	73.986
452.83	74.971
453.18	75.522
453.53	77.370
453.88	75.713
454.23	75.046
454.58	75.378
454.93	75.902
455.28	72.635
455.63	76.255
455.98	76.428
456.34	75.734
456.69	74.714
457.04	75.992
457.39	76.306
457.74	75.272
458.09	74.220
458.44	75.600
458.79	74.622
459.14	76.373
459.49	74.746
459.84	75.409
460.19	75.425
460.54	76.711
460.89	76.705
461.24	77.764
461.59	76.128
461.94	74.717
462.29	76.598
462.64	77.542
462.99	75.762
463.34	77.469
463.69	75.611
464.04	77.058
464.39	76.531
464.74	74.356
465.09	76.669
465.44	77.438
465.79	74.376
466.14	75.314
466.49	74.698
466.84	76.205
467.19	77.722
467.54	76.245
467.89	76.943
468.24	76.338
468.59	77.206
468.94	76.508
469.29	77.180
469.64	77.033
469.99	78.416
470.34	76.451
470.68	79.344
471.03	79.759
471.38	78.602
471.73	78.291
472.08	76.119
472.43	77.047
472.78	75.874
473.13	78.095
473.48	75.961
473.83	76.152
474.17	77.526
474.52	77.345
474.87	77.333
475.22	76.571
475.57	76.906
475.92	77.564
476.27	77.590
476.61	78.472
476.96	77.356
477.31	77.555
477.66	76.798
478.01	78.214
478.36	75.980
478.70	77.814
479.05	77.967
479.40	77.266
479.75	76.799
480.10	76.344
480.45	76.800
480.79	77.492
481.14	79.252
481.49	76.798
481.84	78.185
482.19	75.865
482.53	77.266
482.88	78.234
483.23	76.679
483.58	76.132
483.92	76.960
484.27	76.162
484.62	76.468
484.97	75.622
485.31	74.892
485.66	72.139
486.01	73.129
486.36	73.360
486.70	73.189
487.05	74.604
487.40	74.276
487.75	75.549
488.09	75.278
488.44	76.272
488.79	77.288
489.13	77.925
489.48	76.828
489.83	75.919
490.17	76.045
490.52	77.644
490.87	75.428
491.22	78.223
491.56	76.518
491.91	75.430
492.26	78.804
492.60	77.159
492.95	78.062
493.30	77.821
493.64	77.947
493.99	76.908
494.34	76.602
494.68	76.524
495.03	76.691
495.37	76.447
495.72	78.647
496.07	80.537
496.41	76.887
496.76	76.785
497.11	76.479
497.45	77.136
497.80	78.658
498.14	76.801
498.49	78.009
498.84	76.996
499.18	77.711
499.53	77.927
499.87	76.021
500.22	77.300
500.56	78.719
500.91	77.661
501.26	76.915
501.60	78.013
501.95	78.020
502.29	78.741
502.64	77.461
502.98	77.701
503.33	76.657
503.67	77.783
504.02	78.250
504.36	78.773
504.71	77.626
505.06	77.554
505.40	78.071
505.75	78.763
506.09	76.635
506.44	79.107
506.78	78.776
507.13	80.093
507.47	78.068
507.82	78.365
508.16	79.134
508.51	79.119
508.85	78.912
509.19	79.085
509.54	79.196
509.88	77.940
510.23	77.945
510.57	79.476
510.92	78.252
511.26	79.815
511.61	78.768
511.95	79.014
512.30	80.044
512.64	79.855
512.98	79.450
513.33	80.022
513.67	79.136
514.02	80.492
514.36	81.771
514.70	79.720
515.05	81.434
515.39	82.409
515.74	82.575
516.08	81.052
516.42	81.567
516.77	82.095
517.11	82.611
517.46	83.543
517.80	81.645
518.14	81.874
518.49	81.370
518.83	81.409
519.17	80.594
519.52	82.060
519.86	82.353
520.20	82.868
520.55	82.301
520.89	82.497
521.23	83.471
521.58	82.965
521.92	83.205
522.26	83.344
522.61	82.597
522.95	84.768
523.29	82.529
523.64	82.211
523.98	84.251
524.32	83.119
524.66	82.458
525.01	83.182
525.35	83.798
525.69	84.916
526.04	83.598
526.38	83.333
526.72	83.126
527.06	83.658
527.41	84.828
527.75	83.244
528.09	83.189
528.43	85.820
528.78	84.356
529.12	82.452
529.46	84.860
529.80	81.887
530.15	84.620
530.49	84.983
530.83	85.841
531.17	83.345
531.51	85.226
531.86	83.209
532.20	84.899
532.54	83.935
532.88	85.421
533.22	84.005
533.57	83.224
533.91	84.987
534.25	86.458
534.59	84.798
534.93	82.001
535.27	83.312
535.62	82.826
535.96	85.258
536.30	83.509
536.64	84.356
536.98	83.066
537.32	86.629
537.66	84.362
538.01	86.154
538.35	83.703
538.69	82.157
539.03	82.502
539.37	83.244
539.71	84.663
540.05	83.842
540.39	83.726
540.73	84.728
541.07	85.428
541.42	83.938
541.76	83.689
542.10	84.928
542.44	85.129
542.78	83.758
543.12	82.967
543.46	84.353
543.80	85.080
544.14	81.842
544.48	82.878
544.82	84.347
545.16	84.221
545.50	82.109
545.84	85.836
546.18	84.610
546.52	83.057
546.86	85.047
547.20	85.765
547.54	84.170
547.88	85.258
548.22	83.103
548.56	83.905
548.90	84.299
549.24	82.920
549.58	84.344
549.92	83.202
550.26	85.641
550.60	86.617
550.94	87.229
551.28	86.399
551.62	87.846
551.96	85.639
552.30	85.015
552.64	84.133
552.98	84.951
553.32	84.807
553.66	84.107
554.00	87.883
554.34	86.632
554.68	83.407
555.02	85.565
555.36	86.313
555.69	85.275
556.03	83.797
556.37	84.626
556.71	85.126
557.05	86.204
557.39	84.535
557.73	85.382
558.07	87.104
558.41	86.294
558.75	85.113
559.08	85.816
559.42	88.810
559.76	88.231
560.10	87.232
560.44	85.778
560.78	83.846
561.12	86.883
561.45	87.561
561.79	85.714
562.13	84.954
562.47	86.043
562.81	86.095
563.15	85.120
563.48	85.997
563.82	86.685
564.16	85.794
564.50	82.703
564.84	85.207
565.17	84.373
565.51	87.773
565.85	85.940
566.19	85.875
566.52	86.930
566.86	86.247
567.20	83.748
567.54	84.854
567.88	85.530
568.21	85.464
568.55	84.076
568.89	84.086
569.23	82.956
569.56	83.231
569.90	83.354
570.24	80.648
570.57	82.582
570.91	82.991
571.25	80.796
571.59	78.792
571.92	78.844
572.26	80.767
572.60	79.876
572.93	80.013
573.27	79.812
573.61	81.086
573.95	79.547
574.28	78.363
574.62	78.871
574.96	77.088
575.29	78.723
575.63	77.248
575.97	78.612
576.30	78.268
576.64	79.020
576.98	79.022
577.31	80.069
577.65	79.174
577.98	78.635
578.32	78.373
578.66	76.725
578.99	78.217
579.33	78.241
579.67	77.896
580.00	79.291
580.34	79.204
580.67	78.215
581.01	78.890
581.35	77.649
581.68	78.056
582.02	77.794
582.35	78.533
582.69	78.944
583.02	79.534
583.36	79.820
583.70	80.607
584.03	81.485
584.37	81.282
584.70	80.165
585.04	79.249
585.37	78.870
585.71	79.635
586.04	79.803
586.38	80.341
586.72	80.373
587.05	80.965
587.39	80.878
587.72	81.711
588.06	80.183
588.39	80.347
588.73	81.807
589.06	82.192
589.40	81.507
589.73	81.818
590.07	83.610
590.40	83.320
590.73	84.761
591.07	84.012
591.40	83.571
591.74	84.434
592.07	83.163
592.41	83.216
592.74	81.402
593.08	79.916
593.41	81.351
593.75	80.406
594.08	80.467
594.41	80.531
594.75	80.649
595.08	82.520
595.42	82.517
595.75	83.665
596.09	83.268
596.42	83.795
596.75	84.059
597.09	83.781
597.42	81.888
597.75	84.700
598.09	82.571
598.42	82.265
598.76	83.054
599.09	81.290
599.42	80.447
599.76	80.850
600.09	80.807
600.42	80.364
600.76	81.426
601.09	81.679
601.42	81.786
601.76	82.811
602.09	82.673
602.42	83.909
602.76	82.598
603.09	83.264
603.42	85.661
603.76	82.137
604.09	82.220
604.42	83.545
604.76	83.712
605.09	83.729
605.42	82.077
605.75	82.312
606.09	82.845
606.42	82.694
606.75	82.727
607.09	83.341
607.42	82.233
607.75	82.682
608.08	81.986
608.42	81.224
608.75	84.771
609.08	83.956
609.41	84.772
609.75	83.720
610.08	84.873
610.41	82.415
610.74	83.520
611.07	84.961
611.41	85.418
611.74	85.181
612.07	84.208
612.40	84.573
612.73	87.966
613.07	85.096
613.40	83.534
613.73	85.171
614.06	83.639
614.39	85.900
614.72	83.754
615.06	83.911
615.39	82.260
615.72	83.208
616.05	85.196
616.38	83.989
616.71	86.483
617.05	86.844
617.38	86.486
617.71	87.044
618.04	88.063
618.37	86.885
618.70	87.393
619.03	88.264
619.36	86.541
619.69	90.599
620.03	88.532
620.36	87.983
620.69	88.080
621.02	87.920
621.35	90.788
621.68	91.071
622.01	89.667
622.34	89.864
622.67	88.486
623.00	87.749
623.33	88.567
623.66	85.864
623.99	87.443
624.32	89.125
624.65	88.421
624.99	89.014
625.32	87.945
625.65	88.531
625.98	89.525
626.31	89.776
626.64	92.721
626.97	90.663
627.30	89.142
627.63	90.555
627.96	91.195
628.29	92.414
628.62	91.740
628.95	93.186
629.28	95.464
629.61	93.619
629.94	91.007
630.26	92.292
630.59	94.693
630.92	91.692
631.25	90.359
631.58	96.035
631.91	93.860
632.24	94.954
632.57	96.250
632.90	95.848
633.23	96.235
633.56	98.111
633.89	95.561
634.22	97.407
