SpectraSuite Data File
++++++++++++++++++++++++++++++++++++
Date: Fri May 15 17:20:23 PDT 2015
User: schluterlab
Dark Spectrum Present: Yes
Reference Spectrum Present: Yes
Number of Sampled Component Spectra: 1
Spectrometers: USB2E3373
Integration Time (usec): 3000 (USB2E3373)
Spectra Averaged: 3 (USB2E3373)
Boxcar Smoothing: 0 (USB2E3373)
Correct for Electrical Dark: No (USB2E3373)
Strobe/Lamp Enabled: No (USB2E3373)
Correct for Detector Non-linearity: No (USB2E3373)
Correct for Stray Light: No (USB2E3373)
Number of Pixels in Processed Spectrum: 2048
>>>>>Begin Processed Spectral Data<<<<<
178.53	0.000
178.91	0.000
179.29	237.500
179.67	-50.000
180.04	-142.857
180.42	25.000
180.80	-600.000
181.18	-333.333
181.56	250.000
181.94	800.000
182.31	200.000
182.69	180.000
183.07	-33.333
183.45	100.000
183.83	-33.333
184.20	36.364
184.58	55.556
184.96	-225.000
185.34	-300.000
185.72	200.000
186.09	92.308
186.47	600.000
186.85	-150.000
187.23	22.222
187.61	-400.000
187.98	33.333
188.36	66.667
188.74	466.667
189.12	88.235
189.49	27.778
189.87	0.000
190.25	135.714
190.63	600.000
191.00	100.000
191.38	-5.263
191.76	450.000
192.14	-250.000
192.51	-100.000
192.89	22.222
193.27	14.286
193.65	33.333
194.02	118.182
194.40	20.000
194.78	50.000
195.15	33.333
195.53	25.000
195.91	25.000
196.29	100.000
196.66	61.538
197.04	-42.857
197.42	66.667
197.79	-200.000
198.17	-84.615
198.55	600.000
198.92	-133.333
199.30	700.000
199.68	-120.000
200.05	-133.333
200.43	0.000
200.81	166.667
201.18	100.000
201.56	1000.000
201.94	100.000
202.31	-166.667
202.69	100.000
203.07	200.000
203.44	600.000
203.82	0.000
204.19	100.000
204.57	-33.333
204.95	12.500
205.32	40.000
205.70	142.857
206.08	200.000
206.45	344.444
206.83	64.286
207.20	-14.286
207.58	200.000
207.96	66.667
208.33	10.000
208.71	350.000
209.08	-16.667
209.46	0.000
209.84	20.000
210.21	1200.000
210.59	57.143
210.96	116.667
211.34	200.000
211.71	73.333
212.09	-114.286
212.46	-1400.000
212.84	0.000
213.22	100.000
213.59	100.000
213.97	53.846
214.34	27.273
214.72	133.333
215.09	150.000
215.47	-15.385
215.84	-27.273
216.22	0.000
216.59	50.000
216.97	250.000
217.34	250.000
217.72	-40.000
218.09	200.000
218.47	-25.000
218.84	-100.000
219.22	-66.667
219.59	60.000
219.97	-200.000
220.34	150.000
220.72	57.143
221.09	25.000
221.47	700.000
221.84	-250.000
222.22	-300.000
222.59	154.545
222.97	91.667
223.34	200.000
223.72	64.286
224.09	23.810
224.46	14.286
224.84	133.333
225.21	10.000
225.59	40.000
225.96	400.000
226.34	250.000
226.71	-28.571
227.08	-16.667
227.46	112.500
227.83	-300.000
228.21	166.667
228.58	54.545
228.95	37.500
229.33	70.000
229.70	43.750
230.08	-75.000
230.45	214.286
230.82	57.143
231.20	33.333
231.57	92.857
231.95	71.429
232.32	70.000
232.69	92.857
233.07	-266.667
233.44	-220.000
233.81	10.000
234.19	144.444
234.56	5.882
234.93	100.000
235.31	225.000
235.68	-80.000
236.05	61.538
236.43	35.000
236.80	-17.647
237.17	40.625
237.55	30.000
237.92	14.815
238.29	8.333
238.67	3.333
239.04	29.412
239.41	21.951
239.79	50.000
240.16	29.268
240.53	7.895
240.91	2.174
241.28	30.159
241.65	35.714
242.02	36.986
242.40	31.667
242.77	-3.390
243.14	21.212
243.51	10.000
243.89	33.333
244.26	32.184
244.63	26.190
245.00	16.495
245.38	14.433
245.75	25.843
246.12	11.207
246.49	19.008
246.87	5.769
247.24	20.168
247.61	15.789
247.98	21.951
248.36	20.625
248.73	17.763
249.10	14.286
249.47	17.089
249.84	18.301
250.22	12.353
250.59	18.301
250.96	22.066
251.33	16.860
251.70	20.588
252.08	23.350
252.45	18.812
252.82	15.578
253.19	20.737
253.56	11.682
253.94	18.468
254.31	19.565
254.68	16.667
255.05	16.929
255.42	17.467
255.79	14.672
256.16	18.677
256.54	22.015
256.91	19.392
257.28	17.100
257.65	11.985
258.02	19.504
258.39	15.825
258.76	15.385
259.14	22.259
259.51	20.388
259.88	17.526
260.25	14.052
260.62	16.667
260.99	15.593
261.36	18.151
261.73	15.190
262.10	15.805
262.47	15.337
262.85	12.853
263.22	18.154
263.59	18.069
263.96	19.255
264.33	13.939
264.70	17.560
265.07	15.179
265.44	17.847
265.81	17.797
266.18	19.399
266.55	16.710
266.92	20.725
267.29	15.927
267.66	17.647
268.03	18.586
268.40	16.971
268.77	19.251
269.14	16.547
269.51	19.537
269.88	14.713
270.25	13.520
270.62	13.902
270.99	13.555
271.36	13.936
271.73	14.319
272.10	17.275
272.47	18.913
272.84	17.327
273.21	17.169
273.58	16.867
273.95	17.849
274.32	14.781
274.69	15.611
275.06	16.518
275.43	14.059
275.80	17.439
276.17	15.632
276.54	14.989
276.91	15.132
277.28	15.284
277.65	16.942
278.02	16.170
278.39	18.162
278.76	15.304
279.13	11.203
279.50	15.546
279.87	15.983
280.23	15.914
280.60	16.764
280.97	17.374
281.34	15.385
281.71	18.275
282.08	15.951
282.45	16.243
282.82	15.444
283.19	17.021
283.56	14.836
283.92	15.180
284.29	14.423
284.66	14.147
285.03	16.110
285.40	14.745
285.77	14.060
286.14	13.177
286.51	18.266
286.87	13.711
287.24	15.654
287.61	13.757
287.98	16.491
288.35	15.078
288.72	15.587
289.08	14.757
289.45	16.872
289.82	16.783
290.19	12.799
290.56	14.065
290.93	15.825
291.29	12.635
291.66	14.488
292.03	14.354
292.40	13.710
292.77	14.673
293.13	13.149
293.50	13.809
293.87	14.504
294.24	16.383
294.60	14.605
294.97	15.625
295.34	14.724
295.71	14.754
296.08	13.752
296.44	11.664
296.81	13.750
297.18	13.768
297.55	14.363
297.91	12.466
298.28	15.303
298.65	14.790
299.02	14.825
299.38	12.585
299.75	13.517
300.12	14.005
300.48	11.989
300.85	13.181
301.22	14.026
301.59	14.079
301.95	13.924
302.32	15.175
302.69	14.179
303.05	13.490
303.42	13.699
303.79	14.836
304.15	14.456
304.52	12.010
304.89	13.099
305.25	13.923
305.62	13.186
305.99	14.386
306.35	13.757
306.72	12.711
307.09	13.455
307.45	14.466
307.82	13.079
308.19	14.053
308.55	13.631
308.92	14.052
309.29	13.631
309.65	13.455
310.02	13.641
310.38	13.392
310.75	14.426
311.12	13.455
311.48	13.468
311.85	14.764
312.22	13.186
312.58	14.331
312.95	11.633
313.31	13.975
313.68	12.461
314.05	13.469
314.41	14.948
314.78	13.918
315.14	15.005
315.51	13.975
315.87	14.037
316.24	16.380
316.61	15.059
316.97	15.476
317.34	13.867
317.70	14.532
318.07	14.423
318.43	14.510
318.80	14.015
319.16	15.137
319.53	15.575
319.89	14.567
320.26	14.980
320.62	16.048
320.99	14.405
321.35	14.286
321.72	15.161
322.08	15.106
322.45	15.533
322.81	15.914
323.18	14.917
323.54	15.541
323.91	14.314
324.27	15.820
324.64	15.356
325.00	15.876
325.37	18.733
325.73	15.684
326.10	15.168
326.46	17.309
326.83	16.273
327.19	15.606
327.56	17.202
327.92	17.342
328.29	17.768
328.65	16.792
329.01	17.463
329.38	17.788
329.74	17.186
330.11	18.165
330.47	16.698
330.84	17.115
331.20	19.202
331.56	18.148
331.93	17.900
332.29	18.698
332.66	17.014
333.02	17.286
333.38	17.140
333.75	19.048
334.11	17.278
334.48	18.767
334.84	18.864
335.20	17.475
335.57	17.860
335.93	18.067
336.29	19.061
336.66	17.257
337.02	17.286
337.38	17.222
337.75	18.364
338.11	18.215
338.47	18.978
338.84	19.409
339.20	17.824
339.56	19.266
339.93	17.637
340.29	18.807
340.65	18.190
341.02	18.262
341.38	17.965
341.74	17.049
342.11	16.984
342.47	17.527
342.83	18.166
343.20	17.422
343.56	18.174
343.92	17.892
344.28	18.531
344.65	18.221
345.01	18.323
345.37	16.737
345.73	19.163
346.10	19.154
346.46	19.008
346.82	18.085
347.19	17.706
347.55	17.711
347.91	18.204
348.27	18.189
348.63	17.036
349.00	18.130
349.36	17.789
349.72	19.320
350.08	18.115
350.45	17.877
350.81	17.940
351.17	17.264
351.53	19.347
351.89	17.424
352.26	18.880
352.62	19.355
352.98	18.474
353.34	17.552
353.70	17.638
354.07	18.629
354.43	17.694
354.79	17.836
355.15	19.127
355.51	18.987
355.87	18.770
356.24	17.537
356.60	18.270
356.96	18.254
357.32	18.450
357.68	18.139
358.04	18.174
358.40	17.203
358.77	18.421
359.13	18.094
359.49	17.643
359.85	17.941
360.21	18.341
360.57	16.909
360.93	19.440
361.29	17.825
361.66	18.809
362.02	18.636
362.38	18.431
362.74	18.925
363.10	19.413
363.46	19.051
363.82	19.309
364.18	18.155
364.54	18.382
364.90	18.351
365.26	18.413
365.62	20.219
365.98	18.842
366.35	19.811
366.71	19.438
367.07	18.215
367.43	18.907
367.79	19.505
368.15	18.665
368.51	18.354
368.87	17.732
369.23	18.917
369.59	19.315
369.95	19.501
370.31	19.436
370.67	19.403
371.03	18.745
371.39	19.256
371.75	19.487
372.11	18.973
372.47	20.562
372.83	20.298
373.19	19.472
373.55	19.495
373.91	20.374
374.27	19.702
374.63	20.101
374.99	19.574
375.35	19.499
375.71	20.699
376.07	19.874
376.42	19.116
376.78	20.336
377.14	20.176
377.50	20.850
377.86	21.285
378.22	20.421
378.58	20.577
378.94	20.416
379.30	20.961
379.66	21.317
380.02	20.969
380.38	19.781
380.74	20.946
381.09	21.595
381.45	21.284
381.81	21.530
382.17	21.066
382.53	21.611
382.89	22.285
383.25	21.717
383.61	22.195
383.97	22.286
384.32	21.951
384.68	21.981
385.04	21.324
385.40	22.402
385.76	22.767
386.12	23.480
386.48	23.116
386.83	22.321
387.19	22.955
387.55	23.463
387.91	22.494
388.27	23.260
388.62	23.726
388.98	23.389
389.34	23.985
389.70	24.301
390.06	22.656
390.42	22.927
390.77	23.872
391.13	23.203
391.49	23.997
391.85	23.912
392.20	24.357
392.56	23.840
392.92	24.310
393.28	23.821
393.64	23.784
393.99	25.956
394.35	24.478
394.71	24.649
395.07	23.570
395.42	24.408
395.78	23.583
396.14	24.149
396.50	25.048
396.85	24.791
397.21	24.499
397.57	24.138
397.92	23.787
398.28	24.828
398.64	24.096
399.00	25.169
399.35	24.605
399.71	24.756
400.07	25.030
400.42	24.541
400.78	25.903
401.14	25.166
401.49	25.253
401.85	24.314
402.21	25.904
402.57	24.687
402.92	23.463
403.28	25.313
403.63	24.716
403.99	25.446
404.35	25.547
404.70	25.595
405.06	25.029
405.42	24.114
405.77	24.579
406.13	24.913
406.49	24.808
406.84	25.061
407.20	24.564
407.55	24.598
407.91	24.733
408.27	25.175
408.62	25.046
408.98	24.892
409.34	25.031
409.69	25.517
410.05	25.554
410.40	25.062
410.76	25.452
411.11	24.562
411.47	25.641
411.83	24.608
412.18	25.225
412.54	24.469
412.89	24.631
413.25	25.211
413.60	25.404
413.96	24.294
414.31	25.122
414.67	24.824
415.03	24.700
415.38	24.282
415.74	24.886
416.09	26.257
416.45	25.186
416.80	25.248
417.16	25.345
417.51	25.050
417.87	25.880
418.22	25.972
418.58	25.217
418.93	26.207
419.29	24.456
419.64	25.405
420.00	27.078
420.35	25.015
420.71	25.881
421.06	24.923
421.42	25.841
421.77	27.052
422.12	25.539
422.48	24.851
422.83	25.870
423.19	25.677
423.54	25.514
423.90	25.383
424.25	26.234
424.61	25.520
424.96	26.016
425.31	26.632
425.67	25.763
426.02	26.737
426.38	26.738
426.73	26.574
427.09	26.899
427.44	26.529
427.79	25.633
428.15	26.214
428.50	25.984
428.85	25.860
429.21	25.637
429.56	26.900
429.92	25.578
430.27	25.965
430.62	25.091
430.98	26.168
431.33	26.288
431.68	26.635
432.04	25.321
432.39	25.727
432.74	25.977
433.10	27.701
433.45	27.061
433.80	25.711
434.16	25.762
434.51	26.720
434.86	27.294
435.22	26.416
435.57	27.137
435.92	25.509
436.28	26.774
436.63	26.412
436.98	25.145
437.34	25.650
437.69	27.370
438.04	27.066
438.39	27.001
438.75	26.108
439.10	26.769
439.45	26.598
439.81	25.810
440.16	27.494
440.51	27.343
440.86	28.338
441.22	26.584
441.57	26.876
441.92	27.650
442.27	27.162
442.63	27.730
442.98	26.422
443.33	26.210
443.68	26.525
444.03	25.882
444.39	26.857
444.74	27.202
445.09	26.726
445.44	26.952
445.79	28.210
446.15	26.101
446.50	26.234
446.85	27.099
447.20	26.590
447.55	27.734
447.91	27.468
448.26	26.807
448.61	27.001
448.96	27.711
449.31	27.168
449.66	27.062
450.02	27.781
450.37	27.682
450.72	27.090
451.07	27.468
451.42	27.278
451.77	27.064
452.12	26.435
452.47	26.787
452.83	27.680
453.18	27.261
453.53	26.738
453.88	27.322
454.23	26.859
454.58	27.393
454.93	28.415
455.28	26.286
455.63	27.092
455.98	28.202
456.34	27.011
456.69	27.700
457.04	28.103
457.39	26.731
457.74	27.690
458.09	26.604
458.44	27.092
458.79	27.227
459.14	27.002
459.49	28.657
459.84	27.355
460.19	27.063
460.54	27.262
460.89	27.841
461.24	26.832
461.59	28.682
461.94	26.667
462.29	27.503
462.64	28.040
462.99	27.420
463.34	27.816
463.69	27.735
464.04	27.724
464.39	26.622
464.74	27.117
465.09	27.511
465.44	27.698
465.79	27.438
466.14	27.309
466.49	26.912
466.84	27.543
467.19	28.536
467.54	27.011
467.89	27.922
468.24	27.494
468.59	28.127
468.94	27.175
469.29	28.590
469.64	28.435
469.99	28.942
470.34	27.167
470.68	28.710
471.03	28.450
471.38	28.245
471.73	29.132
472.08	26.934
472.43	27.651
472.78	27.416
473.13	28.776
473.48	27.687
473.83	28.331
474.17	28.497
474.52	28.143
474.87	28.303
475.22	27.761
475.57	28.176
475.92	28.524
476.27	27.590
476.61	28.646
476.96	27.161
477.31	27.853
477.66	28.596
478.01	28.130
478.36	27.288
478.70	28.929
479.05	28.462
479.40	29.200
479.75	28.676
480.10	27.906
480.45	28.600
480.79	27.795
481.14	28.535
481.49	27.291
481.84	28.282
482.19	27.456
482.53	28.010
482.88	27.112
483.23	27.879
483.58	28.066
483.92	27.590
484.27	27.575
484.62	27.566
484.97	27.197
485.31	27.023
485.66	26.787
486.01	26.616
486.36	25.906
486.70	26.054
487.05	26.737
487.40	26.344
487.75	27.042
488.09	26.236
488.44	27.166
488.79	27.643
489.13	27.284
489.48	28.003
489.83	27.130
490.17	28.449
490.52	28.406
490.87	27.672
491.22	28.701
491.56	27.467
491.91	28.011
492.26	28.439
492.60	28.935
492.95	27.988
493.30	27.455
493.64	28.733
493.99	27.778
494.34	28.252
494.68	27.714
495.03	28.516
495.37	28.459
495.72	28.319
496.07	27.951
496.41	28.443
496.76	27.084
497.11	27.713
497.45	28.640
497.80	29.213
498.14	27.372
498.49	28.288
498.84	28.244
499.18	28.564
499.53	28.919
499.87	27.967
500.22	28.586
500.56	28.896
500.91	27.861
501.26	27.781
501.60	27.890
501.95	28.675
502.29	28.281
502.64	29.102
502.98	28.170
503.33	27.522
503.67	27.855
504.02	28.397
504.36	28.798
504.71	28.636
505.06	27.680
505.40	27.868
505.75	29.021
506.09	28.687
506.44	29.107
506.78	28.673
507.13	28.542
507.47	28.407
507.82	28.900
508.16	28.685
508.51	28.751
508.85	29.409
509.19	26.982
509.54	28.847
509.88	28.479
510.23	28.833
510.57	29.289
510.92	27.132
511.26	29.569
511.61	28.548
511.95	29.644
512.30	29.601
512.64	29.048
512.98	29.309
513.33	29.099
513.67	29.221
514.02	30.034
514.36	29.829
514.70	30.653
515.05	29.965
515.39	29.221
515.74	29.641
516.08	29.767
516.42	29.623
516.77	29.081
517.11	30.861
517.46	30.042
517.80	29.201
518.14	30.680
518.49	29.507
518.83	29.891
519.17	29.836
519.52	29.544
519.86	29.652
520.20	29.708
520.55	30.081
520.89	30.552
521.23	29.639
521.58	29.842
521.92	31.026
522.26	30.514
522.61	29.935
522.95	31.523
523.29	30.178
523.64	30.114
523.98	29.942
524.32	30.348
524.66	30.474
525.01	30.000
525.35	30.849
525.69	30.370
526.04	30.556
526.38	29.831
526.72	28.515
527.06	29.896
527.41	30.211
527.75	31.032
528.09	30.764
528.43	32.005
528.78	30.759
529.12	31.226
529.46	29.890
529.80	31.349
530.15	31.155
530.49	30.572
530.83	29.891
531.17	30.625
531.51	29.959
531.86	29.504
532.20	30.271
532.54	30.769
532.88	30.048
533.22	30.242
533.57	30.144
533.91	29.308
534.25	31.576
534.59	29.185
534.93	29.327
535.27	29.251
535.62	30.201
535.96	31.050
536.30	30.343
536.64	31.220
536.98	30.732
537.32	30.512
537.66	31.206
538.01	30.699
538.35	30.028
538.69	30.360
539.03	30.144
539.37	30.081
539.71	30.607
540.05	29.939
540.39	30.748
540.73	31.241
541.07	31.354
541.42	30.376
541.76	31.246
542.10	30.213
542.44	30.368
542.78	28.699
543.12	28.984
543.46	30.111
543.80	29.979
544.14	29.573
544.48	29.447
544.82	30.690
545.16	30.533
545.50	30.374
545.84	29.958
546.18	30.922
546.52	30.497
546.86	29.260
547.20	30.973
547.54	29.470
547.88	28.397
548.22	29.849
548.56	28.958
548.90	30.660
549.24	29.063
549.58	28.984
549.92	29.235
550.26	30.256
550.60	29.740
550.94	29.724
551.28	30.526
551.62	30.154
551.96	31.053
552.30	30.409
552.64	29.337
552.98	30.380
553.32	30.029
553.66	30.044
554.00	29.635
554.34	30.945
554.68	30.162
555.02	29.762
555.36	30.067
555.69	29.524
556.03	29.265
556.37	30.036
556.71	30.253
557.05	31.394
557.39	29.219
557.73	30.510
558.07	30.166
558.41	29.096
558.75	31.645
559.08	30.969
559.42	31.190
559.76	30.825
560.10	30.199
560.44	30.603
560.78	29.371
561.12	31.171
561.45	30.077
561.79	30.112
562.13	30.802
562.47	30.360
562.81	29.467
563.15	29.690
563.48	29.774
563.82	30.542
564.16	29.666
564.50	29.392
564.84	29.518
565.17	29.779
565.51	30.601
565.85	29.904
566.19	29.377
566.52	30.496
566.86	30.013
567.20	29.141
567.54	29.075
567.88	29.701
568.21	29.468
568.55	28.750
568.89	29.466
569.23	28.551
569.56	28.546
569.90	28.258
570.24	27.242
570.57	27.164
570.91	27.849
571.25	27.327
571.59	26.908
571.92	26.281
572.26	26.932
572.60	26.853
572.93	26.828
573.27	25.862
573.61	26.850
573.95	27.062
574.28	26.324
574.62	25.807
574.96	26.677
575.29	26.300
575.63	25.888
575.97	25.671
576.30	26.371
576.64	26.252
576.98	26.538
577.31	26.567
577.65	25.963
577.98	26.099
578.32	25.839
578.66	25.747
578.99	25.550
579.33	26.230
579.67	25.334
580.00	26.051
580.34	26.070
580.67	25.989
581.01	26.657
581.35	25.947
581.68	25.566
582.02	25.491
582.35	25.515
582.69	25.711
583.02	25.636
583.36	25.905
583.70	26.350
584.03	26.022
584.37	26.934
584.70	26.566
585.04	25.596
585.37	25.504
585.71	25.673
586.04	25.920
586.38	25.820
586.72	25.940
587.05	26.516
587.39	26.922
587.72	26.845
588.06	25.740
588.39	25.833
588.73	26.099
589.06	26.810
589.40	26.962
589.73	27.492
590.07	27.681
590.40	27.399
590.73	27.801
591.07	27.226
591.40	26.625
591.74	27.511
592.07	27.690
592.41	27.385
592.74	27.160
593.08	26.476
593.41	26.491
593.75	26.464
594.08	25.815
594.41	26.456
594.75	26.565
595.08	26.334
595.42	26.794
595.75	26.587
596.09	26.974
596.42	26.829
596.75	27.842
597.09	27.289
597.42	27.416
597.75	27.210
598.09	26.890
598.42	26.715
598.76	26.641
599.09	25.881
599.42	26.070
599.76	26.110
600.09	25.867
600.42	26.876
600.76	25.409
601.09	26.412
601.42	26.518
601.76	26.002
602.09	26.320
602.42	27.254
602.76	27.334
603.09	26.952
603.42	27.759
603.76	26.452
604.09	26.124
604.42	27.538
604.76	27.370
605.09	26.508
605.42	26.998
605.75	26.751
606.09	26.454
606.42	26.355
606.75	26.797
607.09	26.989
607.42	26.451
607.75	26.776
608.08	26.146
608.42	26.587
608.75	27.807
609.08	26.956
609.41	27.411
609.75	27.167
610.08	27.409
610.41	26.812
610.74	27.206
611.07	27.028
611.41	27.452
611.74	27.505
612.07	27.730
612.40	26.860
612.73	27.514
613.07	27.390
613.40	27.243
613.73	26.973
614.06	26.989
614.39	27.919
614.72	26.611
615.06	27.654
615.39	26.528
615.72	26.534
616.05	27.542
616.38	27.066
616.71	28.257
617.05	27.610
617.38	27.718
617.71	29.119
618.04	28.063
618.37	28.310
618.70	28.317
619.03	29.583
619.36	28.437
619.69	29.113
620.03	30.022
620.36	28.469
620.69	28.979
621.02	28.670
621.35	29.212
621.68	30.527
622.01	30.667
622.34	28.332
622.67	29.416
623.00	29.250
623.33	27.896
623.66	28.197
623.99	29.047
624.32	28.897
624.65	27.368
624.99	27.916
625.32	28.052
625.65	29.929
625.98	29.089
626.31	29.011
626.64	29.463
626.97	29.581
627.30	30.560
627.63	29.203
627.96	29.470
628.29	29.695
628.62	30.973
628.95	30.762
629.28	30.040
629.61	29.811
629.94	32.160
630.26	29.941
630.59	31.530
630.92	30.359
631.25	29.949
631.58	33.480
631.91	29.825
632.24	30.505
632.57	32.045
632.90	30.724
633.23	31.882
633.56	31.612
633.89	30.086
634.22	32.716
