SpectraSuite Data File
++++++++++++++++++++++++++++++++++++
Date: Fri May 15 20:02:23 PDT 2015
User: schluterlab
Dark Spectrum Present: Yes
Reference Spectrum Present: Yes
Number of Sampled Component Spectra: 1
Spectrometers: USB2E3373
Integration Time (usec): 3000 (USB2E3373)
Spectra Averaged: 3 (USB2E3373)
Boxcar Smoothing: 0 (USB2E3373)
Correct for Electrical Dark: No (USB2E3373)
Strobe/Lamp Enabled: No (USB2E3373)
Correct for Detector Non-linearity: No (USB2E3373)
Correct for Stray Light: No (USB2E3373)
Number of Pixels in Processed Spectrum: 2048
>>>>>Begin Processed Spectral Data<<<<<
178.53	0.000
178.91	0.000
179.29	125.000
179.67	-850.000
180.04	-0.000
180.42	0.000
180.80	100.000
181.18	-133.333
181.56	550.000
181.94	-100.000
182.31	400.000
182.69	100.000
183.07	-133.333
183.45	-60.000
183.83	150.000
184.20	-63.636
184.58	100.000
184.96	-250.000
185.34	266.667
185.72	150.000
186.09	38.462
186.47	-400.000
186.85	-16.667
187.23	-11.111
187.61	700.000
187.98	0.000
188.36	0.000
188.74	300.000
189.12	47.059
189.49	100.000
189.87	0.000
190.25	42.857
190.63	250.000
191.00	166.667
191.38	42.105
191.76	600.000
192.14	125.000
192.51	250.000
192.89	-55.556
193.27	-85.714
193.65	-33.333
194.02	72.727
194.40	70.000
194.78	-112.500
195.15	66.667
195.53	-62.500
195.91	75.000
196.29	100.000
196.66	23.077
197.04	171.429
197.42	33.333
197.79	-266.667
198.17	-76.923
198.55	800.000
198.92	33.333
199.30	0.000
199.68	20.000
200.05	333.333
200.43	0.000
200.81	0.000
201.18	66.667
201.56	1300.000
201.94	-50.000
202.31	66.667
202.69	-200.000
203.07	-75.000
203.44	1200.000
203.82	0.000
204.19	64.286
204.57	-433.333
204.95	112.500
205.32	0.000
205.70	71.429
206.08	100.000
206.45	177.778
206.83	150.000
207.20	-14.286
207.58	-200.000
207.96	-200.000
208.33	-150.000
208.71	-200.000
209.08	-183.333
209.46	200.000
209.84	60.000
210.21	0.000
210.59	-85.714
210.96	33.333
211.34	25.000
211.71	-40.000
212.09	0.000
212.46	-1300.000
212.84	0.000
213.22	40.000
213.59	50.000
213.97	61.538
214.34	0.000
214.72	-66.667
215.09	-25.000
215.47	-38.462
215.84	36.364
216.22	-233.333
216.59	75.000
216.97	-100.000
217.34	125.000
217.72	-40.000
218.09	50.000
218.47	150.000
218.84	-900.000
219.22	-11.111
219.59	0.000
219.97	133.333
220.34	325.000
220.72	57.143
221.09	-50.000
221.47	50.000
221.84	-100.000
222.22	-900.000
222.59	54.545
222.97	41.667
223.34	-200.000
223.72	-28.571
224.09	66.667
224.46	7.143
224.84	366.667
225.21	-10.000
225.59	20.000
225.96	-50.000
226.34	250.000
226.71	-142.857
227.08	83.333
227.46	-75.000
227.83	-300.000
228.21	44.444
228.58	81.818
228.95	87.500
229.33	-20.000
229.70	68.750
230.08	50.000
230.45	-85.714
230.82	171.429
231.20	40.000
231.57	114.286
231.95	-42.857
232.32	-80.000
232.69	42.857
233.07	266.667
233.44	20.000
233.81	-30.000
234.19	100.000
234.56	5.882
234.93	-0.000
235.31	50.000
235.68	-340.000
236.05	-92.308
236.43	0.000
236.80	-17.647
237.17	28.125
237.55	-50.000
237.92	-37.037
238.29	-22.222
238.67	30.000
239.04	14.706
239.41	-12.195
239.79	-16.667
240.16	21.951
240.53	-2.632
240.91	-15.217
241.28	25.397
241.65	30.357
242.02	12.329
242.40	8.333
242.77	-5.085
243.14	24.242
243.51	12.500
243.89	22.989
244.26	18.391
244.63	8.333
245.00	11.340
245.38	20.619
245.75	11.236
246.12	4.310
246.49	14.050
246.87	25.962
247.24	8.403
247.61	3.509
247.98	4.878
248.36	11.875
248.73	11.184
249.10	7.143
249.47	8.228
249.84	12.418
250.22	8.824
250.59	11.765
250.96	17.840
251.33	6.977
251.70	13.529
252.08	10.152
252.45	10.396
252.82	12.060
253.19	11.521
253.56	7.477
253.94	13.514
254.31	9.130
254.68	13.596
255.05	10.236
255.42	10.917
255.79	8.108
256.16	14.397
256.54	14.552
256.91	9.886
257.28	6.691
257.65	13.109
258.02	8.511
258.39	11.785
258.76	10.623
259.14	10.299
259.51	11.974
259.88	10.309
260.25	8.497
260.62	10.069
260.99	11.525
261.36	3.767
261.73	12.342
262.10	9.422
262.47	10.123
262.85	5.956
263.22	7.077
263.59	8.411
263.96	13.043
264.33	8.182
264.70	9.524
265.07	10.119
265.44	11.898
265.81	9.040
266.18	13.388
266.55	10.026
266.92	9.845
267.29	10.966
267.66	10.230
268.03	11.518
268.40	11.227
268.77	10.695
269.14	9.592
269.51	8.226
269.88	10.474
270.25	9.184
270.62	8.537
270.99	5.882
271.36	5.623
271.73	11.033
272.10	8.029
272.47	10.165
272.84	9.158
273.21	9.049
273.58	9.398
273.95	10.984
274.32	7.852
274.69	9.955
275.06	10.045
275.43	8.390
275.80	9.492
276.17	8.506
276.54	9.636
276.91	7.895
277.28	11.572
277.65	10.331
278.02	9.149
278.39	7.440
278.76	8.386
279.13	4.979
279.50	9.454
279.87	11.663
280.23	8.172
280.60	10.331
280.97	9.091
281.34	8.462
281.71	10.883
282.08	6.544
282.45	8.415
282.82	8.494
283.19	10.251
283.56	10.983
283.92	10.247
284.29	8.077
284.66	10.659
285.03	8.448
285.40	9.452
285.77	10.193
286.14	11.011
286.51	10.701
286.87	9.141
287.24	10.129
287.61	10.053
287.98	10.526
288.35	8.666
288.72	10.683
289.08	9.375
289.45	8.612
289.82	10.315
290.19	8.874
290.56	9.434
290.93	11.616
291.29	10.478
291.66	10.236
292.03	9.091
292.40	10.968
292.77	11.164
293.13	7.305
293.50	9.408
293.87	11.603
294.24	10.665
294.60	11.475
294.97	11.905
295.34	9.663
295.71	10.283
296.08	8.969
296.44	9.957
296.81	10.139
297.18	7.971
297.55	12.195
297.91	11.507
298.28	10.818
298.65	9.769
299.02	9.434
299.38	9.029
299.75	12.276
300.12	9.555
300.48	9.750
300.85	10.393
301.22	10.519
301.59	10.921
301.95	11.392
302.32	12.192
302.69	11.194
303.05	11.386
303.42	11.083
303.79	10.631
304.15	11.708
304.52	10.226
304.89	9.708
305.25	10.291
305.62	8.868
305.99	10.760
306.35	10.405
306.72	10.574
307.09	11.060
307.45	11.022
307.82	10.185
308.19	10.685
308.55	11.450
308.92	11.656
309.29	11.061
309.65	8.934
310.02	10.121
310.38	10.977
310.75	11.585
311.12	10.872
311.48	11.559
311.85	11.099
312.22	11.392
312.58	9.766
312.95	11.953
313.31	9.420
313.68	9.634
314.05	10.204
314.41	11.340
314.78	10.722
315.14	11.202
315.51	12.008
315.87	10.758
316.24	12.639
316.61	11.811
316.97	12.202
317.34	11.035
317.70	10.994
318.07	11.346
318.43	10.392
318.80	11.648
319.16	11.035
319.53	12.156
319.89	11.319
320.26	11.640
320.62	11.334
320.99	12.317
321.35	12.333
321.72	11.838
322.08	12.487
322.45	12.081
322.81	12.868
323.18	12.561
323.54	11.680
323.91	11.782
324.27	12.207
324.64	14.045
325.00	14.690
325.37	15.060
325.73	13.962
326.10	14.351
326.46	15.426
326.83	14.873
327.19	13.949
327.56	16.334
327.92	15.317
328.29	15.179
328.65	17.170
329.01	17.463
329.38	17.051
329.74	16.242
330.11	17.702
330.47	17.904
330.84	17.885
331.20	20.627
331.56	18.611
331.93	20.457
332.29	20.807
332.66	20.090
333.02	21.840
333.38	19.890
333.75	21.429
334.11	21.576
334.48	22.575
334.84	22.802
335.20	21.134
335.57	21.306
335.93	22.855
336.29	23.112
336.66	21.980
337.02	22.584
337.38	21.852
337.75	24.091
338.11	23.895
338.47	23.084
338.84	23.383
339.20	22.761
339.56	23.761
339.93	24.440
340.29	23.578
340.65	23.656
341.02	22.429
341.38	23.097
341.74	22.350
342.11	22.617
342.47	22.153
342.83	23.702
343.20	22.909
343.56	22.609
343.92	23.295
344.28	22.203
344.65	22.453
345.01	22.385
345.37	22.456
345.73	22.929
346.10	23.814
346.46	21.783
346.82	21.277
347.19	22.444
347.55	23.141
347.91	23.301
348.27	21.342
348.63	22.061
349.00	22.067
349.36	22.776
349.72	24.212
350.08	21.721
350.45	23.065
350.81	22.176
351.17	21.498
351.53	23.184
351.89	21.965
352.26	20.640
352.62	22.742
352.98	22.651
353.34	21.659
353.70	21.764
354.07	22.016
354.43	22.658
354.79	21.387
355.15	23.889
355.51	22.627
355.87	21.926
356.24	20.636
356.60	22.312
356.96	22.460
357.32	21.965
357.68	21.736
358.04	21.567
358.40	20.900
358.77	22.727
359.13	22.338
359.49	21.186
359.85	23.245
360.21	21.611
360.57	21.729
360.93	20.575
361.29	21.148
361.66	22.335
362.02	22.652
362.38	22.011
362.74	22.104
363.10	22.272
363.46	21.497
363.82	21.112
364.18	21.697
364.54	21.765
364.90	21.864
365.26	21.397
365.62	22.628
365.98	21.408
366.35	23.015
366.71	22.838
367.07	24.020
367.43	22.358
367.79	22.827
368.15	22.613
368.51	21.631
368.87	22.326
369.23	22.527
369.59	22.741
369.95	23.021
370.31	22.760
370.67	23.433
371.03	23.898
371.39	23.122
371.75	23.150
372.11	23.324
372.47	23.891
372.83	22.782
373.19	23.252
373.55	22.527
373.91	23.614
374.27	24.096
374.63	24.408
374.99	23.333
375.35	24.652
375.71	24.126
376.07	23.666
376.42	24.694
376.78	23.893
377.14	24.780
377.50	24.037
377.86	25.368
378.22	24.569
378.58	24.423
378.94	24.449
379.30	25.016
379.66	25.831
380.02	24.280
380.38	25.259
380.74	25.853
381.09	25.951
381.45	25.260
381.81	24.985
382.17	25.635
382.53	25.609
382.89	25.361
383.25	26.758
383.61	26.707
383.97	26.032
384.32	26.642
384.68	26.563
385.04	25.674
385.40	26.073
385.76	28.050
386.12	27.749
386.48	27.522
386.83	26.886
387.19	26.984
387.55	28.294
387.91	27.506
388.27	27.289
388.62	27.942
388.98	25.844
389.34	28.357
389.70	28.030
390.06	26.998
390.42	27.850
390.77	27.207
391.13	27.491
391.49	27.749
391.85	28.265
392.20	28.374
392.56	27.591
392.92	28.420
393.28	27.300
393.64	27.568
393.99	28.903
394.35	28.336
394.71	28.161
395.07	29.353
395.42	28.112
395.78	28.664
396.14	28.625
396.50	28.345
396.85	28.268
397.21	29.386
397.57	28.464
397.92	28.700
398.28	28.161
398.64	28.072
399.00	29.289
399.35	27.709
399.71	28.604
400.07	28.718
400.42	28.335
400.78	28.414
401.14	28.312
401.49	28.708
401.85	27.239
402.21	28.373
402.57	28.000
402.92	28.105
403.28	29.511
403.63	27.680
403.99	27.360
404.35	28.732
404.70	28.690
405.06	28.731
405.42	27.719
405.77	28.356
406.13	28.347
406.49	28.952
406.84	28.301
407.20	29.259
407.55	28.075
407.91	27.674
408.27	27.470
408.62	28.185
408.98	28.096
409.34	27.509
409.69	27.261
410.05	27.463
410.40	27.778
410.76	27.925
411.11	28.125
411.47	27.942
411.83	27.809
412.18	27.413
412.54	26.904
412.89	27.094
413.25	27.798
413.60	28.323
413.96	27.607
414.31	28.110
414.67	27.646
415.03	28.362
415.38	27.480
415.74	27.557
416.09	28.739
416.45	28.359
416.80	27.826
417.16	28.798
417.51	28.648
417.87	27.771
418.22	28.821
418.58	28.696
418.93	28.652
419.29	28.233
419.64	28.257
420.00	29.345
420.35	26.925
420.71	27.947
421.06	27.931
421.42	27.825
421.77	27.746
422.12	27.469
422.48	28.533
422.83	28.538
423.19	28.104
423.54	28.395
423.90	27.503
424.25	29.047
424.61	28.764
424.96	28.513
425.31	29.983
425.67	28.873
426.02	29.388
426.38	29.555
426.73	29.903
427.09	31.329
427.44	29.471
427.79	28.462
428.15	29.551
428.50	29.618
428.85	28.256
429.21	28.127
429.56	29.973
429.92	29.841
430.27	29.524
430.62	28.176
430.98	27.972
431.33	29.968
431.68	28.519
432.04	29.737
432.39	28.465
432.74	29.224
433.10	29.195
433.45	29.809
433.80	29.135
434.16	28.753
434.51	30.108
434.86	29.559
435.22	29.669
435.57	29.507
435.92	29.341
436.28	29.338
436.63	29.321
436.98	28.621
437.34	29.643
437.69	29.636
438.04	30.484
438.39	29.139
438.75	29.265
439.10	29.485
439.45	30.006
439.81	29.174
440.16	30.226
440.51	30.090
440.86	31.601
441.22	29.808
441.57	30.243
441.92	30.115
442.27	30.322
442.63	30.300
442.98	29.638
443.33	29.939
443.68	28.966
444.03	30.800
444.39	29.365
444.74	31.159
445.09	31.013
445.44	30.484
445.79	31.511
446.15	30.286
446.50	29.340
446.85	30.446
447.20	29.979
447.55	30.971
447.91	30.457
448.26	30.051
448.61	31.203
448.96	31.153
449.31	30.867
449.66	30.488
450.02	29.892
450.37	30.468
450.72	30.699
451.07	30.823
451.42	30.150
451.77	30.621
452.12	29.844
452.47	29.620
452.83	30.094
453.18	31.120
453.53	31.037
453.88	30.601
454.23	29.994
454.58	30.479
454.93	31.186
455.28	30.730
455.63	30.130
455.98	31.028
456.34	30.715
456.69	31.385
457.04	31.254
457.39	30.437
457.74	30.230
458.09	30.194
458.44	30.427
458.79	30.028
459.14	29.920
459.49	30.746
459.84	30.739
460.19	30.765
460.54	31.051
460.89	31.534
461.24	31.056
461.59	30.819
461.94	30.440
462.29	31.423
462.64	31.827
462.99	30.129
463.34	30.389
463.69	30.438
464.04	31.235
464.39	30.928
464.74	29.632
465.09	30.755
465.44	30.410
465.79	29.932
466.14	31.357
466.49	30.535
466.84	31.469
467.19	31.039
467.54	30.268
467.89	31.080
468.24	30.839
468.59	31.175
468.94	30.794
469.29	31.213
469.64	31.032
469.99	32.025
470.34	30.512
470.68	31.618
471.03	31.069
471.38	30.742
471.73	31.022
472.08	30.393
472.43	29.933
472.78	29.883
473.13	30.952
473.48	30.945
473.83	31.009
474.17	31.023
474.52	30.377
474.87	30.121
475.22	29.835
475.57	29.870
475.92	30.280
476.27	31.374
476.61	30.498
476.96	30.340
477.31	30.990
477.66	31.011
478.01	30.713
478.36	30.719
478.70	31.267
479.05	30.110
479.40	31.214
479.75	30.865
480.10	30.517
480.45	31.600
480.79	32.024
481.14	31.250
481.49	30.936
481.84	30.647
482.19	30.449
482.53	31.271
482.88	30.788
483.23	30.518
483.58	30.943
483.92	30.736
484.27	30.356
484.62	31.555
484.97	29.892
485.31	29.588
485.66	29.312
486.01	29.405
486.36	29.261
486.70	29.910
487.05	30.109
487.40	30.196
487.75	29.915
488.09	30.779
488.44	30.605
488.79	31.117
489.13	30.970
489.48	31.466
489.83	31.614
490.17	30.876
490.52	30.716
490.87	31.097
491.22	31.280
491.56	30.882
491.91	30.688
492.26	31.551
492.60	31.334
492.95	32.218
493.30	30.093
493.64	31.336
493.99	31.884
494.34	30.825
494.68	30.714
495.03	30.268
495.37	31.452
495.72	30.641
496.07	31.366
496.41	30.943
496.76	30.631
497.11	30.927
497.45	32.029
497.80	31.332
498.14	30.899
498.49	31.640
498.84	30.888
499.18	31.878
499.53	31.696
499.87	30.739
500.22	31.454
500.56	31.921
500.91	31.024
501.26	30.796
501.60	31.087
501.95	31.198
502.29	31.186
502.64	31.805
502.98	31.376
503.33	29.635
503.67	30.554
504.02	32.307
504.36	31.222
504.71	31.212
505.06	31.203
505.40	31.066
505.75	31.907
506.09	30.715
506.44	31.930
506.78	31.939
507.13	31.593
507.47	31.697
507.82	30.716
508.16	31.167
508.51	32.162
508.85	31.973
509.19	31.080
509.54	31.635
509.88	31.499
510.23	31.469
510.57	31.908
510.92	29.584
511.26	31.697
511.61	31.408
511.95	31.671
512.30	30.820
512.64	31.608
512.98	31.948
513.33	32.121
513.67	31.552
514.02	32.208
514.36	32.686
514.70	32.984
515.05	32.609
515.39	32.231
515.74	31.916
516.08	32.038
516.42	31.920
516.77	32.592
517.11	32.700
517.46	32.855
517.80	32.598
518.14	31.660
518.49	32.572
518.83	31.713
519.17	32.080
519.52	32.564
519.86	32.173
520.20	32.746
520.55	32.333
520.89	32.873
521.23	31.666
521.58	32.618
521.92	32.692
522.26	32.791
522.61	32.143
522.95	33.113
523.29	32.910
523.64	33.736
523.98	33.052
524.32	32.152
524.66	32.330
525.01	33.766
525.35	32.988
525.69	33.737
526.04	32.870
526.38	34.047
526.72	32.440
527.06	32.944
527.41	33.971
527.75	32.909
528.09	33.555
528.43	32.748
528.78	33.399
529.12	33.290
529.46	32.489
529.80	32.172
530.15	34.125
530.49	35.084
530.83	32.969
531.17	33.848
531.51	34.200
531.86	34.126
532.20	34.029
532.54	33.424
532.88	34.223
533.22	32.930
533.57	33.683
533.91	32.833
534.25	34.245
534.59	33.226
534.93	32.096
535.27	31.662
535.62	32.534
535.96	34.116
536.30	34.565
536.64	33.563
536.98	32.125
537.32	34.922
537.66	34.151
538.01	33.217
538.35	33.564
538.69	33.489
539.03	32.878
539.37	33.984
539.71	33.810
540.05	33.741
540.39	33.864
540.73	33.961
541.07	33.771
541.42	33.065
541.76	34.549
542.10	32.416
542.44	33.218
542.78	31.796
543.12	33.242
543.46	34.353
543.80	33.796
544.14	31.642
544.48	33.178
544.82	33.493
545.16	34.016
545.50	33.445
545.84	33.924
546.18	34.823
546.52	33.886
546.86	32.566
547.20	33.619
547.54	32.650
547.88	33.492
548.22	32.610
548.56	32.058
548.90	33.356
549.24	33.747
549.58	34.485
549.92	32.881
550.26	33.480
550.60	34.647
550.94	33.234
551.28	33.230
551.62	34.769
551.96	33.233
552.30	33.772
552.64	32.863
552.98	33.193
553.32	33.096
553.66	32.801
554.00	32.336
554.34	33.383
554.68	33.038
555.02	34.003
555.36	34.630
555.69	33.260
556.03	33.833
556.37	32.669
556.71	33.646
557.05	33.110
557.39	32.862
557.73	32.459
558.07	34.615
558.41	33.691
558.75	33.827
559.08	34.673
559.42	33.730
559.76	34.588
560.10	33.486
560.44	33.209
560.78	33.916
561.12	33.004
561.45	34.715
561.79	33.123
562.13	33.002
562.47	33.597
562.81	32.781
563.15	33.216
563.48	33.805
563.82	33.082
564.16	33.217
564.50	33.243
564.84	33.333
565.17	32.931
565.51	33.743
565.85	33.608
566.19	34.284
566.52	32.775
566.86	34.126
567.20	32.441
567.54	32.299
567.88	32.689
568.21	32.070
568.55	32.609
568.89	32.752
569.23	32.643
569.56	32.137
569.90	32.806
570.24	31.038
570.57	31.055
570.91	31.021
571.25	30.845
571.59	31.174
571.92	30.341
572.26	30.556
572.60	30.543
572.93	30.813
573.27	31.160
573.61	30.996
573.95	30.776
574.28	30.482
574.62	29.443
574.96	30.317
575.29	30.035
575.63	29.956
575.97	29.954
576.30	30.644
576.64	30.199
576.98	30.013
577.31	30.351
577.65	30.321
577.98	30.220
578.32	29.802
578.66	29.637
578.99	29.995
579.33	29.853
579.67	29.750
580.00	30.152
580.34	29.851
580.67	29.624
581.01	29.635
581.35	29.996
581.68	29.876
582.02	29.749
582.35	29.935
582.69	30.269
583.02	29.908
583.36	29.548
583.70	30.582
584.03	30.637
584.37	31.028
584.70	30.275
585.04	29.819
585.37	29.926
585.71	30.165
586.04	29.753
586.38	29.848
586.72	30.617
587.05	30.416
587.39	30.389
587.72	30.208
588.06	30.722
588.39	30.305
588.73	30.678
589.06	31.344
589.40	31.075
589.73	31.581
590.07	30.476
590.40	31.540
590.73	31.343
591.07	31.255
591.40	31.389
591.74	32.172
592.07	31.633
592.41	31.228
592.74	31.262
593.08	29.969
593.41	30.214
593.75	30.258
594.08	30.312
594.41	30.786
594.75	30.840
595.08	31.063
595.42	30.475
595.75	30.642
596.09	31.118
596.42	31.294
596.75	31.306
597.09	30.524
597.42	30.894
597.75	31.654
598.09	30.964
598.42	31.092
598.76	31.103
599.09	30.689
599.42	30.201
599.76	30.135
600.09	30.166
600.42	29.340
600.76	30.052
601.09	30.878
601.42	30.356
601.76	30.091
602.09	30.693
602.42	31.550
602.76	30.985
603.09	31.146
603.42	31.982
603.76	30.847
604.09	29.931
604.42	30.330
604.76	30.530
605.09	30.941
605.42	30.971
605.75	30.954
606.09	30.361
606.42	30.150
606.75	29.913
607.09	30.857
607.42	29.730
607.75	31.217
608.08	29.964
608.42	30.014
608.75	31.084
609.08	30.992
609.41	30.964
609.75	30.897
610.08	31.003
610.41	30.193
610.74	30.717
611.07	31.008
611.41	30.358
611.74	31.077
612.07	30.353
612.40	31.510
612.73	30.791
613.07	30.709
613.40	30.252
613.73	30.554
614.06	31.775
614.39	30.739
614.72	30.588
615.06	30.615
615.39	30.404
615.72	30.624
616.05	30.503
616.38	30.541
616.71	30.642
617.05	30.821
617.38	31.238
617.71	30.692
618.04	32.063
618.37	31.778
618.70	31.419
619.03	32.500
619.36	31.548
619.69	32.980
620.03	32.725
620.36	32.189
620.69	31.049
621.02	31.498
621.35	33.029
621.68	33.163
622.01	31.750
622.34	30.966
622.67	32.965
623.00	31.164
623.33	31.555
623.66	31.189
623.99	31.165
624.32	32.015
624.65	31.880
624.99	32.731
625.32	31.387
625.65	32.836
625.98	31.265
626.31	31.837
626.64	32.322
626.97	32.112
627.30	31.961
627.63	32.756
627.96	32.884
628.29	32.655
628.62	33.628
628.95	33.066
629.28	31.956
629.61	32.104
629.94	32.356
630.26	32.016
630.59	34.339
630.92	32.718
631.25	31.077
631.58	32.930
631.91	33.114
632.24	33.601
632.57	32.727
632.90	34.164
633.23	34.353
633.56	32.242
633.89	33.539
634.22	33.704
634.55	33.291
634.88	32.312
635.20	32.051
635.53	34.267
635.86	30.559
