SpectraSuite Data File
++++++++++++++++++++++++++++++++++++
Date: Fri May 15 17:29:23 PDT 2015
User: schluterlab
Dark Spectrum Present: Yes
Reference Spectrum Present: Yes
Number of Sampled Component Spectra: 1
Spectrometers: USB2E3373
Integration Time (usec): 3000 (USB2E3373)
Spectra Averaged: 3 (USB2E3373)
Boxcar Smoothing: 0 (USB2E3373)
Correct for Electrical Dark: No (USB2E3373)
Strobe/Lamp Enabled: No (USB2E3373)
Correct for Detector Non-linearity: No (USB2E3373)
Correct for Stray Light: No (USB2E3373)
Number of Pixels in Processed Spectrum: 2048
>>>>>Begin Processed Spectral Data<<<<<
178.53	0.000
178.91	0.000
179.29	87.500
179.67	-150.000
180.04	-85.714
180.42	75.000
180.80	100.000
181.18	-100.000
181.56	50.000
181.94	200.000
182.31	-100.000
182.69	-100.000
183.07	-33.333
183.45	-60.000
183.83	166.667
184.20	-90.909
184.58	166.667
184.96	-75.000
185.34	-100.000
185.72	-200.000
186.09	107.692
186.47	0.000
186.85	166.667
187.23	66.667
187.61	-1000.000
187.98	66.667
188.36	-33.333
188.74	-166.667
189.12	129.412
189.49	77.778
189.87	0.000
190.25	85.714
190.63	250.000
191.00	-366.667
191.38	10.526
191.76	400.000
192.14	125.000
192.51	250.000
192.89	-11.111
193.27	-71.429
193.65	100.000
194.02	100.000
194.40	30.000
194.78	-37.500
195.15	-66.667
195.53	-12.500
195.91	200.000
196.29	-150.000
196.66	92.308
197.04	100.000
197.42	0.000
197.79	-266.667
198.17	-23.077
198.55	1000.000
198.92	0.000
199.30	300.000
199.68	-40.000
200.05	-366.667
200.43	0.000
200.81	66.667
201.18	-166.667
201.56	1200.000
201.94	-350.000
202.31	-66.667
202.69	-300.000
203.07	125.000
203.44	-600.000
203.82	0.000
204.19	128.571
204.57	-333.333
204.95	50.000
205.32	50.000
205.70	-71.429
206.08	-200.000
206.45	133.333
206.83	100.000
207.20	0.000
207.58	400.000
207.96	-100.000
208.33	-80.000
208.71	100.000
209.08	-50.000
209.46	-500.000
209.84	-160.000
210.21	-900.000
210.59	85.714
210.96	66.667
211.34	-100.000
211.71	133.333
212.09	-57.143
212.46	-1300.000
212.84	0.000
213.22	110.000
213.59	550.000
213.97	76.923
214.34	90.909
214.72	-50.000
215.09	475.000
215.47	38.462
215.84	-27.273
216.22	-266.667
216.59	-125.000
216.97	300.000
217.34	150.000
217.72	-20.000
218.09	62.500
218.47	150.000
218.84	-300.000
219.22	-44.444
219.59	80.000
219.97	200.000
220.34	150.000
220.72	-28.571
221.09	-200.000
221.47	-500.000
221.84	-250.000
222.22	-400.000
222.59	63.636
222.97	66.667
223.34	-300.000
223.72	21.429
224.09	42.857
224.46	25.000
224.84	200.000
225.21	-90.000
225.59	66.667
225.96	-300.000
226.34	275.000
226.71	-57.143
227.08	-33.333
227.46	-12.500
227.83	-650.000
228.21	11.111
228.58	18.182
228.95	12.500
229.33	110.000
229.70	37.500
230.08	-175.000
230.45	-114.286
230.82	-14.286
231.20	60.000
231.57	42.857
231.95	28.571
232.32	-160.000
232.69	0.000
233.07	100.000
233.44	80.000
233.81	30.000
234.19	-22.222
234.56	23.529
234.93	400.000
235.31	75.000
235.68	-160.000
236.05	46.154
236.43	60.000
236.80	52.941
237.17	59.375
237.55	0.000
237.92	11.111
238.29	47.222
238.67	46.667
239.04	17.647
239.41	26.829
239.79	40.000
240.16	51.220
240.53	52.632
240.91	21.739
241.28	34.921
241.65	48.214
242.02	47.945
242.40	35.000
242.77	38.983
243.14	39.394
243.51	41.250
243.89	48.276
244.26	34.483
244.63	36.905
245.00	38.144
245.38	46.392
245.75	39.326
246.12	31.897
246.49	44.628
246.87	44.231
247.24	41.176
247.61	43.860
247.98	38.211
248.36	41.250
248.73	38.816
249.10	36.364
249.47	39.873
249.84	44.444
250.22	45.294
250.59	44.444
250.96	42.254
251.33	38.372
251.70	38.824
252.08	43.655
252.45	40.099
252.82	43.719
253.19	37.327
253.56	43.458
253.94	37.838
254.31	41.304
254.68	46.053
255.05	44.882
255.42	41.921
255.79	40.541
256.16	36.187
256.54	39.552
256.91	40.304
257.28	36.059
257.65	42.322
258.02	35.816
258.39	40.404
258.76	44.322
259.14	43.522
259.51	41.100
259.88	39.519
260.25	41.830
260.62	43.056
260.99	38.983
261.36	36.986
261.73	40.823
262.10	44.073
262.47	37.423
262.85	35.423
263.22	40.615
263.59	42.679
263.96	47.516
264.33	42.424
264.70	36.905
265.07	37.202
265.44	43.059
265.81	39.831
266.18	40.710
266.55	41.388
266.92	42.228
267.29	36.815
267.66	40.153
268.03	40.314
268.40	37.076
268.77	41.979
269.14	36.451
269.51	40.360
269.88	38.155
270.25	37.755
270.62	41.220
270.99	36.573
271.36	36.186
271.73	37.793
272.10	38.200
272.47	38.061
272.84	37.871
273.21	40.835
273.58	40.000
273.95	39.130
274.32	39.492
274.69	35.294
275.06	38.839
275.43	39.002
275.80	37.748
276.17	37.471
276.54	34.904
276.91	37.939
277.28	33.624
277.65	36.777
278.02	37.234
278.39	35.667
278.76	40.042
279.13	35.892
279.50	35.294
279.87	36.069
280.23	32.473
280.60	37.817
280.97	35.354
281.34	35.385
281.71	36.756
282.08	37.014
282.45	33.659
282.82	34.556
283.19	32.495
283.56	33.911
283.92	34.915
284.29	32.308
284.66	32.752
285.03	35.167
285.40	32.514
285.77	33.040
286.14	33.755
286.51	36.347
286.87	32.358
287.24	34.807
287.61	33.862
287.98	34.912
288.35	32.236
288.72	34.151
289.08	31.424
289.45	33.392
289.82	32.517
290.19	30.717
290.56	30.875
290.93	31.481
291.29	26.656
291.66	30.394
292.03	27.911
292.40	28.387
292.77	27.751
293.13	27.597
293.50	27.011
293.87	27.939
294.24	27.821
294.60	25.931
294.97	26.488
295.34	28.067
295.71	27.571
296.08	25.710
296.44	24.467
296.81	26.111
297.18	25.797
297.55	26.694
297.91	25.753
298.28	24.142
298.65	25.645
299.02	26.280
299.38	24.350
299.75	24.276
300.12	24.084
300.48	24.374
300.85	24.208
301.22	24.545
301.59	24.211
301.95	22.658
302.32	25.292
302.69	23.632
303.05	23.020
303.42	24.533
303.79	24.065
304.15	24.014
304.52	23.900
304.89	21.053
305.25	21.671
305.62	21.237
305.99	20.936
306.35	20.231
306.72	22.610
307.09	21.893
307.45	21.470
307.82	22.338
308.19	23.345
308.55	21.701
308.92	22.767
309.29	21.564
309.65	20.452
310.02	21.562
310.38	22.832
310.75	20.874
311.12	22.067
311.48	21.103
311.85	21.361
312.22	20.570
312.58	19.427
312.95	19.210
313.31	20.186
313.68	20.524
314.05	19.286
314.41	20.309
314.78	20.206
315.14	21.994
315.51	20.807
315.87	21.107
316.24	21.739
316.61	20.768
316.97	21.032
317.34	19.434
317.70	19.312
318.07	19.808
318.43	20.098
318.80	19.508
319.16	20.117
319.53	20.323
319.89	19.685
320.26	19.433
320.62	21.665
320.99	20.251
321.35	19.527
321.72	19.834
322.08	20.645
322.45	19.695
322.81	19.745
323.18	18.155
323.54	18.243
323.91	18.890
324.27	18.848
324.64	20.131
325.00	19.982
325.37	20.202
325.73	20.036
326.10	19.891
326.46	19.910
326.83	20.822
327.19	18.396
327.56	19.722
327.92	19.630
328.29	19.286
328.65	18.679
329.01	18.199
329.38	20.553
329.74	19.358
330.11	19.462
330.47	18.275
330.84	20.192
331.20	19.487
331.56	18.426
331.93	19.178
332.29	20.165
332.66	18.462
333.02	18.587
333.38	17.690
333.75	19.597
334.11	17.995
334.48	19.039
334.84	18.132
335.20	19.579
335.57	18.223
335.93	18.880
336.29	18.600
336.66	18.074
337.02	19.052
337.38	17.870
337.75	17.727
338.11	17.403
338.47	17.792
338.84	17.930
339.20	18.099
339.56	18.807
339.93	19.606
340.29	20.459
340.65	18.817
341.02	17.199
341.38	18.230
341.74	17.668
342.11	16.984
342.47	17.438
342.83	18.166
343.20	17.770
343.56	17.391
343.92	17.449
344.28	18.787
344.65	17.530
345.01	16.940
345.37	17.157
345.73	16.569
346.10	18.809
346.46	17.914
346.82	16.776
347.19	16.043
347.55	18.045
347.91	18.689
348.27	17.462
348.63	17.206
349.00	17.884
349.36	17.124
349.72	17.247
350.08	17.377
350.45	18.117
350.81	15.781
351.17	16.205
351.53	18.204
351.89	16.928
352.26	16.480
352.62	16.855
352.98	17.269
353.34	16.747
353.70	17.557
354.07	16.613
354.43	17.054
354.79	16.433
355.15	17.143
355.51	16.693
355.87	17.233
356.24	16.395
356.60	16.411
356.96	17.778
357.32	16.773
357.68	15.715
358.04	17.124
358.40	15.916
358.77	16.906
359.13	17.134
359.49	16.487
359.85	17.239
360.21	15.630
360.57	15.302
360.93	16.944
361.29	14.804
361.66	16.693
362.02	16.515
362.38	16.070
362.74	16.276
363.10	16.328
363.46	16.901
363.82	16.529
364.18	16.458
364.54	16.691
364.90	15.341
365.26	16.303
365.62	16.423
365.98	17.009
366.35	16.023
366.71	15.595
367.07	16.401
367.43	15.672
367.79	16.890
368.15	16.511
368.51	15.149
368.87	14.860
369.23	15.812
369.59	15.816
369.95	15.469
370.31	16.546
370.67	15.896
371.03	15.161
371.39	15.317
371.75	15.311
372.11	15.335
372.47	15.533
372.83	16.537
373.19	14.337
373.55	15.379
373.91	15.695
374.27	15.308
374.63	15.650
374.99	16.241
375.35	14.972
375.71	16.573
376.07	15.590
376.42	15.170
376.78	15.503
377.14	15.843
377.50	15.471
377.86	15.596
378.22	15.124
378.58	15.385
378.94	15.879
379.30	15.346
379.66	16.489
380.02	14.408
380.38	15.460
380.74	15.500
381.09	15.644
381.45	14.740
381.81	15.423
382.17	15.736
382.53	14.928
382.89	15.191
383.25	16.117
383.61	16.220
383.97	15.429
384.32	14.384
384.68	15.851
385.04	14.522
385.40	15.308
385.76	16.352
386.12	15.912
386.48	15.453
386.83	14.965
387.19	15.934
387.55	15.182
387.91	15.220
388.27	15.324
388.62	14.600
388.98	14.672
389.34	15.928
389.70	15.351
390.06	14.726
390.42	14.443
390.77	15.173
391.13	14.502
391.49	15.589
391.85	14.945
392.20	14.438
392.56	15.257
392.92	14.856
393.28	14.976
393.64	14.535
393.99	16.677
394.35	14.611
394.71	15.198
395.07	16.153
395.42	14.086
395.78	15.440
396.14	15.385
396.50	14.902
396.85	14.617
397.21	15.226
397.57	14.922
397.92	15.099
398.28	15.517
398.64	14.759
399.00	16.253
399.35	13.995
399.71	15.393
400.07	15.115
400.42	14.382
400.78	14.697
401.14	15.608
401.49	15.307
401.85	14.260
402.21	15.663
402.57	15.563
402.92	14.806
403.28	15.163
403.63	15.132
403.99	14.541
404.35	14.803
404.70	15.179
405.06	14.689
405.42	14.605
405.77	15.282
406.13	15.308
406.49	13.973
406.84	15.037
407.20	15.172
407.55	13.844
407.91	14.572
408.27	15.169
408.62	14.585
408.98	14.849
409.34	14.746
409.69	15.052
410.05	14.717
410.40	14.321
410.76	15.078
411.11	14.500
411.47	15.713
411.83	14.250
412.18	14.157
412.54	15.605
412.89	14.594
413.25	15.584
413.60	14.845
413.96	14.785
414.31	15.488
414.67	14.047
415.03	14.048
415.38	15.274
415.74	15.179
416.09	14.827
416.45	15.733
416.80	14.937
417.16	15.539
417.51	15.057
417.87	14.276
418.22	15.026
418.58	15.117
418.93	14.420
419.29	13.636
419.64	14.193
420.00	15.932
420.35	14.866
420.71	15.431
421.06	15.408
421.42	15.685
421.77	15.434
422.12	15.096
422.48	15.051
422.83	14.791
423.19	14.278
423.54	14.109
423.90	14.429
424.25	14.122
424.61	15.422
424.96	14.983
425.31	15.829
425.67	14.847
426.02	15.077
426.38	14.715
426.73	14.952
427.09	15.127
427.44	15.294
427.79	15.262
428.15	14.806
428.50	14.416
428.85	14.803
429.21	15.167
429.56	14.987
429.92	15.306
430.27	15.940
430.62	14.689
430.98	15.127
431.33	15.037
431.68	14.390
432.04	14.980
432.39	15.003
432.74	14.131
433.10	15.805
433.45	14.516
433.80	16.193
434.16	14.404
434.51	14.946
434.86	14.750
435.22	14.807
435.57	14.972
435.92	14.910
436.28	14.848
436.63	14.718
436.98	15.064
437.34	14.701
437.69	15.564
438.04	14.644
438.39	14.478
438.75	14.754
439.10	15.167
439.45	15.764
439.81	14.557
440.16	14.905
440.51	15.403
440.86	16.495
441.22	14.819
441.57	14.845
441.92	15.163
442.27	14.634
442.63	16.542
442.98	15.451
443.33	15.248
443.68	15.066
444.03	15.599
444.39	15.052
444.74	15.440
445.09	15.145
445.44	15.157
445.79	15.781
446.15	15.033
446.50	14.864
446.85	14.665
447.20	15.328
447.55	15.737
447.91	15.285
448.26	15.367
448.61	15.256
448.96	15.204
449.31	15.029
449.66	15.273
450.02	14.318
450.37	15.412
450.72	15.178
451.07	15.316
451.42	15.106
451.77	15.612
452.12	15.371
452.47	14.552
452.83	15.901
453.18	15.244
453.53	15.487
453.88	14.693
454.23	15.181
454.58	15.302
454.93	15.722
455.28	14.603
455.63	15.065
455.98	15.334
456.34	14.368
456.69	15.184
457.04	15.186
457.39	14.763
457.74	14.752
458.09	15.068
458.44	15.506
458.79	15.182
459.14	15.446
459.49	15.582
459.84	16.300
460.19	14.563
460.54	14.425
460.89	14.716
461.24	15.963
461.59	15.618
461.94	14.591
462.29	15.561
462.64	14.884
462.99	14.895
463.34	14.465
463.69	14.994
464.04	14.831
464.39	14.130
464.74	15.215
465.09	15.284
465.44	15.522
465.79	15.476
466.14	15.450
466.49	14.721
466.84	15.051
467.19	14.831
467.54	14.879
467.89	14.466
468.24	14.538
468.59	14.857
468.94	14.159
469.29	14.820
469.64	16.336
469.99	15.767
470.34	13.447
470.68	16.182
471.03	15.145
471.38	14.194
471.73	14.146
472.08	14.993
472.43	13.893
472.78	13.297
473.13	14.898
473.48	13.941
473.83	14.321
474.17	14.249
474.52	14.550
474.87	14.303
475.22	14.216
475.57	14.625
475.92	15.030
476.27	15.076
476.61	14.468
476.96	14.389
477.31	14.873
477.66	14.607
478.01	13.925
478.36	14.107
478.70	14.519
479.05	14.231
479.40	14.361
479.75	14.703
480.10	15.566
480.45	14.900
480.79	15.861
481.14	15.164
481.49	13.892
481.84	14.720
482.19	15.108
482.53	14.868
482.88	14.177
483.23	14.539
483.58	14.481
483.92	14.376
484.27	14.403
484.62	13.940
484.97	13.930
485.31	14.993
485.66	15.932
486.01	17.010
486.36	16.308
486.70	15.928
487.05	15.568
487.40	15.408
487.75	15.070
488.09	14.431
488.44	14.271
488.79	14.681
489.13	14.143
489.48	14.408
489.83	13.453
490.17	13.843
490.52	13.764
490.87	13.882
491.22	14.470
491.56	13.662
491.91	13.862
492.26	13.563
492.60	14.155
492.95	14.412
493.30	13.923
493.64	13.703
493.99	14.010
494.34	13.301
494.68	13.667
495.03	13.674
495.37	14.181
495.72	13.377
496.07	14.098
496.41	13.538
496.76	14.141
497.11	13.787
497.45	14.272
497.80	13.724
498.14	13.562
498.49	13.560
498.84	13.523
499.18	13.705
499.53	13.244
499.87	13.084
500.22	12.760
500.56	13.666
500.91	13.203
501.26	13.544
501.60	13.674
501.95	13.440
502.29	13.220
502.64	14.189
502.98	13.320
503.33	13.641
503.67	14.120
504.02	14.418
504.36	14.349
504.71	12.980
505.06	13.639
505.40	12.944
505.75	13.093
506.09	13.381
506.44	13.758
506.78	13.622
507.13	13.082
507.47	12.272
507.82	12.019
508.16	12.995
508.51	13.274
508.85	13.553
509.19	13.145
509.54	13.780
509.88	13.107
510.23	13.609
510.57	13.201
510.92	12.953
511.26	12.657
511.61	13.861
511.95	12.603
512.30	13.304
512.64	13.244
512.98	12.690
513.33	13.766
513.67	12.507
514.02	13.616
514.36	13.029
514.70	13.228
515.05	13.161
515.39	12.397
515.74	13.593
516.08	13.030
516.42	12.956
516.77	13.049
517.11	12.226
517.46	12.029
517.80	12.694
518.14	12.737
518.49	12.500
518.83	12.211
519.17	12.310
519.52	12.493
519.86	12.725
520.20	12.272
520.55	11.632
520.89	12.296
521.23	12.096
521.58	13.312
521.92	13.013
522.26	11.516
522.61	12.208
522.95	12.185
523.29	11.944
523.64	12.961
523.98	13.091
524.32	11.405
524.66	12.484
525.01	12.792
525.35	12.897
525.69	11.246
526.04	12.302
526.38	13.489
526.72	11.511
527.06	11.673
527.41	12.797
527.75	11.461
528.09	11.827
528.43	13.167
528.78	12.079
529.12	12.452
529.46	12.541
529.80	13.236
530.15	13.069
530.49	11.852
530.83	11.833
531.17	12.559
531.51	12.449
531.86	11.353
532.20	11.900
532.54	12.321
532.88	12.594
533.22	12.702
533.57	13.499
533.91	12.402
534.25	13.216
534.59	12.187
534.93	12.398
535.27	12.183
535.62	12.767
535.96	12.394
536.30	13.391
536.64	12.888
536.98	11.638
537.32	12.660
537.66	12.763
538.01	13.566
538.35	12.968
538.69	12.583
539.03	12.372
539.37	12.113
539.71	12.270
540.05	12.356
540.39	12.812
540.73	12.134
541.07	13.191
541.42	13.172
541.76	12.526
542.10	12.801
542.44	12.648
542.78	11.906
543.12	11.951
543.46	12.587
543.80	12.561
544.14	12.083
544.48	12.991
544.82	12.372
545.16	13.456
545.50	13.084
545.84	12.252
546.18	13.262
546.52	12.473
546.86	12.150
547.20	11.660
547.54	12.226
547.88	12.228
548.22	12.295
548.56	12.731
548.90	13.410
549.24	12.328
549.58	12.482
549.92	13.152
550.26	12.674
550.60	12.342
550.94	11.875
551.28	11.747
551.62	11.692
551.96	12.707
552.30	13.012
552.64	12.059
552.98	12.799
553.32	12.696
553.66	12.264
554.00	12.482
554.34	13.072
554.68	13.053
555.02	12.723
555.36	12.191
555.69	12.674
556.03	12.206
556.37	12.384
556.71	12.491
557.05	11.708
557.39	12.342
557.73	12.444
558.07	12.821
558.41	12.711
558.75	12.315
559.08	11.190
559.42	11.349
559.76	12.330
560.10	11.621
560.44	12.286
560.78	12.517
561.12	13.188
561.45	12.930
561.79	13.025
562.13	12.775
562.47	12.518
562.81	11.671
563.15	13.258
563.48	13.225
563.82	13.109
564.16	13.231
564.50	12.568
564.84	13.521
565.17	12.877
565.51	12.363
565.85	12.963
566.19	12.931
566.52	13.472
566.86	13.175
567.20	12.329
567.54	13.808
567.88	13.240
568.21	13.914
568.55	13.587
568.89	14.066
569.23	13.529
569.56	14.623
569.90	14.698
570.24	15.184
570.57	14.836
570.91	15.162
571.25	15.225
571.59	14.544
571.92	15.200
572.26	14.885
572.60	15.039
572.93	15.281
573.27	15.016
573.61	15.125
573.95	15.483
574.28	15.122
574.62	15.205
574.96	15.532
575.29	14.967
575.63	15.108
575.97	14.801
576.30	14.760
576.64	15.046
576.98	15.393
577.31	15.360
577.65	15.757
577.98	15.807
578.32	15.787
578.66	15.409
578.99	15.419
579.33	15.039
579.67	14.913
580.00	15.241
580.34	15.025
580.67	14.837
581.01	15.130
581.35	15.482
581.68	15.725
582.02	16.003
582.35	15.822
582.69	15.777
583.02	15.467
583.36	15.590
583.70	15.576
584.03	15.096
584.37	15.274
584.70	15.412
585.04	14.637
585.37	15.725
585.71	15.330
586.04	15.658
586.38	14.724
586.72	15.696
587.05	15.280
587.39	16.215
587.72	15.774
588.06	15.500
588.39	15.152
588.73	15.446
589.06	15.395
589.40	15.382
589.73	15.553
590.07	15.181
590.40	14.745
590.73	15.445
591.07	14.546
591.40	14.381
591.74	14.615
592.07	14.935
592.41	15.062
592.74	15.253
593.08	15.962
593.41	15.651
593.75	15.342
594.08	15.242
594.41	15.247
594.75	15.038
595.08	15.096
595.42	15.495
595.75	15.509
596.09	14.894
596.42	15.130
596.75	14.654
597.09	15.034
597.42	15.041
597.75	15.117
598.09	14.667
598.42	14.440
598.76	14.586
599.09	15.304
599.42	14.778
599.76	15.087
600.09	15.460
600.42	15.504
600.76	14.859
601.09	14.809
601.42	15.159
601.76	15.165
602.09	14.686
602.42	15.038
602.76	14.813
603.09	14.909
603.42	15.426
603.76	14.758
604.09	14.945
604.42	15.736
604.76	14.998
605.09	14.899
605.42	14.989
605.75	14.842
606.09	15.329
606.42	15.596
606.75	15.022
607.09	14.374
607.42	15.020
607.75	15.142
608.08	14.241
608.42	14.573
608.75	14.843
609.08	14.599
609.41	14.112
609.75	14.667
610.08	14.878
610.41	14.010
610.74	14.334
611.07	14.884
611.41	14.842
611.74	15.778
612.07	13.972
612.40	14.606
612.73	14.124
613.07	14.004
613.40	14.716
613.73	14.102
614.06	14.858
614.39	14.834
614.72	14.006
615.06	14.804
615.39	14.247
615.72	14.209
616.05	14.693
616.38	14.017
616.71	14.190
617.05	14.577
617.38	14.456
617.71	14.465
618.04	14.794
618.37	14.817
618.70	14.323
619.03	14.792
619.36	14.255
619.69	13.419
620.03	14.244
620.36	14.235
620.69	14.490
621.02	11.927
621.35	13.942
621.68	13.520
622.01	13.417
622.34	14.206
622.67	14.038
623.00	14.319
623.33	14.024
623.66	12.565
623.99	14.070
624.32	13.308
624.65	13.985
624.99	13.995
625.32	12.737
625.65	14.218
625.98	14.263
626.31	12.884
626.64	13.345
626.97	13.438
627.30	12.872
627.63	13.951
627.96	13.028
628.29	12.211
628.62	11.799
628.95	12.926
629.28	11.996
629.61	12.164
629.94	13.685
630.26	12.549
630.59	13.319
630.92	12.718
631.25	12.410
631.58	12.775
631.91	11.404
632.24	11.583
632.57	12.273
632.90	9.846
633.23	11.647
633.56	10.957
