SpectraSuite Data File
++++++++++++++++++++++++++++++++++++
Date: Fri May 15 17:32:03 PDT 2015
User: schluterlab
Dark Spectrum Present: Yes
Reference Spectrum Present: Yes
Number of Sampled Component Spectra: 1
Spectrometers: USB2E3373
Integration Time (usec): 3000 (USB2E3373)
Spectra Averaged: 3 (USB2E3373)
Boxcar Smoothing: 0 (USB2E3373)
Correct for Electrical Dark: No (USB2E3373)
Strobe/Lamp Enabled: No (USB2E3373)
Correct for Detector Non-linearity: No (USB2E3373)
Correct for Stray Light: No (USB2E3373)
Number of Pixels in Processed Spectrum: 2048
>>>>>Begin Processed Spectral Data<<<<<
178.53	0.000
178.91	0.000
179.29	237.500
179.67	-50.000
180.04	-71.429
180.42	225.000
180.80	200.000
181.18	-100.000
181.56	-200.000
181.94	100.000
182.31	-400.000
182.69	120.000
183.07	-66.667
183.45	200.000
183.83	116.667
184.20	27.273
184.58	122.222
184.96	-100.000
185.34	-233.333
185.72	300.000
186.09	15.385
186.47	-800.000
186.85	-0.000
187.23	100.000
187.61	-600.000
187.98	33.333
188.36	122.222
188.74	-33.333
189.12	47.059
189.49	77.778
189.87	0.000
190.25	78.571
190.63	500.000
191.00	-33.333
191.38	-15.789
191.76	850.000
192.14	-50.000
192.51	50.000
192.89	33.333
193.27	-57.143
193.65	183.333
194.02	81.818
194.40	30.000
194.78	-12.500
195.15	16.667
195.53	-12.500
195.91	75.000
196.29	75.000
196.66	53.846
197.04	71.429
197.42	66.667
197.79	-500.000
198.17	-30.769
198.55	600.000
198.92	166.667
199.30	500.000
199.68	0.000
200.05	-166.667
200.43	0.000
200.81	-33.333
201.18	333.333
201.56	-400.000
201.94	-250.000
202.31	133.333
202.69	-120.000
203.07	-150.000
203.44	300.000
203.82	0.000
204.19	28.571
204.57	-33.333
204.95	-87.500
205.32	10.000
205.70	71.429
206.08	150.000
206.45	155.556
206.83	85.714
207.20	71.429
207.58	100.000
207.96	-266.667
208.33	-150.000
208.71	125.000
209.08	-33.333
209.46	400.000
209.84	20.000
210.21	-600.000
210.59	0.000
210.96	216.667
211.34	25.000
211.71	40.000
212.09	-28.571
212.46	-1600.000
212.84	0.000
213.22	90.000
213.59	150.000
213.97	123.077
214.34	36.364
214.72	16.667
215.09	375.000
215.47	38.462
215.84	-36.364
216.22	-200.000
216.59	50.000
216.97	350.000
217.34	200.000
217.72	-220.000
218.09	125.000
218.47	50.000
218.84	-600.000
219.22	33.333
219.59	60.000
219.97	66.667
220.34	150.000
220.72	28.571
221.09	-100.000
221.47	-150.000
221.84	-200.000
222.22	-50.000
222.59	109.091
222.97	83.333
223.34	33.333
223.72	28.571
224.09	71.429
224.46	7.143
224.84	200.000
225.21	-30.000
225.59	53.333
225.96	300.000
226.34	-50.000
226.71	-57.143
227.08	166.667
227.46	-37.500
227.83	150.000
228.21	-22.222
228.58	36.364
228.95	-12.500
229.33	60.000
229.70	18.750
230.08	62.500
230.45	85.714
230.82	-42.857
231.20	80.000
231.57	100.000
231.95	-57.143
232.32	-80.000
232.69	71.429
233.07	300.000
233.44	60.000
233.81	-20.000
234.19	111.111
234.56	-5.882
234.93	-50.000
235.31	-100.000
235.68	-120.000
236.05	-15.385
236.43	-55.000
236.80	5.882
237.17	18.750
237.55	35.000
237.92	59.259
238.29	47.222
238.67	36.667
239.04	26.471
239.41	19.512
239.79	26.667
240.16	48.780
240.53	13.158
240.91	6.522
241.28	20.635
241.65	37.500
242.02	26.027
242.40	33.333
242.77	32.203
243.14	18.182
243.51	28.750
243.89	32.184
244.26	22.989
244.63	15.476
245.00	24.742
245.38	18.557
245.75	17.978
246.12	19.828
246.49	20.661
246.87	27.885
247.24	25.210
247.61	16.667
247.98	25.203
248.36	21.250
248.73	20.395
249.10	17.532
249.47	20.886
249.84	19.608
250.22	23.529
250.59	24.183
250.96	27.230
251.33	19.186
251.70	24.706
252.08	25.888
252.45	18.812
252.82	20.101
253.19	23.502
253.56	19.626
253.94	26.126
254.31	24.348
254.68	25.877
255.05	24.016
255.42	25.764
255.79	24.324
256.16	22.179
256.54	25.373
256.91	22.053
257.28	23.420
257.65	20.225
258.02	23.404
258.39	23.906
258.76	20.513
259.14	21.595
259.51	23.625
259.88	25.086
260.25	25.163
260.62	23.958
260.99	21.017
261.36	16.781
261.73	24.051
262.10	20.973
262.47	23.313
262.85	21.944
263.22	20.000
263.59	18.069
263.96	25.466
264.33	22.121
264.70	20.238
265.07	20.833
265.44	23.513
265.81	24.011
266.18	21.858
266.55	20.566
266.92	20.984
267.29	23.238
267.66	19.949
268.03	20.157
268.40	19.843
268.77	25.668
269.14	21.343
269.51	22.108
269.88	20.948
270.25	20.918
270.62	20.000
270.99	20.716
271.36	21.027
271.73	21.596
272.10	23.844
272.47	21.513
272.84	20.545
273.21	22.970
273.58	23.133
273.95	20.366
274.32	19.861
274.69	16.742
275.06	20.089
275.43	19.955
275.80	23.179
276.17	20.230
276.54	20.128
276.91	18.640
277.28	18.777
277.65	22.107
278.02	19.787
278.39	20.569
278.76	20.545
279.13	18.672
279.50	21.218
279.87	18.790
280.23	20.645
280.60	20.858
280.97	20.808
281.34	18.269
281.71	18.891
282.08	20.450
282.45	18.591
282.82	19.112
283.19	20.696
283.56	20.617
283.92	18.027
284.29	17.500
284.66	17.636
285.03	18.271
285.40	20.038
285.77	18.453
286.14	19.314
286.51	19.373
286.87	19.013
287.24	18.232
287.61	18.519
287.98	19.298
288.35	18.544
288.72	18.039
289.08	17.882
289.45	18.102
289.82	19.580
290.19	17.065
290.56	19.383
290.93	15.488
291.29	15.562
291.66	16.693
292.03	17.384
292.40	18.065
292.77	15.949
293.13	14.123
293.50	15.326
293.87	16.031
294.24	15.920
294.60	14.605
294.97	15.179
295.34	15.337
295.71	16.244
296.08	13.901
296.44	15.220
296.81	13.611
297.18	15.942
297.55	16.260
297.91	14.247
298.28	14.116
298.65	13.569
299.02	14.420
299.38	12.038
299.75	12.966
300.12	12.435
300.48	11.989
300.85	14.702
301.22	12.987
301.59	13.816
301.95	13.924
302.32	14.397
302.69	14.055
303.05	13.119
303.42	13.699
303.79	12.383
304.15	13.978
304.52	13.555
304.89	11.345
305.25	12.228
305.62	12.019
305.99	12.281
306.35	13.873
306.72	12.261
307.09	12.771
307.45	12.514
307.82	11.806
308.19	12.660
308.55	12.432
308.92	13.181
309.29	11.955
309.65	12.379
310.02	11.551
310.38	12.953
310.75	13.005
311.12	12.702
311.48	12.195
311.85	12.565
312.22	12.764
312.58	11.677
312.95	11.206
313.31	13.043
313.68	11.414
314.05	11.122
314.41	11.340
314.78	11.753
315.14	13.875
315.51	12.112
315.87	12.602
316.24	13.448
316.61	14.173
316.97	13.095
317.34	12.695
317.70	12.428
318.07	13.750
318.43	12.157
318.80	11.837
319.16	13.477
319.53	14.340
319.89	13.878
320.26	13.158
320.62	13.741
320.99	13.048
321.35	13.361
321.72	15.472
322.08	13.595
322.45	12.792
322.81	13.752
323.18	14.230
323.54	14.093
323.91	15.093
324.27	15.527
324.64	16.760
325.00	15.785
325.37	16.988
325.73	16.863
326.10	17.620
326.46	17.040
326.83	17.673
327.19	19.093
327.56	19.374
327.92	19.454
328.29	18.571
328.65	19.717
329.01	20.129
329.38	20.737
329.74	19.830
330.11	21.316
330.47	21.243
330.84	21.827
331.20	23.764
331.56	21.204
331.93	23.562
332.29	24.381
332.66	23.982
333.02	23.327
333.38	23.556
333.75	25.092
334.11	23.008
334.48	25.113
334.84	25.733
335.20	26.167
335.57	24.479
335.93	26.016
336.29	26.703
336.66	24.886
337.02	25.093
337.38	25.833
337.75	26.455
338.11	26.330
338.47	27.555
338.84	26.802
339.20	26.600
339.56	27.339
339.93	27.037
340.29	27.615
340.65	27.688
341.02	26.241
341.38	26.814
341.74	26.678
342.11	26.256
342.47	27.313
342.83	26.730
343.20	27.700
343.56	28.087
343.92	28.787
344.28	28.010
344.65	26.770
345.01	26.621
345.37	27.502
345.73	28.368
346.10	27.955
346.46	27.923
346.82	26.596
347.19	25.769
347.55	27.151
347.91	28.074
348.27	27.082
348.63	27.002
349.00	26.415
349.36	28.096
349.72	28.027
350.08	27.213
350.45	27.614
350.81	26.495
351.17	26.629
351.53	27.837
351.89	26.672
352.26	26.640
352.62	26.129
352.98	27.390
353.34	26.973
353.70	28.236
354.07	26.855
354.43	27.222
354.79	26.424
355.15	28.095
355.51	27.690
355.87	27.670
356.24	25.775
356.60	27.001
356.96	27.143
357.32	27.636
357.68	26.740
358.04	26.090
358.40	26.286
358.77	27.751
359.13	26.902
359.49	26.348
359.85	27.223
360.21	27.592
360.57	26.090
360.93	27.005
361.29	25.982
361.66	28.056
362.02	27.879
362.38	28.180
362.74	26.646
363.10	27.690
363.46	26.686
363.82	29.151
364.18	27.159
364.54	26.838
364.90	26.237
365.26	27.293
365.62	28.029
365.98	27.933
366.35	27.604
366.71	28.307
367.07	27.286
367.43	26.671
367.79	27.562
368.15	27.782
368.51	27.312
368.87	26.920
369.23	26.643
369.59	28.207
369.95	26.833
370.31	27.746
370.67	27.239
371.03	26.064
371.39	27.279
371.75	27.839
372.11	28.031
372.47	26.627
372.83	27.608
373.19	27.033
373.55	27.365
373.91	28.366
374.27	27.498
374.63	27.495
374.99	28.014
375.35	28.134
375.71	29.301
376.07	28.160
376.42	28.367
376.78	28.322
377.14	28.571
377.50	28.818
377.86	28.983
378.22	28.143
378.58	28.462
378.94	27.914
379.30	28.696
379.66	29.154
380.02	28.020
380.38	28.058
380.74	28.187
381.09	30.552
381.45	28.379
381.81	28.809
382.17	29.442
382.53	29.044
382.89	29.567
383.25	29.932
383.61	29.268
383.97	29.079
384.32	29.081
384.68	30.093
385.04	28.676
385.40	29.185
385.76	30.377
386.12	29.754
386.48	30.971
386.83	29.042
387.19	30.586
387.55	30.176
387.91	29.095
388.27	29.548
388.62	29.515
388.98	29.589
389.34	30.044
389.70	30.019
390.06	28.949
390.42	29.663
390.77	30.477
391.13	29.319
391.49	29.301
391.85	29.890
392.20	29.944
392.56	30.197
392.92	29.947
393.28	30.601
393.64	29.069
393.99	30.408
394.35	29.665
394.71	30.268
395.07	29.541
395.42	29.872
395.78	29.251
396.14	30.202
396.50	30.691
396.85	30.393
397.21	30.451
397.57	30.596
397.92	30.977
398.28	31.724
398.64	30.000
399.00	30.474
399.35	29.684
399.71	29.006
400.07	31.076
400.42	30.049
400.78	30.925
401.14	30.732
401.49	29.720
401.85	30.104
402.21	28.675
402.57	30.188
402.92	29.046
403.28	30.576
403.63	30.706
403.99	29.337
404.35	30.481
404.70	29.821
405.06	29.965
405.42	30.951
405.77	29.634
406.13	28.929
406.49	29.248
406.84	29.829
407.20	30.584
407.55	29.491
407.91	29.345
408.27	30.019
408.62	30.092
408.98	29.821
409.34	29.244
409.69	29.070
410.05	29.249
410.40	29.444
410.76	30.097
411.11	30.688
411.47	29.980
411.83	28.814
412.18	30.502
412.54	29.775
412.89	28.202
413.25	30.626
413.60	28.447
413.96	29.755
414.31	30.366
414.67	29.570
415.03	30.293
415.38	29.243
415.74	29.251
416.09	30.438
416.45	29.912
416.80	30.337
417.16	30.525
417.51	30.380
417.87	29.791
418.22	29.728
418.58	30.033
418.93	30.470
419.29	29.321
419.64	30.979
420.00	30.919
420.35	29.791
420.71	31.409
421.06	29.405
421.42	31.130
421.77	30.694
422.12	30.760
422.48	30.698
422.83	30.220
423.19	30.023
423.54	29.865
423.90	29.859
424.25	31.343
424.61	30.722
424.96	29.965
425.31	31.427
425.67	30.634
426.02	31.390
426.38	31.497
426.73	31.538
427.09	32.152
427.44	31.765
427.79	31.703
428.15	32.282
428.50	30.890
428.85	30.835
429.21	31.692
429.56	32.237
429.92	32.409
430.27	31.479
430.62	32.096
430.98	31.529
431.33	31.546
431.68	31.240
432.04	31.470
432.39	30.177
432.74	29.645
433.10	32.471
433.45	32.139
433.80	32.501
434.16	32.133
434.51	33.280
434.86	32.230
435.22	31.800
435.57	33.188
435.92	32.036
436.28	32.320
436.63	32.858
436.98	31.924
437.34	33.333
437.69	32.737
438.04	31.852
438.39	33.170
438.75	34.366
439.10	33.050
439.45	33.962
439.81	32.783
440.16	34.798
440.51	33.254
440.86	34.622
441.22	33.654
441.57	34.658
441.92	34.627
442.27	35.532
442.63	34.797
442.98	35.037
443.33	34.613
443.68	33.210
444.03	34.824
444.39	34.875
444.74	35.284
445.09	35.245
445.44	35.214
445.79	35.431
446.15	33.700
446.50	34.332
446.85	35.228
447.20	33.837
447.55	34.431
447.91	35.477
448.26	35.003
448.61	35.291
448.96	36.030
449.31	34.913
449.66	35.424
450.02	35.539
450.37	35.388
450.72	34.479
451.07	35.316
451.42	34.707
451.77	35.081
452.12	33.313
452.47	34.836
452.83	35.041
453.18	35.041
453.53	35.461
453.88	36.005
454.23	34.235
454.58	35.642
454.93	35.889
455.28	33.587
455.63	37.136
455.98	36.200
456.34	35.568
456.69	36.531
457.04	36.673
457.39	35.480
457.74	35.732
458.09	35.491
458.44	35.693
458.79	36.807
459.14	36.613
459.49	36.478
459.84	35.984
460.19	36.954
460.54	36.675
460.89	36.364
461.24	36.398
461.59	36.758
461.94	36.667
462.29	37.093
462.64	36.279
462.99	35.545
463.34	36.857
463.69	35.650
464.04	36.138
464.39	36.992
464.74	38.160
465.09	36.993
465.44	36.988
465.79	35.714
466.14	37.799
466.49	36.630
466.84	37.240
467.19	37.046
467.54	35.377
467.89	36.008
468.24	35.827
468.59	36.381
468.94	36.889
469.29	36.197
469.64	37.662
469.99	38.262
470.34	35.700
470.68	37.584
471.03	36.023
471.38	35.164
471.73	35.784
472.08	36.296
472.43	36.577
472.78	35.778
473.13	37.347
473.48	36.026
473.83	35.616
474.17	37.565
474.52	37.141
474.87	36.909
475.22	36.730
475.57	36.420
475.92	37.905
476.27	37.078
476.61	36.979
476.96	36.141
477.31	36.723
477.66	36.461
478.01	37.226
478.36	36.819
478.70	37.792
479.05	38.132
479.40	37.520
479.75	37.539
480.10	37.071
480.45	38.000
480.79	38.620
481.14	37.654
481.49	36.946
481.84	37.886
482.19	37.091
482.53	36.930
482.88	37.661
483.23	37.092
483.58	36.840
483.92	37.076
484.27	36.964
484.62	37.562
484.97	37.065
485.31	38.837
485.66	40.113
486.01	41.524
486.36	41.095
486.70	40.613
487.05	39.357
487.40	39.116
487.75	37.606
488.09	36.774
488.44	36.829
488.79	37.131
489.13	36.699
489.48	36.853
489.83	36.278
490.17	36.315
490.52	36.166
490.87	36.603
491.22	36.772
491.56	37.476
491.91	36.616
492.26	37.239
492.60	36.900
492.95	37.678
493.30	36.981
493.64	36.493
493.99	37.536
494.34	36.602
494.68	37.762
495.03	37.129
495.37	36.899
495.72	36.093
496.07	38.195
496.41	37.406
496.76	37.402
497.11	36.283
497.45	37.232
497.80	38.345
498.14	37.407
498.49	35.856
498.84	36.976
499.18	37.048
499.53	37.252
499.87	36.187
500.22	36.597
500.56	37.821
500.91	36.847
501.26	36.975
501.60	36.744
501.95	37.991
502.29	37.579
502.64	37.452
502.98	37.247
503.33	36.695
503.67	37.108
504.02	37.781
504.36	37.902
504.71	36.768
505.06	36.437
505.40	36.244
505.75	37.938
506.09	36.543
506.44	36.756
506.78	37.908
507.13	38.314
507.47	35.614
507.82	36.485
508.16	36.027
508.51	37.198
508.85	36.421
509.19	36.296
509.54	36.568
509.88	36.354
510.23	37.117
510.57	36.665
510.92	35.075
511.26	36.061
511.61	36.469
511.95	36.329
512.30	36.142
512.64	35.949
512.98	36.103
513.33	36.374
513.67	35.702
514.02	36.442
514.36	35.829
514.70	36.538
515.05	36.898
515.39	35.773
515.74	36.826
516.08	36.282
516.42	36.690
516.77	36.044
517.11	36.083
517.46	36.625
517.80	35.518
518.14	35.211
518.49	34.615
518.83	35.723
519.17	35.294
519.52	35.761
519.86	35.354
520.20	36.330
520.55	35.084
520.89	35.006
521.23	35.022
521.58	34.826
521.92	35.449
522.26	35.394
522.61	35.000
522.95	36.358
523.29	35.388
523.64	35.006
523.98	36.487
524.32	36.340
524.66	35.723
525.01	35.519
525.35	35.580
525.69	34.613
526.04	34.061
526.38	36.057
526.72	34.859
527.06	34.695
527.41	34.235
527.75	34.786
528.09	35.282
528.43	35.719
528.78	35.050
529.12	34.839
529.46	35.737
529.80	35.022
530.15	34.785
530.49	35.556
530.83	35.978
531.17	34.721
531.51	34.952
531.86	34.942
532.20	34.795
532.54	34.037
532.88	35.318
533.22	35.753
533.57	35.649
533.91	34.465
534.25	35.612
534.59	35.600
534.93	35.053
535.27	35.723
535.62	35.386
535.96	36.008
536.30	35.620
536.64	36.251
536.98	35.331
537.32	35.775
537.66	35.764
538.01	35.105
538.35	35.922
538.69	35.087
539.03	35.065
539.37	36.003
539.71	35.515
540.05	36.049
540.39	35.665
540.73	35.495
541.07	35.359
541.42	36.492
541.76	37.096
542.10	35.513
542.44	34.885
542.78	33.655
543.12	35.852
543.46	35.327
543.80	36.502
544.14	35.381
544.48	35.643
544.82	36.022
545.16	37.295
545.50	35.981
545.84	37.040
546.18	36.525
546.52	34.679
546.86	35.945
547.20	35.479
547.54	34.558
547.88	36.685
548.22	34.451
548.56	34.960
548.90	36.119
549.24	34.229
549.58	34.838
549.92	34.310
550.26	35.018
550.60	35.242
550.94	33.831
551.28	35.317
551.62	35.308
551.96	35.564
552.30	36.038
552.64	35.684
552.98	36.006
553.32	35.521
553.66	36.139
554.00	35.328
554.34	36.854
554.68	35.472
555.02	35.491
555.36	35.228
555.69	35.018
556.03	35.261
556.37	34.164
556.71	35.235
557.05	34.750
557.39	33.978
557.73	34.933
558.07	35.219
558.41	35.835
558.75	34.840
559.08	34.043
559.42	35.635
559.76	35.148
560.10	33.792
560.44	35.443
560.78	34.895
561.12	35.331
561.45	36.613
561.79	35.294
562.13	35.415
562.47	34.532
562.81	35.519
563.15	35.261
563.48	35.219
563.82	35.964
564.16	35.864
564.50	35.878
564.84	35.341
565.17	35.547
565.51	37.158
565.85	36.557
566.19	36.273
566.52	37.131
566.86	37.468
567.20	37.360
567.54	38.078
567.88	37.376
568.21	39.197
568.55	37.935
568.89	39.374
569.23	39.432
569.56	39.098
569.90	41.129
570.24	40.789
570.57	40.473
570.91	40.711
571.25	40.118
571.59	39.832
571.92	38.874
572.26	40.036
572.60	39.876
572.93	39.755
573.27	39.060
573.61	40.453
573.95	40.552
574.28	40.307
574.62	39.512
574.96	40.165
575.29	40.182
575.63	38.456
575.97	39.902
576.30	39.303
576.64	40.000
576.98	40.592
577.31	40.378
577.65	40.711
577.98	41.103
578.32	40.772
578.66	39.738
578.99	39.939
579.33	39.420
579.67	39.793
580.00	39.899
580.34	40.025
580.67	39.837
581.01	40.322
581.35	40.439
581.68	41.449
582.02	41.512
582.35	41.170
582.69	40.943
583.02	39.991
583.36	39.768
583.70	40.472
584.03	40.311
584.37	40.006
584.70	40.082
585.04	39.767
585.37	40.467
585.71	40.015
586.04	40.343
586.38	39.771
586.72	39.914
587.05	40.324
587.39	40.453
587.72	41.252
588.06	40.465
588.39	39.960
588.73	39.683
589.06	39.759
589.40	38.956
589.73	39.576
590.07	39.766
590.40	40.209
590.73	39.703
591.07	38.338
591.40	37.979
591.74	39.729
592.07	39.239
592.41	39.134
592.74	39.347
593.08	39.609
593.41	40.198
593.75	39.778
594.08	39.684
594.41	39.592
594.75	39.542
595.08	39.614
595.42	39.787
595.75	39.542
596.09	39.640
596.42	39.148
596.75	39.210
597.09	39.317
597.42	39.702
597.75	39.029
598.09	38.796
598.42	39.034
598.76	38.782
599.09	39.663
599.42	39.257
599.76	39.654
600.09	39.517
600.42	38.855
600.76	39.525
601.09	39.733
601.42	38.935
601.76	39.103
602.09	39.026
602.42	38.416
602.76	39.261
603.09	39.535
603.42	39.883
603.76	39.274
604.09	39.328
604.42	39.129
604.76	39.297
605.09	39.260
605.42	38.646
605.75	39.098
606.09	40.552
606.42	39.116
606.75	39.524
607.09	38.198
607.42	38.547
607.75	39.254
608.08	38.589
608.42	37.414
608.75	39.711
609.08	38.764
609.41	38.680
609.75	38.810
610.08	39.241
610.41	38.937
610.74	38.323
611.07	39.121
611.41	38.298
611.74	39.019
612.07	38.169
612.40	38.676
612.73	39.266
613.07	38.245
613.40	38.074
613.73	38.724
614.06	38.453
614.39	38.297
614.72	37.983
615.06	37.709
615.39	38.319
615.72	37.191
616.05	38.268
616.38	36.923
616.71	37.431
617.05	37.616
617.38	37.461
617.71	37.358
618.04	38.540
618.37	38.398
618.70	37.756
619.03	37.986
619.36	35.239
619.69	38.211
620.03	37.911
620.36	36.767
620.69	37.116
621.02	37.920
621.35	36.515
621.68	36.224
622.01	36.917
622.34	37.031
622.67	35.804
623.00	37.366
623.33	37.957
623.66	37.173
623.99	35.930
624.32	35.741
624.65	35.940
624.99	36.945
625.32	35.861
625.65	37.313
625.98	37.067
626.31	37.988
626.64	37.088
626.97	36.911
627.30	35.289
627.63	36.308
627.96	36.208
628.29	34.875
628.62	34.808
628.95	33.667
629.28	34.980
629.61	35.494
629.94	35.973
630.26	34.387
630.59	34.860
630.92	34.256
631.25	33.333
631.58	35.242
631.91	32.018
632.24	34.289
632.57	35.114
632.90	33.096
633.23	33.647
633.56	32.872
633.89	33.416
