SpectraSuite Data File
++++++++++++++++++++++++++++++++++++
Date: Fri May 15 17:28:27 PDT 2015
User: schluterlab
Dark Spectrum Present: Yes
Reference Spectrum Present: Yes
Number of Sampled Component Spectra: 1
Spectrometers: USB2E3373
Integration Time (usec): 3000 (USB2E3373)
Spectra Averaged: 3 (USB2E3373)
Boxcar Smoothing: 0 (USB2E3373)
Correct for Electrical Dark: No (USB2E3373)
Strobe/Lamp Enabled: No (USB2E3373)
Correct for Detector Non-linearity: No (USB2E3373)
Correct for Stray Light: No (USB2E3373)
Number of Pixels in Processed Spectrum: 2048
>>>>>Begin Processed Spectral Data<<<<<
178.53	0.000
178.91	0.000
179.29	150.000
179.67	-150.000
180.04	-128.571
180.42	150.000
180.80	-100.000
181.18	-133.333
181.56	-0.000
181.94	-350.000
182.31	100.000
182.69	20.000
183.07	33.333
183.45	200.000
183.83	66.667
184.20	-9.091
184.58	-0.000
184.96	-275.000
185.34	-66.667
185.72	-550.000
186.09	69.231
186.47	-800.000
186.85	183.333
187.23	-77.778
187.61	-1100.000
187.98	33.333
188.36	-44.444
188.74	-100.000
189.12	47.059
189.49	44.444
189.87	0.000
190.25	78.571
190.63	600.000
191.00	-66.667
191.38	-5.263
191.76	450.000
192.14	-125.000
192.51	-150.000
192.89	-44.444
193.27	-71.429
193.65	100.000
194.02	109.091
194.40	-10.000
194.78	-250.000
195.15	-58.333
195.53	-37.500
195.91	75.000
196.29	50.000
196.66	130.769
197.04	71.429
197.42	-11.111
197.79	-166.667
198.17	-23.077
198.55	500.000
198.92	-33.333
199.30	600.000
199.68	-60.000
200.05	0.000
200.43	0.000
200.81	466.667
201.18	33.333
201.56	500.000
201.94	-50.000
202.31	-400.000
202.69	-80.000
203.07	-125.000
203.44	-700.000
203.82	0.000
204.19	35.714
204.57	-633.333
204.95	62.500
205.32	50.000
205.70	28.571
206.08	0.000
206.45	188.889
206.83	64.286
207.20	-42.857
207.58	100.000
207.96	-133.333
208.33	10.000
208.71	0.000
209.08	-283.333
209.46	300.000
209.84	100.000
210.21	0.000
210.59	28.571
210.96	-100.000
211.34	225.000
211.71	33.333
212.09	-71.429
212.46	-1200.000
212.84	0.000
213.22	50.000
213.59	-0.000
213.97	69.231
214.34	45.455
214.72	-50.000
215.09	175.000
215.47	-46.154
215.84	-9.091
216.22	166.667
216.59	25.000
216.97	300.000
217.34	-100.000
217.72	-60.000
218.09	112.500
218.47	87.500
218.84	-400.000
219.22	-77.778
219.59	260.000
219.97	-0.000
220.34	-25.000
220.72	214.286
221.09	-25.000
221.47	400.000
221.84	-600.000
222.22	-600.000
222.59	36.364
222.97	-16.667
223.34	-33.333
223.72	21.429
224.09	95.238
224.46	17.857
224.84	-133.333
225.21	60.000
225.59	33.333
225.96	150.000
226.34	225.000
226.71	-14.286
227.08	66.667
227.46	-62.500
227.83	0.000
228.21	22.222
228.58	54.545
228.95	-50.000
229.33	140.000
229.70	56.250
230.08	0.000
230.45	-71.429
230.82	114.286
231.20	20.000
231.57	64.286
231.95	185.714
232.32	10.000
232.69	85.714
233.07	133.333
233.44	100.000
233.81	-50.000
234.19	55.556
234.56	52.941
234.93	250.000
235.31	0.000
235.68	-120.000
236.05	15.385
236.43	20.000
236.80	64.706
237.17	62.500
237.55	30.000
237.92	33.333
238.29	30.556
238.67	96.667
239.04	38.235
239.41	4.878
239.79	33.333
240.16	48.780
240.53	39.474
240.91	32.609
241.28	30.159
241.65	37.500
242.02	42.466
242.40	50.000
242.77	40.678
243.14	34.848
243.51	46.250
243.89	45.977
244.26	37.931
244.63	34.524
245.00	41.237
245.38	39.175
245.75	52.809
246.12	34.483
246.49	42.149
246.87	36.538
247.24	33.613
247.61	35.088
247.98	43.902
248.36	36.875
248.73	39.474
249.10	37.013
249.47	43.038
249.84	35.948
250.22	38.235
250.59	43.137
250.96	37.559
251.33	35.465
251.70	37.059
252.08	46.193
252.45	33.663
252.82	34.673
253.19	42.857
253.56	35.981
253.94	38.288
254.31	43.913
254.68	42.982
255.05	35.039
255.42	39.301
255.79	38.610
256.16	40.078
256.54	39.179
256.91	36.502
257.28	38.662
257.65	38.202
258.02	37.589
258.39	37.037
258.76	38.462
259.14	39.867
259.51	34.304
259.88	38.488
260.25	35.294
260.62	39.236
260.99	33.559
261.36	36.301
261.73	34.494
262.10	40.729
262.47	38.957
262.85	37.618
263.22	36.308
263.59	36.760
263.96	37.888
264.33	37.273
264.70	37.798
265.07	36.905
265.44	40.510
265.81	38.136
266.18	39.617
266.55	37.275
266.92	39.119
267.29	40.470
267.66	36.573
268.03	38.743
268.40	38.120
268.77	37.433
269.14	35.252
269.51	35.990
269.88	38.404
270.25	35.714
270.62	35.610
270.99	36.317
271.36	36.186
271.73	34.507
272.10	37.470
272.47	36.170
272.84	36.634
273.21	35.499
273.58	35.663
273.95	36.384
274.32	36.259
274.69	34.389
275.06	38.170
275.43	36.508
275.80	35.320
276.17	37.011
276.54	34.475
276.91	35.526
277.28	36.681
277.65	34.504
278.02	31.915
278.39	35.011
278.76	32.914
279.13	32.365
279.50	36.555
279.87	37.365
280.23	36.559
280.60	35.283
280.97	37.576
281.34	33.462
281.71	37.166
282.08	31.902
282.45	34.442
282.82	35.328
283.19	32.689
283.56	37.380
283.92	34.156
284.29	33.269
284.66	31.202
285.03	36.739
285.40	32.325
285.77	31.986
286.14	32.671
286.51	33.210
286.87	30.713
287.24	32.597
287.61	34.392
287.98	33.684
288.35	32.236
288.72	30.998
289.08	31.250
289.45	31.107
289.82	34.091
290.19	31.570
290.56	34.477
290.93	30.471
291.29	28.351
291.66	31.024
292.03	31.260
292.40	31.129
292.77	28.868
293.13	30.519
293.50	28.983
293.87	28.397
294.24	26.739
294.60	28.912
294.97	29.911
295.34	30.982
295.71	28.763
296.08	27.653
296.44	25.462
296.81	27.222
297.18	30.435
297.55	29.675
297.91	28.356
298.28	27.441
298.65	25.237
299.02	26.954
299.38	25.034
299.75	27.862
300.12	26.178
300.48	27.536
300.85	27.503
301.22	27.532
301.59	26.316
301.95	26.962
302.32	28.923
302.69	26.244
303.05	26.980
303.42	26.650
303.79	26.285
304.15	27.001
304.52	25.089
304.89	25.965
305.25	26.634
305.62	26.021
305.99	27.485
306.35	26.474
306.72	26.434
307.09	27.480
307.45	27.210
307.82	26.505
308.19	28.223
308.55	27.154
308.92	29.194
309.29	27.151
309.65	27.772
310.02	28.933
310.38	27.552
310.75	28.743
311.12	28.633
311.48	28.632
311.85	27.435
312.22	28.376
312.58	30.255
312.95	29.883
313.31	29.400
313.68	30.785
314.05	30.510
314.41	33.402
314.78	32.577
315.14	32.271
315.51	32.712
315.87	32.172
316.24	33.266
316.61	34.154
316.97	34.325
317.34	34.277
317.70	33.843
318.07	33.750
318.43	35.490
318.80	35.606
319.16	36.719
319.53	37.607
319.89	38.189
320.26	37.955
320.62	39.819
320.99	38.518
321.35	39.877
321.72	40.914
322.08	42.900
322.45	41.117
322.81	41.061
323.18	41.413
323.54	43.243
323.91	43.622
324.27	45.898
324.64	46.910
325.00	47.719
325.37	50.321
325.73	48.413
326.10	52.225
326.46	51.839
326.83	52.668
327.19	52.572
327.56	55.083
327.92	55.546
328.29	54.464
328.65	58.019
329.01	58.180
329.38	59.539
329.74	59.396
330.11	61.538
330.47	61.039
330.84	62.981
331.20	64.924
331.56	62.685
331.93	63.653
332.29	65.628
332.66	64.615
333.02	65.056
333.38	62.695
333.75	67.308
334.11	63.921
334.48	66.546
334.84	66.117
335.20	65.965
335.57	66.455
335.93	66.125
336.29	66.022
336.66	66.667
337.02	67.565
337.38	67.315
337.75	67.455
338.11	67.087
338.47	67.974
338.84	68.115
339.20	68.007
339.56	69.450
339.93	67.234
340.29	67.615
340.65	67.832
341.02	67.287
341.38	67.345
341.74	67.668
342.11	67.244
342.47	68.060
342.83	69.637
343.20	68.467
343.56	70.261
343.92	68.822
344.28	68.403
344.65	67.962
345.01	67.502
345.37	67.283
345.73	68.954
346.10	69.888
346.46	66.022
346.82	67.185
347.19	68.329
347.55	69.591
347.91	68.447
348.27	68.230
348.63	71.039
349.00	68.253
349.36	70.490
349.72	69.983
350.08	69.426
350.45	69.034
350.81	69.601
351.17	68.730
351.53	69.796
351.89	67.217
352.26	67.600
352.62	70.161
352.98	68.353
353.34	69.646
353.70	70.307
354.07	69.355
354.43	69.015
354.79	70.355
355.15	69.444
355.51	70.411
355.87	70.307
356.24	69.168
356.60	71.382
356.96	72.063
357.32	72.444
357.68	70.524
358.04	73.829
358.40	70.740
358.77	73.206
359.13	72.298
359.49	71.495
359.85	72.309
360.21	71.930
360.57	71.538
360.93	72.163
361.29	72.205
361.66	74.451
362.02	73.561
362.38	73.648
362.74	74.111
363.10	74.191
363.46	75.389
363.82	74.756
364.18	75.055
364.54	73.456
364.90	74.910
365.26	75.691
365.62	76.569
365.98	76.906
366.35	77.349
366.71	77.901
367.07	76.633
367.43	77.714
367.79	76.537
368.15	76.813
368.51	78.296
368.87	77.961
369.23	76.173
369.59	78.790
369.95	79.106
370.31	78.757
370.67	78.433
371.03	78.715
371.39	79.504
371.75	79.487
372.11	78.388
372.47	80.178
372.83	79.986
373.19	79.601
373.55	80.217
373.91	80.490
374.27	83.629
374.63	82.053
374.99	82.199
375.35	82.521
375.71	83.706
376.07	84.621
376.42	82.925
376.78	84.362
377.14	84.496
377.50	84.794
377.86	84.605
378.22	83.408
378.58	86.603
378.94	85.759
379.30	85.402
379.66	86.144
380.02	86.941
380.38	85.819
380.74	87.014
381.09	89.080
381.45	89.174
381.81	88.649
382.17	89.911
382.53	87.570
382.89	91.337
383.25	90.790
383.61	90.671
383.97	90.349
384.32	89.493
384.68	89.969
385.04	91.115
385.40	90.915
385.76	94.340
386.12	92.885
386.48	94.891
386.83	94.293
387.19	92.186
387.55	96.173
387.91	94.560
388.27	93.284
388.62	95.280
388.98	93.984
389.34	93.004
389.70	95.649
390.06	93.518
390.42	95.596
390.77	96.272
391.13	94.010
391.49	96.701
391.85	97.011
392.20	95.731
392.56	98.284
392.92	97.651
393.28	98.585
393.64	96.096
393.99	98.182
394.35	98.482
394.71	98.914
395.07	96.732
395.42	97.996
395.78	98.762
396.14	97.289
396.50	100.063
396.85	99.163
397.21	97.243
397.57	97.618
397.92	98.682
398.28	100.690
398.64	96.988
399.00	99.436
399.35	97.799
399.71	98.277
400.07	100.302
400.42	98.042
400.78	99.326
401.14	98.609
401.49	99.702
401.85	98.781
402.21	98.976
402.57	100.375
402.92	98.432
403.28	99.499
403.63	99.937
403.99	101.339
404.35	99.438
404.70	96.071
405.06	98.296
405.42	98.011
405.77	99.361
406.13	100.757
406.49	97.928
406.84	101.284
407.20	101.686
407.55	100.773
407.91	99.733
408.27	99.936
408.62	100.923
408.98	97.905
409.34	100.743
409.69	99.742
410.05	99.015
410.40	98.889
410.76	99.759
411.11	99.000
411.47	98.159
411.83	99.686
412.18	101.995
412.54	100.499
412.89	98.768
413.25	99.519
413.60	100.621
413.96	97.791
414.31	98.354
414.67	98.589
415.03	99.601
415.38	99.282
415.74	101.433
416.09	101.633
416.45	100.810
416.80	101.652
417.16	103.039
417.51	102.465
417.87	99.544
418.22	102.720
418.58	103.211
418.93	102.320
419.29	98.784
419.64	101.167
420.00	105.730
420.35	101.970
420.71	102.795
421.06	103.745
421.42	104.688
421.77	103.237
422.12	102.781
422.48	103.682
422.83	103.596
423.19	104.910
423.54	103.292
423.90	103.769
424.25	104.822
424.61	104.835
424.96	104.007
425.31	106.644
425.67	104.812
426.02	106.007
426.38	109.205
426.73	107.809
427.09	107.911
427.44	106.294
427.79	106.600
428.15	106.917
428.50	106.844
428.85	106.757
429.21	107.583
429.56	109.919
429.92	107.036
430.27	108.020
430.62	108.521
430.98	108.599
431.33	109.411
431.68	107.117
432.04	108.552
432.39	106.845
432.74	107.096
433.10	108.851
433.45	110.454
433.80	111.259
434.16	110.748
434.51	111.075
434.86	112.311
435.22	110.937
435.57	113.100
435.92	110.000
436.28	112.165
436.63	109.184
436.98	110.603
437.34	110.708
437.69	110.912
438.04	111.282
438.39	110.507
438.75	113.358
439.10	110.866
439.45	112.051
439.81	110.948
440.16	112.411
440.51	111.582
440.86	114.320
441.22	111.199
441.57	113.962
441.92	114.166
442.27	115.466
442.63	112.955
442.98	113.670
443.33	112.966
443.68	114.271
444.03	113.512
444.39	111.264
444.74	114.548
445.09	113.252
445.44	114.701
445.79	113.925
446.15	112.225
446.50	112.257
446.85	113.656
447.20	112.304
447.55	113.728
447.91	114.270
448.26	113.261
448.61	112.723
448.96	114.286
449.31	113.642
449.66	112.950
450.02	113.120
450.37	114.641
450.72	113.574
451.07	114.177
451.42	111.673
451.77	112.719
452.12	111.364
452.47	113.329
452.83	112.721
453.18	112.397
453.53	112.769
453.88	112.386
454.23	112.047
454.58	114.673
454.93	112.242
455.28	112.381
455.63	114.073
455.98	112.508
456.34	111.686
456.69	114.740
457.04	110.460
457.39	112.576
457.74	113.543
458.09	109.712
458.44	113.341
458.79	112.269
459.14	113.272
459.49	115.343
459.84	111.957
460.19	112.682
460.54	112.836
460.89	113.693
461.24	111.801
461.59	112.352
461.94	111.635
462.29	111.339
462.64	112.757
462.99	110.968
463.34	112.031
463.69	110.940
464.04	111.077
464.39	112.068
464.74	110.000
465.09	112.102
465.44	111.829
465.79	110.658
466.14	112.657
466.49	111.386
466.84	110.886
467.19	111.264
467.54	109.515
467.89	112.066
468.24	110.158
468.59	110.921
468.94	110.730
469.29	109.246
469.64	108.817
469.99	111.352
470.34	108.328
470.68	111.409
471.03	109.200
471.38	110.128
471.73	108.754
472.08	108.141
472.43	108.591
472.78	108.568
473.13	108.980
473.48	107.622
473.83	108.095
474.17	110.687
474.52	108.551
474.87	108.970
475.22	110.433
475.57	108.865
475.92	109.874
476.27	110.361
476.61	109.433
476.96	105.912
477.31	108.545
477.66	107.528
478.01	110.275
478.36	108.878
478.70	108.809
479.05	107.198
479.40	108.585
479.75	106.934
480.10	108.039
480.45	108.500
480.79	110.524
481.14	111.270
481.49	107.488
481.84	109.990
482.19	108.653
482.53	109.976
482.88	105.823
483.23	107.534
483.58	106.509
483.92	106.486
484.27	107.019
484.62	107.082
484.97	106.426
485.31	108.237
485.66	111.016
486.01	114.398
486.36	113.938
486.70	111.946
487.05	111.503
487.40	109.049
487.75	108.366
488.09	104.666
488.44	103.267
488.79	103.213
489.13	104.087
489.48	105.173
489.83	106.771
490.17	104.539
490.52	104.527
490.87	103.517
491.22	105.396
491.56	105.028
491.91	103.681
492.26	105.882
492.60	103.167
492.95	106.050
493.30	102.736
493.64	106.385
493.99	104.106
494.34	104.806
494.68	104.667
495.03	103.698
495.37	104.661
495.72	104.392
496.07	104.146
496.41	105.519
496.76	104.883
497.11	103.447
497.45	104.296
497.80	104.995
498.14	102.186
498.49	102.387
498.84	101.198
499.18	103.665
499.53	103.522
499.87	103.551
500.22	103.116
500.56	104.034
500.91	102.159
501.26	103.065
501.60	104.673
501.95	103.154
502.29	104.310
502.64	103.958
502.98	104.243
503.33	103.218
503.67	101.494
504.02	103.324
504.36	103.513
504.71	101.465
505.06	100.403
505.40	102.538
505.75	103.402
506.09	101.166
506.44	102.156
506.78	102.398
507.13	102.223
507.47	100.418
507.82	101.656
508.16	100.845
508.51	101.994
508.85	101.570
509.19	102.555
509.54	100.536
509.88	100.270
510.23	101.076
510.57	100.855
510.92	98.667
511.26	100.382
511.61	101.155
511.95	100.110
512.30	99.723
512.64	98.553
512.98	98.709
513.33	100.839
513.67	100.284
514.02	101.030
514.36	100.800
514.70	101.224
515.05	100.059
515.39	99.941
515.74	101.078
516.08	100.478
516.42	101.001
516.77	99.239
517.11	101.068
517.46	99.761
517.80	98.033
518.14	98.408
518.49	98.017
518.83	99.392
519.17	97.271
519.52	97.928
519.86	97.419
520.20	98.420
520.55	97.186
520.89	97.428
521.23	97.467
521.58	97.603
521.92	97.885
522.26	97.788
522.61	96.104
522.95	99.007
523.29	96.442
523.64	97.078
523.98	98.898
524.32	96.843
524.66	96.095
525.01	97.922
525.35	96.954
525.69	97.643
526.04	95.833
526.38	97.276
526.72	95.226
527.06	96.239
527.41	95.712
527.75	97.118
528.09	93.953
528.43	98.650
528.78	97.096
529.12	96.065
529.46	98.181
529.80	96.327
530.15	97.492
530.49	96.229
530.83	96.238
531.17	94.291
531.51	96.170
531.86	93.882
532.20	95.338
532.54	95.507
532.88	96.783
533.22	96.640
533.57	96.003
533.91	96.932
534.25	98.242
534.59	97.242
534.93	95.846
535.27	94.416
535.62	96.630
535.96	95.369
536.30	95.646
536.64	95.176
536.98	93.380
537.32	96.728
537.66	95.161
538.01	96.503
538.35	95.631
538.69	95.539
539.03	95.147
539.37	95.626
539.71	95.433
540.05	95.180
540.39	95.637
540.73	96.722
541.07	96.064
541.42	94.691
541.76	96.490
542.10	95.664
542.44	98.054
542.78	94.632
543.12	94.849
543.46	96.314
543.80	97.294
544.14	94.126
544.48	96.003
544.82	97.129
545.16	97.336
545.50	93.391
545.84	95.680
546.18	96.241
546.52	95.314
546.86	95.902
547.20	95.565
547.54	92.367
547.88	96.671
548.22	94.609
548.56	94.261
548.90	97.102
549.24	94.215
549.58	92.454
549.92	92.137
550.26	92.454
550.60	93.606
550.94	93.801
551.28	92.890
551.62	95.462
551.96	94.737
552.30	94.664
552.64	96.403
552.98	94.163
553.32	94.864
553.66	94.049
554.00	95.620
554.34	95.421
554.68	92.404
555.02	93.973
555.36	94.465
555.69	93.846
556.03	94.647
556.37	92.954
556.71	93.357
557.05	94.780
557.39	92.416
557.73	94.903
558.07	94.419
558.41	94.564
558.75	93.920
559.08	93.144
559.42	92.857
559.76	94.155
560.10	94.266
560.44	93.299
560.78	93.497
561.12	95.063
561.45	95.432
561.79	94.818
562.13	94.109
562.47	95.396
562.81	93.300
563.15	93.300
563.48	93.140
563.82	94.235
564.16	96.797
564.50	93.986
564.84	93.976
565.17	94.567
565.51	98.224
565.85	98.080
566.19	95.889
566.52	97.520
566.86	96.401
567.20	96.700
567.54	98.905
567.88	98.653
568.21	99.887
568.55	98.261
568.89	101.643
569.23	101.926
569.56	102.583
569.90	103.898
570.24	101.898
570.57	103.673
570.91	104.671
571.25	101.644
571.59	102.460
571.92	100.533
572.26	102.023
572.60	100.465
572.93	98.431
573.27	101.223
573.61	101.521
573.95	101.939
574.28	102.013
574.62	100.636
574.96	101.296
575.29	100.530
575.63	98.523
575.97	99.512
576.30	101.096
576.64	100.768
576.98	102.342
577.31	103.072
577.65	103.532
577.98	103.381
578.32	102.294
578.66	100.645
578.99	99.953
579.33	98.926
579.67	98.234
580.00	100.911
580.34	101.169
580.67	100.074
581.01	100.744
581.35	101.809
581.68	103.995
582.02	104.588
582.35	102.544
582.69	103.448
583.02	101.474
583.36	101.112
583.70	101.532
584.03	101.112
584.37	100.706
584.70	101.044
585.04	100.544
585.37	101.474
585.71	102.567
586.04	101.916
586.38	101.120
586.72	101.779
587.05	102.397
587.39	102.628
587.72	103.964
588.06	101.467
588.39	100.627
588.73	101.496
589.06	102.250
589.40	101.072
589.73	100.548
590.07	100.982
590.40	99.613
590.73	100.577
591.07	98.601
591.40	98.931
591.74	99.186
592.07	99.490
592.41	101.458
592.74	101.513
593.08	101.083
593.41	102.998
593.75	103.402
594.08	101.510
594.41	101.019
594.75	100.725
595.08	101.513
595.42	101.472
595.75	101.840
596.09	101.446
596.42	99.917
596.75	98.801
597.09	99.180
597.42	100.000
597.75	101.466
598.09	98.053
598.42	98.105
598.76	99.957
599.09	102.083
599.42	101.061
599.76	100.451
600.09	100.754
600.42	100.341
600.76	100.371
601.09	101.260
601.42	100.118
601.76	100.159
602.09	99.959
602.42	100.505
602.76	99.236
603.09	101.163
603.42	104.264
603.76	100.968
604.09	100.567
604.42	100.550
604.76	101.202
605.09	100.686
605.42	99.007
605.75	99.475
606.09	101.062
606.42	100.125
606.75	99.957
607.09	99.692
607.42	99.557
607.75	99.156
608.08	97.799
608.42	97.350
608.75	99.518
609.08	99.552
609.41	99.848
609.75	97.984
610.08	100.250
610.41	97.874
610.74	99.659
611.07	99.742
611.41	97.405
611.74	100.320
612.07	97.645
612.40	100.055
612.73	99.661
613.07	97.807
613.40	98.249
613.73	100.000
614.06	98.887
614.39	98.985
614.72	97.087
615.06	98.659
615.39	97.107
615.72	98.009
616.05	97.877
616.38	95.783
616.71	96.820
617.05	96.109
617.38	96.857
617.71	97.421
618.04	100.127
618.37	98.487
618.70	97.096
619.03	97.500
619.36	95.514
619.69	97.650
620.03	97.443
620.36	96.423
620.69	96.360
621.02	95.183
621.35	96.763
621.68	95.833
622.01	95.500
622.34	93.775
622.67	94.322
623.00	92.496
623.33	97.485
623.66	97.831
623.99	96.293
624.32	96.046
624.65	96.917
624.99	97.442
625.32	98.105
