SpectraSuite Data File
++++++++++++++++++++++++++++++++++++
Date: Fri May 15 17:11:31 PDT 2015
User: schluterlab
Dark Spectrum Present: Yes
Reference Spectrum Present: Yes
Number of Sampled Component Spectra: 1
Spectrometers: USB2E3373
Integration Time (usec): 3000 (USB2E3373)
Spectra Averaged: 3 (USB2E3373)
Boxcar Smoothing: 0 (USB2E3373)
Correct for Electrical Dark: No (USB2E3373)
Strobe/Lamp Enabled: No (USB2E3373)
Correct for Detector Non-linearity: No (USB2E3373)
Correct for Stray Light: No (USB2E3373)
Number of Pixels in Processed Spectrum: 2048
>>>>>Begin Processed Spectral Data<<<<<
178.53	0.000
178.91	0.000
179.29	125.000
179.67	-250.000
180.04	14.286
180.42	275.000
180.80	1000.000
181.18	-66.667
181.56	-150.000
181.94	300.000
182.31	-200.000
182.69	-40.000
183.07	100.000
183.45	80.000
183.83	100.000
184.20	-27.273
184.58	66.667
184.96	-325.000
185.34	-300.000
185.72	-400.000
186.09	7.692
186.47	-800.000
186.85	83.333
187.23	155.556
187.61	-700.000
187.98	133.333
188.36	133.333
188.74	233.333
189.12	82.353
189.49	44.444
189.87	0.000
190.25	85.714
190.63	300.000
191.00	-100.000
191.38	47.368
191.76	450.000
192.14	-0.000
192.51	450.000
192.89	44.444
193.27	-57.143
193.65	166.667
194.02	118.182
194.40	50.000
194.78	75.000
195.15	-41.667
195.53	-62.500
195.91	50.000
196.29	-225.000
196.66	53.846
197.04	-85.714
197.42	-11.111
197.79	-66.667
198.17	-100.000
198.55	500.000
198.92	-33.333
199.30	-100.000
199.68	160.000
200.05	-100.000
200.43	0.000
200.81	333.333
201.18	-200.000
201.56	700.000
201.94	-300.000
202.31	-66.667
202.69	-220.000
203.07	50.000
203.44	700.000
203.82	0.000
204.19	50.000
204.57	-33.333
204.95	25.000
205.32	-50.000
205.70	-28.571
206.08	125.000
206.45	211.111
206.83	78.571
207.20	-71.429
207.58	200.000
207.96	-200.000
208.33	10.000
208.71	-25.000
209.08	-100.000
209.46	400.000
209.84	100.000
210.21	400.000
210.59	128.571
210.96	-16.667
211.34	-25.000
211.71	126.667
212.09	-85.714
212.46	-1200.000
212.84	0.000
213.22	40.000
213.59	-200.000
213.97	46.154
214.34	72.727
214.72	-66.667
215.09	375.000
215.47	7.692
215.84	72.727
216.22	466.667
216.59	137.500
216.97	450.000
217.34	200.000
217.72	140.000
218.09	12.500
218.47	50.000
218.84	600.000
219.22	66.667
219.59	-60.000
219.97	33.333
220.34	-0.000
220.72	-42.857
221.09	50.000
221.47	-50.000
221.84	-350.000
222.22	-300.000
222.59	81.818
222.97	108.333
223.34	133.333
223.72	57.143
224.09	80.952
224.46	64.286
224.84	133.333
225.21	130.000
225.59	60.000
225.96	-250.000
226.34	-0.000
226.71	100.000
227.08	83.333
227.46	-25.000
227.83	-400.000
228.21	77.778
228.58	145.455
228.95	0.000
229.33	110.000
229.70	81.250
230.08	25.000
230.45	14.286
230.82	100.000
231.20	-46.667
231.57	78.571
231.95	0.000
232.32	-120.000
232.69	114.286
233.07	533.333
233.44	40.000
233.81	30.000
234.19	122.222
234.56	-5.882
234.93	350.000
235.31	200.000
235.68	-180.000
236.05	-38.462
236.43	30.000
236.80	64.706
237.17	28.125
237.55	5.000
237.92	-18.519
238.29	8.333
238.67	36.667
239.04	5.882
239.41	7.317
239.79	16.667
240.16	29.268
240.53	-13.158
240.91	-8.696
241.28	22.222
241.65	5.357
242.02	12.329
242.40	15.000
242.77	8.475
243.14	6.061
243.51	12.500
243.89	10.345
244.26	2.299
244.63	9.524
245.00	5.155
245.38	7.216
245.75	-5.618
246.12	4.310
246.49	4.959
246.87	8.654
247.24	5.042
247.61	-5.263
247.98	4.878
248.36	5.000
248.73	1.974
249.10	-4.545
249.47	4.430
249.84	-0.654
250.22	5.882
250.59	2.614
250.96	7.981
251.33	4.070
251.70	6.471
252.08	4.061
252.45	3.465
252.82	3.015
253.19	8.295
253.56	-3.738
253.94	2.252
254.31	7.391
254.68	-0.439
255.05	2.756
255.42	6.987
255.79	4.633
256.16	5.058
256.54	8.582
256.91	3.422
257.28	4.461
257.65	1.873
258.02	2.128
258.39	6.397
258.76	4.029
259.14	4.983
259.51	4.531
259.88	7.560
260.25	1.961
260.62	4.167
260.99	2.034
261.36	-0.685
261.73	5.696
262.10	2.736
262.47	3.681
262.85	0.940
263.22	5.231
263.59	3.427
263.96	6.211
264.33	4.242
264.70	1.190
265.07	2.976
265.44	2.550
265.81	1.130
266.18	3.552
266.55	7.455
266.92	3.109
267.29	4.961
267.66	3.325
268.03	1.571
268.40	1.305
268.77	5.080
269.14	4.077
269.51	5.656
269.88	1.746
270.25	0.510
270.62	3.171
270.99	0.767
271.36	3.178
271.73	4.930
272.10	3.650
272.47	5.674
272.84	3.960
273.21	4.640
273.58	2.169
273.95	5.721
274.32	2.079
274.69	3.394
275.06	4.688
275.43	4.082
275.80	3.311
276.17	2.759
276.54	5.353
276.91	3.289
277.28	3.057
277.65	5.992
278.02	4.255
278.39	2.407
278.76	4.403
279.13	-1.452
279.50	2.521
279.87	3.024
280.23	0.860
280.60	3.509
280.97	3.434
281.34	2.692
281.71	4.723
282.08	0.818
282.45	3.131
282.82	4.054
283.19	4.062
283.56	5.010
283.92	2.277
284.29	3.846
284.66	3.101
285.03	2.947
285.40	2.836
285.77	2.109
286.14	3.610
286.51	4.428
286.87	1.280
287.24	1.105
287.61	3.175
287.98	4.912
288.35	3.986
288.72	5.254
289.08	2.257
289.45	2.812
289.82	5.070
290.19	1.536
290.56	1.715
290.93	2.862
291.29	1.695
291.66	4.724
292.03	3.030
292.40	1.613
292.77	2.073
293.13	-1.786
293.50	1.669
293.87	3.511
294.24	2.318
294.60	3.130
294.97	5.208
295.34	0.767
295.71	2.235
296.08	2.242
296.44	1.422
296.81	3.472
297.18	3.333
297.55	3.930
297.91	0.822
298.28	5.013
298.65	2.849
299.02	2.561
299.38	0.547
299.75	3.034
300.12	2.749
300.48	0.791
300.85	4.436
301.22	1.688
301.59	2.237
301.95	4.430
302.32	4.280
302.69	3.358
303.05	2.228
303.42	2.491
303.79	3.037
304.15	3.465
304.52	2.021
304.89	2.222
305.25	3.511
305.62	1.634
305.99	1.754
306.35	2.890
306.72	2.250
307.09	1.482
307.45	4.133
307.82	0.810
308.19	2.555
308.55	2.508
308.92	3.159
309.29	0.670
309.65	2.260
310.02	2.090
310.38	3.513
310.75	2.623
311.12	1.938
311.48	0.954
311.85	1.571
312.22	2.637
312.58	1.911
312.95	2.455
313.31	2.174
313.68	2.618
314.05	3.061
314.41	3.093
314.78	3.093
315.14	2.364
315.51	3.520
315.87	1.844
316.24	4.348
316.61	4.429
316.97	3.968
317.34	2.832
317.70	4.493
318.07	4.808
318.43	3.922
318.80	3.598
319.16	4.980
319.53	4.274
319.89	3.248
320.26	4.656
320.62	4.814
320.99	4.071
321.35	4.111
321.72	5.919
322.08	4.935
322.45	5.888
322.81	5.599
323.18	5.496
323.54	5.792
323.91	6.037
324.27	7.129
324.64	7.303
325.00	7.299
325.37	7.530
325.73	6.709
326.10	8.629
326.46	9.507
326.83	9.886
327.19	10.462
327.56	9.818
327.92	10.915
328.29	10.000
328.65	10.943
329.01	12.132
329.38	12.442
329.74	12.370
330.11	14.272
330.47	12.152
330.84	13.365
331.20	15.494
331.56	15.370
331.93	16.073
332.29	15.857
332.66	15.294
333.02	16.729
333.38	15.399
333.75	17.766
334.11	15.756
334.48	18.314
334.84	18.132
335.20	17.475
335.57	17.679
335.93	19.061
336.29	19.521
336.66	19.164
337.02	18.030
337.38	18.704
337.75	19.000
338.11	18.936
338.47	19.891
338.84	19.778
339.20	19.470
339.56	19.358
339.93	19.248
340.29	20.642
340.65	19.534
341.02	20.390
341.38	19.646
341.74	19.346
342.11	18.284
342.47	19.217
342.83	19.464
343.20	19.948
343.56	19.826
343.92	19.398
344.28	20.922
344.65	20.380
345.01	19.360
345.37	19.849
345.73	20.586
346.10	20.449
346.46	20.017
346.82	18.985
347.19	18.121
347.55	20.134
347.91	19.660
348.27	19.644
348.63	19.847
349.00	19.934
349.36	19.701
349.72	20.149
350.08	19.754
350.45	20.431
350.81	20.349
351.17	19.300
351.53	20.000
351.89	18.580
352.26	19.440
352.62	19.032
352.98	19.277
353.34	18.680
353.70	19.256
354.07	19.113
354.43	20.176
354.79	18.662
355.15	20.952
355.51	19.937
355.87	19.094
356.24	18.189
356.60	19.321
356.96	19.048
357.32	19.489
357.68	18.843
358.04	20.113
358.40	19.775
358.77	19.856
359.13	18.895
359.49	18.567
359.85	20.203
360.21	20.415
360.57	20.122
360.93	19.213
361.29	19.486
361.66	19.828
362.02	20.758
362.38	20.868
362.74	19.909
363.10	20.316
363.46	20.015
363.82	21.713
364.18	19.926
364.54	19.118
364.90	19.642
365.26	20.233
365.62	21.971
365.98	19.868
366.35	21.267
366.71	20.251
367.07	20.900
367.43	19.482
367.79	19.859
368.15	20.675
368.51	20.539
368.87	19.742
369.23	20.000
369.59	20.554
369.95	20.161
370.31	21.171
370.67	20.448
371.03	20.762
371.39	19.475
371.75	20.659
372.11	20.613
372.47	20.414
372.83	20.440
373.19	20.399
373.55	20.433
373.91	20.086
374.27	20.907
374.63	20.675
374.99	21.206
375.35	20.543
375.71	20.559
376.07	21.278
376.42	20.612
376.78	21.208
377.14	21.259
377.50	21.381
377.86	21.486
378.22	21.059
378.58	21.859
378.94	20.857
379.30	21.772
379.66	22.006
380.02	21.337
380.38	20.633
380.74	21.364
381.09	21.963
381.45	21.346
381.81	21.407
382.17	21.764
382.53	21.174
382.89	22.034
383.25	22.215
383.61	22.439
383.97	21.333
384.32	22.389
384.68	21.238
385.04	20.956
385.40	21.220
385.76	22.956
386.12	22.639
386.48	22.158
386.83	21.877
387.19	22.711
387.55	22.146
387.91	21.699
388.27	21.429
388.62	22.152
388.98	22.161
389.34	22.486
389.70	23.306
390.06	21.775
390.42	21.762
390.77	21.844
391.13	20.996
391.49	22.057
391.85	21.637
392.20	22.473
392.56	21.043
392.92	22.196
393.28	21.757
393.64	21.862
393.99	22.821
394.35	22.517
394.71	22.031
395.07	22.376
395.42	21.433
395.78	22.476
396.14	22.131
396.50	22.257
396.85	22.022
397.21	21.617
397.57	20.439
397.92	22.169
398.28	21.724
398.64	22.108
399.00	22.122
399.35	20.824
399.71	22.056
400.07	21.100
400.42	21.053
400.78	22.107
401.14	21.839
401.49	21.382
401.85	22.121
402.21	21.566
402.57	21.875
402.92	20.263
403.28	21.115
403.63	21.879
403.99	21.173
404.35	21.549
404.70	21.131
405.06	21.269
405.42	20.510
405.77	19.582
406.13	20.780
406.49	20.663
406.84	21.210
407.20	20.108
407.55	20.541
407.91	19.920
408.27	20.076
408.62	20.677
408.98	21.442
409.34	20.570
409.69	20.995
410.05	20.382
410.40	21.296
410.76	20.326
411.11	20.875
411.47	20.644
411.83	20.213
412.18	20.721
412.54	19.788
412.89	19.581
413.25	20.698
413.60	19.814
413.96	20.123
414.31	22.256
414.67	20.398
415.03	20.639
415.38	20.496
415.74	21.694
416.09	20.444
416.45	20.797
416.80	19.762
417.16	20.718
417.51	21.519
417.87	20.469
418.22	21.244
418.58	20.468
418.93	21.442
419.29	19.974
419.64	20.804
420.00	22.481
420.35	21.791
420.71	21.507
421.06	21.547
421.42	21.995
421.77	21.965
422.12	21.510
422.48	21.169
422.83	21.694
423.19	21.727
423.54	21.928
423.90	22.026
424.25	22.101
424.61	22.766
424.96	22.416
425.31	23.975
425.67	23.005
426.02	22.792
426.38	23.106
426.73	23.729
427.09	22.848
427.44	22.882
427.79	23.512
428.15	23.604
428.50	23.198
428.85	22.789
429.21	24.788
429.56	23.558
429.92	24.345
430.27	22.857
430.62	23.523
430.98	23.673
431.33	25.026
431.68	24.123
432.04	25.042
432.39	24.130
432.74	24.354
433.10	25.517
433.45	24.791
433.80	25.363
434.16	25.208
434.51	24.892
434.86	25.726
435.22	25.463
435.57	24.953
435.92	25.389
436.28	25.462
436.63	25.442
436.98	25.782
437.34	26.316
437.69	27.490
438.04	26.610
438.39	26.206
438.75	27.140
439.10	27.108
439.45	27.632
439.81	26.972
440.16	26.722
440.51	27.284
440.86	29.426
441.22	26.471
441.57	27.483
441.92	28.489
442.27	28.049
442.63	28.051
442.98	28.662
443.33	28.381
443.68	28.382
444.03	28.763
444.39	27.841
444.74	29.599
445.09	29.733
445.44	28.604
445.79	30.067
446.15	29.130
446.50	28.785
446.85	30.287
447.20	28.989
447.55	29.520
447.91	29.667
448.26	29.767
448.61	29.476
448.96	30.350
449.31	29.711
449.66	29.384
450.02	30.234
450.37	30.172
450.72	30.584
451.07	31.076
451.42	30.524
451.77	30.199
452.12	30.024
452.47	29.749
452.83	29.682
453.18	30.550
453.53	32.174
453.88	30.965
454.23	30.240
454.58	31.423
454.93	31.508
455.28	30.921
455.63	31.184
455.98	31.389
456.34	31.609
456.69	31.449
457.04	31.947
457.39	31.349
457.74	33.011
458.09	31.901
458.44	32.358
458.79	31.092
459.14	33.410
459.49	33.134
459.84	32.939
460.19	32.464
460.54	33.252
460.89	32.386
461.24	32.422
461.59	33.432
461.94	31.258
462.29	33.896
462.64	32.890
462.99	32.498
463.34	33.032
463.69	31.982
464.04	32.748
464.39	33.717
464.74	32.761
465.09	34.685
465.44	33.699
465.79	33.220
466.14	33.865
466.49	33.065
466.84	34.146
467.19	33.229
467.54	34.419
467.89	33.228
468.24	33.577
468.59	33.714
468.94	34.222
469.29	33.770
469.64	34.313
469.99	33.847
470.34	34.061
470.68	34.377
471.03	34.395
471.38	33.880
471.73	33.964
472.08	34.464
472.43	35.168
472.78	33.927
473.13	35.442
473.48	33.746
473.83	34.122
474.17	35.816
474.52	34.716
474.87	34.909
475.22	34.228
475.57	34.161
475.92	34.668
476.27	35.565
476.61	35.648
476.96	34.244
477.31	35.208
477.66	34.831
478.01	35.430
478.36	34.205
478.70	35.508
479.05	36.044
479.40	35.612
479.75	35.401
480.10	34.613
480.45	35.950
480.79	37.059
481.14	37.756
481.49	35.320
481.84	35.618
482.19	35.220
482.53	36.019
482.88	35.418
483.23	36.372
483.58	35.519
483.92	34.850
484.27	35.187
484.62	35.993
484.97	35.365
485.31	35.368
485.66	35.814
486.01	36.319
486.36	35.620
486.70	35.730
487.05	35.671
487.40	36.375
487.75	36.028
488.09	35.074
488.44	35.420
488.79	35.674
489.13	35.497
489.48	35.785
489.83	35.112
490.17	35.820
490.52	36.074
490.87	35.261
491.22	36.055
491.56	36.480
491.91	36.042
492.26	36.169
492.60	35.365
492.95	36.842
493.30	35.467
493.64	38.261
493.99	36.522
494.34	36.553
494.68	36.190
495.03	36.302
495.37	36.899
495.72	36.497
496.07	36.829
496.41	36.226
496.76	36.849
497.11	36.469
497.45	37.088
497.80	37.891
498.14	37.158
498.49	37.430
498.84	36.577
499.18	36.898
499.53	36.855
499.87	36.430
500.22	36.746
500.56	37.216
500.91	38.253
501.26	36.975
501.60	37.039
501.95	37.603
502.29	37.094
502.64	37.693
502.98	36.606
503.33	35.831
503.67	37.157
504.02	37.488
504.36	37.655
504.71	37.273
505.06	36.688
505.40	36.497
505.75	39.175
506.09	37.608
506.44	38.244
506.78	37.806
507.13	37.022
507.47	37.546
507.82	37.073
508.16	37.401
508.51	37.461
508.85	36.996
509.19	37.307
509.54	37.373
509.88	37.325
510.23	38.677
510.57	37.680
510.92	36.727
511.26	37.425
511.61	37.954
511.95	37.534
512.30	37.472
512.64	37.785
512.98	36.889
513.33	38.556
513.67	38.147
514.02	37.757
514.36	39.086
514.70	38.228
515.05	38.367
515.39	37.780
515.74	38.683
516.08	38.673
516.42	38.045
516.77	38.912
517.11	39.169
517.46	38.480
517.80	39.631
518.14	38.273
518.49	37.800
518.83	37.789
519.17	37.780
519.52	37.063
519.86	39.136
520.20	38.214
520.55	38.211
520.89	39.210
521.23	38.062
521.58	38.991
521.92	38.141
522.26	38.386
522.61	38.052
522.95	39.470
523.29	38.310
523.64	39.327
523.98	39.469
524.32	38.338
524.66	38.924
525.01	38.377
525.35	39.274
525.69	37.643
526.04	38.228
526.38	39.105
526.72	37.672
527.06	38.846
527.41	38.456
527.75	38.003
528.09	38.405
528.43	38.825
528.78	37.558
529.12	39.613
529.46	39.246
529.80	38.252
530.15	39.142
530.49	39.394
530.83	39.330
531.17	38.549
531.51	39.877
531.86	37.797
532.20	37.996
532.54	37.849
532.88	39.083
533.22	40.054
533.57	38.794
533.91	38.642
534.25	39.648
534.59	39.641
534.93	39.018
535.27	38.071
535.62	37.784
535.96	37.834
536.30	39.248
536.64	38.870
536.98	38.049
537.32	39.758
537.66	39.201
538.01	39.091
538.35	37.448
538.69	38.615
539.03	38.893
539.37	39.367
539.71	38.923
540.05	38.561
540.39	38.850
540.73	40.028
541.07	39.641
541.42	39.516
541.76	40.330
542.10	39.436
542.44	39.055
542.78	38.197
543.12	38.393
543.46	39.777
543.80	39.278
544.14	38.184
544.48	39.374
544.82	39.576
545.16	38.456
545.50	38.318
545.84	39.873
546.18	40.142
546.52	38.933
546.86	38.893
547.20	39.557
547.54	37.739
547.88	39.198
548.22	38.396
548.56	38.786
548.90	40.364
549.24	39.532
549.58	39.210
549.92	38.599
550.26	39.487
550.60	39.628
550.94	40.030
551.28	38.794
551.62	38.538
551.96	39.098
552.30	40.424
552.64	38.434
552.98	39.451
553.32	39.658
553.66	38.970
554.00	38.248
554.34	40.103
554.68	38.348
555.02	38.616
555.36	39.117
555.69	38.681
556.03	38.401
556.37	40.071
556.71	38.700
557.05	39.299
557.39	38.364
557.73	39.880
558.07	39.140
558.41	38.744
558.75	39.127
559.08	39.874
559.42	40.397
559.76	40.352
560.10	39.832
560.44	38.868
560.78	38.741
561.12	40.339
561.45	39.213
561.79	38.866
562.13	40.170
562.47	39.137
562.81	39.121
563.15	39.774
563.48	39.958
563.82	40.220
564.16	39.276
564.50	39.595
564.84	39.625
565.17	38.498
565.51	41.325
565.85	40.878
566.19	40.053
566.52	40.282
566.86	41.003
567.20	40.162
567.54	40.268
567.88	40.070
568.21	40.158
568.55	40.054
568.89	39.887
569.23	39.961
569.56	39.580
569.90	39.829
570.24	39.375
570.57	40.218
570.91	39.177
571.25	39.231
571.59	39.178
571.92	38.696
572.26	38.919
572.60	38.233
572.93	38.845
573.27	38.150
573.61	38.276
573.95	38.995
574.28	38.400
574.62	38.520
574.96	38.768
575.29	38.970
575.63	38.067
575.97	37.978
576.30	38.909
576.64	38.146
576.98	38.970
577.31	38.978
577.65	38.899
577.98	39.539
578.32	38.519
578.66	38.276
578.99	38.021
579.33	38.246
579.67	38.279
580.00	39.241
580.34	39.353
580.67	38.403
581.01	38.905
581.35	38.695
581.68	39.500
582.02	38.961
582.35	38.737
582.69	39.151
583.02	38.603
583.36	39.058
583.70	39.304
584.03	39.227
584.37	38.905
584.70	39.423
585.04	38.601
585.37	39.017
585.71	39.126
586.04	39.082
586.38	39.104
586.72	39.484
587.05	40.179
587.39	39.502
587.72	40.077
588.06	39.856
588.39	39.020
588.73	39.347
589.06	39.661
589.40	39.820
589.73	39.467
590.07	40.257
590.40	40.673
590.73	40.445
591.07	40.331
591.40	39.760
591.74	39.548
592.07	40.770
592.41	40.283
592.74	40.143
593.08	39.294
593.41	39.967
593.75	39.778
594.08	39.890
594.41	39.229
594.75	39.885
595.08	39.841
595.42	39.161
595.75	40.631
596.09	39.992
596.42	39.893
596.75	40.142
597.09	40.182
597.42	39.973
597.75	41.365
598.09	39.837
598.42	40.884
598.76	40.326
599.09	40.665
599.42	39.712
599.76	39.127
600.09	38.763
600.42	40.220
600.76	39.339
601.09	39.389
601.42	39.444
601.76	39.500
602.09	40.017
602.42	40.691
602.76	41.171
603.09	39.743
603.42	41.012
603.76	40.000
604.09	39.044
604.42	39.255
604.76	40.810
605.09	40.356
605.42	39.729
605.75	39.886
606.09	39.958
606.42	40.033
606.75	39.827
607.09	40.220
607.42	40.142
607.75	39.210
608.08	39.218
608.42	38.465
608.75	40.819
609.08	39.761
609.41	40.964
609.75	39.869
610.08	41.188
610.41	39.710
610.74	40.224
611.07	40.362
611.41	40.685
611.74	41.258
612.07	40.043
612.40	40.098
612.73	40.678
613.07	39.764
613.40	39.770
613.73	39.843
614.06	39.566
614.39	40.214
614.72	39.608
615.06	39.888
615.39	40.066
615.72	39.236
616.05	40.223
616.38	38.860
616.71	39.327
617.05	39.963
617.38	40.855
617.71	40.755
618.04	42.095
618.37	41.803
618.70	40.198
619.03	40.556
619.36	39.797
619.69	42.002
620.03	41.344
620.36	40.629
620.69	38.972
621.02	40.673
621.35	41.826
621.68	41.156
622.01	41.833
622.34	39.585
622.67	41.404
623.00	40.812
623.33	41.235
623.66	40.314
623.99	40.015
624.32	41.673
624.65	40.000
624.99	41.084
625.32	39.879
625.65	40.691
625.98	41.660
626.31	39.568
626.64	41.854
626.97	41.449
627.30	41.594
627.63	40.815
627.96	40.341
628.29	40.796
628.62	42.281
628.95	41.082
629.28	41.734
629.61	40.179
629.94	41.544
630.26	40.119
630.59	43.080
630.92	40.205
631.25	40.821
631.58	41.850
631.91	40.351
632.24	41.858
632.57	41.250
632.90	40.569
633.23	40.000
633.56	41.310
633.89	40.074
634.22	41.605
634.55	41.550
634.88	42.784
635.20	41.538
635.53	42.533
635.86	41.352
636.19	42.303
636.52	42.092
636.85	40.943
637.18	40.377
637.51	40.377
637.83	39.816
638.16	41.883
638.49	39.918
638.82	43.158
