SpectraSuite Data File
++++++++++++++++++++++++++++++++++++
Date: Fri May 15 20:05:14 PDT 2015
User: schluterlab
Dark Spectrum Present: Yes
Reference Spectrum Present: Yes
Number of Sampled Component Spectra: 1
Spectrometers: USB2E3373
Integration Time (usec): 3000 (USB2E3373)
Spectra Averaged: 3 (USB2E3373)
Boxcar Smoothing: 0 (USB2E3373)
Correct for Electrical Dark: No (USB2E3373)
Strobe/Lamp Enabled: No (USB2E3373)
Correct for Detector Non-linearity: No (USB2E3373)
Correct for Stray Light: No (USB2E3373)
Number of Pixels in Processed Spectrum: 2048
>>>>>Begin Processed Spectral Data<<<<<
178.53	0.000
178.91	0.000
179.29	37.500
179.67	-300.000
180.04	-0.000
180.42	125.000
180.80	-100.000
181.18	400.000
181.56	500.000
181.94	100.000
182.31	-300.000
182.69	160.000
183.07	-166.667
183.45	-100.000
183.83	183.333
184.20	18.182
184.58	11.111
184.96	125.000
185.34	166.667
185.72	-200.000
186.09	92.308
186.47	-1100.000
186.85	166.667
187.23	122.222
187.61	-300.000
187.98	-200.000
188.36	44.444
188.74	0.000
189.12	11.765
189.49	66.667
189.87	0.000
190.25	71.429
190.63	-300.000
191.00	-333.333
191.38	31.579
191.76	-100.000
192.14	-75.000
192.51	-150.000
192.89	-100.000
193.27	-100.000
193.65	216.667
194.02	190.909
194.40	30.000
194.78	-100.000
195.15	-8.333
195.53	-125.000
195.91	100.000
196.29	-250.000
196.66	7.692
197.04	42.857
197.42	22.222
197.79	-333.333
198.17	-84.615
198.55	1300.000
198.92	-233.333
199.30	-300.000
199.68	-80.000
200.05	-300.000
200.43	0.000
200.81	-66.667
201.18	-200.000
201.56	1200.000
201.94	50.000
202.31	333.333
202.69	-180.000
203.07	125.000
203.44	0.000
203.82	0.000
204.19	-21.429
204.57	-533.333
204.95	162.500
205.32	70.000
205.70	0.000
206.08	100.000
206.45	211.111
206.83	78.571
207.20	85.714
207.58	600.000
207.96	-33.333
208.33	-30.000
208.71	-200.000
209.08	-83.333
209.46	-1500.000
209.84	-180.000
210.21	-1700.000
210.59	28.571
210.96	33.333
211.34	175.000
211.71	66.667
212.09	-71.429
212.46	-600.000
212.84	0.000
213.22	160.000
213.59	450.000
213.97	69.231
214.34	45.455
214.72	-100.000
215.09	450.000
215.47	7.692
215.84	-54.545
216.22	-133.333
216.59	-75.000
216.97	150.000
217.34	-75.000
217.72	-80.000
218.09	12.500
218.47	62.500
218.84	-1400.000
219.22	-144.444
219.59	60.000
219.97	200.000
220.34	100.000
220.72	-14.286
221.09	-100.000
221.47	-300.000
221.84	-50.000
222.22	-850.000
222.59	-45.455
222.97	41.667
223.34	-200.000
223.72	-7.143
224.09	23.810
224.46	39.286
224.84	233.333
225.21	40.000
225.59	0.000
225.96	-450.000
226.34	425.000
226.71	-171.429
227.08	0.000
227.46	25.000
227.83	-300.000
228.21	-22.222
228.58	-9.091
228.95	-12.500
229.33	10.000
229.70	31.250
230.08	-62.500
230.45	71.429
230.82	100.000
231.20	-53.333
231.57	14.286
231.95	28.571
232.32	-100.000
232.69	7.143
233.07	0.000
233.44	-100.000
233.81	-20.000
234.19	-66.667
234.56	-64.706
234.93	700.000
235.31	200.000
235.68	-200.000
236.05	-30.769
236.43	-10.000
236.80	52.941
237.17	31.250
237.55	-10.000
237.92	-3.704
238.29	5.556
238.67	10.000
239.04	0.000
239.41	-39.024
239.79	-6.667
240.16	-7.317
240.53	-23.684
240.91	4.348
241.28	20.635
241.65	12.500
242.02	15.068
242.40	1.667
242.77	-6.780
243.14	-9.091
243.51	8.750
243.89	13.793
244.26	12.644
244.63	4.762
245.00	1.031
245.38	10.309
245.75	-3.371
246.12	0.000
246.49	9.917
246.87	13.462
247.24	1.681
247.61	3.509
247.98	1.626
248.36	5.000
248.73	7.895
249.10	5.195
249.47	4.430
249.84	9.150
250.22	4.118
250.59	5.229
250.96	16.901
251.33	7.558
251.70	4.706
252.08	7.107
252.45	10.396
252.82	5.025
253.19	6.912
253.56	6.075
253.94	9.459
254.31	6.087
254.68	10.965
255.05	7.480
255.42	5.240
255.79	8.880
256.16	11.284
256.54	8.955
256.91	8.365
257.28	6.691
257.65	7.116
258.02	3.191
258.39	10.774
258.76	8.425
259.14	10.299
259.51	11.003
259.88	3.093
260.25	4.575
260.62	10.417
260.99	6.780
261.36	3.767
261.73	6.962
262.10	7.599
262.47	5.828
262.85	5.643
263.22	8.308
263.59	8.411
263.96	8.696
264.33	6.667
264.70	7.440
265.07	7.738
265.44	8.782
265.81	6.497
266.18	10.656
266.55	8.997
266.92	9.067
267.29	9.661
267.66	6.650
268.03	7.068
268.40	6.266
268.77	9.358
269.14	6.954
269.51	7.198
269.88	7.731
270.25	7.143
270.62	6.829
270.99	7.673
271.36	7.090
271.73	9.624
272.10	7.786
272.47	8.747
272.84	8.663
273.21	10.209
273.58	9.398
273.95	10.069
274.32	8.083
274.69	7.240
275.06	7.589
275.43	8.844
275.80	10.817
276.17	5.057
276.54	7.495
276.91	7.675
277.28	7.424
277.65	8.058
278.02	8.511
278.39	5.252
278.76	9.015
279.13	4.772
279.50	8.403
279.87	7.991
280.23	6.452
280.60	10.331
280.97	10.101
281.34	4.423
281.71	8.008
282.08	6.339
282.45	8.806
282.82	7.529
283.19	6.963
283.56	8.478
283.92	4.175
284.29	5.000
284.66	7.752
285.03	7.859
285.40	9.074
285.77	5.448
286.14	8.303
286.51	7.934
286.87	6.033
287.24	6.446
287.61	6.526
287.98	7.368
288.35	8.146
288.72	8.581
289.08	7.465
289.45	7.381
289.82	7.343
290.19	7.338
290.56	7.547
290.93	4.714
291.29	4.777
291.66	5.827
292.03	6.220
292.40	6.774
292.77	6.699
293.13	6.331
293.50	6.677
293.87	5.954
294.24	5.255
294.60	6.557
294.97	7.589
295.34	4.908
295.71	6.110
296.08	5.082
296.44	3.556
296.81	4.444
297.18	4.783
297.55	8.266
297.91	6.438
298.28	8.179
298.65	6.242
299.02	5.526
299.38	3.694
299.75	5.517
300.12	4.581
300.48	4.611
300.85	5.070
301.22	5.455
301.59	5.263
301.95	5.949
302.32	6.874
302.69	5.473
303.05	5.817
303.42	5.978
303.79	6.542
304.15	6.571
304.52	3.686
304.89	5.146
305.25	4.479
305.62	4.434
305.99	5.146
306.35	4.509
306.72	4.724
307.09	5.245
307.45	5.855
307.82	6.713
308.19	6.039
308.55	4.798
308.92	6.754
309.29	3.464
309.65	4.521
310.02	5.061
310.38	4.720
310.75	5.902
311.12	4.844
311.48	6.045
311.85	4.293
312.22	4.536
312.58	4.777
312.95	4.803
313.31	3.830
313.68	4.084
314.05	3.367
314.41	5.979
314.78	4.948
315.14	6.064
315.51	5.072
315.87	5.225
316.24	5.966
316.61	6.004
316.97	4.960
317.34	5.078
317.70	4.685
318.07	5.673
318.43	6.471
318.80	4.830
319.16	4.297
319.53	6.078
319.89	4.921
320.26	5.668
320.62	6.419
320.99	4.697
321.35	5.036
321.72	5.919
322.08	6.244
322.45	4.975
322.81	4.912
323.18	5.103
323.54	6.081
323.91	4.674
324.27	5.371
324.64	4.869
325.00	6.843
325.37	6.428
325.73	5.349
326.10	6.630
326.46	6.099
326.83	6.037
327.19	6.452
327.56	5.734
327.92	7.042
328.29	5.804
328.65	6.509
329.01	7.629
329.38	6.452
329.74	6.232
330.11	7.414
330.47	6.865
330.84	6.154
331.20	8.365
331.56	6.204
331.93	6.849
332.29	7.241
332.66	6.154
333.02	6.506
333.38	6.966
333.75	7.509
334.11	5.909
334.48	7.616
334.84	7.234
335.20	7.502
335.57	7.978
335.93	7.136
336.29	6.998
336.66	6.812
337.02	5.855
337.38	6.759
337.75	7.455
338.11	7.484
338.47	8.029
338.84	6.654
339.20	7.587
339.56	7.890
339.93	6.983
340.29	7.339
340.65	7.348
341.02	6.826
341.38	6.903
341.74	6.890
342.11	6.846
342.47	6.406
342.83	7.612
343.20	6.969
343.56	7.565
343.92	8.149
344.28	6.832
344.65	6.218
345.01	6.742
345.37	7.317
345.73	7.950
346.10	7.161
346.46	7.990
346.82	7.201
347.19	7.564
347.55	7.769
347.91	8.010
348.27	7.195
348.63	6.644
349.00	6.645
349.36	7.814
349.72	7.711
350.08	7.787
350.45	8.300
350.81	6.977
351.17	7.818
351.53	7.592
351.89	7.762
352.26	7.200
352.62	8.065
352.98	7.390
353.34	6.441
353.70	7.686
354.07	7.419
354.43	8.086
354.79	7.432
355.15	9.127
355.51	7.674
355.87	7.686
356.24	6.688
356.60	7.680
356.96	7.857
357.32	8.866
357.68	7.584
358.04	7.835
358.40	7.637
358.77	6.858
359.13	7.046
359.49	7.858
359.85	8.268
360.21	6.858
360.57	7.269
360.93	8.396
361.29	7.553
361.66	7.994
362.02	7.652
362.38	8.378
362.74	8.024
363.10	7.825
363.46	8.154
363.82	8.640
364.18	8.413
364.54	7.279
364.90	7.384
365.26	8.079
365.62	8.978
365.98	8.138
366.35	8.376
366.71	9.239
367.07	8.926
367.43	7.692
367.79	8.551
368.15	8.256
368.51	8.157
368.87	7.322
369.23	8.592
369.59	8.309
369.95	8.871
370.31	8.526
370.67	8.358
371.03	8.290
371.39	8.242
371.75	8.205
372.11	8.417
372.47	8.580
372.83	8.517
373.19	9.201
373.55	8.664
373.91	8.567
374.27	8.788
374.63	8.256
374.99	7.872
375.35	8.496
375.71	8.951
376.07	9.340
376.42	9.660
376.78	9.463
377.14	8.395
377.50	9.097
377.86	9.103
378.22	8.488
378.58	8.846
378.94	8.885
379.30	9.108
379.66	9.592
380.02	9.626
380.38	9.556
380.74	9.515
381.09	10.613
381.45	9.480
381.81	9.315
382.17	9.898
382.53	9.681
382.89	9.730
383.25	10.330
383.61	10.793
383.97	9.968
384.32	10.444
384.68	10.093
385.04	9.804
385.40	9.832
385.76	10.692
386.12	10.543
386.48	11.430
386.83	11.731
387.19	10.989
387.55	11.481
387.91	11.430
388.27	10.867
388.62	11.454
388.98	11.971
389.34	11.493
389.70	11.995
390.06	11.139
390.42	11.399
390.77	11.576
391.13	11.286
391.49	11.772
391.85	11.826
392.20	11.613
392.56	11.443
392.92	12.860
393.28	12.736
393.64	11.712
393.99	12.978
394.35	12.334
394.71	13.282
395.07	12.759
395.42	12.508
395.78	12.443
396.14	12.421
396.50	12.682
396.85	12.750
397.21	12.093
397.57	12.790
397.92	12.043
398.28	12.931
398.64	11.988
399.00	14.052
399.35	12.359
399.71	13.038
400.07	13.422
400.42	12.852
400.78	13.411
401.14	12.825
401.49	14.413
401.85	13.346
402.21	13.916
402.57	13.875
402.92	12.861
403.28	13.471
403.63	14.124
403.99	13.202
404.35	13.367
404.70	13.452
405.06	13.278
405.42	13.176
405.77	12.377
406.13	13.795
406.49	13.440
406.84	14.181
407.20	13.486
407.55	13.136
407.91	12.968
408.27	13.321
408.62	14.892
408.98	13.432
409.34	14.188
409.69	13.372
410.05	13.300
410.40	13.642
410.76	13.932
411.11	14.000
411.47	14.530
411.83	13.999
412.18	13.578
412.54	14.170
412.89	13.793
413.25	13.718
413.60	14.099
413.96	14.356
414.31	14.512
414.67	14.304
415.03	14.514
415.38	14.164
415.74	14.528
416.09	14.435
416.45	14.180
416.80	14.012
417.16	14.848
417.51	14.257
417.87	14.668
418.22	14.961
418.58	13.980
418.93	15.172
419.29	13.508
419.64	14.841
420.00	15.239
420.35	13.910
420.71	15.067
421.06	14.794
421.42	15.625
421.77	15.434
422.12	14.018
422.48	15.106
422.83	15.777
423.19	14.955
423.54	13.874
423.90	14.252
424.25	15.327
424.61	15.789
424.96	15.738
425.31	15.136
425.67	15.258
426.02	16.254
426.38	15.780
426.73	16.162
427.09	16.709
427.44	15.706
427.79	16.264
428.15	16.080
428.50	15.203
428.85	15.663
429.21	16.355
429.56	16.226
429.92	16.384
430.27	15.338
430.62	15.682
430.98	15.977
431.33	15.405
431.68	15.699
432.04	15.707
432.39	15.459
432.74	16.356
433.10	16.494
433.45	15.890
433.80	15.670
434.16	16.066
434.51	16.989
434.86	17.654
435.22	16.882
435.57	16.095
435.92	16.108
436.28	16.219
436.63	16.144
436.98	15.991
437.34	16.213
437.69	16.756
438.04	17.265
438.39	16.249
438.75	16.333
439.10	16.865
439.45	17.164
439.81	16.147
440.16	16.983
440.51	17.134
440.86	18.308
441.22	16.686
441.57	17.329
441.92	17.733
442.27	16.907
442.63	17.184
442.98	16.887
443.33	18.420
443.68	18.090
444.03	18.728
444.39	17.609
444.74	18.952
445.09	18.207
445.44	18.234
445.79	19.391
446.15	18.227
446.50	18.081
446.85	18.278
447.20	19.395
447.55	19.364
447.91	18.049
448.26	19.750
448.61	19.401
448.96	19.449
449.31	18.266
449.66	19.280
450.02	18.882
450.37	18.791
450.72	18.843
451.07	19.114
451.42	18.290
451.77	18.987
452.12	18.600
452.47	20.090
452.83	19.611
453.18	18.975
453.53	19.785
453.88	19.308
454.23	19.299
454.58	20.025
454.93	19.459
455.28	18.540
455.63	19.963
455.98	19.904
456.34	19.540
456.69	19.568
457.04	19.912
457.39	19.016
457.74	19.347
458.09	18.893
458.44	19.602
458.79	19.160
459.14	20.366
459.49	20.955
459.84	20.023
460.19	19.782
460.54	20.538
460.89	20.114
461.24	20.497
461.59	20.546
461.94	19.748
462.29	20.145
462.64	20.664
462.99	19.973
463.34	19.332
463.69	19.369
464.04	19.794
464.39	20.437
464.74	19.632
465.09	20.711
465.44	20.196
465.79	20.125
466.14	20.924
466.49	19.551
466.84	21.118
467.19	20.213
467.54	21.073
467.89	19.773
468.24	19.404
468.59	20.127
468.94	20.444
469.29	20.721
469.64	20.096
469.99	20.673
470.34	19.181
470.68	20.880
471.03	21.373
471.38	18.973
471.73	20.448
472.08	19.810
472.43	19.933
472.78	20.288
473.13	20.000
473.48	19.739
473.83	19.925
474.17	21.049
474.52	21.123
474.87	20.061
475.22	19.341
475.57	20.215
475.92	20.625
476.27	20.780
476.61	20.081
476.96	19.911
477.31	21.579
477.66	20.112
478.01	20.326
478.36	19.935
478.70	20.827
479.05	21.319
479.40	21.092
479.75	20.594
480.10	20.430
480.45	20.300
480.79	21.047
481.14	20.645
481.49	19.212
481.84	20.415
482.19	20.253
482.53	20.432
482.88	20.573
483.23	20.154
483.58	20.189
483.92	20.232
484.27	20.146
484.62	19.991
484.97	19.900
485.31	20.159
485.66	19.613
486.01	19.466
486.36	19.613
486.70	20.000
487.05	20.415
487.40	20.036
487.75	20.338
488.09	20.488
488.44	20.633
488.79	20.433
489.13	20.593
489.48	20.009
489.83	20.135
490.17	20.270
490.52	20.370
490.87	19.991
491.22	20.535
491.56	19.877
491.91	20.268
492.26	21.099
492.60	20.489
492.95	21.397
493.30	20.371
493.64	20.530
493.99	20.773
494.34	20.194
494.68	20.333
495.03	20.535
495.37	20.559
495.72	21.252
496.07	20.829
496.41	20.236
496.76	20.866
497.11	19.329
497.45	21.623
497.80	20.383
498.14	20.815
498.49	19.909
498.84	20.309
499.18	20.934
499.53	20.883
499.87	20.817
500.22	20.772
500.56	21.230
500.91	20.733
501.26	20.069
501.60	20.118
501.95	20.961
502.29	20.775
502.64	20.656
502.98	20.474
503.33	20.365
503.67	21.205
504.02	20.577
504.36	20.633
504.71	20.101
505.06	21.188
505.40	21.472
505.75	20.567
506.09	20.831
506.44	21.201
506.78	20.663
507.13	20.838
507.47	20.836
507.82	20.406
508.16	20.444
508.51	21.511
508.85	21.298
509.19	20.756
509.54	21.126
509.88	21.143
510.23	20.925
510.57	21.432
510.92	20.096
511.26	20.949
511.61	21.012
511.95	20.658
512.30	20.843
512.64	21.647
512.98	20.606
513.33	21.936
513.67	20.409
514.02	22.368
514.36	22.114
514.70	23.019
515.05	21.798
515.39	21.724
515.74	22.096
516.08	21.100
516.42	21.731
516.77	22.294
517.11	20.950
517.46	21.903
517.80	21.931
518.14	21.372
518.49	21.334
518.83	21.932
519.17	20.619
519.52	20.900
519.86	21.008
520.20	22.114
520.55	21.764
520.89	21.644
521.23	20.773
521.58	22.524
521.92	22.692
522.26	20.950
522.61	22.338
522.95	22.715
523.29	21.919
523.64	21.982
523.98	22.035
524.32	21.649
524.66	21.831
525.01	22.078
525.35	21.905
525.69	21.145
526.04	21.825
526.38	23.152
526.72	21.779
527.06	22.179
527.41	22.823
527.75	21.984
528.09	22.525
528.43	21.877
528.78	21.188
529.12	22.516
529.46	22.352
529.80	21.849
530.15	22.178
530.49	22.492
530.83	22.298
531.17	21.827
531.51	22.435
531.86	20.666
532.20	21.712
532.54	22.668
532.88	22.177
533.22	22.715
533.57	22.280
533.91	21.475
534.25	23.047
534.59	22.001
534.93	21.271
535.27	21.954
535.62	21.711
535.96	22.635
536.30	22.955
536.64	22.261
536.98	22.091
537.32	23.613
537.66	23.843
538.01	22.657
538.35	21.637
538.69	21.105
539.03	20.916
539.37	22.342
539.71	21.950
540.05	22.675
540.39	22.022
540.73	21.409
541.07	21.961
541.42	22.917
541.76	21.955
542.10	22.299
542.44	22.099
542.78	20.785
543.12	21.635
543.46	21.071
543.80	22.484
544.14	21.162
544.48	21.319
544.82	21.531
545.16	22.268
545.50	22.630
545.84	22.380
546.18	22.411
546.52	21.702
546.86	22.430
547.20	22.175
547.54	21.272
547.88	22.826
548.22	21.039
548.56	22.361
548.90	22.102
549.24	22.039
549.58	22.567
549.92	20.872
550.26	22.125
550.60	21.859
550.94	21.882
551.28	22.411
551.62	23.154
551.96	22.556
552.30	22.734
552.64	21.086
552.98	22.011
553.32	22.682
553.66	22.424
554.00	22.555
554.34	22.378
554.68	21.829
555.02	22.247
555.36	21.316
555.69	22.564
556.03	21.770
556.37	22.135
556.71	22.888
557.05	22.670
557.39	21.413
557.73	22.039
558.07	23.152
558.41	22.818
558.75	22.525
559.08	22.380
559.42	22.381
559.76	22.418
560.10	22.095
560.44	22.189
560.78	22.308
561.12	21.509
561.45	23.682
561.79	22.829
562.13	22.143
562.47	21.223
562.81	22.767
563.15	22.144
563.48	22.065
563.82	21.826
564.16	21.797
564.50	22.027
564.84	22.356
565.17	20.657
565.51	22.814
565.85	22.359
566.19	22.281
566.52	22.051
566.86	21.465
567.20	21.482
567.54	21.229
567.88	22.086
568.21	22.002
568.55	20.380
568.89	21.817
569.23	21.040
569.56	21.497
569.90	21.518
570.24	20.729
570.57	20.945
570.91	20.948
571.25	20.454
571.59	21.021
571.92	20.059
572.26	20.562
572.60	19.907
572.93	20.866
573.27	20.251
573.61	20.615
573.95	20.726
574.28	20.021
574.62	19.858
574.96	20.170
575.29	20.167
575.63	19.850
575.97	19.680
576.30	20.298
576.64	19.629
576.98	20.129
577.31	20.546
577.65	20.505
577.98	19.907
578.32	19.771
578.66	19.686
578.99	19.888
579.33	19.885
579.67	19.884
580.00	20.380
580.34	19.975
580.67	20.104
581.01	20.077
581.35	19.703
581.68	19.760
582.02	19.673
582.35	20.019
582.69	20.043
583.02	20.188
583.36	20.345
583.70	20.872
584.03	20.461
584.37	20.666
584.70	20.275
585.04	20.078
585.37	20.565
585.71	20.094
586.04	20.222
586.38	20.005
586.72	20.890
587.05	20.017
587.39	20.939
587.72	20.913
588.06	20.537
588.39	20.450
588.73	20.757
589.06	21.168
589.40	21.431
589.73	21.139
590.07	20.733
590.40	21.478
590.73	21.540
591.07	21.077
591.40	20.971
591.74	21.041
592.07	21.243
592.41	21.290
592.74	20.112
593.08	20.468
593.41	21.318
593.75	20.314
594.08	19.876
594.41	20.524
594.75	20.954
595.08	20.923
595.42	20.169
595.75	20.804
596.09	20.485
596.42	21.124
596.75	21.758
597.09	21.002
597.42	20.777
597.75	20.705
598.09	21.141
598.42	20.171
598.76	21.064
599.09	20.353
599.42	20.083
599.76	20.203
600.09	20.362
600.42	20.697
600.76	20.505
601.09	20.534
601.42	20.251
601.76	19.929
602.09	19.802
602.42	21.272
602.76	20.501
603.09	21.262
603.42	21.028
603.76	20.927
604.09	20.130
604.42	21.658
604.76	21.317
605.09	21.207
605.42	20.722
605.75	20.534
606.09	20.170
606.42	20.559
606.75	20.736
607.09	21.143
607.42	20.868
607.75	20.071
608.08	20.485
608.42	20.420
608.75	20.627
609.08	21.226
609.41	20.711
609.75	20.363
610.08	21.268
610.41	20.097
610.74	20.332
611.07	20.724
611.41	20.602
611.74	21.002
612.07	20.343
612.40	20.460
612.73	21.299
613.07	19.910
613.40	21.389
613.73	20.929
614.06	21.091
614.39	21.038
614.72	20.056
615.06	20.838
615.39	20.197
615.72	19.483
616.05	21.006
616.38	20.570
616.71	20.795
617.05	21.001
617.38	20.867
617.71	20.377
618.04	20.889
618.37	21.501
618.70	21.320
619.03	22.083
619.36	20.912
619.69	21.152
620.03	21.402
620.36	20.458
620.69	20.700
621.02	21.865
621.35	22.324
621.68	21.939
622.01	21.667
622.34	21.628
622.67	21.688
623.00	21.593
623.33	20.732
623.66	20.643
623.99	21.104
624.32	21.293
624.65	19.850
624.99	21.595
625.32	20.925
625.65	22.310
625.98	21.837
626.31	21.696
626.64	21.577
626.97	21.291
627.30	21.629
627.63	22.357
627.96	22.462
628.29	20.907
628.62	20.452
628.95	21.242
629.28	21.976
629.61	22.433
629.94	22.385
630.26	21.542
630.59	22.373
630.92	21.538
631.25	21.641
631.58	21.916
631.91	21.382
632.24	22.248
632.57	23.182
632.90	21.590
633.23	22.235
633.56	21.285
633.89	21.702
634.22	23.827
634.55	22.745
634.88	21.456
635.20	21.923
635.53	21.733
635.86	21.066
636.19	22.251
636.52	23.342
636.85	20.968
637.18	20.126
637.51	22.138
637.83	22.076
638.16	21.965
638.49	22.207
638.82	22.105
639.15	22.388
639.48	20.633
639.81	22.734
640.13	22.655
640.46	22.449
640.79	21.649
641.12	22.452
641.45	21.171
