SpectraSuite Data File
++++++++++++++++++++++++++++++++++++
Date: Fri May 15 20:17:15 PDT 2015
User: schluterlab
Dark Spectrum Present: Yes
Reference Spectrum Present: Yes
Number of Sampled Component Spectra: 1
Spectrometers: USB2E3373
Integration Time (usec): 3000 (USB2E3373)
Spectra Averaged: 3 (USB2E3373)
Boxcar Smoothing: 0 (USB2E3373)
Correct for Electrical Dark: No (USB2E3373)
Strobe/Lamp Enabled: No (USB2E3373)
Correct for Detector Non-linearity: No (USB2E3373)
Correct for Stray Light: No (USB2E3373)
Number of Pixels in Processed Spectrum: 2048
>>>>>Begin Processed Spectral Data<<<<<
178.53	0.000
178.91	0.000
179.29	100.000
179.67	-200.000
180.04	85.714
180.42	25.000
180.80	-600.000
181.18	-0.000
181.56	600.000
181.94	-250.000
182.31	1200.000
182.69	-80.000
183.07	-400.000
183.45	-100.000
183.83	100.000
184.20	36.364
184.58	111.111
184.96	125.000
185.34	66.667
185.72	-550.000
186.09	92.308
186.47	300.000
186.85	116.667
187.23	177.778
187.61	-300.000
187.98	0.000
188.36	77.778
188.74	-400.000
189.12	82.353
189.49	66.667
189.87	0.000
190.25	14.286
190.63	-50.000
191.00	-66.667
191.38	-10.526
191.76	-200.000
192.14	275.000
192.51	550.000
192.89	-11.111
193.27	-14.286
193.65	200.000
194.02	90.909
194.40	10.000
194.78	-162.500
195.15	25.000
195.53	-12.500
195.91	75.000
196.29	-200.000
196.66	123.077
197.04	114.286
197.42	0.000
197.79	-266.667
198.17	-84.615
198.55	300.000
198.92	-66.667
199.30	-600.000
199.68	-40.000
200.05	-200.000
200.43	0.000
200.81	333.333
201.18	0.000
201.56	1100.000
201.94	-150.000
202.31	66.667
202.69	-320.000
203.07	225.000
203.44	300.000
203.82	0.000
204.19	14.286
204.57	-300.000
204.95	225.000
205.32	-40.000
205.70	57.143
206.08	-325.000
206.45	200.000
206.83	35.714
207.20	-57.143
207.58	-200.000
207.96	-266.667
208.33	-100.000
208.71	25.000
209.08	-150.000
209.46	0.000
209.84	-260.000
210.21	-200.000
210.59	14.286
210.96	-66.667
211.34	-200.000
211.71	-6.667
212.09	-85.714
212.46	-1700.000
212.84	0.000
213.22	-30.000
213.59	-250.000
213.97	69.231
214.34	63.636
214.72	-33.333
215.09	175.000
215.47	-15.385
215.84	-81.818
216.22	-266.667
216.59	-25.000
216.97	-50.000
217.34	-250.000
217.72	-180.000
218.09	25.000
218.47	125.000
218.84	-500.000
219.22	55.556
219.59	20.000
219.97	400.000
220.34	250.000
220.72	-85.714
221.09	-125.000
221.47	350.000
221.84	-950.000
222.22	-600.000
222.59	81.818
222.97	25.000
223.34	-266.667
223.72	-71.429
224.09	28.571
224.46	0.000
224.84	533.333
225.21	90.000
225.59	26.667
225.96	-350.000
226.34	200.000
226.71	-57.143
227.08	-166.667
227.46	-50.000
227.83	-350.000
228.21	22.222
228.58	-36.364
228.95	12.500
229.33	90.000
229.70	31.250
230.08	-150.000
230.45	-142.857
230.82	85.714
231.20	26.667
231.57	50.000
231.95	-57.143
232.32	-120.000
232.69	21.429
233.07	-133.333
233.44	60.000
233.81	-110.000
234.19	11.111
234.56	-11.765
234.93	400.000
235.31	50.000
235.68	-160.000
236.05	-46.154
236.43	-25.000
236.80	-17.647
237.17	31.250
237.55	0.000
237.92	14.815
238.29	0.000
238.67	16.667
239.04	26.471
239.41	-24.390
239.79	10.000
240.16	14.634
240.53	-5.263
240.91	-15.217
241.28	7.937
241.65	-5.357
242.02	2.740
242.40	-3.333
242.77	-1.695
243.14	-1.515
243.51	13.750
243.89	14.943
244.26	0.000
244.63	8.333
245.00	3.093
245.38	-2.062
245.75	-7.865
246.12	-7.759
246.49	6.612
246.87	10.577
247.24	0.840
247.61	2.632
247.98	-2.439
248.36	4.375
248.73	-0.658
249.10	1.299
249.47	6.962
249.84	-1.307
250.22	6.471
250.59	3.268
250.96	10.798
251.33	-0.581
251.70	5.882
252.08	5.076
252.45	5.446
252.82	4.020
253.19	10.599
253.56	1.869
253.94	7.658
254.31	4.348
254.68	8.772
255.05	3.937
255.42	7.424
255.79	8.108
256.16	3.891
256.54	8.955
256.91	4.563
257.28	6.320
257.65	4.869
258.02	0.000
258.39	6.061
258.76	5.861
259.14	9.635
259.51	6.149
259.88	4.811
260.25	7.190
260.62	6.250
260.99	1.356
261.36	6.507
261.73	5.696
262.10	5.775
262.47	3.988
262.85	4.389
263.22	4.000
263.59	6.542
263.96	6.832
264.33	1.515
264.70	7.738
265.07	6.250
265.44	6.516
265.81	5.650
266.18	5.191
266.55	8.226
266.92	4.663
267.29	9.922
267.66	4.348
268.03	7.592
268.40	4.439
268.77	9.626
269.14	6.235
269.51	6.941
269.88	5.486
270.25	3.061
270.62	5.122
270.99	4.348
271.36	6.357
271.73	5.164
272.10	8.273
272.47	6.383
272.84	5.198
273.21	8.121
273.58	8.434
273.95	4.805
274.32	5.312
274.69	5.656
275.06	6.250
275.43	7.256
275.80	6.181
276.17	6.207
276.54	5.139
276.91	7.895
277.28	3.930
277.65	6.198
278.02	5.957
278.39	4.814
278.76	5.241
279.13	2.905
279.50	8.193
279.87	5.616
280.23	4.946
280.60	6.823
280.97	6.465
281.34	5.000
281.71	8.214
282.08	6.135
282.45	4.892
282.82	5.019
283.19	3.482
283.56	4.046
283.92	4.175
284.29	5.962
284.66	5.620
285.03	6.090
285.40	6.049
285.77	4.745
286.14	5.776
286.51	6.458
286.87	3.839
287.24	5.525
287.61	5.467
287.98	6.491
288.35	4.853
288.72	6.130
289.08	3.646
289.45	9.139
289.82	5.769
290.19	5.290
290.56	3.774
290.93	5.219
291.29	4.468
291.66	6.457
292.03	5.901
292.40	5.645
292.77	4.147
293.13	2.922
293.50	4.097
293.87	4.733
294.24	4.328
294.60	5.067
294.97	7.292
295.34	5.215
295.71	4.620
296.08	3.737
296.44	2.276
296.81	4.861
297.18	4.783
297.55	5.285
297.91	4.795
298.28	6.596
298.65	5.427
299.02	4.582
299.38	2.873
299.75	4.000
300.12	3.141
300.48	4.348
300.85	5.703
301.22	4.286
301.59	3.026
301.95	5.063
302.32	6.226
302.69	4.851
303.05	3.960
303.42	5.106
303.79	4.907
304.15	5.137
304.52	3.686
304.89	3.977
305.25	4.479
305.62	4.084
305.99	3.392
306.35	3.699
306.72	3.600
307.09	4.561
307.45	5.281
307.82	5.324
308.19	4.762
308.55	4.689
308.92	5.664
309.29	4.469
309.65	4.629
310.02	4.070
310.38	5.708
310.75	4.918
311.12	6.136
311.48	5.514
311.85	5.550
312.22	5.907
312.58	5.202
312.95	4.482
313.31	4.969
313.68	5.969
314.05	5.714
314.41	7.216
314.78	7.732
315.14	6.680
315.51	9.110
315.87	8.811
316.24	9.808
316.61	9.646
316.97	9.821
317.34	9.863
317.70	9.560
318.07	10.385
318.43	12.353
318.80	11.837
319.16	13.477
319.53	12.821
319.89	13.583
320.26	14.879
320.62	15.848
320.99	15.031
321.35	15.622
321.72	19.107
322.08	17.925
322.45	20.000
322.81	20.432
323.18	22.375
323.54	22.201
323.91	24.245
324.27	25.098
324.64	27.996
325.00	29.197
325.37	30.946
325.73	31.097
326.10	33.878
326.46	35.516
326.83	37.620
327.19	39.146
327.56	40.487
327.92	42.518
328.29	41.518
328.65	45.660
329.01	47.243
329.38	47.650
329.74	48.064
330.11	51.344
330.47	50.835
330.84	53.750
331.20	57.129
331.56	54.722
331.93	57.534
332.29	57.012
332.66	58.733
333.02	57.249
333.38	59.395
333.75	61.447
334.11	61.235
334.48	62.466
334.84	63.278
335.20	62.580
335.57	63.917
335.93	65.492
336.29	67.311
336.66	66.122
337.02	66.543
337.38	65.000
337.75	68.000
338.11	67.989
338.47	69.891
338.84	69.409
339.20	69.561
339.56	70.550
339.93	70.367
340.29	70.183
340.65	72.939
341.02	70.656
341.38	71.681
341.74	68.286
342.11	69.671
342.47	71.797
342.83	73.529
343.20	72.300
343.56	73.304
343.92	75.111
344.28	73.015
344.65	74.957
345.01	73.207
345.37	71.741
345.73	74.142
346.10	75.928
346.46	73.339
346.82	74.468
347.19	74.647
347.55	75.689
347.91	76.618
348.27	73.646
348.63	76.831
349.00	73.257
349.36	74.647
349.72	77.529
350.08	77.131
350.45	76.297
350.81	76.495
351.17	75.814
351.53	78.449
351.89	76.383
352.26	76.480
352.62	77.097
352.98	75.261
353.34	76.973
353.70	77.346
354.07	77.742
354.43	76.701
354.79	80.264
355.15	77.698
355.51	78.165
355.87	79.612
356.24	79.201
356.60	79.062
356.96	78.730
357.32	79.792
357.68	78.890
358.04	79.564
358.40	78.939
358.77	81.579
359.13	81.986
359.49	78.428
359.85	80.499
360.21	81.659
360.57	79.572
360.93	80.711
361.29	79.532
361.66	81.897
362.02	82.424
362.38	82.254
362.74	84.709
363.10	84.500
363.46	82.876
363.82	83.471
364.18	82.140
364.54	82.206
364.90	82.939
365.26	84.643
365.62	85.328
365.98	84.604
366.35	83.904
366.71	85.883
367.07	84.398
367.43	84.256
367.79	84.594
368.15	84.637
368.51	85.361
368.87	86.001
369.23	83.899
369.59	85.423
369.95	86.070
370.31	85.910
370.67	86.866
371.03	84.391
371.39	84.683
371.75	85.348
372.11	84.736
372.47	88.683
372.83	86.515
373.19	86.448
373.55	87.004
373.91	87.113
374.27	89.227
374.63	88.801
374.99	86.383
375.35	88.510
375.71	90.490
376.07	88.483
376.42	88.707
376.78	88.591
377.14	89.709
377.50	88.579
377.86	89.625
378.22	89.024
378.58	89.744
378.94	88.721
379.30	89.333
379.66	90.031
380.02	90.129
380.38	89.714
380.74	89.767
381.09	90.920
381.45	89.786
381.81	90.130
382.17	90.990
382.53	90.818
382.89	91.463
383.25	91.537
383.61	91.524
383.97	91.556
384.32	90.369
384.68	90.960
385.04	90.686
385.40	92.222
385.76	93.145
386.12	93.208
386.48	95.019
386.83	92.074
387.19	92.735
387.55	93.476
387.91	92.604
388.27	91.758
388.62	93.140
388.98	91.529
389.34	92.942
389.70	93.474
390.06	91.567
390.42	93.329
390.77	92.152
391.13	91.929
391.49	93.402
391.85	93.762
392.20	91.212
392.56	91.990
392.92	92.132
393.28	93.927
393.64	92.132
393.99	94.734
394.35	94.877
394.71	92.465
395.07	90.258
395.42	91.439
395.78	91.401
396.14	92.371
396.50	92.454
396.85	90.985
397.21	91.667
397.57	91.724
397.92	91.252
398.28	91.667
398.64	90.120
399.00	92.381
399.35	90.858
399.71	89.948
400.07	92.201
400.42	89.902
400.78	92.039
401.14	90.986
401.49	90.173
401.85	92.078
402.21	90.181
402.57	91.188
402.92	89.398
403.28	90.414
403.63	91.362
403.99	90.561
404.35	90.506
404.70	87.798
405.06	88.073
405.42	89.372
405.77	90.645
406.13	90.745
406.49	89.343
406.84	88.936
407.20	89.765
407.55	87.959
407.91	89.505
408.27	87.444
408.62	88.800
408.98	86.876
409.34	87.423
409.69	88.760
410.05	85.591
410.40	87.716
410.76	88.902
411.11	87.188
411.47	88.166
411.83	88.449
412.18	89.961
412.54	86.142
412.89	85.406
413.25	88.809
413.60	87.453
413.96	85.153
414.31	85.732
414.67	86.466
415.03	86.884
415.38	87.924
415.74	85.863
416.09	87.590
416.45	86.631
416.80	85.658
417.16	88.260
417.51	86.676
417.87	85.854
418.22	87.500
418.58	87.358
418.93	87.649
419.29	84.507
419.64	87.168
420.00	88.161
420.35	85.552
420.71	86.938
421.06	87.293
421.42	86.118
421.77	87.225
422.12	86.493
422.48	86.248
422.83	87.181
423.19	87.359
423.54	86.420
423.90	86.455
424.25	86.280
424.61	87.944
424.96	85.889
425.31	87.579
425.67	87.500
426.02	88.045
426.38	89.105
426.73	87.893
427.09	89.177
427.44	87.824
427.79	88.214
428.15	87.075
428.50	88.128
428.85	87.592
429.21	89.021
429.56	87.763
429.92	88.341
430.27	86.566
430.62	87.454
430.98	88.694
431.33	87.487
431.68	86.238
432.04	87.703
432.39	85.910
432.74	85.749
433.10	87.414
433.45	86.798
433.80	89.147
434.16	87.978
434.51	87.419
434.86	88.211
435.22	86.540
435.57	87.960
435.92	88.263
436.28	86.345
436.63	86.309
436.98	85.284
437.34	88.385
437.69	88.432
438.04	87.920
438.39	86.500
438.75	88.464
439.10	86.757
439.45	88.679
439.81	87.278
440.16	89.252
440.51	89.075
440.86	88.701
441.22	86.991
441.57	88.411
441.92	88.930
442.27	88.969
442.63	87.420
442.98	86.904
443.33	86.923
443.68	87.851
444.03	88.177
444.39	86.719
444.74	89.186
445.09	87.416
445.44	87.920
445.79	89.995
446.15	87.390
446.50	86.134
446.85	87.885
447.20	87.018
447.55	86.551
447.91	86.746
448.26	87.820
448.61	87.450
448.96	88.353
449.31	87.514
449.66	87.166
450.02	87.621
450.37	87.374
450.72	86.884
451.07	87.848
451.42	85.955
451.77	86.438
452.12	85.766
452.47	86.027
452.83	86.572
453.18	86.781
453.53	86.410
453.88	86.764
454.23	86.048
454.58	86.965
454.93	87.113
455.28	85.016
455.63	86.671
455.98	85.929
456.34	85.760
456.69	85.705
457.04	86.389
457.39	86.148
457.74	84.704
458.09	84.873
458.44	86.483
458.79	85.770
459.14	85.870
459.49	86.030
459.84	86.576
460.19	87.985
460.54	86.308
460.89	86.364
461.24	85.280
461.59	86.105
461.94	85.597
462.29	84.982
462.64	86.777
462.99	85.647
463.34	85.744
463.69	85.328
464.04	85.896
464.39	85.324
464.74	85.092
465.09	85.465
465.44	86.901
465.79	82.596
466.14	85.177
466.49	85.451
466.84	84.593
467.19	83.542
467.54	83.653
467.89	84.713
468.24	82.847
468.59	84.571
468.94	84.381
469.29	82.885
469.64	83.732
469.99	85.985
470.34	84.437
470.68	85.682
471.03	83.723
471.38	83.809
471.73	84.384
472.08	82.429
472.43	84.295
472.78	83.208
473.13	84.490
473.48	84.495
473.83	82.628
474.17	85.168
474.52	83.344
474.87	84.545
475.22	83.527
475.57	82.722
475.92	83.598
476.27	84.575
476.61	83.333
476.96	81.651
477.31	82.153
477.66	82.135
478.01	83.773
478.36	83.606
478.70	83.578
479.05	84.176
479.40	83.731
479.75	81.648
480.10	82.642
480.45	83.300
480.79	83.434
481.14	83.760
481.49	82.315
481.84	83.929
482.19	82.975
482.53	81.918
482.88	81.193
483.23	81.190
483.58	82.830
483.92	81.752
484.27	81.814
484.62	82.967
484.97	81.012
485.31	81.395
485.66	81.300
486.01	82.754
486.36	82.006
486.70	82.667
487.05	83.024
487.40	82.368
487.75	82.507
488.09	80.501
488.44	80.777
488.79	81.173
489.13	80.329
489.48	80.120
489.83	82.018
490.17	81.303
490.52	81.339
490.87	79.408
491.22	81.614
491.56	79.602
491.91	79.971
492.26	82.158
492.60	80.230
492.95	81.308
493.30	80.899
493.64	82.711
493.99	80.918
494.34	80.728
494.68	80.381
495.03	80.973
495.37	82.090
495.72	81.020
496.07	81.024
496.41	80.802
496.76	80.101
497.11	80.438
497.45	80.191
497.80	81.130
498.14	79.185
498.49	79.584
498.84	80.240
499.18	81.426
499.53	81.052
499.87	80.058
500.22	81.405
500.56	80.333
500.91	79.970
501.26	79.041
501.60	80.669
501.95	80.689
502.29	80.630
502.64	80.840
502.98	81.598
503.33	80.163
503.67	79.518
504.02	80.499
504.36	80.802
504.71	80.000
505.06	79.064
505.40	79.036
505.75	80.000
506.09	79.270
506.44	80.801
506.78	79.286
507.13	79.835
507.47	78.486
507.82	79.861
508.16	79.186
508.51	79.276
508.85	80.167
509.19	80.628
509.54	80.912
509.88	78.857
510.23	80.420
510.57	79.049
510.92	77.452
511.26	79.214
511.61	79.373
511.95	79.397
512.30	79.601
512.64	78.687
512.98	78.944
513.33	79.631
513.67	79.250
514.02	81.121
514.36	81.429
514.70	80.769
515.05	81.669
515.39	78.689
515.74	81.856
516.08	80.395
516.42	78.975
516.77	79.696
517.11	80.356
517.46	78.875
517.80	79.440
518.14	78.996
518.49	78.486
518.83	79.951
519.17	79.321
519.52	79.041
519.86	78.872
520.20	79.283
520.55	78.549
520.89	78.795
521.23	79.607
521.58	80.883
521.92	80.256
522.26	78.725
522.61	80.130
522.95	81.325
523.29	78.399
523.64	78.971
523.98	79.650
524.32	79.510
524.66	80.730
525.01	79.610
525.35	79.650
525.69	80.673
526.04	79.101
526.38	80.091
526.72	78.875
527.06	79.053
527.41	79.222
527.75	79.357
528.09	79.203
528.43	78.393
528.78	80.000
529.12	78.452
529.46	80.247
529.80	76.947
530.15	80.792
530.49	79.798
530.83	79.617
531.17	77.837
531.51	77.839
531.86	79.470
532.20	78.219
532.54	78.693
532.88	80.082
533.22	79.099
533.57	79.096
533.91	78.394
534.25	80.339
534.59	77.742
534.93	78.225
535.27	77.475
535.62	78.808
535.96	79.517
536.30	79.947
536.64	79.876
536.98	78.746
537.32	80.156
537.66	80.365
538.01	80.070
538.35	79.542
538.69	78.162
539.03	78.059
539.37	79.071
539.71	77.778
540.05	78.004
540.39	80.609
540.73	77.615
541.07	79.972
541.42	79.973
541.76	78.183
542.10	79.215
542.44	78.874
542.78	77.564
543.12	78.091
543.46	79.694
543.80	79.320
544.14	76.035
544.48	77.082
544.82	79.426
545.16	79.713
545.50	77.971
545.84	80.595
546.18	77.660
546.52	77.361
546.86	79.008
547.20	79.757
547.54	77.951
547.88	79.416
548.22	75.740
548.56	77.836
548.90	78.841
549.24	78.168
549.58	78.420
549.92	77.127
550.26	79.194
550.60	79.405
550.94	78.641
551.28	78.748
551.62	80.077
551.96	78.120
552.30	78.070
552.64	76.939
552.98	78.059
553.32	78.245
553.66	78.084
554.00	80.292
554.34	78.434
554.68	77.802
555.02	78.497
555.36	79.581
555.69	78.755
556.03	79.086
556.37	77.865
556.71	78.267
557.05	79.269
557.39	76.654
557.73	77.961
558.07	79.713
558.41	79.479
558.75	79.034
559.08	78.172
559.42	79.286
559.76	80.224
560.10	77.294
560.44	78.704
560.78	79.510
561.12	78.773
561.45	80.183
561.79	78.291
562.13	78.141
562.47	77.914
562.81	79.395
563.15	77.010
563.48	79.066
563.82	79.890
564.16	80.432
564.50	78.108
564.84	78.648
565.17	78.270
565.51	80.260
565.85	80.933
566.19	79.244
566.52	79.692
566.86	80.206
567.20	79.577
567.54	80.049
567.88	80.258
568.21	80.147
568.55	79.130
568.89	79.107
569.23	80.838
569.56	79.685
569.90	80.065
570.24	78.526
570.57	79.127
570.91	79.226
571.25	77.606
571.59	77.546
571.92	76.533
572.26	77.476
572.60	77.333
572.93	75.965
573.27	77.085
573.61	78.103
573.95	77.526
574.28	78.363
574.62	76.557
574.96	76.739
575.29	76.401
575.63	74.346
575.97	75.874
576.30	77.031
576.64	76.212
576.98	77.375
577.31	77.759
577.65	77.729
577.98	77.346
578.32	76.830
578.66	75.564
578.99	75.924
579.33	75.768
579.67	75.347
580.00	76.506
580.34	76.219
580.67	75.816
581.01	76.705
581.35	76.766
581.68	76.717
582.02	76.528
582.35	76.509
582.69	76.393
583.02	76.479
583.36	76.697
583.70	76.973
584.03	77.787
584.37	76.990
584.70	76.181
585.04	75.596
585.37	76.757
585.71	76.598
586.04	76.677
586.38	76.020
586.72	77.274
587.05	78.510
587.39	77.244
587.72	78.075
588.06	76.751
588.39	77.556
588.73	77.686
589.06	76.973
589.40	77.048
589.73	76.415
590.07	78.021
590.40	77.283
590.73	79.778
591.07	77.439
591.40	79.118
591.74	77.738
592.07	78.015
592.41	78.445
592.74	77.220
593.08	76.947
593.41	78.287
593.75	78.083
594.08	75.832
594.41	76.856
594.75	77.176
595.08	77.828
595.42	77.402
595.75	79.009
596.09	77.873
596.42	76.933
596.75	77.753
597.09	76.993
597.42	76.603
597.75	78.745
598.09	75.419
598.42	75.903
598.76	77.349
599.09	77.845
599.42	76.582
599.76	76.298
600.09	77.376
600.42	77.445
600.76	76.337
601.09	76.756
601.42	75.480
601.76	76.737
602.09	77.599
602.42	78.854
602.76	77.419
603.09	78.322
603.42	79.139
603.76	78.105
604.09	77.359
604.42	77.792
604.76	78.683
605.09	77.102
605.42	77.156
605.75	77.539
606.09	77.113
606.42	76.606
606.75	76.970
607.09	77.187
607.42	77.005
607.75	76.510
608.08	76.056
608.42	75.788
608.75	79.181
609.08	77.877
609.41	77.513
609.75	77.268
610.08	78.582
610.41	76.329
610.74	78.791
611.07	79.018
611.41	79.865
611.74	79.797
612.07	77.730
612.40	78.392
612.73	77.797
613.07	79.640
613.40	76.751
613.73	78.064
614.06	77.629
614.39	78.229
614.72	78.655
615.06	79.441
615.39	76.583
615.72	77.180
616.05	77.877
616.38	77.151
616.71	77.309
617.05	78.382
617.38	77.813
617.71	78.994
618.04	80.952
618.37	78.625
618.70	78.020
619.03	80.556
619.36	79.305
619.69	81.198
620.03	79.985
620.36	80.043
620.69	78.373
621.02	79.128
621.35	80.332
621.68	82.653
622.01	80.000
622.34	81.165
622.67	79.890
623.00	80.934
623.33	80.259
623.66	78.684
623.99	78.290
624.32	81.065
624.65	79.173
624.99	79.910
625.32	78.620
625.65	79.262
625.98	79.533
626.31	78.969
626.64	79.896
626.97	81.414
627.30	81.086
627.63	80.243
627.96	82.390
628.29	79.186
628.62	80.433
628.95	80.160
629.28	81.552
629.61	80.459
629.94	82.209
630.26	82.213
630.59	82.310
630.92	79.897
631.25	78.051
631.58	81.828
631.91	83.224
632.24	82.110
632.57	81.818
632.90	84.104
633.23	81.059
633.56	82.746
633.89	83.600
634.22	86.790
634.55	85.769
634.88	83.269
635.20	82.436
635.53	85.600
635.86	81.795
636.19	83.829
636.52	83.929
636.85	81.266
637.18	82.767
637.51	82.642
