SpectraSuite Data File
++++++++++++++++++++++++++++++++++++
Date: Fri May 15 20:12:52 PDT 2015
User: schluterlab
Dark Spectrum Present: Yes
Reference Spectrum Present: Yes
Number of Sampled Component Spectra: 1
Spectrometers: USB2E3373
Integration Time (usec): 3000 (USB2E3373)
Spectra Averaged: 3 (USB2E3373)
Boxcar Smoothing: 0 (USB2E3373)
Correct for Electrical Dark: No (USB2E3373)
Strobe/Lamp Enabled: No (USB2E3373)
Correct for Detector Non-linearity: No (USB2E3373)
Correct for Stray Light: No (USB2E3373)
Number of Pixels in Processed Spectrum: 2048
>>>>>Begin Processed Spectral Data<<<<<
178.53	0.000
178.91	0.000
179.29	150.000
179.67	-250.000
180.04	-57.143
180.42	50.000
180.80	0.000
181.18	233.333
181.56	400.000
181.94	0.000
182.31	400.000
182.69	0.000
183.07	100.000
183.45	-120.000
183.83	-16.667
184.20	81.818
184.58	55.556
184.96	-0.000
185.34	-0.000
185.72	300.000
186.09	69.231
186.47	0.000
186.85	166.667
187.23	77.778
187.61	-500.000
187.98	-400.000
188.36	44.444
188.74	233.333
189.12	41.176
189.49	11.111
189.87	0.000
190.25	42.857
190.63	200.000
191.00	-166.667
191.38	42.105
191.76	450.000
192.14	50.000
192.51	50.000
192.89	-122.222
193.27	85.714
193.65	-16.667
194.02	145.455
194.40	0.000
194.78	-25.000
195.15	-8.333
195.53	-137.500
195.91	225.000
196.29	-250.000
196.66	92.308
197.04	28.571
197.42	-66.667
197.79	-400.000
198.17	-84.615
198.55	1700.000
198.92	-166.667
199.30	-100.000
199.68	-80.000
200.05	100.000
200.43	0.000
200.81	-233.333
201.18	-333.333
201.56	200.000
201.94	-400.000
202.31	-266.667
202.69	-80.000
203.07	25.000
203.44	-100.000
203.82	0.000
204.19	64.286
204.57	-566.667
204.95	50.000
205.32	40.000
205.70	85.714
206.08	-25.000
206.45	211.111
206.83	50.000
207.20	-42.857
207.58	200.000
207.96	-166.667
208.33	-10.000
208.71	-100.000
209.08	-16.667
209.46	300.000
209.84	-80.000
210.21	-700.000
210.59	142.857
210.96	0.000
211.34	150.000
211.71	53.333
212.09	-71.429
212.46	-1000.000
212.84	0.000
213.22	-40.000
213.59	450.000
213.97	46.154
214.34	81.818
214.72	-83.333
215.09	350.000
215.47	-46.154
215.84	-27.273
216.22	-100.000
216.59	25.000
216.97	500.000
217.34	125.000
217.72	-140.000
218.09	0.000
218.47	150.000
218.84	-300.000
219.22	33.333
219.59	100.000
219.97	300.000
220.34	100.000
220.72	0.000
221.09	100.000
221.47	-250.000
221.84	-350.000
222.22	-100.000
222.59	72.727
222.97	33.333
223.34	-266.667
223.72	-7.143
224.09	4.762
224.46	35.714
224.84	200.000
225.21	-10.000
225.59	26.667
225.96	0.000
226.34	150.000
226.71	-42.857
227.08	16.667
227.46	12.500
227.83	-150.000
228.21	66.667
228.58	0.000
228.95	-37.500
229.33	60.000
229.70	50.000
230.08	-75.000
230.45	85.714
230.82	42.857
231.20	33.333
231.57	-14.286
231.95	-57.143
232.32	-30.000
232.69	35.714
233.07	33.333
233.44	-120.000
233.81	40.000
234.19	0.000
234.56	35.294
234.93	400.000
235.31	50.000
235.68	-160.000
236.05	-46.154
236.43	-25.000
236.80	11.765
237.17	9.375
237.55	-55.000
237.92	-14.815
238.29	22.222
238.67	13.333
239.04	-11.765
239.41	-14.634
239.79	-30.000
240.16	0.000
240.53	-15.789
240.91	-13.043
241.28	25.397
241.65	12.500
242.02	16.438
242.40	0.000
242.77	0.000
243.14	9.091
243.51	2.500
243.89	10.345
244.26	0.000
244.63	3.571
245.00	2.062
245.38	1.031
245.75	-17.978
246.12	-0.862
246.49	3.306
246.87	3.846
247.24	-1.681
247.61	-3.509
247.98	-1.626
248.36	3.750
248.73	2.632
249.10	2.597
249.47	1.266
249.84	0.000
250.22	0.588
250.59	-4.575
250.96	7.042
251.33	-2.326
251.70	4.706
252.08	4.061
252.45	4.950
252.82	-1.005
253.19	0.000
253.56	-2.336
253.94	6.306
254.31	3.043
254.68	2.632
255.05	-1.969
255.42	1.310
255.79	3.475
256.16	1.167
256.54	2.239
256.91	0.760
257.28	2.230
257.65	-1.498
258.02	1.064
258.39	4.377
258.76	6.227
259.14	2.326
259.51	3.883
259.88	-2.749
260.25	-0.654
260.62	1.389
260.99	-4.746
261.36	-2.397
261.73	-2.215
262.10	-0.304
262.47	0.000
262.85	2.821
263.22	1.538
263.59	2.181
263.96	1.553
264.33	1.212
264.70	1.786
265.07	2.083
265.44	1.700
265.81	3.672
266.18	1.639
266.55	5.398
266.92	0.777
267.29	3.394
267.66	2.046
268.03	2.094
268.40	-2.350
268.77	2.406
269.14	3.837
269.51	3.342
269.88	0.000
270.25	-2.551
270.62	-1.220
270.99	-0.767
271.36	-0.978
271.73	3.991
272.10	3.406
272.47	1.655
272.84	1.980
273.21	0.928
273.58	1.205
273.95	2.517
274.32	2.079
274.69	1.131
275.06	2.232
275.43	1.587
275.80	0.883
276.17	1.609
276.54	2.784
276.91	0.658
277.28	0.000
277.65	1.653
278.02	2.340
278.39	-0.219
278.76	-1.258
279.13	-1.660
279.50	0.630
279.87	0.864
280.23	0.215
280.60	3.119
280.97	1.616
281.34	0.192
281.71	1.232
282.08	0.000
282.45	-0.783
282.82	-0.386
283.19	2.128
283.56	0.578
283.92	0.759
284.29	1.538
284.66	-0.969
285.03	0.982
285.40	0.945
285.77	1.406
286.14	0.722
286.51	2.952
286.87	1.463
287.24	0.552
287.61	0.000
287.98	2.632
288.35	-0.173
288.72	2.277
289.08	2.431
289.45	2.460
289.82	0.874
290.19	0.000
290.56	-0.686
290.93	0.673
291.29	0.154
291.66	3.307
292.03	1.435
292.40	0.161
292.77	-0.159
293.13	0.000
293.50	1.062
293.87	1.832
294.24	0.927
294.60	0.894
294.97	0.744
295.34	0.613
295.71	1.788
296.08	0.299
296.44	-1.280
296.81	0.417
297.18	0.580
297.55	2.439
297.91	-0.685
298.28	1.715
298.65	1.085
299.02	0.809
299.38	-1.231
299.75	0.828
300.12	0.000
300.48	-1.054
300.85	1.141
301.22	0.000
301.59	1.053
301.95	0.633
302.32	1.946
302.69	1.493
303.05	1.361
303.42	1.868
303.79	0.935
304.15	1.673
304.52	0.238
304.89	1.053
305.25	-0.363
305.62	-0.350
305.99	0.351
306.35	0.000
306.72	0.450
307.09	1.482
307.45	0.689
307.82	0.231
308.19	1.510
308.55	0.327
308.92	0.871
309.29	1.676
309.65	0.646
310.02	-0.220
310.38	1.427
310.75	2.295
311.12	1.399
311.48	1.166
311.85	1.152
312.22	0.422
312.58	0.849
312.95	1.387
313.31	0.414
313.68	0.628
314.05	0.816
314.41	2.371
314.78	1.237
315.14	0.822
315.51	1.760
315.87	0.820
316.24	2.224
316.61	1.476
316.97	1.786
317.34	0.195
317.70	1.530
318.07	1.058
318.43	0.882
318.80	1.705
319.16	0.977
319.53	1.899
319.89	0.689
320.26	1.721
320.62	2.307
320.99	0.731
321.35	0.514
321.72	1.973
322.08	1.712
322.45	0.711
322.81	1.375
323.18	1.963
323.54	0.965
323.91	2.434
324.27	1.270
324.64	1.217
325.00	2.099
325.37	3.673
325.73	0.997
326.10	1.817
326.46	2.063
326.83	1.487
327.19	1.831
327.56	1.998
327.92	2.465
328.29	2.857
328.65	0.849
329.01	0.276
329.38	2.120
329.74	1.794
330.11	1.946
330.47	0.186
330.84	0.865
331.20	1.996
331.56	0.833
331.93	2.557
332.29	2.566
332.66	1.448
333.02	1.859
333.38	1.100
333.75	2.839
334.11	1.611
334.48	3.354
334.84	2.839
335.20	1.921
335.57	1.360
335.93	2.620
336.29	2.302
336.66	1.726
337.02	0.651
337.38	1.296
337.75	1.909
338.11	2.435
338.47	2.464
338.84	1.571
339.20	1.188
339.56	1.468
339.93	2.596
340.29	1.651
340.65	2.688
341.02	2.039
341.38	1.239
341.74	0.530
342.11	1.127
342.47	1.868
342.83	2.855
343.20	1.394
343.56	2.087
343.92	1.240
344.28	2.733
344.65	1.900
345.01	2.161
345.37	2.944
345.73	2.008
346.10	3.106
346.46	2.355
346.82	2.537
347.19	1.081
347.55	2.172
347.91	2.427
348.27	2.344
348.63	2.044
349.00	1.723
349.36	1.496
349.72	2.570
350.08	2.541
350.45	2.314
350.81	1.163
351.17	3.094
351.53	2.694
351.89	1.734
352.26	2.160
352.62	2.016
352.98	2.169
353.34	2.254
353.70	2.265
354.07	2.016
354.43	2.482
354.79	2.064
355.15	3.413
355.51	3.956
355.87	1.861
356.24	0.816
356.60	1.859
356.96	2.540
357.32	1.997
357.68	1.642
358.04	1.616
358.40	1.527
358.77	1.914
359.13	2.562
359.49	2.157
359.85	1.326
360.21	1.037
360.57	2.219
360.93	1.891
361.29	1.284
361.66	2.351
362.02	2.197
362.38	2.209
362.74	2.347
363.10	2.333
363.46	1.631
363.82	2.329
364.18	1.993
364.54	1.544
364.90	1.864
365.26	1.674
365.62	3.285
365.98	2.199
366.35	3.350
366.71	2.439
367.07	2.032
367.43	2.229
367.79	1.837
368.15	2.225
368.51	1.894
368.87	1.077
369.23	2.166
369.59	2.259
369.95	2.566
370.31	2.312
370.67	2.463
371.03	1.344
371.39	2.115
371.75	3.150
372.11	1.427
372.47	1.331
372.83	1.987
373.19	2.639
373.55	1.588
373.91	2.304
374.27	2.693
374.63	3.374
374.99	2.128
375.35	2.089
375.71	2.308
376.07	2.247
376.42	1.837
376.78	2.148
377.14	2.031
377.50	1.527
377.86	2.343
378.22	2.553
378.58	1.667
378.94	2.647
379.30	2.682
379.66	3.386
380.02	1.962
380.38	2.617
380.74	2.214
381.09	3.067
381.45	2.324
381.81	2.036
382.17	2.221
382.53	2.623
382.89	1.883
383.25	2.676
383.61	3.354
383.97	2.032
384.32	2.939
384.68	2.724
385.04	2.880
385.40	2.614
385.76	2.327
386.12	3.558
386.48	2.810
386.83	2.980
387.19	3.053
387.55	3.262
387.91	2.689
388.27	2.869
388.62	3.398
388.98	3.499
389.34	3.498
389.70	2.983
390.06	2.580
390.42	2.332
390.77	2.616
391.13	2.837
391.49	2.781
391.85	3.119
392.20	2.699
392.56	3.306
392.92	3.699
393.28	3.302
393.64	3.363
393.99	4.075
394.35	2.783
394.71	3.512
395.07	3.206
395.42	3.218
395.78	3.127
396.14	4.414
396.50	4.439
396.85	3.670
397.21	4.386
397.57	4.075
397.92	4.254
398.28	3.333
398.64	3.614
399.00	3.837
399.35	3.781
399.71	4.308
400.07	4.111
400.42	4.284
400.78	4.654
401.14	3.993
401.49	4.765
401.85	3.961
402.21	4.157
402.57	3.625
402.92	3.952
403.28	5.075
403.63	4.098
403.99	4.145
404.35	4.185
404.70	4.286
405.06	3.760
405.42	4.040
405.77	3.196
406.13	3.783
406.49	4.144
406.84	4.279
407.20	4.094
407.55	3.606
407.91	4.412
408.27	4.908
408.62	4.923
408.98	4.559
409.34	4.647
409.69	4.134
410.05	3.879
410.40	4.259
410.76	4.765
411.11	3.813
411.47	4.405
411.83	3.264
412.18	4.054
412.54	4.557
412.89	4.741
413.25	4.573
413.60	4.410
413.96	4.294
414.31	5.061
414.67	3.656
415.03	4.194
415.38	4.243
415.74	5.081
416.09	5.291
416.45	4.591
416.80	5.089
417.16	4.144
417.51	5.730
417.87	4.628
418.22	4.210
418.58	5.217
418.93	5.643
419.29	4.225
419.64	4.277
420.00	5.416
420.35	4.537
420.71	5.650
421.06	5.218
421.42	5.168
421.77	5.145
422.12	4.824
422.48	4.927
422.83	5.510
423.19	4.853
423.54	3.998
423.90	5.241
424.25	4.305
424.61	5.630
424.96	5.285
425.31	5.604
425.67	5.575
426.02	5.418
426.38	4.696
426.73	5.387
427.09	5.949
427.44	5.765
427.79	5.716
428.15	5.825
428.50	4.967
428.85	3.993
429.21	5.886
429.56	6.253
429.92	5.650
430.27	5.514
430.62	5.436
430.98	5.255
431.33	5.889
431.68	5.704
432.04	5.031
432.39	5.876
432.74	5.472
433.10	6.207
433.45	5.795
433.80	4.875
434.16	5.374
434.51	5.054
434.86	6.098
435.22	6.057
435.57	5.926
435.92	5.329
436.28	5.307
436.63	6.275
436.98	5.330
437.34	5.384
437.69	6.261
438.04	5.470
438.39	5.192
438.75	5.647
439.10	5.659
439.45	5.356
439.81	5.138
440.16	5.819
440.51	6.090
440.86	7.190
441.22	6.109
441.57	6.236
441.92	5.666
442.27	6.153
442.63	6.424
442.98	5.916
443.33	5.231
443.68	5.995
444.03	6.160
444.39	6.493
444.74	7.023
445.09	6.236
445.44	5.983
445.79	6.550
446.15	5.782
446.50	5.657
446.85	5.632
447.20	5.631
447.55	6.417
447.91	6.317
448.26	7.114
448.61	6.448
448.96	6.081
449.31	5.896
449.66	5.459
450.02	6.275
450.37	5.572
450.72	6.014
451.07	6.013
451.42	6.554
451.77	6.389
452.12	5.443
452.47	5.538
452.83	5.948
453.18	6.388
453.53	5.815
453.88	6.254
454.23	6.331
454.58	5.982
454.93	5.992
455.28	5.270
455.63	6.572
455.98	6.735
456.34	5.747
456.69	6.544
457.04	7.309
457.39	5.954
457.74	5.865
458.09	6.004
458.44	6.202
458.79	6.050
459.14	6.350
459.49	6.627
459.84	6.543
460.19	5.704
460.54	6.663
460.89	6.477
461.24	6.708
461.59	6.295
461.94	6.101
462.29	7.117
462.64	7.641
462.99	6.026
463.34	6.537
463.69	5.341
464.04	6.780
464.39	6.186
464.74	6.564
465.09	6.800
465.44	6.924
465.79	6.463
466.14	6.499
466.49	6.095
466.84	6.782
467.19	7.134
467.54	5.875
467.89	6.254
468.24	6.265
468.59	7.111
468.94	6.413
469.29	6.230
469.64	6.699
469.99	7.078
470.34	6.007
470.68	7.010
471.03	6.794
471.38	6.990
471.73	6.863
472.08	5.902
472.43	5.436
472.78	6.785
473.13	5.374
473.48	6.384
473.83	6.600
474.17	7.319
474.52	6.892
474.87	6.545
475.22	6.101
475.57	6.268
475.92	6.583
476.27	6.927
476.61	6.713
476.96	6.191
477.31	6.814
477.66	6.404
478.01	5.783
478.36	6.481
478.70	7.232
479.05	6.868
479.40	6.624
479.75	6.204
480.10	6.452
480.45	6.600
480.79	6.647
481.14	7.018
481.49	6.601
481.84	6.708
482.19	6.314
482.53	6.523
482.88	6.730
483.23	5.902
483.58	6.557
483.92	6.970
484.27	6.381
484.62	6.679
484.97	6.426
485.31	6.828
485.66	6.663
486.01	6.639
486.36	6.493
486.70	6.414
487.05	6.433
487.40	6.412
487.75	6.197
488.09	6.737
488.44	6.362
488.79	6.985
489.13	7.011
489.48	6.798
489.83	6.547
490.17	6.517
490.52	6.328
490.87	6.664
491.22	6.495
491.56	6.309
491.91	6.836
492.26	6.757
492.60	6.622
492.95	7.673
493.30	6.693
493.64	6.336
493.99	6.908
494.34	5.825
494.68	6.381
495.03	6.034
495.37	6.526
495.72	6.360
496.07	7.122
496.41	6.840
496.76	7.278
497.11	6.707
497.45	6.492
497.80	6.761
498.14	7.004
498.49	6.958
498.84	6.188
499.18	6.376
499.53	6.647
499.87	6.615
500.22	6.775
500.56	7.060
500.91	6.175
501.26	6.970
501.60	6.591
501.95	7.181
502.29	6.392
502.64	6.998
502.98	6.611
503.33	6.484
503.67	6.313
504.02	6.403
504.36	6.927
504.71	6.566
505.06	6.593
505.40	6.294
505.75	6.392
506.09	6.792
506.44	7.290
506.78	6.837
507.13	6.256
507.47	6.057
507.82	6.571
508.16	6.815
508.51	7.083
508.85	6.907
509.19	6.333
509.54	6.595
509.88	6.149
510.23	6.563
510.57	7.002
510.92	6.450
511.26	6.492
511.61	6.656
511.95	7.014
512.30	6.430
512.64	7.012
512.98	6.513
513.33	7.387
513.67	6.310
514.02	6.922
514.36	7.714
514.70	7.110
515.05	7.286
515.39	7.379
515.74	6.766
516.08	6.993
516.42	7.951
516.77	7.841
517.11	6.647
517.46	7.600
517.80	7.330
518.14	6.491
518.49	6.971
518.83	6.197
519.17	5.579
519.52	7.046
519.86	6.723
520.20	7.351
520.55	6.754
520.89	7.465
521.23	7.156
521.58	7.950
521.92	7.051
522.26	6.376
522.61	7.013
522.95	7.351
523.29	7.560
523.64	7.306
523.98	6.546
524.32	6.765
524.66	7.618
525.01	6.948
525.35	8.231
525.69	5.926
526.04	6.151
526.38	7.847
526.72	6.867
527.06	7.328
527.41	7.850
527.75	6.367
528.09	7.442
528.43	7.968
528.78	7.789
529.12	7.097
529.46	6.563
529.80	7.473
530.15	7.393
530.49	7.003
530.83	6.908
531.17	6.985
531.51	7.661
531.86	7.138
532.20	6.889
532.54	7.760
532.88	7.529
533.22	7.527
533.57	7.864
533.91	6.462
534.25	8.333
534.59	7.761
534.93	7.678
535.27	6.091
535.62	6.481
535.96	8.219
536.30	7.454
536.64	6.547
536.98	7.596
537.32	7.468
537.66	8.135
538.01	7.832
538.35	6.796
538.69	8.056
539.03	6.562
539.37	8.008
539.71	6.476
540.05	7.604
540.39	7.618
540.73	7.322
541.07	7.182
541.42	8.938
541.76	8.259
542.10	7.364
542.44	6.880
542.78	6.194
543.12	6.593
543.46	8.136
543.80	7.217
544.14	6.943
544.48	6.929
544.82	7.861
545.16	7.582
545.50	8.144
545.84	8.215
546.18	8.794
546.52	7.859
546.86	7.333
547.20	7.654
547.54	6.572
547.88	7.813
548.22	7.101
548.56	7.784
548.90	7.412
549.24	7.507
549.58	8.251
549.92	7.577
550.26	7.766
550.60	7.286
550.94	6.945
551.28	6.801
551.62	8.154
551.96	7.970
552.30	7.310
552.64	6.911
552.98	7.032
553.32	7.703
553.66	6.967
554.00	6.715
554.34	7.976
554.68	7.522
555.02	8.631
555.36	7.928
555.69	7.106
556.03	6.353
556.37	6.406
556.71	7.726
557.05	7.681
557.39	7.435
557.73	8.021
558.07	8.673
558.41	6.662
558.75	7.093
559.08	7.407
559.42	6.905
559.76	7.766
560.10	6.728
560.44	7.520
560.78	7.902
561.12	7.687
561.45	6.887
561.79	8.473
562.13	7.168
562.47	6.475
562.81	7.277
563.15	7.616
563.48	7.426
563.82	7.962
564.16	7.660
564.50	7.162
564.84	8.367
565.17	6.908
565.51	7.923
565.85	7.339
566.19	7.759
566.52	8.311
566.86	7.969
567.20	7.285
567.54	7.117
567.88	7.440
568.21	7.692
568.55	7.663
568.89	8.419
569.23	7.752
569.56	7.706
569.90	8.161
570.24	7.518
570.57	7.855
570.91	7.529
571.25	7.629
571.59	7.287
571.92	7.200
572.26	7.005
572.60	7.132
572.93	7.217
573.27	6.646
573.61	7.160
573.95	7.373
574.28	6.992
574.62	7.374
574.96	7.205
575.29	7.067
575.63	6.919
575.97	7.021
576.30	6.832
576.64	6.993
576.98	7.156
577.31	6.955
577.65	7.087
577.98	7.185
578.32	6.945
578.66	6.942
578.99	6.879
579.33	6.970
579.67	7.116
580.00	7.114
580.34	7.164
580.67	6.825
581.01	6.964
581.35	6.891
581.68	7.439
582.02	6.864
582.35	7.094
582.69	7.168
583.02	7.285
583.36	7.239
583.70	7.451
584.03	7.729
584.37	7.595
584.70	7.170
585.04	6.710
585.37	7.740
585.71	7.159
586.04	7.337
586.38	6.962
586.72	7.030
587.05	7.279
587.39	7.353
587.72	7.463
588.06	7.584
588.39	7.491
588.73	6.990
589.06	7.632
589.40	7.847
589.73	7.229
590.07	7.704
590.40	7.392
590.73	7.249
591.07	7.506
591.40	7.836
591.74	7.285
592.07	8.349
592.41	8.039
592.74	7.368
593.08	7.090
593.41	7.381
593.75	7.295
594.08	7.072
594.41	7.460
594.75	6.870
595.08	7.416
595.42	7.582
595.75	7.360
596.09	7.037
596.42	7.276
596.75	6.838
597.09	7.745
597.42	7.453
597.75	6.642
598.09	7.696
598.42	7.310
598.76	7.036
599.09	7.412
599.42	7.427
599.76	7.562
600.09	7.428
600.42	7.582
600.76	6.761
601.09	6.450
601.42	7.677
601.76	7.225
602.09	6.683
602.42	7.372
602.76	7.258
603.09	7.226
603.42	7.358
603.76	7.137
604.09	6.723
604.42	7.487
604.76	7.521
605.09	7.678
605.42	7.494
605.75	6.961
606.09	6.921
606.42	7.214
606.75	7.359
607.09	7.692
607.42	7.000
607.75	7.060
608.08	6.873
608.42	7.629
608.75	7.518
609.08	6.876
609.41	7.716
609.75	7.359
610.08	7.688
610.41	7.391
610.74	6.680
611.07	7.132
611.41	7.369
611.74	7.836
612.07	6.959
612.40	7.495
612.73	6.893
613.07	6.693
613.40	7.877
613.73	7.387
614.06	7.346
614.39	7.558
614.72	6.947
615.06	8.045
615.39	7.151
615.72	7.966
616.05	7.877
616.38	6.952
616.71	6.972
617.05	7.227
617.38	6.914
617.71	7.862
618.04	7.175
618.37	8.449
618.70	8.251
619.03	7.500
619.36	6.512
619.69	7.657
620.03	7.232
620.36	7.940
620.69	8.208
621.02	8.028
621.35	7.552
621.68	7.823
622.01	8.250
622.34	7.901
622.67	8.360
623.00	7.657
623.33	7.546
623.66	7.779
623.99	8.018
624.32	7.376
624.65	6.617
624.99	7.825
625.32	7.809
625.65	7.698
625.98	7.655
626.31	7.315
626.64	8.059
626.97	8.290
627.30	6.918
627.63	7.539
627.96	7.367
628.29	7.771
628.62	7.965
628.95	8.417
629.28	7.560
629.61	7.079
629.94	8.113
630.26	7.115
630.59	7.180
630.92	7.692
631.25	7.282
631.58	6.167
631.91	6.689
632.24	7.225
632.57	8.636
632.90	8.066
633.23	7.765
633.56	7.683
633.89	6.535
634.22	8.148
634.55	7.116
634.88	6.386
635.20	6.538
635.53	8.000
635.86	7.542
636.19	8.021
636.52	6.888
636.85	6.079
637.18	7.044
637.51	7.421
637.83	8.147
638.16	8.322
638.49	6.676
638.82	10.000
639.15	7.463
639.48	7.840
639.81	7.810
640.13	7.504
640.46	9.329
640.79	6.186
641.12	6.647
641.45	9.009
641.77	6.667
642.10	9.163
642.43	7.717
642.76	8.911
643.09	7.270
643.41	8.738
643.74	6.096
644.07	10.016
644.40	8.784
644.73	10.333
645.05	8.389
645.38	7.231
645.71	6.560
646.04	7.720
646.36	7.270
646.69	10.612
647.02	7.183
647.35	9.515
647.67	7.861
648.00	9.888
648.33	8.191
648.66	6.780
648.98	6.198
649.31	5.289
649.64	7.064
649.96	6.645
650.29	7.496
650.62	7.179
650.94	6.667
651.27	6.145
651.60	7.027
651.92	9.615
652.25	6.927
652.58	9.333
652.90	7.033
653.23	7.395
653.56	6.091
653.88	6.357
654.21	6.830
654.54	7.301
654.86	9.508
655.19	7.310
655.52	8.282
655.84	6.774
656.17	7.332
656.49	9.933
656.82	10.298
657.15	7.907
657.47	5.996
657.80	4.499
658.13	4.320
658.45	6.783
658.78	6.712
659.10	6.538
