SpectraSuite Data File
++++++++++++++++++++++++++++++++++++
Date: Fri May 15 17:24:07 PDT 2015
User: schluterlab
Dark Spectrum Present: Yes
Reference Spectrum Present: Yes
Number of Sampled Component Spectra: 1
Spectrometers: USB2E3373
Integration Time (usec): 3000 (USB2E3373)
Spectra Averaged: 3 (USB2E3373)
Boxcar Smoothing: 0 (USB2E3373)
Correct for Electrical Dark: No (USB2E3373)
Strobe/Lamp Enabled: No (USB2E3373)
Correct for Detector Non-linearity: No (USB2E3373)
Correct for Stray Light: No (USB2E3373)
Number of Pixels in Processed Spectrum: 2048
>>>>>Begin Processed Spectral Data<<<<<
178.53	0.000
178.91	0.000
179.29	37.500
179.67	-300.000
180.04	-57.143
180.42	225.000
180.80	700.000
181.18	-0.000
181.56	250.000
181.94	-50.000
182.31	-400.000
182.69	-100.000
183.07	-66.667
183.45	-220.000
183.83	-16.667
184.20	90.909
184.58	33.333
184.96	-350.000
185.34	-166.667
185.72	150.000
186.09	146.154
186.47	-100.000
186.85	83.333
187.23	44.444
187.61	-800.000
187.98	66.667
188.36	122.222
188.74	-66.667
189.12	35.294
189.49	27.778
189.87	0.000
190.25	114.286
190.63	400.000
191.00	333.333
191.38	52.632
191.76	500.000
192.14	-225.000
192.51	400.000
192.89	22.222
193.27	57.143
193.65	66.667
194.02	63.636
194.40	60.000
194.78	-25.000
195.15	0.000
195.53	50.000
195.91	-50.000
196.29	-225.000
196.66	53.846
197.04	-42.857
197.42	-33.333
197.79	-233.333
198.17	-69.231
198.55	1200.000
198.92	-166.667
199.30	200.000
199.68	120.000
200.05	133.333
200.43	0.000
200.81	-100.000
201.18	-133.333
201.56	-400.000
201.94	-150.000
202.31	-366.667
202.69	-40.000
203.07	-225.000
203.44	400.000
203.82	0.000
204.19	85.714
204.57	-133.333
204.95	75.000
205.32	130.000
205.70	14.286
206.08	0.000
206.45	155.556
206.83	114.286
207.20	57.143
207.58	100.000
207.96	-133.333
208.33	30.000
208.71	-25.000
209.08	-33.333
209.46	-100.000
209.84	200.000
210.21	-1100.000
210.59	71.429
210.96	133.333
211.34	400.000
211.71	13.333
212.09	28.571
212.46	-1400.000
212.84	0.000
213.22	90.000
213.59	350.000
213.97	130.769
214.34	154.545
214.72	183.333
215.09	400.000
215.47	53.846
215.84	63.636
216.22	-66.667
216.59	12.500
216.97	-50.000
217.34	300.000
217.72	-20.000
218.09	87.500
218.47	112.500
218.84	1000.000
219.22	-55.556
219.59	-20.000
219.97	333.333
220.34	50.000
220.72	42.857
221.09	125.000
221.47	400.000
221.84	-500.000
222.22	-100.000
222.59	0.000
222.97	0.000
223.34	-266.667
223.72	35.714
224.09	38.095
224.46	53.571
224.84	-200.000
225.21	120.000
225.59	13.333
225.96	-600.000
226.34	175.000
226.71	0.000
227.08	-50.000
227.46	62.500
227.83	-250.000
228.21	33.333
228.58	54.545
228.95	50.000
229.33	-0.000
229.70	12.500
230.08	0.000
230.45	-71.429
230.82	142.857
231.20	40.000
231.57	71.429
231.95	128.571
232.32	90.000
232.69	42.857
233.07	233.333
233.44	20.000
233.81	-40.000
234.19	-55.556
234.56	29.412
234.93	-0.000
235.31	125.000
235.68	20.000
236.05	38.462
236.43	20.000
236.80	5.882
237.17	28.125
237.55	30.000
237.92	44.444
238.29	16.667
238.67	40.000
239.04	20.588
239.41	7.317
239.79	16.667
240.16	36.585
240.53	31.579
240.91	17.391
241.28	23.810
241.65	33.929
242.02	34.247
242.40	40.000
242.77	35.593
243.14	16.667
243.51	22.500
243.89	36.782
244.26	11.494
244.63	19.048
245.00	23.711
245.38	27.835
245.75	4.494
246.12	15.517
246.49	29.752
246.87	28.846
247.24	17.647
247.61	25.439
247.98	24.390
248.36	20.625
248.73	26.974
249.10	25.974
249.47	20.886
249.84	26.797
250.22	24.706
250.59	32.026
250.96	31.455
251.33	28.488
251.70	31.176
252.08	24.873
252.45	33.663
252.82	24.623
253.19	28.571
253.56	24.766
253.94	26.126
254.31	28.696
254.68	28.947
255.05	21.260
255.42	27.948
255.79	21.622
256.16	25.681
256.54	27.239
256.91	26.236
257.28	24.164
257.65	22.846
258.02	23.759
258.39	24.242
258.76	24.908
259.14	25.581
259.51	25.890
259.88	21.993
260.25	25.163
260.62	25.347
260.99	21.356
261.36	23.630
261.73	23.418
262.10	24.924
262.47	23.620
262.85	24.138
263.22	26.462
263.59	25.234
263.96	24.534
264.33	24.848
264.70	25.000
265.07	25.298
265.44	25.496
265.81	23.729
266.18	22.678
266.55	24.422
266.92	26.166
267.29	26.632
267.66	24.297
268.03	24.084
268.40	26.893
268.77	25.668
269.14	24.940
269.51	27.763
269.88	25.436
270.25	26.020
270.62	22.683
270.99	24.552
271.36	23.227
271.73	25.352
272.10	27.007
272.47	26.241
272.84	25.990
273.21	25.754
273.58	25.783
273.95	24.714
274.32	22.402
274.69	22.172
275.06	23.438
275.43	23.129
275.80	22.517
276.17	24.828
276.54	23.340
276.91	21.491
277.28	24.454
277.65	23.967
278.02	21.915
278.39	24.508
278.76	25.157
279.13	20.954
279.50	23.739
279.87	24.190
280.23	23.656
280.60	23.197
280.97	24.040
281.34	21.154
281.71	26.489
282.08	20.859
282.45	23.092
282.82	22.394
283.19	23.598
283.56	21.195
283.92	21.632
284.29	21.346
284.66	21.705
285.03	21.807
285.40	22.873
285.77	21.617
286.14	21.661
286.51	23.616
286.87	21.024
287.24	20.626
287.61	20.811
287.98	23.509
288.35	23.570
288.72	21.016
289.08	18.924
289.45	21.793
289.82	21.853
290.19	20.137
290.56	18.868
290.93	19.865
291.29	18.952
291.66	20.315
292.03	17.703
292.40	19.839
292.77	19.139
293.13	16.558
293.50	16.995
293.87	19.084
294.24	20.402
294.60	16.841
294.97	17.857
295.34	17.025
295.71	18.480
296.08	15.845
296.44	17.070
296.81	17.361
297.18	18.261
297.55	18.835
297.91	16.849
298.28	17.942
298.65	16.825
299.02	17.385
299.38	16.005
299.75	16.690
300.12	16.361
300.48	15.942
300.85	18.124
301.22	16.364
301.59	15.526
301.95	17.342
302.32	16.732
302.69	17.910
303.05	16.337
303.42	14.446
303.79	15.888
304.15	16.010
304.52	14.982
304.89	16.374
305.25	16.102
305.62	13.302
305.99	15.789
306.35	16.416
306.72	13.611
307.09	14.139
307.45	17.222
307.82	14.236
308.19	16.144
308.55	14.286
308.92	17.320
309.29	15.531
309.65	14.209
310.02	13.971
310.38	14.929
310.75	15.956
311.12	16.362
311.48	16.649
311.85	15.288
312.22	14.346
312.58	13.800
312.95	14.514
313.31	15.321
313.68	15.497
314.05	14.694
314.41	15.670
314.78	15.979
315.14	16.444
315.51	16.460
315.87	15.779
316.24	17.796
316.61	17.028
316.97	16.766
317.34	15.430
317.70	17.017
318.07	16.731
318.43	16.961
318.80	17.235
319.16	16.602
319.53	17.569
319.89	17.421
320.26	18.016
320.62	17.854
320.99	16.806
321.35	19.013
321.72	19.211
322.08	20.342
322.45	20.914
322.81	19.941
323.18	19.921
323.54	20.849
323.91	20.351
324.27	20.898
324.64	22.472
325.00	21.715
325.37	24.610
325.73	23.572
326.10	24.342
326.46	25.022
326.83	25.897
327.19	25.109
327.56	26.325
327.92	27.201
328.29	26.607
328.65	28.302
329.01	27.482
329.38	28.203
329.74	27.479
330.11	29.379
330.47	31.076
330.84	28.365
331.20	33.745
331.56	30.000
331.93	32.329
332.29	32.172
332.66	32.036
333.02	32.621
333.38	32.447
333.75	33.791
334.11	32.587
334.48	35.449
334.84	33.883
335.20	34.309
335.57	33.817
335.93	34.869
336.29	34.899
336.66	34.242
337.02	33.086
337.38	33.889
337.75	34.636
338.11	34.806
338.47	35.584
338.84	34.843
339.20	35.192
339.56	34.587
339.93	36.347
340.29	35.321
340.65	34.946
341.02	33.865
341.38	35.487
341.74	35.866
342.11	34.055
342.47	36.566
342.83	35.035
343.20	35.889
343.56	35.913
343.92	35.695
344.28	36.379
344.65	35.406
345.01	35.782
345.37	35.240
345.73	36.067
346.10	35.893
346.46	35.744
346.82	34.943
347.19	35.411
347.55	36.257
347.91	37.540
348.27	36.136
348.63	36.542
349.00	35.767
349.36	35.162
349.72	36.401
350.08	36.557
350.45	36.313
350.81	35.050
351.17	35.179
351.53	36.898
351.89	35.590
352.26	35.600
352.62	37.177
352.98	35.502
353.34	35.105
353.70	37.460
354.07	35.968
354.43	36.429
354.79	36.168
355.15	37.937
355.51	37.421
355.87	38.188
356.24	37.357
356.60	35.893
356.96	37.302
357.32	36.901
357.68	36.357
358.04	37.641
358.40	36.817
358.77	37.879
359.13	37.550
359.49	36.055
359.85	38.612
360.21	37.560
360.57	38.409
360.93	37.519
361.29	37.387
361.66	38.088
362.02	39.242
362.38	38.690
362.74	38.153
363.10	39.503
363.46	38.399
363.82	38.768
364.18	38.819
364.54	37.721
364.90	38.566
365.26	40.611
365.62	40.511
365.98	39.663
366.35	38.237
366.71	39.837
367.07	38.897
367.43	40.115
367.79	39.788
368.15	39.483
368.51	39.913
368.87	39.340
369.23	40.650
369.59	41.108
369.95	39.883
370.31	41.257
370.67	41.940
371.03	41.299
371.39	40.554
371.75	42.418
372.11	41.512
372.47	40.533
372.83	41.803
373.19	40.371
373.55	41.300
373.91	41.901
374.27	43.090
374.63	43.144
374.99	41.986
375.35	43.315
375.71	43.287
376.07	44.171
376.42	43.469
376.78	44.899
377.14	44.144
377.50	44.887
377.86	45.515
378.22	43.842
378.58	45.385
378.94	45.747
379.30	45.664
379.66	47.712
380.02	46.597
380.38	46.196
380.74	46.858
381.09	47.853
381.45	48.440
381.81	47.440
382.17	47.018
382.53	46.159
382.89	49.529
383.25	49.533
383.61	48.598
383.97	49.143
384.32	48.030
384.68	47.926
385.04	49.694
385.40	48.724
385.76	51.509
386.12	49.030
386.48	51.149
386.83	50.222
387.19	50.855
387.55	52.008
387.91	51.161
388.27	49.451
388.62	50.787
388.98	50.215
389.34	52.467
389.70	52.455
390.06	52.108
390.42	51.490
390.77	52.387
391.13	52.837
391.49	52.523
391.85	53.801
392.20	52.417
392.56	53.210
392.92	53.553
393.28	52.889
393.64	53.033
393.99	53.793
394.35	53.700
394.71	54.789
395.07	52.546
395.42	52.945
395.78	55.179
396.14	53.972
396.50	54.534
396.85	54.024
397.21	54.198
397.57	52.853
397.92	53.565
398.28	55.057
398.64	54.277
399.00	54.515
399.35	53.104
399.71	54.624
400.07	54.353
400.42	53.488
400.78	56.154
401.14	55.414
401.49	55.211
401.85	53.809
402.21	54.337
402.57	54.562
402.92	54.329
403.28	56.015
403.63	55.801
403.99	54.974
404.35	55.590
404.70	55.179
405.06	54.818
405.42	53.511
405.77	54.213
406.13	55.180
406.49	54.648
406.84	55.746
407.20	55.810
407.55	54.797
407.91	55.080
408.27	55.386
408.62	55.077
408.98	55.330
409.34	57.001
409.69	55.556
410.05	55.111
410.40	55.556
410.76	55.428
411.11	55.750
411.47	55.293
411.83	55.179
412.18	56.306
412.54	54.994
412.89	55.296
413.25	56.919
413.60	55.466
413.96	54.785
414.31	54.512
414.67	55.484
415.03	55.925
415.38	55.614
415.74	56.287
416.09	56.564
416.45	56.853
416.80	55.321
417.16	56.906
417.51	56.629
417.87	55.085
418.22	58.096
418.58	57.659
418.93	57.868
419.29	54.481
419.64	56.967
420.00	58.375
420.35	56.299
420.71	58.262
421.06	56.231
421.42	57.151
421.77	59.653
422.12	58.910
422.48	57.336
422.83	56.845
423.19	56.941
423.54	57.319
423.90	58.009
424.25	58.840
424.61	59.241
424.96	57.433
425.31	60.774
425.67	59.918
426.02	60.483
426.38	59.737
426.73	60.109
427.09	61.013
427.44	61.118
427.79	60.754
428.15	59.163
428.50	60.145
428.85	58.477
429.21	59.196
429.56	61.186
429.92	60.555
430.27	59.098
430.62	59.749
430.98	60.616
431.33	60.515
431.68	60.492
432.04	61.599
432.39	60.068
432.74	59.952
433.10	60.805
433.45	61.589
433.80	62.449
434.16	61.385
434.51	60.538
434.86	62.137
435.22	61.974
435.57	62.820
435.92	63.234
436.28	62.373
436.63	62.008
436.98	62.862
437.34	63.642
437.69	64.758
438.04	63.020
438.39	61.698
438.75	65.027
439.10	62.818
439.45	64.273
439.81	64.465
440.16	65.499
440.51	65.254
440.86	65.801
441.22	63.971
441.57	65.673
441.92	65.845
442.27	66.131
442.63	66.221
442.98	65.824
443.33	65.665
443.68	65.093
444.03	65.772
444.39	64.978
444.74	66.388
445.09	67.428
445.44	65.983
445.79	67.303
446.15	66.355
446.50	66.334
446.85	67.269
447.20	67.310
447.55	67.690
447.91	66.667
448.26	67.729
448.61	67.991
448.96	67.298
449.31	68.728
449.66	68.583
450.02	69.025
450.37	68.643
450.72	67.526
451.07	70.190
451.42	67.478
451.77	69.560
452.12	67.464
452.47	67.804
452.83	67.962
453.18	68.438
453.53	67.889
453.88	68.488
454.23	69.146
454.58	69.710
454.93	68.814
455.28	67.365
455.63	69.126
455.98	68.972
456.34	69.732
456.69	69.949
457.04	70.384
457.39	70.231
457.74	70.012
458.09	67.393
458.44	69.105
458.79	70.644
459.14	69.451
459.49	68.896
459.84	69.487
460.19	69.721
460.54	69.866
460.89	69.261
461.24	69.441
461.59	69.121
461.94	69.434
462.29	69.783
462.64	70.963
462.99	69.736
463.34	70.097
463.69	69.884
464.04	70.036
464.39	70.042
464.74	68.896
465.09	69.120
465.44	69.879
465.79	68.254
466.14	70.068
466.49	69.638
466.84	70.256
467.19	69.962
467.54	70.243
467.89	70.373
468.24	70.316
468.59	71.175
468.94	69.587
469.29	70.557
469.64	70.130
469.99	71.969
470.34	69.625
470.68	72.782
471.03	70.701
471.38	70.685
471.73	71.289
472.08	69.810
472.43	72.617
472.78	70.528
473.13	70.204
473.48	70.423
473.83	70.299
474.17	72.345
474.52	70.645
474.87	71.333
475.22	70.592
475.57	70.186
475.92	71.092
476.27	71.246
476.61	71.817
476.96	69.660
477.31	70.795
477.66	70.843
478.01	70.634
478.36	70.153
478.70	72.703
479.05	73.022
479.40	72.019
479.75	69.187
480.10	70.251
480.45	70.700
480.79	72.659
481.14	72.490
481.49	69.409
481.84	71.429
482.19	70.580
482.53	71.175
482.88	70.979
483.23	71.209
483.58	70.991
483.92	71.152
484.27	70.100
484.62	70.238
484.97	71.227
485.31	69.762
485.66	69.936
486.01	69.417
486.36	69.004
486.70	69.027
487.05	69.042
487.40	69.054
487.75	69.352
488.09	68.634
488.44	70.083
488.79	70.153
489.13	70.353
489.48	71.612
489.83	71.928
490.17	71.551
490.52	71.732
490.87	69.551
491.22	71.824
491.56	71.632
491.91	70.841
492.26	73.213
492.60	70.921
492.95	72.996
493.30	71.324
493.64	72.200
493.99	72.271
494.34	71.748
494.68	72.238
495.03	71.484
495.37	71.492
495.72	72.792
496.07	73.122
496.41	72.170
496.76	71.257
497.11	70.983
497.45	72.029
497.80	73.613
498.14	71.336
498.49	72.880
498.84	72.355
499.18	72.741
499.53	73.165
499.87	72.033
500.22	72.008
500.56	73.071
500.91	72.038
501.26	72.071
501.60	73.340
501.95	72.877
502.29	73.559
502.64	72.732
502.98	72.965
503.33	71.902
503.67	71.807
504.02	73.265
504.36	72.489
504.71	73.485
505.06	73.125
505.40	72.538
505.75	73.660
506.09	71.972
506.44	73.922
506.78	73.673
507.13	74.095
507.47	72.585
507.82	73.771
508.16	73.851
508.51	73.820
508.85	74.935
509.19	73.018
509.54	74.316
509.88	73.247
510.23	75.847
510.57	73.757
510.92	72.335
511.26	74.359
511.61	74.642
511.95	73.205
512.30	73.503
512.64	72.732
512.98	72.656
513.33	74.035
513.67	73.508
514.02	75.400
514.36	74.400
514.70	75.466
515.05	76.146
515.39	75.148
515.74	76.826
516.08	75.613
516.42	75.383
516.77	75.892
517.11	76.736
517.46	76.840
517.80	74.195
518.14	75.750
518.49	75.421
518.83	74.909
519.17	74.651
519.52	74.364
519.86	74.250
520.20	75.577
520.55	74.547
520.89	76.035
521.23	75.681
521.58	77.224
521.92	76.218
522.26	76.838
522.61	76.364
522.95	77.815
523.29	75.540
523.64	74.778
523.98	77.317
524.32	75.000
524.66	77.785
525.01	77.857
525.35	74.919
525.69	76.902
526.04	76.190
526.38	76.978
526.72	76.259
527.06	76.654
527.41	76.253
527.75	76.542
528.09	76.811
528.43	78.798
528.78	78.350
529.12	76.903
529.46	77.063
529.80	75.617
530.15	78.614
530.49	77.374
530.83	79.207
531.17	76.964
531.51	78.523
531.86	76.818
532.20	76.896
532.54	76.106
532.88	77.413
533.22	76.210
533.57	77.720
533.91	76.436
534.25	77.930
534.59	75.882
534.93	75.456
535.27	75.825
535.62	76.215
535.96	76.973
536.30	76.583
536.64	76.706
536.98	76.934
537.32	78.307
537.66	79.102
538.01	77.902
538.35	76.699
538.69	76.631
539.03	76.623
539.37	77.995
539.71	76.619
540.05	76.443
540.39	77.078
540.73	76.778
541.07	77.624
541.42	77.487
541.76	78.321
542.10	75.774
542.44	77.623
542.78	74.467
543.12	77.404
543.46	77.330
543.80	78.279
544.14	75.033
544.48	75.683
544.82	77.512
545.16	76.025
545.50	74.566
545.84	76.629
546.18	78.865
546.52	78.226
546.86	77.211
547.20	77.897
547.54	76.113
547.88	76.970
548.22	76.266
548.56	76.187
548.90	74.933
549.24	75.069
549.58	77.151
549.92	75.983
550.26	77.582
550.60	78.364
550.94	78.641
551.28	77.434
551.62	79.077
551.96	78.045
552.30	78.874
552.64	77.221
552.98	78.340
553.32	77.746
553.66	77.286
554.00	78.978
554.34	77.474
554.68	75.959
555.02	79.613
555.36	76.440
555.69	78.022
556.03	76.374
556.37	77.295
556.71	78.267
557.05	79.120
557.39	76.580
557.73	78.111
558.07	79.261
558.41	78.101
558.75	79.345
559.08	78.487
559.42	81.270
559.76	80.624
560.10	79.052
560.44	79.449
560.78	78.042
561.12	78.561
561.45	79.480
561.79	77.311
562.13	79.063
562.47	77.986
562.81	79.179
563.15	79.126
563.48	77.723
563.82	77.763
564.16	78.482
564.50	76.824
564.84	76.573
565.17	78.068
565.51	80.396
565.85	79.150
566.19	79.178
566.52	78.686
566.86	78.021
567.20	77.522
567.54	78.163
567.88	78.266
568.21	78.620
568.55	77.337
568.89	77.926
569.23	77.082
569.56	76.970
569.90	76.654
570.24	74.060
570.57	76.436
570.91	76.926
571.25	74.844
571.59	74.058
571.92	72.978
572.26	74.366
572.60	74.109
572.93	73.047
573.27	73.197
573.61	73.240
573.95	73.839
574.28	73.120
574.62	72.159
574.96	72.725
575.29	73.019
575.63	71.158
575.97	72.594
576.30	73.405
576.64	72.132
576.98	73.102
577.31	73.753
577.65	73.188
577.98	73.352
578.32	71.470
578.66	71.653
578.99	72.040
579.33	71.946
579.67	71.915
580.00	72.380
580.34	71.915
580.67	71.464
581.01	72.863
581.35	72.438
581.68	72.820
582.02	72.564
582.35	72.628
582.69	73.081
583.02	72.613
583.36	73.314
583.70	73.884
584.03	75.619
584.37	75.184
584.70	74.670
585.04	72.176
585.37	73.096
585.71	73.340
586.04	73.878
586.38	73.700
586.72	74.261
587.05	74.841
587.39	74.672
587.72	75.342
588.06	74.758
588.39	74.338
588.73	74.847
589.06	75.408
589.40	75.147
589.73	75.758
590.07	77.417
590.40	76.780
590.73	78.007
591.07	77.439
591.40	76.358
591.74	76.516
592.07	77.365
592.41	78.136
592.74	77.539
593.08	75.201
593.41	75.387
593.75	75.695
594.08	76.004
594.41	76.092
594.75	76.412
595.08	75.823
595.42	76.776
595.75	77.319
596.09	77.170
596.42	76.933
596.75	78.641
597.09	76.948
597.42	77.778
597.75	78.378
598.09	76.053
598.42	75.496
598.76	75.847
599.09	76.402
599.42	75.786
599.76	75.470
600.09	76.810
600.42	76.042
600.76	75.446
601.09	75.954
601.42	75.715
601.76	76.816
602.09	76.238
602.42	77.338
602.76	77.250
603.09	76.578
603.42	80.059
603.76	76.653
604.09	77.562
604.42	77.157
604.76	78.282
605.09	78.016
605.42	77.381
605.75	77.452
606.09	78.047
606.42	76.397
606.75	77.316
607.09	76.967
607.42	76.828
607.75	76.021
608.08	76.640
608.42	75.971
608.75	79.133
609.08	79.023
609.41	78.731
609.75	77.974
610.08	78.582
610.41	77.681
610.74	77.377
611.07	79.845
611.41	79.813
611.74	79.424
612.07	78.212
612.40	79.595
612.73	79.153
613.07	79.640
613.40	79.923
613.73	79.127
614.06	79.021
614.39	78.511
614.72	79.048
615.06	79.218
615.39	77.511
615.72	77.234
616.05	78.156
616.38	77.379
616.71	79.817
617.05	78.999
617.38	78.881
617.71	79.811
618.04	81.397
618.37	80.517
618.70	81.386
619.03	82.431
619.36	81.838
619.69	82.183
620.03	83.053
620.36	81.760
620.69	81.656
621.02	81.881
621.35	84.481
621.68	82.398
622.01	83.083
622.34	81.804
622.67	81.940
623.00	79.862
623.33	81.860
623.66	80.180
623.99	80.862
624.32	83.574
624.65	82.105
624.99	81.490
625.32	79.530
625.65	83.504
625.98	83.723
626.31	81.546
626.64	84.142
626.97	83.508
627.30	83.800
627.63	83.795
627.96	85.714
628.29	84.181
628.62	86.431
628.95	82.565
629.28	87.198
629.61	85.842
629.94	86.119
630.26	84.486
630.59	87.929
630.92	86.667
631.25	83.385
631.58	88.106
631.91	87.061
632.24	88.991
632.57	85.795
632.90	89.917
633.23	88.353
633.56	89.798
633.89	89.026
634.22	87.778
