SpectraSuite Data File
++++++++++++++++++++++++++++++++++++
Date: Fri May 15 20:17:04 PDT 2015
User: schluterlab
Dark Spectrum Present: Yes
Reference Spectrum Present: Yes
Number of Sampled Component Spectra: 1
Spectrometers: USB2E3373
Integration Time (usec): 3000 (USB2E3373)
Spectra Averaged: 3 (USB2E3373)
Boxcar Smoothing: 0 (USB2E3373)
Correct for Electrical Dark: No (USB2E3373)
Strobe/Lamp Enabled: No (USB2E3373)
Correct for Detector Non-linearity: No (USB2E3373)
Correct for Stray Light: No (USB2E3373)
Number of Pixels in Processed Spectrum: 2048
>>>>>Begin Processed Spectral Data<<<<<
178.53	0.000
178.91	0.000
179.29	50.000
179.67	-250.000
180.04	28.571
180.42	-325.000
180.80	200.000
181.18	133.333
181.56	500.000
181.94	-300.000
182.31	300.000
182.69	-40.000
183.07	-233.333
183.45	-200.000
183.83	133.333
184.20	-63.636
184.58	211.111
184.96	25.000
185.34	-0.000
185.72	-200.000
186.09	169.231
186.47	-1000.000
186.85	266.667
187.23	122.222
187.61	300.000
187.98	33.333
188.36	66.667
188.74	-200.000
189.12	17.647
189.49	11.111
189.87	0.000
190.25	-7.143
190.63	550.000
191.00	-200.000
191.38	5.263
191.76	0.000
192.14	25.000
192.51	0.000
192.89	-55.556
193.27	-171.429
193.65	116.667
194.02	263.636
194.40	0.000
194.78	-125.000
195.15	-25.000
195.53	-12.500
195.91	200.000
196.29	-25.000
196.66	123.077
197.04	71.429
197.42	33.333
197.79	-366.667
198.17	-7.692
198.55	1600.000
198.92	-300.000
199.30	100.000
199.68	100.000
200.05	-233.333
200.43	0.000
200.81	100.000
201.18	-166.667
201.56	1200.000
201.94	200.000
202.31	33.333
202.69	-300.000
203.07	-25.000
203.44	-200.000
203.82	0.000
204.19	50.000
204.57	-433.333
204.95	225.000
205.32	-20.000
205.70	14.286
206.08	-250.000
206.45	155.556
206.83	57.143
207.20	-85.714
207.58	100.000
207.96	-233.333
208.33	-40.000
208.71	-100.000
209.08	-183.333
209.46	-100.000
209.84	-140.000
210.21	-500.000
210.59	28.571
210.96	-66.667
211.34	-275.000
211.71	133.333
212.09	-171.429
212.46	-1800.000
212.84	0.000
213.22	0.000
213.59	350.000
213.97	23.077
214.34	72.727
214.72	-66.667
215.09	475.000
215.47	7.692
215.84	18.182
216.22	-33.333
216.59	-37.500
216.97	-200.000
217.34	75.000
217.72	-80.000
218.09	-87.500
218.47	200.000
218.84	-700.000
219.22	-133.333
219.59	-100.000
219.97	466.667
220.34	200.000
220.72	-57.143
221.09	-100.000
221.47	-200.000
221.84	-650.000
222.22	-800.000
222.59	45.455
222.97	25.000
223.34	166.667
223.72	-42.857
224.09	-42.857
224.46	7.143
224.84	400.000
225.21	-50.000
225.59	26.667
225.96	-550.000
226.34	375.000
226.71	-28.571
227.08	-16.667
227.46	0.000
227.83	-500.000
228.21	-33.333
228.58	18.182
228.95	-187.500
229.33	140.000
229.70	18.750
230.08	12.500
230.45	-157.143
230.82	-42.857
231.20	26.667
231.57	7.143
231.95	14.286
232.32	-60.000
232.69	28.571
233.07	266.667
233.44	-120.000
233.81	-70.000
234.19	0.000
234.56	23.529
234.93	300.000
235.31	150.000
235.68	-280.000
236.05	0.000
236.43	-40.000
236.80	-11.765
237.17	21.875
237.55	25.000
237.92	-29.630
238.29	19.444
238.67	10.000
239.04	14.706
239.41	-21.951
239.79	33.333
240.16	21.951
240.53	-23.684
240.91	13.043
241.28	17.460
241.65	21.429
242.02	19.178
242.40	18.333
242.77	8.475
243.14	7.576
243.51	11.250
243.89	32.184
244.26	13.793
244.63	7.143
245.00	21.649
245.38	21.649
245.75	21.348
246.12	7.759
246.49	16.529
246.87	11.538
247.24	5.042
247.61	6.140
247.98	14.634
248.36	21.875
248.73	19.079
249.10	15.584
249.47	10.759
249.84	13.072
250.22	12.941
250.59	12.418
250.96	18.779
251.33	13.372
251.70	17.059
252.08	23.350
252.45	21.287
252.82	16.583
253.19	18.894
253.56	14.019
253.94	21.171
254.31	14.783
254.68	17.982
255.05	16.929
255.42	17.467
255.79	16.988
256.16	19.455
256.54	19.030
256.91	15.589
257.28	17.472
257.65	13.858
258.02	14.894
258.39	17.508
258.76	21.978
259.14	15.615
259.51	14.887
259.88	16.838
260.25	15.686
260.62	17.014
260.99	13.559
261.36	13.014
261.73	14.557
262.10	17.933
262.47	16.258
262.85	14.420
263.22	14.462
263.59	18.069
263.96	15.839
264.33	15.152
264.70	16.964
265.07	14.583
265.44	20.113
265.81	15.254
266.18	14.481
266.55	18.766
266.92	15.544
267.29	16.449
267.66	17.136
268.03	17.539
268.40	16.710
268.77	17.380
269.14	17.746
269.51	18.252
269.88	16.708
270.25	15.561
270.62	16.829
270.99	17.136
271.36	16.626
271.73	18.075
272.10	17.275
272.47	18.203
272.84	14.356
273.21	19.026
273.58	19.277
273.95	16.018
274.32	15.012
274.69	15.611
275.06	19.420
275.43	15.420
275.80	13.907
276.17	16.552
276.54	16.060
276.91	16.886
277.28	16.594
277.65	17.562
278.02	17.021
278.39	16.193
278.76	18.029
279.13	15.145
279.50	18.487
279.87	19.870
280.23	14.839
280.60	18.908
280.97	18.384
281.34	16.154
281.71	20.123
282.08	14.724
282.45	13.894
282.82	16.409
283.19	14.507
283.56	15.992
283.92	14.421
284.29	15.577
284.66	13.566
285.03	14.931
285.40	17.391
285.77	14.587
286.14	15.162
286.51	17.528
286.87	16.453
287.24	15.101
287.61	15.697
287.98	16.140
288.35	15.425
288.72	16.637
289.08	15.104
289.45	12.830
289.82	13.462
290.19	15.358
290.56	14.408
290.93	13.131
291.29	14.330
291.66	15.276
292.03	14.354
292.40	12.742
292.77	13.397
293.13	12.013
293.50	11.533
293.87	12.977
294.24	14.374
294.60	14.456
294.97	13.988
295.34	12.730
295.71	12.817
296.08	12.855
296.44	10.526
296.81	11.806
297.18	13.913
297.55	14.499
297.91	13.288
298.28	13.456
298.65	12.483
299.02	11.860
299.38	10.260
299.75	10.897
300.12	12.435
300.48	12.385
300.85	12.294
301.22	10.130
301.59	10.921
301.95	12.405
302.32	14.008
302.69	11.940
303.05	11.015
303.42	11.955
303.79	11.799
304.15	12.306
304.52	11.177
304.89	10.643
305.25	10.533
305.62	10.968
305.99	10.058
306.35	10.867
306.72	7.987
307.09	11.288
307.45	11.251
307.82	11.111
308.19	10.801
308.55	10.578
308.92	11.438
309.29	10.838
309.65	10.872
310.02	10.891
310.38	11.087
310.75	10.164
311.12	10.872
311.48	9.862
311.85	10.471
312.22	10.443
312.58	10.722
312.95	9.925
313.31	10.145
313.68	10.785
314.05	10.102
314.41	10.206
314.78	10.722
315.14	10.791
315.51	11.594
315.87	10.553
316.24	12.336
316.61	12.402
316.97	11.111
317.34	10.547
317.70	10.612
318.07	10.865
318.43	11.373
318.80	11.080
319.16	10.059
319.53	12.631
319.89	12.008
320.26	12.045
320.62	12.437
320.99	12.213
321.35	11.408
321.72	11.838
322.08	12.387
322.45	12.183
322.81	11.198
323.18	11.776
323.54	11.680
323.91	12.074
324.27	12.402
324.64	13.858
325.00	14.325
325.37	14.417
325.73	12.421
326.10	14.623
326.46	13.632
326.83	14.261
327.19	13.949
327.56	15.986
327.92	16.461
328.29	14.643
328.65	14.434
329.01	15.349
329.38	16.406
329.74	16.619
330.11	16.404
330.47	15.121
330.84	16.538
331.20	18.251
331.56	16.296
331.93	17.443
332.29	17.690
332.66	17.647
333.02	17.193
333.38	17.690
333.75	18.956
334.11	16.473
334.48	17.860
334.84	18.407
335.20	19.030
335.57	17.044
335.93	17.886
336.29	20.074
336.66	18.074
337.02	19.052
337.38	18.241
337.75	19.000
338.11	19.567
338.47	18.522
338.84	18.946
339.20	19.744
339.56	19.174
339.93	19.785
340.29	19.266
340.65	18.280
341.02	19.770
341.38	19.469
341.74	19.170
342.11	18.718
342.47	19.929
342.83	20.848
343.20	19.686
343.56	18.957
343.92	19.929
344.28	20.837
344.65	19.516
345.01	19.360
345.37	19.596
345.73	19.749
346.10	20.449
346.46	19.596
346.82	19.804
347.19	17.789
347.55	19.967
347.91	20.388
348.27	20.129
348.63	20.698
349.00	20.098
349.36	19.534
349.72	21.559
350.08	20.820
350.45	20.750
350.81	18.854
351.17	19.544
351.53	20.408
351.89	19.983
352.26	20.240
352.62	21.613
352.98	20.402
353.34	19.163
353.70	21.036
354.07	21.210
354.43	21.057
354.79	21.470
355.15	21.270
355.51	21.361
355.87	21.359
356.24	19.331
356.60	20.210
356.96	20.873
357.32	20.767
357.68	20.250
358.04	21.567
358.40	19.855
358.77	21.691
359.13	20.977
359.49	20.724
359.85	21.529
360.21	21.611
360.57	21.347
360.93	22.088
361.29	20.317
361.66	21.317
362.02	21.439
362.38	21.935
362.74	22.937
363.10	22.047
363.46	23.202
363.82	22.314
364.18	21.476
364.54	21.765
364.90	22.509
365.26	22.198
365.62	23.139
365.98	24.047
366.35	22.651
366.71	23.208
367.07	22.496
367.43	22.142
367.79	22.473
368.15	21.536
368.51	23.161
368.87	22.900
369.23	21.877
369.59	22.813
369.95	23.900
370.31	23.338
370.67	23.284
371.03	23.002
371.39	22.247
371.75	22.344
372.11	23.252
372.47	24.112
372.83	23.989
373.19	22.682
373.55	22.527
373.91	24.190
374.27	24.451
374.63	24.264
374.99	24.255
375.35	24.930
375.71	24.755
376.07	23.736
376.42	24.490
376.78	24.966
377.14	24.577
377.50	24.104
377.86	25.033
378.22	24.442
378.58	25.705
378.94	24.260
379.30	24.828
379.66	25.768
380.02	25.506
380.38	26.172
380.74	25.494
381.09	26.994
381.45	25.138
381.81	26.342
382.17	26.396
382.53	25.422
382.89	25.738
383.25	26.073
383.61	26.098
383.97	25.841
384.32	26.704
384.68	27.430
385.04	27.206
385.40	27.505
385.76	27.547
386.12	26.973
386.48	27.139
386.83	27.901
387.19	28.144
387.55	29.548
387.91	27.995
388.27	28.205
388.62	28.760
388.98	27.624
389.34	28.482
389.70	28.341
390.06	28.068
390.42	28.692
390.77	28.712
391.13	29.004
391.49	27.878
391.85	29.435
392.20	29.504
392.56	28.671
392.92	28.362
393.28	29.068
393.64	28.288
393.99	29.342
394.35	28.843
394.71	29.566
395.07	29.038
395.42	28.962
395.78	28.664
396.14	29.823
396.50	30.057
396.85	29.813
397.21	29.511
397.57	30.533
397.92	30.258
398.28	29.310
398.64	29.639
399.00	30.361
399.35	28.950
399.71	29.696
400.07	29.383
400.42	30.110
400.78	30.557
401.14	30.067
401.49	30.018
401.85	30.408
402.21	29.458
402.57	31.250
402.92	29.799
403.28	29.762
403.63	29.256
403.99	29.656
404.35	31.980
404.70	30.000
405.06	29.318
405.42	30.143
405.77	29.750
406.13	30.675
406.49	29.959
406.84	30.562
407.20	30.945
407.55	31.230
407.91	30.214
408.27	30.274
408.62	30.400
408.98	30.253
409.34	30.917
409.69	30.233
410.05	29.988
410.40	29.383
410.76	31.423
411.11	30.500
411.47	31.098
411.83	30.257
412.18	30.952
412.54	30.587
412.89	30.542
413.25	31.528
413.60	30.683
413.96	30.368
414.31	30.976
414.67	29.763
415.03	30.826
415.38	30.809
415.74	30.489
416.09	30.830
416.45	31.263
416.80	30.800
417.16	31.975
417.51	30.313
417.87	30.834
418.22	32.060
418.58	31.906
418.93	31.473
419.29	29.962
419.64	31.756
420.00	32.557
420.35	31.104
420.71	31.835
421.06	31.185
421.42	31.190
421.77	31.850
422.12	31.158
422.48	31.835
422.83	30.336
423.19	31.772
423.54	30.335
423.90	30.742
424.25	31.573
424.61	31.885
424.96	31.940
425.31	32.409
425.67	31.573
426.02	31.861
426.38	32.185
426.73	32.022
427.09	33.544
427.44	32.471
427.79	32.705
428.15	32.100
428.50	31.981
428.85	32.002
429.21	31.805
429.56	32.345
429.92	32.255
430.27	31.930
430.62	31.469
430.98	32.113
431.33	33.491
431.68	32.758
432.04	32.532
432.39	32.858
432.74	31.990
433.10	32.759
433.45	31.840
433.80	33.082
434.16	33.186
434.51	31.828
434.86	32.346
435.22	32.754
435.57	32.876
435.92	32.335
436.28	32.499
436.63	32.687
436.98	32.677
437.34	32.123
437.69	31.783
438.04	33.390
438.39	32.987
438.75	33.819
439.10	32.881
439.45	32.441
439.81	33.028
440.16	33.432
440.51	33.970
440.86	33.595
441.22	32.296
441.57	33.444
441.92	33.841
442.27	33.703
442.63	34.101
442.98	32.682
443.33	33.055
443.68	32.308
444.03	33.383
444.39	33.546
444.74	34.504
445.09	33.463
445.44	34.473
445.79	34.502
446.15	32.489
446.50	33.611
446.85	33.688
447.20	33.472
447.55	33.984
447.91	34.405
448.26	34.263
448.61	34.139
448.96	34.022
449.31	34.509
449.66	34.669
450.02	33.942
450.37	34.795
450.72	32.532
451.07	34.051
451.42	33.458
451.77	33.996
452.12	33.553
452.47	33.355
452.83	33.628
453.18	33.713
453.53	34.134
453.88	34.366
454.23	34.112
454.58	34.446
454.93	35.438
455.28	34.540
455.63	33.726
455.98	34.215
456.34	34.802
456.69	34.879
457.04	34.342
457.39	34.265
457.74	33.676
458.09	33.196
458.44	33.411
458.79	33.557
459.14	34.554
459.49	34.209
459.84	34.969
460.19	34.466
460.54	33.863
460.89	34.375
461.24	34.783
461.59	34.204
461.94	34.088
462.29	35.464
462.64	35.482
462.99	34.191
463.34	35.257
463.69	34.685
464.04	34.383
464.39	33.960
464.74	34.540
465.09	35.434
465.44	34.737
465.79	33.673
466.14	34.265
466.49	33.928
466.84	35.158
467.19	34.793
467.54	34.227
467.89	34.934
468.24	33.820
468.59	34.667
468.94	34.476
469.29	36.459
469.64	35.270
469.99	36.370
470.34	35.154
470.68	36.092
471.03	35.740
471.38	35.521
471.73	36.275
472.08	34.600
472.43	35.302
472.78	34.476
473.13	36.122
473.48	35.896
473.83	35.181
474.17	36.075
474.52	34.716
474.87	35.030
475.22	35.692
475.57	34.500
475.92	35.985
476.27	35.099
476.61	36.111
476.96	35.192
477.31	35.641
477.66	35.899
478.01	36.272
478.36	35.458
478.70	36.542
479.05	35.110
479.40	35.930
479.75	34.776
480.10	36.354
480.45	35.000
480.79	36.052
481.14	36.168
481.49	35.567
481.84	36.149
482.19	35.220
482.53	35.156
482.88	34.988
483.23	35.557
483.58	35.755
483.92	35.044
484.27	35.141
484.62	35.096
484.97	34.660
485.31	34.140
485.66	32.966
486.01	33.373
486.36	32.899
486.70	33.423
487.05	33.996
487.40	34.307
487.75	34.197
488.09	33.653
488.44	34.319
488.79	35.151
489.13	35.938
489.48	35.742
489.83	35.695
490.17	35.011
490.52	35.935
490.87	35.169
491.22	36.342
491.56	37.049
491.91	35.994
492.26	36.266
492.60	35.940
492.95	37.285
493.30	35.418
493.64	36.788
493.99	36.280
494.34	35.437
494.68	36.905
495.03	35.961
495.37	36.163
495.72	37.304
496.07	36.927
496.41	36.085
496.76	35.836
497.11	35.585
497.45	36.563
497.80	37.386
498.14	35.420
498.49	36.414
498.84	36.976
499.18	37.500
499.53	36.706
499.87	35.944
500.22	36.350
500.56	36.863
500.91	36.195
501.26	35.838
501.60	37.088
501.95	36.730
502.29	35.593
502.64	37.259
502.98	36.507
503.33	36.840
503.67	36.482
504.02	36.999
504.36	36.912
504.71	36.111
505.06	36.588
505.40	36.599
505.75	37.577
506.09	37.101
506.44	37.834
506.78	37.449
507.13	37.746
507.47	37.285
507.82	36.699
508.16	37.612
508.51	38.038
508.85	37.991
509.19	38.052
509.54	37.051
509.88	38.134
510.23	38.731
510.57	38.589
510.92	36.407
511.26	39.607
511.61	38.394
511.95	38.904
512.30	38.248
512.64	38.509
512.98	39.079
513.33	39.508
513.67	39.397
514.02	40.103
514.36	39.886
514.70	40.676
515.05	40.834
515.39	40.260
515.74	41.317
516.08	41.064
516.42	40.813
516.77	40.316
517.11	40.950
517.46	41.173
517.80	41.359
518.14	40.723
518.49	40.144
518.83	40.219
519.17	40.327
519.52	40.616
519.86	40.696
520.20	40.826
520.55	41.026
520.89	41.468
521.23	41.165
521.58	42.019
521.92	42.692
522.26	42.811
522.61	41.429
522.95	42.450
523.29	42.186
523.64	42.186
523.98	42.968
524.32	42.332
524.66	42.061
525.01	43.052
525.35	42.774
525.69	42.896
526.04	43.981
526.38	43.904
526.72	42.446
527.06	43.061
527.41	44.525
527.75	42.761
528.09	43.189
528.43	44.429
528.78	43.630
529.12	42.194
529.46	42.105
529.80	42.559
530.15	42.970
530.49	44.579
530.83	44.938
531.17	42.848
531.51	44.460
531.86	43.440
532.20	43.076
532.54	44.112
532.88	43.600
533.22	43.011
533.57	43.840
533.91	44.060
534.25	44.857
534.59	43.361
534.93	41.976
535.27	42.576
535.62	42.903
535.96	44.553
536.30	43.272
536.64	44.452
536.98	43.624
537.32	45.661
537.66	45.091
538.01	44.895
538.35	44.244
538.69	43.875
539.03	42.447
539.37	44.482
539.71	44.513
540.05	43.517
540.39	44.460
540.73	45.397
541.07	45.235
541.42	45.430
541.76	44.253
542.10	44.666
542.44	44.892
542.78	44.047
543.12	44.368
543.46	44.367
543.80	44.830
544.14	42.991
544.48	43.971
544.82	43.609
545.16	44.331
545.50	44.593
545.84	45.822
546.18	46.028
546.52	45.566
546.86	45.291
547.20	45.279
547.54	44.240
547.88	44.565
548.22	44.313
548.56	44.921
548.90	44.407
549.24	44.146
549.58	44.993
549.92	43.531
550.26	45.128
550.60	46.097
550.94	45.930
551.28	45.440
551.62	46.462
551.96	45.564
552.30	45.175
552.64	44.006
552.98	44.655
553.32	44.151
553.66	45.864
554.00	46.350
554.34	47.046
554.68	46.018
555.02	46.726
555.36	46.148
555.69	46.593
556.03	45.325
556.37	44.840
556.71	44.477
557.05	45.190
557.39	45.799
557.73	45.727
558.07	45.626
558.41	46.172
558.75	46.687
559.08	45.626
559.42	45.635
559.76	46.517
560.10	45.260
560.44	45.719
560.78	46.084
561.12	46.121
561.45	46.381
561.79	45.448
562.13	44.996
562.47	45.468
562.81	45.821
563.15	46.121
563.48	46.464
563.82	45.985
564.16	44.290
564.50	44.324
564.84	45.984
565.17	43.997
565.51	46.175
565.85	46.022
566.19	45.756
566.52	45.375
566.86	46.337
567.20	45.019
567.54	45.742
567.88	44.523
568.21	44.400
568.55	44.728
568.89	44.199
569.23	43.958
569.56	43.082
569.90	43.321
570.24	41.422
570.57	41.418
570.91	41.687
571.25	41.269
571.59	39.458
571.92	38.726
572.26	40.610
572.60	39.597
572.93	39.944
573.27	39.812
573.61	40.304
573.95	39.814
574.28	39.115
574.62	39.232
574.96	38.519
575.29	39.374
575.63	38.404
575.97	39.333
576.30	39.247
576.64	39.285
576.98	39.897
577.31	39.666
577.65	39.518
577.98	39.053
578.32	39.228
578.66	38.405
578.99	39.003
579.33	39.196
579.67	39.213
580.00	39.241
580.34	39.328
580.67	39.070
581.01	39.001
581.35	39.320
581.68	38.811
582.02	38.649
582.35	38.867
582.69	38.605
583.02	38.795
583.36	39.413
583.70	39.798
584.03	40.367
584.37	40.824
584.70	39.918
585.04	39.430
585.37	39.312
585.71	39.398
586.04	39.032
586.38	39.851
586.72	40.086
587.05	40.237
587.39	40.565
587.72	40.815
588.06	40.686
588.39	40.046
588.73	40.415
589.06	41.161
589.40	40.996
589.73	41.694
590.07	42.787
590.40	41.563
590.73	43.781
591.07	42.112
591.40	42.565
591.74	43.394
592.07	43.089
592.41	42.977
592.74	41.697
593.08	40.517
593.41	40.428
593.75	40.497
594.08	40.474
594.41	41.594
594.75	41.603
595.08	41.733
595.42	41.148
595.75	42.208
596.09	41.517
596.42	42.869
596.75	42.496
597.09	42.278
597.42	42.412
597.75	42.510
598.09	41.919
598.42	41.110
598.76	41.870
599.09	41.386
599.42	41.038
599.76	41.234
600.09	40.686
600.42	40.864
600.76	40.230
601.09	41.336
601.42	41.794
601.76	42.318
602.09	42.492
602.42	43.934
602.76	42.530
603.09	43.065
603.42	43.729
603.76	42.460
604.09	41.353
604.42	43.232
604.76	43.614
605.09	43.327
605.42	42.077
605.75	42.338
606.09	42.378
606.42	41.326
606.75	41.429
607.09	42.549
607.42	42.579
607.75	42.362
608.08	42.498
608.42	41.571
608.75	44.048
609.08	43.249
609.41	43.046
609.75	43.548
610.08	43.734
610.41	42.367
610.74	43.003
611.07	43.514
611.41	43.435
611.74	44.243
612.07	43.951
612.40	43.928
612.73	44.972
613.07	44.151
613.40	45.350
613.73	45.048
614.06	42.794
614.39	44.162
614.72	43.866
615.06	44.134
615.39	44.105
615.72	43.326
616.05	45.084
616.38	42.621
616.71	45.382
617.05	45.460
617.38	45.506
617.71	45.975
618.04	46.476
618.37	46.721
618.70	46.271
619.03	47.500
619.36	45.876
619.69	48.901
620.03	48.064
620.36	46.996
620.69	46.181
621.02	47.171
621.35	50.373
621.68	48.810
622.01	48.917
622.34	48.524
622.67	47.397
623.00	47.550
623.33	47.637
623.66	47.644
623.99	46.520
624.32	46.920
624.65	46.842
624.99	48.157
625.32	47.688
625.65	49.568
625.98	48.751
626.31	48.628
626.64	49.567
626.97	49.738
627.30	51.839
627.63	48.787
627.96	50.584
628.29	50.416
628.62	50.836
628.95	50.701
629.28	52.218
629.61	50.548
629.94	52.395
630.26	51.779
630.59	52.966
630.92	51.487
631.25	50.769
631.58	53.524
631.91	50.877
632.24	52.867
632.57	52.500
632.90	54.211
633.23	54.118
633.56	55.038
