SpectraSuite Data File
++++++++++++++++++++++++++++++++++++
Date: Fri May 15 20:01:54 PDT 2015
User: schluterlab
Dark Spectrum Present: Yes
Reference Spectrum Present: Yes
Number of Sampled Component Spectra: 1
Spectrometers: USB2E3373
Integration Time (usec): 3000 (USB2E3373)
Spectra Averaged: 3 (USB2E3373)
Boxcar Smoothing: 0 (USB2E3373)
Correct for Electrical Dark: No (USB2E3373)
Strobe/Lamp Enabled: No (USB2E3373)
Correct for Detector Non-linearity: No (USB2E3373)
Correct for Stray Light: No (USB2E3373)
Number of Pixels in Processed Spectrum: 2048
>>>>>Begin Processed Spectral Data<<<<<
178.53	0.000
178.91	0.000
179.29	0.000
179.67	-250.000
180.04	-0.000
180.42	0.000
180.80	-300.000
181.18	133.333
181.56	250.000
181.94	0.000
182.31	-0.000
182.69	60.000
183.07	-200.000
183.45	60.000
183.83	150.000
184.20	0.000
184.58	100.000
184.96	-350.000
185.34	133.333
185.72	-200.000
186.09	-7.692
186.47	500.000
186.85	-100.000
187.23	155.556
187.61	200.000
187.98	-133.333
188.36	144.444
188.74	-166.667
189.12	35.294
189.49	33.333
189.87	0.000
190.25	85.714
190.63	300.000
191.00	66.667
191.38	15.789
191.76	200.000
192.14	-75.000
192.51	450.000
192.89	11.111
193.27	-100.000
193.65	16.667
194.02	109.091
194.40	100.000
194.78	-150.000
195.15	50.000
195.53	-37.500
195.91	-100.000
196.29	50.000
196.66	30.769
197.04	-14.286
197.42	33.333
197.79	-366.667
198.17	-61.538
198.55	400.000
198.92	-100.000
199.30	-100.000
199.68	-20.000
200.05	-133.333
200.43	0.000
200.81	100.000
201.18	-166.667
201.56	-200.000
201.94	0.000
202.31	200.000
202.69	-240.000
203.07	150.000
203.44	600.000
203.82	0.000
204.19	0.000
204.57	-233.333
204.95	25.000
205.32	100.000
205.70	-42.857
206.08	0.000
206.45	133.333
206.83	128.571
207.20	14.286
207.58	-500.000
207.96	-166.667
208.33	-90.000
208.71	-75.000
209.08	-83.333
209.46	-700.000
209.84	-20.000
210.21	-200.000
210.59	100.000
210.96	-16.667
211.34	-50.000
211.71	46.667
212.09	0.000
212.46	-2100.000
212.84	0.000
213.22	-10.000
213.59	450.000
213.97	46.154
214.34	81.818
214.72	-83.333
215.09	75.000
215.47	-15.385
215.84	-45.455
216.22	66.667
216.59	75.000
216.97	250.000
217.34	0.000
217.72	-120.000
218.09	37.500
218.47	37.500
218.84	200.000
219.22	-88.889
219.59	0.000
219.97	166.667
220.34	150.000
220.72	85.714
221.09	50.000
221.47	200.000
221.84	-200.000
222.22	-700.000
222.59	36.364
222.97	75.000
223.34	-133.333
223.72	14.286
224.09	-38.095
224.46	35.714
224.84	333.333
225.21	0.000
225.59	33.333
225.96	-150.000
226.34	75.000
226.71	-14.286
227.08	0.000
227.46	87.500
227.83	-300.000
228.21	22.222
228.58	90.909
228.95	-25.000
229.33	-0.000
229.70	87.500
230.08	-37.500
230.45	-14.286
230.82	28.571
231.20	93.333
231.57	50.000
231.95	-28.571
232.32	-20.000
232.69	57.143
233.07	-333.333
233.44	-120.000
233.81	30.000
234.19	66.667
234.56	35.294
234.93	50.000
235.31	250.000
235.68	-260.000
236.05	-69.231
236.43	-55.000
236.80	-11.765
237.17	25.000
237.55	-15.000
237.92	11.111
238.29	25.000
238.67	10.000
239.04	0.000
239.41	-19.512
239.79	-6.667
240.16	-19.512
240.53	-21.053
240.91	-17.391
241.28	6.349
241.65	7.143
242.02	30.137
242.40	3.333
242.77	1.695
243.14	0.000
243.51	-1.250
243.89	21.839
244.26	8.046
244.63	8.333
245.00	10.309
245.38	12.371
245.75	-3.371
246.12	-3.448
246.49	1.653
246.87	-0.962
247.24	8.403
247.61	0.877
247.98	13.008
248.36	10.000
248.73	11.842
249.10	11.688
249.47	6.962
249.84	5.229
250.22	5.294
250.59	5.229
250.96	10.798
251.33	-2.326
251.70	3.529
252.08	3.553
252.45	5.941
252.82	0.000
253.19	5.069
253.56	4.206
253.94	2.703
254.31	8.696
254.68	6.579
255.05	3.937
255.42	4.803
255.79	4.247
256.16	3.502
256.54	7.090
256.91	5.323
257.28	3.717
257.65	2.996
258.02	2.837
258.39	7.071
258.76	5.495
259.14	9.302
259.51	7.443
259.88	1.375
260.25	5.882
260.62	3.125
260.99	-2.373
261.36	1.712
261.73	2.215
262.10	6.079
262.47	3.681
262.85	3.135
263.22	5.538
263.59	3.427
263.96	2.795
264.33	7.879
264.70	2.679
265.07	6.250
265.44	6.799
265.81	1.695
266.18	2.459
266.55	7.712
266.92	7.254
267.29	4.700
267.66	5.371
268.03	4.450
268.40	3.133
268.77	5.348
269.14	7.194
269.51	5.913
269.88	3.990
270.25	1.786
270.62	2.439
270.99	0.767
271.36	1.222
271.73	5.164
272.10	2.433
272.47	3.783
272.84	2.723
273.21	4.872
273.58	4.096
273.95	7.323
274.32	3.926
274.69	3.846
275.06	3.348
275.43	2.948
275.80	5.077
276.17	2.299
276.54	4.497
276.91	6.140
277.28	3.930
277.65	5.785
278.02	2.979
278.39	2.845
278.76	4.193
279.13	1.452
279.50	4.832
279.87	4.752
280.23	2.581
280.60	7.018
280.97	3.838
281.34	2.692
281.71	7.598
282.08	5.930
282.45	3.131
282.82	5.019
283.19	2.321
283.56	4.624
283.92	3.795
284.29	4.615
284.66	3.295
285.03	3.929
285.40	3.781
285.77	0.000
286.14	3.610
286.51	5.904
286.87	3.108
287.24	4.420
287.61	3.880
287.98	7.368
288.35	4.506
288.72	4.553
289.08	2.778
289.45	4.745
289.82	5.070
290.19	2.901
290.56	3.087
290.93	3.872
291.29	5.393
291.66	5.984
292.03	5.104
292.40	5.968
292.77	5.582
293.13	4.221
293.50	5.159
293.87	5.038
294.24	5.564
294.60	5.812
294.97	8.631
295.34	5.368
295.71	6.855
296.08	6.428
296.44	5.405
296.81	6.667
297.18	7.971
297.55	8.537
297.91	7.534
298.28	8.971
298.65	8.548
299.02	8.895
299.38	5.472
299.75	7.034
300.12	7.984
300.48	9.091
300.85	9.759
301.22	9.610
301.59	8.421
301.95	11.266
302.32	10.246
302.69	11.070
303.05	9.777
303.42	11.208
303.79	11.916
304.15	10.036
304.52	9.037
304.89	10.409
305.25	11.017
305.62	9.685
305.99	10.409
306.35	10.173
306.72	10.911
307.09	11.859
307.45	11.711
307.82	10.648
308.19	11.498
308.55	11.996
308.92	12.309
309.29	9.944
309.65	12.487
310.02	11.771
310.38	11.636
310.75	12.896
311.12	11.087
311.48	11.241
311.85	11.518
312.22	11.498
312.58	13.482
312.95	10.779
313.31	12.319
313.68	11.728
314.05	12.449
314.41	11.856
314.78	11.443
315.14	11.922
315.51	12.215
315.87	12.500
316.24	13.246
316.61	11.713
316.97	12.004
317.34	11.035
317.70	11.759
318.07	11.827
318.43	12.255
318.80	10.795
319.16	10.352
319.53	12.251
319.89	11.319
320.26	11.437
320.62	12.237
320.99	12.213
321.35	12.127
321.72	11.111
322.08	11.581
322.45	11.269
322.81	11.002
323.18	11.482
323.54	9.846
323.91	11.198
324.27	12.793
324.64	12.828
325.00	12.591
325.37	11.938
325.73	11.242
326.10	12.443
326.46	11.570
326.83	11.636
327.19	11.595
327.56	11.642
327.92	11.884
328.29	10.804
328.65	10.472
329.01	11.489
329.38	11.889
329.74	10.482
330.11	12.141
330.47	11.317
330.84	9.231
331.20	11.502
331.56	10.926
331.93	11.324
332.29	10.816
332.66	10.950
333.02	11.617
333.38	10.541
333.75	11.081
334.11	11.101
334.48	10.426
334.84	11.355
335.20	10.247
335.57	9.610
335.93	12.014
336.29	10.773
336.66	10.263
337.02	9.294
337.38	10.093
337.75	9.636
338.11	11.542
338.47	11.405
338.84	9.519
339.20	9.689
339.56	10.275
339.93	11.101
340.29	10.183
340.65	11.290
341.02	9.929
341.38	9.558
341.74	10.159
342.11	10.225
342.47	9.786
342.83	10.294
343.20	9.669
343.56	9.304
343.92	10.629
344.28	10.589
344.65	10.017
345.01	8.729
345.37	10.177
345.73	10.209
346.10	10.785
346.46	10.597
346.82	8.920
347.19	8.645
347.55	11.028
347.91	9.871
348.27	10.105
348.63	10.647
349.00	9.516
349.36	10.141
349.72	9.867
350.08	9.344
350.45	10.934
350.81	9.884
351.17	9.283
351.53	10.939
351.89	9.001
352.26	9.200
352.62	9.597
352.98	9.317
353.34	9.098
353.70	9.951
354.07	10.565
354.43	8.887
354.79	9.083
355.15	10.476
355.51	9.968
355.87	9.709
356.24	9.625
356.60	9.620
356.96	9.921
357.32	9.665
357.68	8.913
358.04	8.724
358.40	9.727
358.77	10.447
359.13	9.287
359.49	9.014
359.85	8.970
360.21	9.809
360.57	9.870
360.93	9.909
361.29	8.157
361.66	10.502
362.02	9.091
362.38	9.825
362.74	9.614
363.10	10.233
363.46	9.637
363.82	10.518
364.18	8.192
364.54	9.559
364.90	8.530
365.26	8.006
365.62	10.438
365.98	8.798
366.35	11.071
366.71	9.682
367.07	10.377
367.43	9.561
367.79	9.399
368.15	8.615
368.51	9.395
368.87	8.256
369.23	9.097
369.59	9.257
369.95	10.191
370.31	9.538
370.67	9.254
371.03	8.215
371.39	8.534
371.75	9.817
372.11	9.130
372.47	9.393
372.83	9.368
373.19	8.702
373.55	8.375
373.91	9.215
374.27	9.001
374.63	8.758
374.99	8.723
375.35	9.262
375.71	9.510
376.07	8.497
376.42	9.456
376.78	9.060
377.14	8.125
377.50	8.831
377.86	9.371
378.22	9.190
378.58	8.013
378.94	9.389
379.30	8.983
379.66	9.342
380.02	8.277
380.38	9.069
380.74	8.318
381.09	9.202
381.45	7.951
381.81	8.390
382.17	8.693
382.53	8.370
382.89	8.851
383.25	9.147
383.61	9.146
383.97	8.444
384.32	8.255
384.68	8.235
385.04	6.924
385.40	8.090
385.76	9.434
386.12	8.409
386.48	8.365
386.83	7.990
387.19	8.669
387.55	9.222
387.91	7.763
388.27	7.875
388.62	8.370
388.98	8.103
389.34	7.995
389.70	8.888
390.06	7.552
390.42	8.031
390.77	7.717
391.13	7.755
391.49	7.503
391.85	7.862
392.20	7.470
392.56	7.819
392.92	8.045
393.28	7.252
393.64	8.168
393.99	8.464
394.35	7.211
394.71	8.238
395.07	7.605
395.42	7.225
395.78	7.818
396.14	7.881
396.50	7.483
396.85	7.276
397.21	6.830
397.57	6.897
397.92	7.010
398.28	7.011
398.64	7.108
399.00	7.619
399.35	6.264
399.71	7.122
400.07	7.255
400.42	7.160
400.78	7.348
401.14	7.260
401.49	7.504
401.85	6.825
402.21	6.325
402.57	6.750
402.92	6.023
403.28	6.830
403.63	6.557
403.99	6.186
404.35	6.996
404.70	6.310
405.06	5.875
405.42	6.899
405.77	5.578
406.13	5.763
406.49	5.210
406.84	6.296
407.20	6.502
407.55	5.795
407.91	5.749
408.27	5.163
408.62	7.015
408.98	6.161
409.34	6.010
409.69	6.008
410.05	5.172
410.40	5.864
410.76	6.454
411.11	6.187
411.47	5.654
411.83	4.959
412.18	5.405
412.54	4.869
412.89	5.049
413.25	6.017
413.60	5.590
413.96	5.521
414.31	5.610
414.67	5.196
415.03	5.260
415.38	5.548
415.74	6.124
416.09	5.683
416.45	5.537
416.80	5.023
417.16	5.249
417.51	6.396
417.87	4.759
418.22	5.246
418.58	5.418
418.93	6.270
419.29	5.378
419.64	4.990
420.00	6.549
420.35	5.672
420.71	6.683
421.06	5.770
421.42	6.611
421.77	6.127
422.12	6.470
422.48	5.685
422.83	5.684
423.19	5.982
423.54	5.761
423.90	5.948
424.25	6.028
424.61	6.854
424.96	6.794
425.31	6.759
425.67	6.808
426.02	6.773
426.38	6.137
426.73	6.961
427.09	7.595
427.44	7.765
427.79	7.484
428.15	7.767
428.50	6.844
428.85	6.265
429.21	7.527
429.56	7.871
429.92	6.985
430.27	7.669
430.62	7.318
430.98	7.325
431.33	8.307
431.68	8.216
432.04	6.931
432.39	7.245
432.74	8.178
433.10	8.046
433.45	7.766
433.80	7.777
434.16	7.202
434.51	7.849
434.86	8.130
435.22	8.301
435.57	7.923
435.92	7.904
436.28	7.633
436.63	7.929
436.98	8.459
437.34	7.864
437.69	8.348
438.04	7.806
438.39	7.941
438.75	7.832
439.10	8.546
439.45	8.338
439.81	8.807
440.16	8.432
440.51	9.433
440.86	9.305
441.22	9.050
441.57	9.437
441.92	9.234
442.27	9.368
442.63	9.208
442.98	9.305
443.33	9.460
443.68	9.125
444.03	9.836
444.39	9.100
444.74	10.033
445.09	9.577
445.44	8.889
445.79	9.696
446.15	9.637
446.50	9.207
446.85	9.989
447.20	9.333
447.55	10.045
447.91	9.701
448.26	9.732
448.61	10.363
448.96	9.753
449.31	9.538
449.66	9.930
450.02	9.641
450.37	10.433
450.72	9.966
451.07	10.316
451.42	9.613
451.77	9.765
452.12	9.270
452.47	9.466
452.83	10.424
453.18	10.183
453.53	10.367
453.88	9.897
454.23	10.080
454.58	10.516
454.93	10.631
455.28	9.206
455.63	10.415
455.98	10.944
456.34	10.728
456.69	10.673
457.04	10.775
457.39	10.814
457.74	9.976
458.09	10.477
458.44	10.240
458.79	9.412
459.14	10.412
459.49	10.507
459.84	10.998
460.19	10.619
460.54	10.452
460.89	10.170
461.24	10.683
461.59	10.333
461.94	9.434
462.29	10.856
462.64	11.296
462.99	10.697
463.34	9.944
463.69	9.974
464.04	10.654
464.39	10.491
464.74	10.123
465.09	11.291
465.44	10.444
465.79	9.921
466.14	10.604
466.49	10.753
466.84	10.946
467.19	10.826
467.54	10.600
467.89	10.044
468.24	10.401
468.59	11.175
468.94	10.794
469.29	10.885
469.64	10.253
469.99	10.932
470.34	10.717
470.68	11.111
471.03	11.960
471.38	10.984
471.73	10.994
472.08	10.244
472.43	10.336
472.78	10.829
473.13	10.000
473.48	10.749
473.83	11.083
474.17	10.622
474.52	11.295
474.87	10.424
475.22	10.189
475.57	10.503
475.92	10.916
476.27	10.361
476.61	11.343
476.96	10.876
477.31	10.708
477.66	10.449
478.01	10.668
478.36	11.166
478.70	10.984
479.05	11.429
479.40	11.500
479.75	11.366
480.10	10.548
480.45	10.650
480.79	11.631
481.14	11.168
481.49	10.345
481.84	10.183
482.19	10.477
482.53	10.887
482.88	10.597
483.23	10.653
483.58	10.613
483.92	10.649
484.27	10.346
484.62	10.982
484.97	10.489
485.31	10.477
485.66	10.666
486.01	10.528
486.36	10.366
486.70	10.847
487.05	10.565
487.40	10.419
487.75	10.169
488.09	10.260
488.44	10.351
488.79	9.787
489.13	10.937
489.48	10.646
489.83	10.807
490.17	10.247
490.52	10.531
490.87	10.134
491.22	10.697
491.56	9.867
491.91	11.233
492.26	11.133
492.60	11.084
492.95	11.215
493.30	10.699
493.64	10.707
493.99	10.725
494.34	10.146
494.68	10.905
495.03	9.878
495.37	10.991
495.72	10.904
496.07	11.024
496.41	11.132
496.76	11.700
497.11	10.573
497.45	11.313
497.80	11.705
498.14	11.128
498.49	10.411
498.84	11.178
499.18	10.944
499.53	11.111
499.87	10.895
500.22	10.336
500.56	11.498
500.91	10.743
501.26	10.578
501.60	11.510
501.95	11.402
502.29	10.412
502.64	10.907
502.98	10.903
503.33	10.279
503.67	10.602
504.02	11.144
504.36	10.935
504.71	10.758
505.06	10.871
505.40	10.558
505.75	10.309
506.09	10.948
506.44	11.345
506.78	11.071
507.13	11.013
507.47	10.496
507.82	10.256
508.16	10.777
508.51	11.438
508.85	10.884
509.19	10.963
509.54	10.992
509.88	11.273
510.23	11.404
510.57	11.170
510.92	10.075
511.26	10.747
511.61	10.671
511.95	11.342
512.30	10.976
512.64	11.018
512.98	11.173
513.33	11.752
513.67	10.915
514.02	12.071
514.36	11.600
514.70	12.005
515.05	11.163
515.39	11.747
515.74	11.916
516.08	11.357
516.42	11.896
516.77	11.995
517.11	10.979
517.46	11.311
517.80	11.621
518.14	11.145
518.49	11.659
518.83	11.665
519.17	11.158
519.52	11.545
519.86	11.104
520.20	11.604
520.55	10.319
520.89	11.669
521.23	10.893
521.58	12.555
521.92	11.474
522.26	10.930
522.61	11.039
522.95	11.722
523.29	10.864
523.64	11.563
523.98	11.406
524.32	10.503
524.66	11.268
525.01	12.143
525.35	11.601
525.69	10.842
526.04	10.780
526.38	12.451
526.72	10.530
527.06	11.414
527.41	12.005
527.75	12.265
528.09	11.030
528.43	11.951
528.78	10.891
529.12	11.613
529.46	10.656
529.80	11.590
530.15	11.419
530.49	11.044
530.83	11.149
531.17	11.551
531.51	11.491
531.86	10.877
532.20	11.343
532.54	10.756
532.88	11.704
533.22	11.492
533.57	11.337
533.91	10.444
534.25	11.393
534.59	10.904
534.93	10.384
535.27	10.723
535.62	10.888
535.96	11.807
536.30	11.939
536.64	11.509
536.98	10.871
537.32	11.593
537.66	12.553
538.01	10.699
538.35	11.442
538.69	11.385
539.03	10.390
539.37	11.709
539.71	11.179
540.05	11.066
540.39	10.734
540.73	11.158
541.07	11.671
541.42	12.702
541.76	11.838
542.10	11.769
542.44	10.980
542.78	9.979
543.12	10.783
543.46	11.266
543.80	11.173
544.14	9.746
544.48	11.659
544.82	11.005
545.16	11.202
545.50	12.350
545.84	11.190
546.18	11.702
546.52	11.824
546.86	10.784
547.20	11.087
547.54	11.025
547.88	11.209
548.22	10.980
548.56	11.016
548.90	11.792
549.24	11.570
549.58	11.142
549.92	10.936
550.26	11.355
550.60	11.524
550.94	11.352
551.28	10.587
551.62	11.154
551.96	11.429
552.30	10.746
552.64	10.578
552.98	11.392
553.32	11.127
553.66	11.248
554.00	10.949
554.34	11.669
554.68	11.431
555.02	12.054
555.36	10.995
555.69	11.136
556.03	10.564
556.37	10.391
556.71	11.480
557.05	11.260
557.39	10.632
557.73	10.645
558.07	10.935
558.41	11.409
558.75	11.613
559.08	10.559
559.42	11.905
559.76	11.129
560.10	11.315
560.44	10.499
560.78	12.168
561.12	11.707
561.45	11.033
561.79	11.835
562.13	11.852
562.47	10.647
562.81	11.095
563.15	11.777
563.48	11.881
563.82	12.423
564.16	10.655
564.50	11.351
564.84	11.513
565.17	10.798
565.51	12.363
565.85	11.728
566.19	11.406
566.52	11.461
566.86	12.596
567.20	10.834
567.54	10.949
567.88	10.896
568.21	11.595
568.55	10.598
568.89	11.550
569.23	10.977
569.56	10.858
569.90	11.165
570.24	10.644
570.57	10.727
570.91	11.189
571.25	10.424
571.59	10.713
571.92	9.896
572.26	10.507
572.60	10.357
572.93	10.323
573.27	10.282
573.61	10.352
573.95	10.814
574.28	10.222
574.62	9.967
574.96	9.948
575.29	10.172
575.63	10.003
575.97	9.867
576.30	10.290
576.64	10.013
576.98	10.296
577.31	10.273
577.65	10.298
577.98	10.799
578.32	10.532
578.66	10.359
578.99	10.178
579.33	10.067
579.67	10.346
580.00	10.253
580.34	10.299
580.67	9.916
581.01	10.279
581.35	10.379
581.68	10.293
582.02	10.204
582.35	10.121
582.69	10.070
583.02	10.147
583.36	10.338
583.70	10.488
584.03	10.370
584.37	10.870
584.70	10.440
585.04	10.233
585.37	10.737
585.71	10.886
586.04	10.338
586.38	10.003
586.72	10.674
587.05	10.745
587.39	10.707
587.72	10.744
588.06	10.296
588.39	10.852
588.73	10.836
589.06	10.828
589.40	10.923
589.73	11.355
590.07	11.292
590.40	11.184
590.73	11.491
591.07	10.984
591.40	10.997
591.74	11.629
592.07	11.456
592.41	11.926
592.74	11.350
593.08	11.002
593.41	11.104
593.75	11.187
594.08	11.054
594.41	11.063
594.75	11.107
595.08	11.048
595.42	10.710
595.75	11.228
596.09	10.946
596.42	11.079
596.75	11.679
597.09	11.390
597.42	11.292
597.75	10.948
598.09	11.453
598.42	11.462
598.76	10.768
599.09	11.418
599.42	10.913
599.76	10.873
600.09	11.161
600.42	11.638
600.76	10.847
601.09	10.992
601.42	11.085
601.76	10.441
602.09	11.056
602.42	11.415
602.76	10.781
603.09	11.005
603.42	11.455
603.76	10.927
604.09	10.895
604.42	10.914
604.76	11.482
605.09	11.792
605.42	11.783
605.75	11.559
606.09	11.040
606.42	11.301
606.75	11.515
607.09	11.473
607.42	10.855
607.75	11.590
608.08	11.366
608.42	11.741
608.75	11.518
609.08	11.161
609.41	11.472
609.75	11.240
610.08	11.283
610.41	10.580
610.74	11.117
611.07	11.473
611.41	10.950
611.74	10.821
612.07	11.028
612.40	11.597
612.73	10.565
613.07	11.417
613.40	11.707
613.73	11.192
614.06	12.465
614.39	11.732
614.72	11.429
615.06	11.341
615.39	11.190
615.72	11.518
616.05	11.788
616.38	11.225
616.71	11.254
617.05	10.933
617.38	11.879
617.71	11.321
618.04	12.254
618.37	12.043
618.70	11.485
619.03	12.083
619.36	11.433
619.69	12.813
620.03	12.272
620.36	11.803
620.69	11.991
621.02	11.850
621.35	11.950
621.68	11.565
622.01	11.833
622.34	12.849
622.67	11.672
623.00	11.792
623.33	12.119
623.66	11.518
623.99	12.103
624.32	12.243
624.65	11.203
624.99	12.190
625.32	10.690
625.65	12.097
625.98	11.684
626.31	11.554
626.64	12.478
626.97	12.827
627.30	12.522
627.63	12.392
627.96	12.040
628.29	12.396
628.62	13.176
628.95	12.826
629.28	11.895
629.61	11.765
629.94	12.708
630.26	11.660
630.59	12.903
630.92	13.026
631.25	12.308
631.58	12.004
631.91	11.294
632.24	11.124
632.57	11.705
632.90	11.981
633.23	13.294
633.56	11.209
633.89	11.837
634.22	10.494
634.55	11.436
634.88	10.983
635.20	10.641
635.53	12.800
635.86	11.183
636.19	13.066
636.52	11.862
636.85	11.290
637.18	12.075
637.51	12.453
637.83	12.615
638.16	12.415
638.49	11.308
638.82	13.289
639.15	11.940
639.48	11.417
639.81	11.715
640.13	12.554
640.46	11.953
640.79	12.224
641.12	12.851
641.45	11.562
641.77	12.889
642.10	13.112
642.43	13.666
642.76	12.211
643.09	13.409
643.41	12.136
643.74	12.026
644.07	13.136
