SpectraSuite Data File
++++++++++++++++++++++++++++++++++++
Date: Fri May 15 20:05:11 PDT 2015
User: schluterlab
Dark Spectrum Present: Yes
Reference Spectrum Present: Yes
Number of Sampled Component Spectra: 1
Spectrometers: USB2E3373
Integration Time (usec): 3000 (USB2E3373)
Spectra Averaged: 3 (USB2E3373)
Boxcar Smoothing: 0 (USB2E3373)
Correct for Electrical Dark: No (USB2E3373)
Strobe/Lamp Enabled: No (USB2E3373)
Correct for Detector Non-linearity: No (USB2E3373)
Correct for Stray Light: No (USB2E3373)
Number of Pixels in Processed Spectrum: 2048
>>>>>Begin Processed Spectral Data<<<<<
178.53	0.000
178.91	0.000
179.29	50.000
179.67	-400.000
180.04	-57.143
180.42	-100.000
180.80	-300.000
181.18	233.333
181.56	650.000
181.94	-500.000
182.31	-0.000
182.69	100.000
183.07	-300.000
183.45	-140.000
183.83	300.000
184.20	-27.273
184.58	111.111
184.96	-25.000
185.34	-33.333
185.72	0.000
186.09	46.154
186.47	-900.000
186.85	16.667
187.23	133.333
187.61	200.000
187.98	-33.333
188.36	44.444
188.74	-266.667
189.12	41.176
189.49	16.667
189.87	0.000
190.25	71.429
190.63	-150.000
191.00	-233.333
191.38	-10.526
191.76	500.000
192.14	-100.000
192.51	50.000
192.89	55.556
193.27	-142.857
193.65	-0.000
194.02	172.727
194.40	90.000
194.78	-112.500
195.15	-75.000
195.53	-75.000
195.91	-25.000
196.29	125.000
196.66	38.462
197.04	114.286
197.42	-11.111
197.79	-233.333
198.17	-46.154
198.55	-300.000
198.92	-266.667
199.30	-900.000
199.68	-160.000
200.05	-500.000
200.43	0.000
200.81	-133.333
201.18	66.667
201.56	1200.000
201.94	50.000
202.31	66.667
202.69	-180.000
203.07	150.000
203.44	300.000
203.82	0.000
204.19	57.143
204.57	-333.333
204.95	75.000
205.32	50.000
205.70	128.571
206.08	-125.000
206.45	155.556
206.83	71.429
207.20	71.429
207.58	-100.000
207.96	-266.667
208.33	-80.000
208.71	-175.000
209.08	-133.333
209.46	0.000
209.84	-40.000
210.21	-1400.000
210.59	-71.429
210.96	-66.667
211.34	-100.000
211.71	46.667
212.09	-128.571
212.46	-1800.000
212.84	0.000
213.22	90.000
213.59	150.000
213.97	0.000
214.34	54.545
214.72	0.000
215.09	100.000
215.47	7.692
215.84	27.273
216.22	-333.333
216.59	12.500
216.97	0.000
217.34	125.000
217.72	-80.000
218.09	-62.500
218.47	137.500
218.84	-800.000
219.22	-33.333
219.59	-120.000
219.97	233.333
220.34	125.000
220.72	-14.286
221.09	-50.000
221.47	400.000
221.84	150.000
222.22	-700.000
222.59	81.818
222.97	33.333
223.34	-266.667
223.72	14.286
224.09	19.048
224.46	-7.143
224.84	433.333
225.21	-10.000
225.59	86.667
225.96	-500.000
226.34	275.000
226.71	-142.857
227.08	50.000
227.46	-12.500
227.83	-300.000
228.21	-111.111
228.58	0.000
228.95	-12.500
229.33	110.000
229.70	-43.750
230.08	-50.000
230.45	-85.714
230.82	128.571
231.20	20.000
231.57	71.429
231.95	-42.857
232.32	-80.000
232.69	35.714
233.07	-233.333
233.44	40.000
233.81	-10.000
234.19	66.667
234.56	-11.765
234.93	300.000
235.31	-150.000
235.68	-100.000
236.05	-92.308
236.43	-45.000
236.80	64.706
237.17	3.125
237.55	-20.000
237.92	-22.222
238.29	19.444
238.67	33.333
239.04	-2.941
239.41	-12.195
239.79	-36.667
240.16	19.512
240.53	13.158
240.91	-4.348
241.28	-7.937
241.65	25.000
242.02	16.438
242.40	13.333
242.77	16.949
243.14	7.576
243.51	11.250
243.89	21.839
244.26	6.897
244.63	10.714
245.00	19.588
245.38	23.711
245.75	5.618
246.12	12.069
246.49	14.876
246.87	17.308
247.24	15.966
247.61	12.281
247.98	16.260
248.36	13.750
248.73	15.789
249.10	8.442
249.47	16.456
249.84	18.301
250.22	10.588
250.59	17.647
250.96	17.840
251.33	9.884
251.70	16.471
252.08	12.183
252.45	13.366
252.82	16.583
253.19	19.355
253.56	12.617
253.94	14.865
254.31	20.000
254.68	19.737
255.05	18.504
255.42	16.157
255.79	13.127
256.16	19.066
256.54	17.910
256.91	11.787
257.28	15.242
257.65	13.858
258.02	15.603
258.39	16.835
258.76	15.385
259.14	16.944
259.51	16.828
259.88	12.371
260.25	13.725
260.62	15.278
260.99	14.237
261.36	6.849
261.73	14.873
262.10	16.717
262.47	16.564
262.85	14.734
263.22	16.615
263.59	14.953
263.96	15.217
264.33	13.030
264.70	17.560
265.07	14.881
265.44	16.714
265.81	20.621
266.18	14.754
266.55	16.967
266.92	15.803
267.29	17.493
267.66	15.601
268.03	19.110
268.40	14.883
268.77	20.588
269.14	14.628
269.51	17.481
269.88	13.965
270.25	14.031
270.62	15.610
270.99	15.090
271.36	16.137
271.73	16.901
272.10	17.032
272.47	13.712
272.84	14.851
273.21	16.241
273.58	14.940
273.95	16.247
274.32	13.395
274.69	14.253
275.06	17.411
275.43	14.286
275.80	15.673
276.17	15.402
276.54	16.060
276.91	17.105
277.28	14.847
277.65	14.876
278.02	12.979
278.39	13.786
278.76	13.417
279.13	12.033
279.50	16.807
279.87	16.199
280.23	15.914
280.60	17.154
280.97	13.333
281.34	14.808
281.71	16.632
282.08	13.292
282.45	12.524
282.82	15.058
283.19	15.280
283.56	15.029
283.92	15.370
284.29	13.846
284.66	15.116
285.03	16.110
285.40	15.123
285.77	12.127
286.14	13.357
286.51	16.974
286.87	14.625
287.24	14.733
287.61	14.109
287.98	13.860
288.35	14.211
288.72	17.688
289.08	15.451
289.45	13.357
289.82	13.811
290.19	12.287
290.56	13.036
290.93	14.478
291.29	12.018
291.66	12.598
292.03	14.514
292.40	12.581
292.77	13.397
293.13	9.740
293.50	12.443
293.87	11.908
294.24	13.601
294.60	13.562
294.97	13.690
295.34	11.503
295.71	12.519
296.08	12.108
296.44	10.100
296.81	13.472
297.18	11.449
297.55	13.279
297.91	12.740
298.28	12.269
298.65	11.262
299.02	11.456
299.38	8.482
299.75	9.379
300.12	8.901
300.48	10.804
300.85	12.421
301.22	10.390
301.59	11.053
301.95	10.633
302.32	10.506
302.69	10.448
303.05	12.871
303.42	10.585
303.79	11.215
304.15	11.828
304.52	8.442
304.89	9.474
305.25	10.654
305.62	8.985
305.99	10.292
306.35	9.711
306.72	9.224
307.09	11.060
307.45	10.448
307.82	8.565
308.19	9.872
308.55	9.160
308.92	11.765
309.29	10.168
309.65	10.441
310.02	9.131
310.38	10.209
310.75	10.164
311.12	11.948
311.48	9.650
311.85	9.634
312.22	10.021
312.58	10.616
312.95	8.645
313.31	9.317
313.68	9.634
314.05	9.898
314.41	10.206
314.78	10.309
315.14	10.277
315.51	10.455
315.87	9.426
316.24	11.527
316.61	11.122
316.97	9.921
317.34	9.668
317.70	9.369
318.07	9.712
318.43	11.078
318.80	10.038
319.16	9.277
319.53	11.396
319.89	11.811
320.26	9.514
320.62	11.133
320.99	9.290
321.35	8.839
321.72	10.073
322.08	9.869
322.45	9.746
322.81	10.904
323.18	9.912
323.54	9.459
323.91	10.029
324.27	9.473
324.64	9.738
325.00	10.584
325.37	11.295
325.73	9.973
326.10	10.808
326.46	11.031
326.83	10.324
327.19	10.985
327.56	9.818
327.92	10.915
328.29	10.357
328.65	10.660
329.01	10.937
329.38	10.783
329.74	8.687
330.11	11.399
330.47	10.668
330.84	10.481
331.20	11.122
331.56	9.259
331.93	10.411
332.29	11.091
332.66	9.502
333.02	10.595
333.38	9.991
333.75	11.355
334.11	9.937
334.48	10.879
334.84	11.355
335.20	10.704
335.57	10.789
335.93	10.750
336.29	9.853
336.66	9.446
337.02	9.480
337.38	9.537
337.75	10.636
338.11	11.452
338.47	9.672
338.84	10.628
339.20	12.157
339.56	10.734
339.93	11.280
340.29	10.183
340.65	12.097
341.02	10.550
341.38	10.000
341.74	10.336
342.11	9.099
342.47	10.320
342.83	10.554
343.20	11.324
343.56	10.870
343.92	10.097
344.28	11.443
344.65	10.794
345.01	10.631
345.37	10.177
345.73	11.297
346.10	10.699
346.46	10.513
346.82	9.656
347.19	9.726
347.55	11.111
347.91	10.761
348.27	10.994
348.63	9.710
349.00	10.172
349.36	9.559
349.72	10.697
350.08	10.492
350.45	10.375
350.81	9.053
351.17	10.668
351.53	11.347
351.89	9.166
352.26	10.240
352.62	11.935
352.98	10.040
353.34	10.306
353.70	10.194
354.07	9.839
354.43	10.969
354.79	9.909
355.15	11.111
355.51	9.968
355.87	10.275
356.24	9.380
356.60	11.075
356.96	11.111
357.32	11.262
357.68	10.790
358.04	11.147
358.40	10.209
358.77	10.925
359.13	10.168
359.49	9.553
359.85	10.530
360.21	9.569
360.57	10.406
360.93	11.422
361.29	10.498
361.66	10.502
362.02	11.136
362.38	10.815
362.74	9.463
363.10	11.136
363.46	11.119
363.82	11.420
364.18	10.258
364.54	9.853
364.90	10.538
365.26	10.917
365.62	11.168
365.98	10.777
366.35	11.580
366.71	11.234
367.07	11.248
367.43	10.712
367.79	11.095
368.15	11.271
368.51	10.415
368.87	9.763
369.23	10.108
369.59	10.860
369.95	10.777
370.31	10.910
370.67	10.746
371.03	10.157
371.39	9.920
371.75	11.429
372.11	10.770
372.47	11.021
372.83	11.710
373.19	10.414
373.55	10.758
373.91	11.087
374.27	10.631
374.63	11.127
374.99	10.355
375.35	11.490
375.71	11.678
376.07	10.604
376.42	12.245
376.78	11.342
377.14	11.374
377.50	11.288
377.86	11.245
378.22	11.359
378.58	11.282
378.94	11.594
379.30	10.917
379.66	12.038
380.02	11.036
380.38	10.286
380.74	11.011
381.09	12.454
381.45	11.804
381.81	11.289
382.17	11.929
382.53	11.430
382.89	11.111
383.25	11.512
383.61	12.378
383.97	11.048
384.32	12.508
384.68	13.189
385.04	11.949
385.40	12.383
385.76	12.642
386.12	12.354
386.48	12.580
386.83	12.936
387.19	12.759
387.55	12.673
387.91	12.347
388.27	12.210
388.62	12.964
388.98	13.014
389.34	13.367
389.70	13.300
390.06	12.083
390.42	12.759
390.77	12.623
391.13	13.493
391.49	12.807
391.85	12.411
392.20	12.806
392.56	12.715
392.92	13.858
393.28	13.325
393.64	13.273
393.99	14.420
394.35	12.713
394.71	13.729
395.07	14.142
395.42	13.843
395.78	13.616
396.14	13.745
396.50	14.014
396.85	14.166
397.21	13.471
397.57	13.417
397.92	13.901
398.28	13.908
398.64	13.313
399.00	13.770
399.35	13.770
399.71	14.245
400.07	13.966
400.42	13.953
400.78	14.207
401.14	13.914
401.49	14.175
401.85	14.199
402.21	14.880
402.57	14.375
402.92	13.488
403.28	13.722
403.63	14.376
403.99	13.967
404.35	14.991
404.70	14.226
405.06	14.042
405.42	13.424
405.77	14.178
406.13	14.494
406.49	15.335
406.84	15.342
407.20	15.051
407.55	14.359
407.91	13.503
408.27	14.723
408.62	14.769
408.98	14.726
409.34	14.746
409.69	13.307
410.05	13.793
410.40	14.259
410.76	15.440
411.11	14.312
411.47	14.530
411.83	14.626
412.18	14.543
412.54	14.856
412.89	13.978
413.25	14.380
413.60	14.472
413.96	15.337
414.31	15.366
414.67	14.689
415.03	15.246
415.38	14.491
415.74	14.984
416.09	14.827
416.45	14.855
416.80	14.408
417.16	15.884
417.51	15.057
417.87	14.081
418.22	15.479
418.58	15.987
418.93	15.737
419.29	15.045
419.64	15.295
420.00	16.121
420.35	15.284
420.71	16.221
421.06	15.531
421.42	15.805
421.77	15.087
422.12	15.323
422.48	15.539
422.83	15.139
423.19	15.745
423.54	15.050
423.90	15.135
424.25	15.901
424.61	16.034
424.96	16.086
425.31	15.656
425.67	16.432
426.02	16.490
426.38	16.281
426.73	16.102
427.09	16.646
427.44	16.353
427.79	15.852
428.15	16.566
428.50	16.233
428.85	15.848
429.21	17.148
429.56	16.173
429.92	17.206
430.27	16.040
430.62	16.257
430.98	16.189
431.33	16.404
431.68	15.542
432.04	16.601
432.39	16.144
432.74	16.055
433.10	17.299
433.45	16.308
433.80	16.715
434.16	15.845
434.51	16.935
434.86	17.712
435.22	17.218
435.57	16.719
435.92	17.066
436.28	15.921
436.63	17.056
436.98	16.338
437.34	16.999
437.69	17.591
438.04	17.379
438.39	16.005
438.75	17.061
439.10	16.299
439.45	17.590
439.81	17.248
440.16	17.221
440.51	17.612
440.86	18.308
441.22	17.590
441.57	17.329
441.92	17.838
442.27	17.905
442.63	18.522
442.98	17.231
443.33	16.973
443.68	17.347
444.03	17.784
444.39	17.167
444.74	17.726
445.09	17.483
445.44	18.177
445.79	18.412
446.15	17.621
446.50	17.360
446.85	17.960
447.20	17.831
447.55	18.025
447.91	18.105
448.26	18.953
448.61	17.789
448.96	18.187
449.31	17.457
449.66	17.654
450.02	17.741
450.37	18.139
450.72	18.270
451.07	18.608
451.42	18.165
451.77	18.505
452.12	17.823
452.47	17.579
452.83	18.198
453.18	18.153
453.53	18.458
453.88	17.729
454.23	19.176
454.58	19.081
454.93	19.008
455.28	17.397
455.63	19.095
455.98	19.242
456.34	18.582
456.69	18.742
457.04	18.841
457.39	18.469
457.74	18.924
458.09	18.658
458.44	18.022
458.79	18.039
459.14	19.451
459.49	18.746
459.84	19.120
460.19	18.871
460.54	19.377
460.89	19.034
461.24	18.447
461.59	19.181
461.94	18.365
462.29	19.361
462.64	19.136
462.99	19.160
463.34	18.428
463.69	18.983
464.04	18.341
464.39	18.860
464.74	18.098
465.09	18.902
465.44	19.273
465.79	18.424
466.14	19.270
466.49	17.999
466.84	18.917
467.19	18.961
467.54	18.710
467.89	18.762
468.24	19.465
468.59	19.429
468.94	18.095
469.29	18.820
469.64	19.617
469.99	18.851
470.34	19.044
470.68	19.314
471.03	19.250
471.38	17.974
471.73	19.748
472.08	19.403
472.43	18.054
472.78	18.849
473.13	19.320
473.48	18.436
473.83	18.120
474.17	18.782
474.52	19.081
474.87	19.394
475.22	19.463
475.57	18.972
475.92	19.583
476.27	19.558
476.61	19.618
476.96	18.349
477.31	19.145
477.66	18.371
478.01	19.427
478.36	19.118
478.70	19.413
479.05	19.231
479.40	18.654
479.75	18.509
480.10	18.996
480.45	19.000
480.79	19.386
481.14	19.160
481.49	19.163
481.84	19.112
482.19	18.616
482.53	18.849
482.88	19.570
483.23	18.810
483.58	19.292
483.92	19.361
484.27	18.642
484.62	18.960
484.97	18.242
485.31	18.605
485.66	18.082
486.01	18.287
486.36	18.394
486.70	18.739
487.05	19.209
487.40	18.899
487.75	18.986
488.09	19.252
488.44	19.635
488.79	18.827
489.13	19.191
489.48	18.982
489.83	18.879
490.17	18.742
490.52	18.476
490.87	19.065
491.22	19.436
491.56	18.975
491.91	18.738
492.26	19.494
492.60	19.002
492.95	19.725
493.30	19.834
493.64	19.106
493.99	19.517
494.34	18.398
494.68	19.143
495.03	18.297
495.37	18.744
495.72	18.980
496.07	19.610
496.41	18.868
496.76	19.023
497.11	19.050
497.45	19.332
497.80	19.223
498.14	19.225
498.49	19.655
498.84	19.261
499.18	19.478
499.53	19.395
499.87	18.482
500.22	19.535
500.56	19.163
500.91	18.976
501.26	18.784
501.60	19.528
501.95	19.893
502.29	19.128
502.64	19.353
502.98	19.043
503.33	18.588
503.67	18.699
504.02	19.355
504.36	19.149
504.71	19.040
505.06	19.678
505.40	19.391
505.75	19.794
506.09	19.260
506.44	20.175
506.78	19.133
507.13	19.855
507.47	18.799
507.82	18.910
508.16	19.070
508.51	19.360
508.85	19.048
509.19	18.574
509.54	19.678
509.88	20.011
510.23	19.957
510.57	19.508
510.92	18.977
511.26	19.531
511.61	18.592
511.95	18.849
512.30	19.346
512.64	19.978
512.98	18.922
513.33	19.474
513.67	19.898
514.02	20.195
514.36	19.657
514.70	19.639
515.05	20.682
515.39	19.008
515.74	20.659
516.08	19.904
516.42	20.082
516.77	19.602
517.11	19.288
517.46	20.048
517.80	20.143
518.14	19.290
518.49	19.171
518.83	20.170
519.17	18.860
519.52	19.005
519.86	19.088
520.20	20.292
520.55	19.450
520.89	20.201
521.23	19.316
521.58	19.685
521.92	19.872
522.26	20.104
522.61	19.481
522.95	20.066
523.29	19.632
523.64	19.504
523.98	19.248
524.32	19.652
524.66	20.230
525.01	21.039
525.35	21.063
525.69	19.327
526.04	19.511
526.38	20.428
526.72	19.163
527.06	20.039
527.41	20.844
527.75	19.169
528.09	20.199
528.43	20.797
528.78	19.406
529.12	19.548
529.46	19.363
529.80	20.203
530.15	21.188
530.49	20.673
530.83	19.494
531.17	19.342
531.51	19.904
531.86	19.850
532.20	19.137
532.54	19.469
532.88	21.150
533.22	20.296
533.57	19.856
533.91	19.452
534.25	21.029
534.59	19.820
534.93	19.132
535.27	19.480
535.62	19.378
535.96	20.091
536.30	20.053
536.64	19.917
536.98	20.557
537.32	19.559
537.66	20.968
538.01	19.510
538.35	19.348
538.69	19.907
539.03	19.275
539.37	19.785
539.71	19.496
540.05	19.484
540.39	18.975
540.73	20.642
541.07	20.649
541.42	20.632
541.76	20.578
542.10	20.165
542.44	19.527
542.78	19.133
543.12	19.231
543.46	20.236
543.80	20.888
544.14	19.159
544.48	20.320
544.82	20.232
545.16	19.399
545.50	20.360
545.84	20.255
546.18	20.851
546.52	20.260
546.86	18.620
547.20	19.957
547.54	19.364
547.88	20.516
548.22	19.987
548.56	19.921
548.90	20.687
549.24	19.353
549.58	19.464
549.92	19.514
550.26	20.440
550.60	19.331
550.94	19.940
551.28	20.325
551.62	20.231
551.96	20.000
552.30	19.810
552.64	19.535
552.98	20.534
553.32	19.544
553.66	18.940
554.00	19.124
554.34	19.867
554.68	18.953
555.02	20.536
555.36	20.045
555.69	19.414
556.03	19.700
556.37	20.000
556.71	19.783
557.05	19.687
557.39	18.736
557.73	20.165
558.07	19.910
558.41	20.368
558.75	18.550
559.08	19.937
559.42	20.397
559.76	21.297
560.10	19.190
560.44	20.179
560.78	19.790
561.12	20.310
561.45	19.115
561.79	19.608
562.13	19.659
562.47	20.072
562.81	19.885
563.15	19.958
563.48	19.802
563.82	19.629
564.16	20.125
564.50	19.189
564.84	20.549
565.17	19.718
565.51	20.492
565.85	19.753
566.19	19.960
566.52	19.705
566.86	20.051
567.20	19.614
567.54	19.221
567.88	19.332
568.21	19.627
568.55	18.424
568.89	19.302
569.23	19.355
569.56	19.527
569.90	19.001
570.24	18.831
570.57	19.164
570.91	18.996
571.25	18.579
571.59	18.250
571.92	18.281
572.26	18.146
572.60	18.388
572.93	19.266
573.27	18.840
573.61	18.138
573.95	18.815
574.28	18.406
574.62	18.180
574.96	18.399
575.29	18.501
575.63	17.984
575.97	18.433
576.30	18.077
576.64	18.146
576.98	18.507
577.31	17.965
577.65	18.899
577.98	18.364
578.32	18.102
578.66	17.838
578.99	18.437
579.33	18.236
579.67	18.092
580.00	18.304
580.34	18.383
580.67	18.274
581.01	18.132
581.35	18.325
581.68	18.441
582.02	18.370
582.35	17.902
582.69	18.407
583.02	18.052
583.36	18.689
583.70	18.873
584.03	18.738
584.37	19.142
584.70	19.038
585.04	18.679
585.37	18.403
585.71	18.341
586.04	18.507
586.38	18.192
586.72	18.680
587.05	18.631
587.39	18.675
587.72	18.699
588.06	18.821
588.39	18.884
588.73	18.987
589.06	19.080
589.40	19.115
589.73	19.022
590.07	18.429
590.40	19.040
590.73	19.852
591.07	19.508
591.40	19.056
591.74	18.778
592.07	18.970
592.41	19.302
592.74	18.439
593.08	18.093
593.41	18.155
593.75	18.155
594.08	18.435
594.41	18.523
594.75	18.321
595.08	18.729
595.42	18.550
595.75	19.039
596.09	18.843
596.42	18.561
596.75	19.405
597.09	18.998
597.42	18.654
597.75	19.056
598.09	18.515
598.42	17.960
598.76	18.747
599.09	18.189
599.42	17.734
599.76	18.284
600.09	18.665
600.42	18.423
600.76	17.608
601.09	18.359
601.42	17.901
601.76	18.182
602.09	19.018
602.42	19.419
602.76	19.270
603.09	18.314
603.42	18.813
603.76	18.065
604.09	18.307
604.42	19.078
604.76	19.226
605.09	18.693
605.42	18.736
605.75	18.476
606.09	18.726
606.42	18.849
606.75	18.355
607.09	18.242
607.42	17.900
607.75	18.117
608.08	17.790
608.42	17.908
608.75	19.181
609.08	17.987
609.41	18.731
609.75	18.700
610.08	18.173
610.41	17.826
610.74	18.137
611.07	18.553
611.41	18.578
611.74	18.977
612.07	18.094
612.40	18.709
612.73	18.305
613.07	18.166
613.40	18.982
613.73	18.019
614.06	18.364
614.39	19.346
614.72	18.207
615.06	18.771
615.39	18.832
615.72	18.138
616.05	18.715
616.38	18.519
616.71	18.349
617.05	18.345
617.38	18.290
617.71	18.365
618.04	18.730
618.37	19.042
618.70	18.812
619.03	20.486
619.36	18.524
619.69	18.954
620.03	19.065
620.36	18.884
620.69	18.986
621.02	18.884
621.35	18.672
621.68	19.133
622.01	18.833
622.34	18.835
622.67	19.874
623.00	19.449
623.33	18.064
623.66	18.923
623.99	18.230
624.32	18.099
624.65	18.872
624.99	18.510
625.32	18.423
625.65	19.639
625.98	19.823
626.31	18.288
626.64	19.584
626.97	18.935
627.30	19.089
627.63	19.844
627.96	18.509
628.29	18.501
628.62	18.781
628.95	18.838
629.28	18.649
629.61	19.043
629.94	19.648
630.26	19.071
630.59	19.043
630.92	18.769
631.25	17.846
631.58	18.943
631.91	17.544
632.24	18.349
632.57	18.750
632.90	18.031
633.23	18.824
633.56	19.270
633.89	18.619
634.22	20.247
634.55	18.933
634.88	20.307
