SpectraSuite Data File
++++++++++++++++++++++++++++++++++++
Date: Fri May 15 17:13:11 PDT 2015
User: schluterlab
Dark Spectrum Present: Yes
Reference Spectrum Present: Yes
Number of Sampled Component Spectra: 1
Spectrometers: USB2E3373
Integration Time (usec): 3000 (USB2E3373)
Spectra Averaged: 3 (USB2E3373)
Boxcar Smoothing: 0 (USB2E3373)
Correct for Electrical Dark: No (USB2E3373)
Strobe/Lamp Enabled: No (USB2E3373)
Correct for Detector Non-linearity: No (USB2E3373)
Correct for Stray Light: No (USB2E3373)
Number of Pixels in Processed Spectrum: 2048
>>>>>Begin Processed Spectral Data<<<<<
178.53	0.000
178.91	0.000
179.29	100.000
179.67	50.000
180.04	14.286
180.42	175.000
180.80	-600.000
181.18	-33.333
181.56	-450.000
181.94	-400.000
182.31	-400.000
182.69	160.000
183.07	-100.000
183.45	-120.000
183.83	66.667
184.20	27.273
184.58	11.111
184.96	-100.000
185.34	-300.000
185.72	50.000
186.09	76.923
186.47	200.000
186.85	-83.333
187.23	77.778
187.61	-0.000
187.98	233.333
188.36	66.667
188.74	566.667
189.12	70.588
189.49	66.667
189.87	0.000
190.25	107.143
190.63	250.000
191.00	-233.333
191.38	31.579
191.76	100.000
192.14	-100.000
192.51	500.000
192.89	33.333
193.27	114.286
193.65	50.000
194.02	-0.000
194.40	60.000
194.78	0.000
195.15	16.667
195.53	0.000
195.91	150.000
196.29	25.000
196.66	30.769
197.04	171.429
197.42	55.556
197.79	-366.667
198.17	-38.462
198.55	-100.000
198.92	-166.667
199.30	200.000
199.68	100.000
200.05	100.000
200.43	0.000
200.81	-300.000
201.18	0.000
201.56	400.000
201.94	100.000
202.31	-400.000
202.69	-120.000
203.07	150.000
203.44	300.000
203.82	0.000
204.19	64.286
204.57	100.000
204.95	87.500
205.32	80.000
205.70	-42.857
206.08	150.000
206.45	177.778
206.83	157.143
207.20	-28.571
207.58	-200.000
207.96	-133.333
208.33	-10.000
208.71	25.000
209.08	-166.667
209.46	600.000
209.84	-20.000
210.21	-200.000
210.59	57.143
210.96	200.000
211.34	0.000
211.71	73.333
212.09	-71.429
212.46	-1200.000
212.84	0.000
213.22	110.000
213.59	500.000
213.97	46.154
214.34	-27.273
214.72	50.000
215.09	325.000
215.47	30.769
215.84	-36.364
216.22	-66.667
216.59	62.500
216.97	250.000
217.34	-25.000
217.72	-40.000
218.09	287.500
218.47	50.000
218.84	-200.000
219.22	88.889
219.59	0.000
219.97	266.667
220.34	250.000
220.72	0.000
221.09	-75.000
221.47	550.000
221.84	-50.000
222.22	-650.000
222.59	72.727
222.97	66.667
223.34	66.667
223.72	78.571
224.09	28.571
224.46	50.000
224.84	300.000
225.21	30.000
225.59	60.000
225.96	-100.000
226.34	100.000
226.71	-14.286
227.08	-33.333
227.46	150.000
227.83	-250.000
228.21	11.111
228.58	45.455
228.95	50.000
229.33	50.000
229.70	0.000
230.08	50.000
230.45	-214.286
230.82	0.000
231.20	26.667
231.57	142.857
231.95	71.429
232.32	90.000
232.69	-7.143
233.07	266.667
233.44	20.000
233.81	60.000
234.19	33.333
234.56	11.765
234.93	200.000
235.31	125.000
235.68	-40.000
236.05	-7.692
236.43	90.000
236.80	-5.882
237.17	21.875
237.55	40.000
237.92	25.926
238.29	41.667
238.67	36.667
239.04	17.647
239.41	-21.951
239.79	-3.333
240.16	46.341
240.53	7.895
240.91	30.435
241.28	23.810
241.65	42.857
242.02	27.397
242.40	35.000
242.77	20.339
243.14	21.212
243.51	31.250
243.89	27.586
244.26	14.943
244.63	14.286
245.00	22.680
245.38	36.082
245.75	16.854
246.12	28.448
246.49	26.446
246.87	20.192
247.24	23.529
247.61	10.526
247.98	24.390
248.36	22.500
248.73	21.053
249.10	22.727
249.47	20.886
249.84	22.222
250.22	18.824
250.59	26.144
250.96	26.291
251.33	19.186
251.70	18.824
252.08	26.904
252.45	27.228
252.82	26.633
253.19	20.737
253.56	18.692
253.94	22.973
254.31	21.739
254.68	24.123
255.05	22.047
255.42	24.454
255.79	23.552
256.16	24.514
256.54	23.507
256.91	21.293
257.28	21.190
257.65	22.846
258.02	20.922
258.39	22.896
258.76	24.176
259.14	23.920
259.51	21.036
259.88	20.275
260.25	20.588
260.62	22.569
260.99	22.034
261.36	21.918
261.73	23.734
262.10	22.796
262.47	20.245
262.85	21.630
263.22	20.923
263.59	23.053
263.96	25.466
264.33	25.758
264.70	22.024
265.07	20.238
265.44	22.096
265.81	22.034
266.18	22.678
266.55	22.365
266.92	26.684
267.29	22.977
267.66	20.460
268.03	22.775
268.40	20.888
268.77	27.005
269.14	23.022
269.51	23.136
269.88	24.688
270.25	19.388
270.62	23.415
270.99	20.716
271.36	20.538
271.73	22.770
272.10	19.221
272.47	22.931
272.84	21.287
273.21	20.418
273.58	23.373
273.95	22.883
274.32	21.940
274.69	20.362
275.06	24.330
275.43	19.728
275.80	22.296
276.17	19.310
276.54	20.557
276.91	22.368
277.28	20.742
277.65	22.314
278.02	21.915
278.39	22.101
278.76	18.868
279.13	18.050
279.50	20.378
279.87	19.654
280.23	19.570
280.60	18.324
280.97	21.212
281.34	21.346
281.71	21.766
282.08	20.450
282.45	19.374
282.82	20.656
283.19	20.696
283.56	20.231
283.92	21.442
284.29	19.423
284.66	19.574
285.03	19.843
285.40	18.904
285.77	20.035
286.14	20.578
286.51	19.373
286.87	18.464
287.24	18.969
287.61	18.519
287.98	19.649
288.35	20.624
288.72	20.315
289.08	18.750
289.45	18.102
289.82	19.056
290.19	18.430
290.56	17.667
290.93	16.498
291.29	16.641
291.66	17.953
292.03	19.298
292.40	18.548
292.77	19.458
293.13	14.448
293.50	14.871
293.87	16.641
294.24	16.847
294.60	17.735
294.97	16.220
295.34	16.104
295.71	15.946
296.08	16.143
296.44	14.794
296.81	16.944
297.18	15.217
297.55	16.667
297.91	16.575
298.28	17.150
298.65	16.554
299.02	16.038
299.38	11.902
299.75	14.897
300.12	15.445
300.48	13.966
300.85	16.350
301.22	16.104
301.59	13.289
301.95	16.709
302.32	16.083
302.69	14.677
303.05	14.728
303.42	14.944
303.79	13.902
304.15	15.054
304.52	14.269
304.89	13.567
305.25	14.044
305.62	13.419
305.99	13.567
306.35	12.832
306.72	13.948
307.09	13.683
307.45	14.122
307.82	15.046
308.19	14.866
308.55	11.778
308.92	15.468
309.29	12.291
309.65	14.209
310.02	13.531
310.38	14.270
310.75	13.443
311.12	13.132
311.48	13.468
311.85	13.194
312.22	12.764
312.58	13.057
312.95	14.088
313.31	13.043
313.68	12.565
314.05	13.367
314.41	13.711
314.78	13.196
315.14	13.258
315.51	13.665
315.87	14.139
316.24	15.167
316.61	13.976
316.97	14.286
317.34	15.234
317.70	14.627
318.07	14.231
318.43	15.294
318.80	13.920
319.16	15.234
319.53	16.334
319.89	15.748
320.26	14.879
320.62	16.851
320.99	15.971
321.35	17.061
321.72	17.861
322.08	17.523
322.45	16.650
322.81	18.664
323.18	18.940
323.54	18.822
323.91	19.864
324.27	19.727
324.64	21.910
325.00	23.084
325.37	24.793
325.73	23.481
326.10	24.160
326.46	26.368
326.83	26.072
327.19	28.248
327.56	28.323
327.92	30.194
328.29	30.893
328.65	30.943
329.01	33.456
329.38	33.364
329.74	35.316
330.11	35.403
330.47	34.323
330.84	35.577
331.20	40.684
331.56	37.407
331.93	39.178
332.29	40.880
332.66	40.362
333.02	41.450
333.38	41.063
333.75	42.766
334.11	40.734
334.48	42.430
334.84	42.949
335.20	42.818
335.57	45.059
335.93	44.715
336.29	44.659
336.66	45.958
337.02	45.260
337.38	46.296
337.75	46.636
338.11	46.709
338.47	48.814
338.84	47.689
339.20	47.898
339.56	49.450
339.93	49.150
340.29	49.450
340.65	49.283
341.02	48.582
341.38	47.345
341.74	48.322
342.11	46.447
342.47	50.089
342.83	49.048
343.20	48.955
343.56	50.870
343.92	49.779
344.28	50.299
344.65	49.396
345.01	49.352
345.37	49.201
345.73	48.787
346.10	49.957
346.46	50.883
346.82	49.182
347.19	47.880
347.55	49.958
347.91	51.456
348.27	48.989
348.63	50.937
349.00	50.123
349.36	48.545
349.72	53.483
350.08	50.246
350.45	49.880
350.81	50.664
351.17	49.837
351.53	51.184
351.89	49.876
352.26	50.880
352.62	50.323
352.98	50.281
353.34	49.356
353.70	50.809
354.07	52.097
354.43	50.040
354.79	51.693
355.15	51.508
355.51	51.187
355.87	52.427
356.24	51.958
356.60	50.283
356.96	52.540
357.32	51.438
357.68	51.837
358.04	52.342
358.40	52.653
358.77	53.270
359.13	52.682
359.49	51.310
359.85	50.858
360.21	52.233
360.57	51.262
360.93	51.740
361.29	52.190
361.66	54.467
362.02	52.348
362.38	52.171
362.74	52.839
363.10	53.574
363.46	52.483
363.82	53.644
364.18	52.620
364.54	51.912
364.90	52.616
365.26	52.475
365.62	54.307
365.98	54.326
366.35	55.499
366.71	54.989
367.07	53.048
367.43	54.349
367.79	54.205
368.15	53.266
368.51	55.135
368.87	55.133
369.23	52.274
369.59	55.539
369.95	55.279
370.31	56.575
370.67	54.478
371.03	54.668
371.39	55.288
371.75	55.751
372.11	56.348
372.47	56.953
372.83	57.417
373.19	55.706
373.55	55.523
373.91	56.803
374.27	57.123
374.63	59.225
374.99	55.816
375.35	58.148
375.71	57.692
376.07	58.216
376.42	58.095
376.78	59.262
377.14	58.700
377.50	57.769
377.86	58.701
378.22	58.839
378.58	59.615
378.94	59.672
379.30	59.139
379.66	60.940
380.02	59.227
380.38	59.951
380.74	59.904
381.09	62.086
381.45	60.673
381.81	61.382
382.17	62.437
382.53	62.461
382.89	62.963
383.25	63.348
383.61	63.232
383.97	62.032
384.32	61.976
384.68	63.839
385.04	62.255
385.40	61.979
385.76	63.082
386.12	64.683
386.48	65.262
386.83	63.412
387.19	63.431
387.55	65.872
387.91	64.425
388.27	64.042
388.62	65.639
388.98	65.255
389.34	63.960
389.70	65.320
390.06	64.380
390.42	66.192
390.77	67.037
391.13	66.898
391.49	66.559
391.85	67.057
392.20	65.788
392.56	65.480
392.92	66.471
393.28	67.217
393.64	68.048
393.99	67.649
394.35	67.489
394.71	66.603
395.07	66.436
395.42	66.120
395.78	67.166
396.14	67.718
396.50	68.675
396.85	68.448
397.21	66.479
397.57	68.777
397.92	68.604
398.28	69.253
398.64	66.205
399.00	68.002
399.35	67.043
399.71	67.490
400.07	68.682
400.42	66.218
400.78	68.218
401.14	68.663
401.49	68.731
401.85	67.581
402.21	67.470
402.57	67.875
402.92	67.817
403.28	69.173
403.63	68.726
403.99	67.921
404.35	69.394
404.70	66.071
405.06	68.449
405.42	67.806
405.77	68.855
406.13	68.044
406.49	68.147
406.84	69.377
407.20	69.356
407.55	68.319
407.91	67.380
408.27	69.280
408.62	68.062
408.98	67.591
409.34	68.092
409.69	67.700
410.05	67.241
410.40	68.457
410.76	69.421
411.11	68.875
411.47	68.968
411.83	67.797
412.18	69.305
412.54	67.853
412.89	65.948
413.25	68.592
413.60	68.634
413.96	66.012
414.31	68.415
414.67	68.826
415.03	68.176
415.38	67.493
415.74	69.121
416.09	68.583
416.45	69.007
416.80	69.927
417.16	71.616
417.51	67.955
417.87	67.927
418.22	69.560
418.58	69.766
418.93	71.473
419.29	66.901
419.64	69.669
420.00	70.403
420.35	68.776
420.71	69.927
421.06	69.613
421.42	69.111
421.77	70.462
422.12	70.148
422.48	69.247
422.83	69.200
423.19	69.977
423.54	68.959
423.90	69.847
424.25	70.896
424.61	71.848
424.96	69.338
425.31	71.519
425.67	73.650
426.02	72.320
426.38	72.574
426.73	72.700
427.09	72.405
427.44	73.588
427.79	72.775
428.15	73.119
428.50	72.986
428.85	71.867
429.21	72.779
429.56	73.154
429.92	72.162
430.27	72.281
430.62	71.929
430.98	73.142
431.33	72.029
431.68	73.208
432.04	73.393
432.39	73.417
432.74	71.738
433.10	74.943
433.45	74.432
433.80	74.347
434.16	75.235
434.51	73.548
434.86	75.377
435.22	75.154
435.57	75.234
435.92	75.269
436.28	74.597
436.63	73.189
436.98	74.450
437.34	74.289
437.69	75.134
438.04	75.442
438.39	75.443
438.75	77.231
439.10	74.816
439.45	76.385
439.81	75.596
440.16	77.732
440.51	76.418
440.86	78.006
441.22	75.339
441.57	77.759
441.92	76.915
442.27	76.663
442.63	76.606
442.98	76.967
443.33	74.903
443.68	75.968
444.03	76.403
444.39	76.537
444.74	78.818
445.09	77.171
445.44	79.031
445.79	78.855
446.15	76.432
446.50	76.983
446.85	78.693
447.20	77.998
447.55	77.679
447.91	78.003
448.26	78.429
448.61	79.044
448.96	80.207
449.31	79.191
449.66	78.223
450.02	78.095
450.37	79.372
450.72	78.293
451.07	79.873
451.42	77.278
451.77	79.325
452.12	78.050
452.47	78.107
452.83	80.153
453.18	77.672
453.53	79.772
453.88	78.021
454.23	78.365
454.58	80.668
454.93	78.286
455.28	78.667
455.63	79.355
455.98	78.954
456.34	79.438
456.69	79.161
457.04	79.458
457.39	79.587
457.74	78.537
458.09	78.870
458.44	78.584
458.79	77.367
459.14	79.405
459.49	80.716
459.84	79.808
460.19	79.430
460.54	79.218
460.89	79.773
461.24	78.385
461.59	79.810
461.94	78.553
462.29	80.157
462.64	79.867
462.99	79.621
463.34	79.764
463.69	78.057
464.04	79.419
464.39	79.078
464.74	78.344
465.09	79.289
465.44	79.284
465.79	78.118
466.14	80.217
466.49	79.471
466.84	79.239
467.19	80.163
467.54	76.948
467.89	80.291
468.24	78.224
468.59	79.048
468.94	77.778
469.29	79.607
469.64	77.922
469.99	81.289
470.34	79.386
470.68	80.388
471.03	79.476
471.38	79.886
471.73	79.412
472.08	79.715
472.43	80.201
472.78	79.438
473.13	80.884
473.48	80.521
473.83	78.767
474.17	81.671
474.52	80.026
474.87	79.455
475.22	79.622
475.57	79.277
475.92	78.552
476.27	79.511
476.61	80.208
476.96	79.253
477.31	80.422
477.66	79.045
478.01	81.022
478.36	80.174
478.70	80.642
479.05	80.110
479.40	79.597
479.75	79.353
480.10	78.546
480.45	79.150
480.79	81.672
481.14	79.252
481.49	78.424
481.84	79.585
482.19	79.046
482.53	79.808
482.88	78.807
483.23	78.695
483.58	79.104
483.92	79.574
484.27	78.988
484.62	79.337
484.97	78.358
485.31	78.649
485.66	77.351
486.01	77.902
486.36	76.648
486.70	76.919
487.05	77.373
487.40	76.861
487.75	77.606
488.09	77.163
488.44	77.957
488.79	77.886
489.13	78.045
489.48	79.649
489.83	79.327
490.17	79.506
490.52	78.753
490.87	78.806
491.22	79.799
491.56	78.605
491.91	78.298
492.26	81.089
492.60	79.559
492.95	81.013
493.30	78.163
493.64	80.796
493.99	80.435
494.34	79.320
494.68	79.905
495.03	79.708
495.37	80.226
495.72	80.162
496.07	80.390
496.41	79.528
496.76	80.746
497.11	78.808
497.45	79.236
497.80	80.928
498.14	78.788
498.49	80.142
498.84	79.092
499.18	80.673
499.53	80.357
499.87	79.426
500.22	79.575
500.56	80.282
500.91	79.618
501.26	78.893
501.60	79.538
501.95	80.495
502.29	80.436
502.64	80.261
502.98	81.352
503.33	80.019
503.67	77.928
504.02	78.983
504.36	80.109
504.71	78.838
505.06	80.272
505.40	80.051
505.75	80.206
506.09	79.929
506.44	80.133
506.78	81.020
507.13	79.731
507.47	80.157
507.82	80.823
508.16	79.979
508.51	81.847
508.85	80.429
509.19	80.628
509.54	80.000
509.88	79.180
510.23	80.904
510.57	80.759
510.92	78.412
511.26	80.415
511.61	81.848
511.95	79.507
512.30	81.098
512.64	80.078
512.98	79.955
513.33	80.974
513.67	79.875
514.02	82.037
514.36	81.600
514.70	82.401
515.05	82.844
515.39	81.877
515.74	81.976
516.08	83.323
516.42	82.509
516.77	82.563
517.11	83.620
517.46	82.286
517.80	81.883
518.14	82.058
518.49	81.010
518.83	81.713
519.17	80.170
519.52	81.172
519.86	82.113
520.20	81.531
520.55	81.926
520.89	80.740
521.23	82.077
521.58	82.208
521.92	82.436
522.26	82.433
522.61	82.532
522.95	82.583
523.29	81.067
523.64	82.529
523.98	84.187
524.32	82.539
524.66	82.971
525.01	82.143
525.35	81.594
525.69	83.165
526.04	82.341
526.38	82.944
526.72	81.033
527.06	80.480
527.41	82.850
527.75	82.775
528.09	81.728
528.43	83.255
528.78	82.838
529.12	82.323
529.46	82.781
529.80	80.874
530.15	81.056
530.49	82.761
530.83	83.037
531.17	81.195
531.51	81.669
531.86	82.733
532.20	82.811
532.54	83.594
532.88	81.793
533.22	81.788
533.57	79.948
533.91	81.854
534.25	82.487
534.59	81.078
534.93	80.868
535.27	79.949
535.62	81.076
535.96	80.235
536.30	82.850
536.64	82.633
536.98	82.369
537.32	83.428
537.66	81.978
538.01	82.448
538.35	80.860
538.69	79.427
539.03	80.383
539.37	82.301
539.71	80.504
540.05	81.127
540.39	81.787
540.73	80.474
541.07	83.287
541.42	81.788
541.76	83.207
542.10	82.106
542.44	82.488
542.78	80.110
543.12	82.212
543.46	81.572
543.80	81.402
544.14	79.306
544.48	80.879
544.82	82.092
545.16	82.514
545.50	80.307
545.84	81.870
546.18	81.489
546.52	80.750
546.86	80.805
547.20	83.476
547.54	80.071
547.88	81.454
548.22	80.276
548.56	79.288
548.90	81.671
549.24	80.372
549.58	79.901
549.92	81.487
550.26	82.271
550.60	81.041
550.94	82.076
551.28	82.071
551.62	83.000
551.96	80.977
552.30	82.749
552.64	81.594
552.98	80.661
553.32	81.027
553.66	82.148
554.00	81.825
554.34	82.644
554.68	80.678
555.02	83.036
555.36	81.227
555.69	80.806
556.03	80.014
556.37	80.214
556.71	82.599
557.05	82.103
557.39	80.446
557.73	80.735
558.07	81.297
558.41	82.159
558.75	81.528
559.08	82.664
559.42	82.381
559.76	84.388
560.10	81.575
560.44	83.470
560.78	80.070
561.12	81.946
561.45	83.486
561.79	81.583
562.13	82.825
562.47	82.590
562.81	82.565
563.15	81.805
563.48	82.603
563.82	80.782
564.16	81.755
564.50	80.473
564.84	80.589
565.17	81.019
565.51	80.669
565.85	82.510
566.19	81.167
566.52	81.903
566.86	81.105
567.20	80.822
567.54	82.178
567.88	83.480
568.21	81.052
568.55	80.217
568.89	80.441
569.23	79.490
569.56	80.123
569.90	80.796
570.24	76.591
570.57	78.764
570.91	77.937
571.25	76.981
571.59	76.207
571.92	75.674
572.26	76.721
572.60	75.721
572.93	75.902
573.27	75.862
573.61	76.163
573.95	75.942
574.28	75.159
574.62	74.091
574.96	75.069
575.29	75.189
575.63	72.895
575.97	75.278
576.30	75.091
576.64	74.781
576.98	75.985
577.31	75.940
577.65	75.711
577.98	75.359
578.32	74.995
578.66	73.845
578.99	74.193
579.33	73.920
579.67	74.312
580.00	74.734
580.34	74.876
580.67	74.555
581.01	75.528
581.35	74.203
581.68	75.202
582.02	74.582
582.35	75.042
582.69	74.971
583.02	74.429
583.36	74.734
583.70	75.727
584.03	76.008
584.37	76.877
584.70	74.918
585.04	75.000
585.37	74.865
585.71	76.203
586.04	75.971
586.38	75.460
586.72	75.610
587.05	77.325
587.39	76.740
587.72	76.763
588.06	76.529
588.39	76.360
588.73	76.099
589.06	78.180
589.40	76.357
589.73	77.108
590.07	78.210
590.40	77.322
590.73	78.501
591.07	77.863
591.40	78.762
591.74	79.231
592.07	78.896
592.41	79.108
592.74	77.499
593.08	76.109
593.41	78.287
593.75	76.415
594.08	75.901
594.41	76.747
594.75	77.824
595.08	76.769
595.42	77.880
595.75	79.196
596.09	77.756
596.42	78.338
596.75	78.641
597.09	79.362
597.42	78.184
597.75	79.798
598.09	76.732
598.42	77.798
598.76	77.306
599.09	77.484
599.42	75.900
599.76	76.599
600.09	75.980
600.42	76.005
600.76	76.820
601.09	77.176
601.42	75.754
601.76	76.737
602.09	77.599
602.42	78.517
602.76	78.098
603.09	78.488
603.42	78.888
603.76	77.823
604.09	77.359
604.42	78.215
604.76	78.638
605.09	78.336
605.42	78.014
605.75	77.145
606.09	79.321
606.42	76.647
606.75	78.095
607.09	77.055
607.42	78.467
607.75	78.064
608.08	76.370
608.42	75.423
608.75	78.602
609.08	78.475
609.41	78.274
609.75	78.377
610.08	78.283
610.41	77.488
610.74	77.182
611.07	79.328
611.41	79.554
611.74	79.691
612.07	78.854
612.40	78.720
612.73	80.452
613.07	79.359
613.40	78.993
613.73	78.567
614.06	78.520
614.39	79.808
614.72	78.711
615.06	79.050
615.39	78.384
615.72	77.879
616.05	78.603
616.38	77.892
616.71	78.899
617.05	81.347
617.38	79.384
617.71	79.434
618.04	80.444
618.37	80.454
618.70	81.254
619.03	81.736
619.36	81.548
619.69	83.624
620.03	83.419
620.36	82.117
620.69	80.657
621.02	81.651
621.35	83.071
621.68	85.119
622.01	82.583
622.34	80.447
622.67	80.678
623.00	79.939
623.33	82.012
623.66	81.825
623.99	80.408
624.32	80.989
624.65	81.955
624.99	82.092
625.32	80.364
625.65	81.383
625.98	83.562
626.31	80.964
626.64	81.456
626.97	83.072
627.30	83.100
627.63	82.062
627.96	82.929
628.29	83.071
628.62	84.956
628.95	84.870
629.28	86.391
629.61	84.347
629.94	85.142
630.26	83.794
630.59	86.264
630.92	86.667
631.25	82.564
631.58	86.674
631.91	87.829
632.24	85.092
632.57	88.750
632.90	86.240
633.23	87.765
633.56	89.421
633.89	87.793
634.22	88.889
