SpectraSuite Data File
++++++++++++++++++++++++++++++++++++
Date: Fri May 15 17:18:45 PDT 2015
User: schluterlab
Dark Spectrum Present: Yes
Reference Spectrum Present: Yes
Number of Sampled Component Spectra: 1
Spectrometers: USB2E3373
Integration Time (usec): 3000 (USB2E3373)
Spectra Averaged: 3 (USB2E3373)
Boxcar Smoothing: 0 (USB2E3373)
Correct for Electrical Dark: No (USB2E3373)
Strobe/Lamp Enabled: No (USB2E3373)
Correct for Detector Non-linearity: No (USB2E3373)
Correct for Stray Light: No (USB2E3373)
Number of Pixels in Processed Spectrum: 2048
>>>>>Begin Processed Spectral Data<<<<<
178.53	0.000
178.91	0.000
179.29	62.500
179.67	-200.000
180.04	-71.429
180.42	250.000
180.80	-400.000
181.18	66.667
181.56	300.000
181.94	150.000
182.31	-1200.000
182.69	-100.000
183.07	133.333
183.45	200.000
183.83	-33.333
184.20	9.091
184.58	-66.667
184.96	-225.000
185.34	-533.333
185.72	-100.000
186.09	53.846
186.47	400.000
186.85	16.667
187.23	-11.111
187.61	100.000
187.98	-366.667
188.36	100.000
188.74	166.667
189.12	41.176
189.49	88.889
189.87	0.000
190.25	150.000
190.63	200.000
191.00	66.667
191.38	-31.579
191.76	-200.000
192.14	50.000
192.51	900.000
192.89	-44.444
193.27	-42.857
193.65	83.333
194.02	127.273
194.40	80.000
194.78	-75.000
195.15	58.333
195.53	0.000
195.91	100.000
196.29	50.000
196.66	15.385
197.04	-42.857
197.42	-11.111
197.79	-266.667
198.17	-7.692
198.55	1100.000
198.92	-66.667
199.30	1000.000
199.68	40.000
200.05	-133.333
200.43	0.000
200.81	166.667
201.18	-66.667
201.56	-400.000
201.94	100.000
202.31	-0.000
202.69	40.000
203.07	-125.000
203.44	1300.000
203.82	0.000
204.19	64.286
204.57	-100.000
204.95	-75.000
205.32	60.000
205.70	14.286
206.08	300.000
206.45	222.222
206.83	107.143
207.20	-14.286
207.58	-200.000
207.96	33.333
208.33	0.000
208.71	-300.000
209.08	-33.333
209.46	-400.000
209.84	100.000
210.21	-1100.000
210.59	185.714
210.96	100.000
211.34	-175.000
211.71	46.667
212.09	28.571
212.46	-100.000
212.84	0.000
213.22	40.000
213.59	-50.000
213.97	46.154
214.34	100.000
214.72	283.333
215.09	100.000
215.47	46.154
215.84	-27.273
216.22	-166.667
216.59	-12.500
216.97	600.000
217.34	150.000
217.72	-160.000
218.09	87.500
218.47	100.000
218.84	-800.000
219.22	-44.444
219.59	100.000
219.97	-100.000
220.34	100.000
220.72	185.714
221.09	-25.000
221.47	500.000
221.84	-200.000
222.22	-450.000
222.59	18.182
222.97	91.667
223.34	33.333
223.72	-42.857
224.09	33.333
224.46	42.857
224.84	166.667
225.21	-30.000
225.59	13.333
225.96	850.000
226.34	125.000
226.71	100.000
227.08	166.667
227.46	150.000
227.83	-50.000
228.21	22.222
228.58	145.455
228.95	62.500
229.33	50.000
229.70	37.500
230.08	-37.500
230.45	28.571
230.82	14.286
231.20	0.000
231.57	71.429
231.95	185.714
232.32	-90.000
232.69	107.143
233.07	100.000
233.44	-60.000
233.81	10.000
234.19	33.333
234.56	11.765
234.93	100.000
235.31	100.000
235.68	-160.000
236.05	23.077
236.43	-15.000
236.80	0.000
237.17	21.875
237.55	10.000
237.92	-14.815
238.29	11.111
238.67	30.000
239.04	8.824
239.41	4.878
239.79	-16.667
240.16	19.512
240.53	23.684
240.91	0.000
241.28	9.524
241.65	14.286
242.02	19.178
242.40	18.333
242.77	6.780
243.14	1.515
243.51	3.750
243.89	21.839
244.26	5.747
244.63	4.762
245.00	12.371
245.38	19.588
245.75	-5.618
246.12	4.310
246.49	11.570
246.87	17.308
247.24	8.403
247.61	-1.754
247.98	6.504
248.36	6.250
248.73	5.263
249.10	-2.597
249.47	4.430
249.84	5.229
250.22	0.000
250.59	4.575
250.96	9.390
251.33	2.326
251.70	8.235
252.08	7.107
252.45	5.941
252.82	2.513
253.19	9.677
253.56	3.271
253.94	3.604
254.31	8.696
254.68	8.772
255.05	2.362
255.42	9.607
255.79	7.336
256.16	5.058
256.54	6.343
256.91	3.802
257.28	4.461
257.65	6.742
258.02	3.546
258.39	5.051
258.76	7.326
259.14	6.977
259.51	8.091
259.88	1.718
260.25	6.536
260.62	4.514
260.99	2.712
261.36	1.027
261.73	5.063
262.10	6.687
262.47	7.975
262.85	5.643
263.22	5.231
263.59	7.165
263.96	9.317
264.33	4.545
264.70	3.869
265.07	1.488
265.44	8.215
265.81	7.062
266.18	7.377
266.55	5.398
266.92	7.254
267.29	6.005
267.66	2.302
268.03	5.497
268.40	4.961
268.77	7.487
269.14	6.235
269.51	6.427
269.88	5.237
270.25	1.786
270.62	4.146
270.99	2.302
271.36	8.068
271.73	5.869
272.10	5.596
272.47	4.728
272.84	2.475
273.21	6.729
273.58	4.578
273.95	4.577
274.32	3.233
274.69	5.656
275.06	6.250
275.43	4.535
275.80	7.726
276.17	3.448
276.54	4.925
276.91	7.018
277.28	4.148
277.65	8.678
278.02	5.532
278.39	4.376
278.76	5.031
279.13	1.867
279.50	5.462
279.87	6.479
280.23	5.161
280.60	7.212
280.97	3.838
281.34	6.154
281.71	5.955
282.08	3.067
282.45	6.458
282.82	3.282
283.19	5.803
283.56	7.322
283.92	3.795
284.29	6.346
284.66	5.814
285.03	6.680
285.40	4.537
285.77	5.624
286.14	5.957
286.51	6.642
286.87	6.216
287.24	5.157
287.61	2.998
287.98	7.368
288.35	4.853
288.72	6.130
289.08	3.819
289.45	4.921
289.82	6.469
290.19	3.925
290.56	4.803
290.93	2.357
291.29	3.390
291.66	5.984
292.03	3.349
292.40	3.065
292.77	5.901
293.13	1.461
293.50	4.097
293.87	3.969
294.24	4.482
294.60	4.024
294.97	5.804
295.34	4.908
295.71	3.130
296.08	3.288
296.44	2.276
296.81	5.694
297.18	5.507
297.55	4.472
297.91	5.342
298.28	5.409
298.65	4.206
299.02	3.504
299.38	2.736
299.75	3.448
300.12	4.058
300.48	3.162
300.85	4.563
301.22	3.766
301.59	4.079
301.95	5.696
302.32	4.021
302.69	4.104
303.05	3.094
303.42	4.234
303.79	5.374
304.15	4.779
304.52	2.497
304.89	4.211
305.25	3.995
305.62	3.734
305.99	3.158
306.35	3.931
306.72	3.037
307.09	3.307
307.45	3.674
307.82	2.778
308.19	3.717
308.55	3.053
308.92	4.684
309.29	3.799
309.65	3.552
310.02	3.520
310.38	3.842
310.75	4.699
311.12	4.521
311.48	4.136
311.85	4.084
312.22	3.165
312.58	3.397
312.95	3.522
313.31	3.520
313.68	3.246
314.05	2.959
314.41	3.711
314.78	4.330
315.14	3.803
315.51	4.658
315.87	2.971
316.24	5.258
316.61	4.823
316.97	4.960
317.34	4.883
317.70	4.971
318.07	5.385
318.43	4.118
318.80	4.545
319.16	6.055
319.53	5.603
319.89	4.429
320.26	5.769
320.62	5.316
320.99	4.489
321.35	5.344
321.72	7.061
322.08	5.841
322.45	6.599
322.81	6.385
323.18	6.084
323.54	6.467
323.91	6.232
324.27	7.813
324.64	6.929
325.00	8.668
325.37	10.101
325.73	7.888
326.10	7.084
326.46	9.596
326.83	9.274
327.19	7.672
327.56	8.427
327.92	8.979
328.29	8.214
328.65	8.491
329.01	9.467
329.38	9.124
329.74	8.687
330.11	9.824
330.47	8.627
330.84	8.077
331.20	10.456
331.56	8.981
331.93	9.041
332.29	9.899
332.66	9.864
333.02	9.201
333.38	8.983
333.75	10.989
334.11	8.057
334.48	9.973
334.84	9.707
335.20	9.424
335.57	9.429
335.93	9.666
336.29	8.932
336.66	8.901
337.02	8.457
337.38	8.981
337.75	9.182
338.11	10.821
338.47	10.766
338.84	9.335
339.20	9.872
339.56	10.275
339.93	10.027
340.29	9.450
340.65	10.753
341.02	9.131
341.38	9.912
341.74	9.187
342.11	8.839
342.47	10.587
342.83	11.332
343.20	10.889
343.56	9.652
343.92	10.629
344.28	10.077
344.65	9.672
345.01	8.989
345.37	9.924
345.73	10.544
346.10	10.699
346.46	9.840
346.82	10.147
347.19	10.640
347.55	9.774
347.91	9.385
348.27	10.105
348.63	10.307
349.00	9.024
349.36	8.894
349.72	10.448
350.08	9.672
350.45	10.136
350.81	8.970
351.17	9.283
351.53	9.551
351.89	8.918
352.26	9.600
352.62	9.919
352.98	9.558
353.34	9.340
353.70	9.871
354.07	9.274
354.43	9.207
354.79	10.405
355.15	11.190
355.51	10.364
355.87	9.951
356.24	8.320
356.60	9.701
356.96	9.365
357.32	9.026
357.68	9.304
358.04	8.320
358.40	9.325
358.77	10.766
359.13	10.568
359.49	9.784
359.85	9.204
360.21	9.250
360.57	9.640
360.93	9.985
361.29	9.215
361.66	10.110
362.02	9.621
362.38	10.053
362.74	8.933
363.10	9.857
363.46	9.637
363.82	10.894
364.18	9.299
364.54	10.441
364.90	9.606
365.26	9.316
365.62	10.657
365.98	10.557
366.35	10.415
366.71	9.830
367.07	10.450
367.43	8.411
367.79	9.611
368.15	9.835
368.51	9.687
368.87	9.404
369.23	9.603
369.59	10.350
369.95	9.824
370.31	9.971
370.67	10.299
371.03	9.335
371.39	8.972
371.75	9.744
372.11	10.200
372.47	9.393
372.83	10.291
373.19	10.128
373.55	9.531
373.91	10.583
374.27	9.922
374.63	10.553
374.99	9.858
375.35	10.446
375.71	10.140
376.07	9.480
376.42	10.544
376.78	9.799
377.14	9.953
377.50	9.960
377.86	10.576
378.22	9.828
378.58	10.833
378.94	10.208
379.30	9.794
379.66	10.972
380.02	9.933
380.38	10.590
380.74	10.473
381.09	10.920
381.45	10.520
381.81	10.981
382.17	10.216
382.53	10.743
382.89	10.358
383.25	11.325
383.61	10.610
383.97	10.349
384.32	10.632
384.68	10.526
385.04	10.417
385.40	11.201
385.76	11.447
386.12	11.514
386.48	11.111
386.83	11.477
387.19	11.477
387.55	11.418
387.91	10.575
388.27	11.661
388.62	11.076
388.98	10.927
389.34	11.993
389.70	11.746
390.06	11.517
390.42	10.687
390.77	11.053
391.13	10.908
391.49	10.479
391.85	11.306
392.20	11.299
392.56	10.744
392.92	11.685
393.28	10.849
393.64	11.592
393.99	12.539
394.35	10.500
394.71	12.452
395.07	11.188
395.42	10.808
395.78	11.401
396.14	12.232
396.50	12.175
396.85	11.719
397.21	11.404
397.57	11.724
397.92	12.223
398.28	11.839
398.64	10.301
399.00	12.020
399.35	10.835
399.71	12.005
400.07	11.487
400.42	11.138
400.78	12.125
401.14	11.797
401.49	12.091
401.85	11.456
402.21	11.627
402.57	11.812
402.92	10.728
403.28	12.719
403.63	11.728
403.99	11.543
404.35	12.555
404.70	11.845
405.06	11.340
405.42	12.492
405.77	11.505
406.13	11.409
406.49	11.486
406.84	11.186
407.20	12.161
407.55	11.333
407.91	11.898
408.27	12.301
408.62	12.308
408.98	12.261
409.34	12.701
409.69	12.339
410.05	11.946
410.40	11.728
410.76	12.425
411.11	11.625
411.47	12.295
411.83	11.613
412.18	11.583
412.54	12.360
412.89	11.946
413.25	12.635
413.60	11.988
413.96	11.534
414.31	12.012
414.67	12.059
415.03	11.585
415.38	11.423
415.74	12.117
416.09	12.018
416.45	12.289
416.80	12.360
417.16	12.431
417.51	12.392
417.87	12.647
418.22	11.917
418.58	12.308
418.93	12.351
419.29	11.780
419.64	12.054
420.00	14.169
420.35	12.239
420.71	13.305
421.06	11.602
421.42	12.440
421.77	12.370
422.12	12.372
422.48	12.290
422.83	12.123
423.19	12.698
423.54	12.169
423.90	12.309
424.25	13.088
424.61	12.546
424.96	12.660
425.31	13.172
425.67	13.028
426.02	13.428
426.38	13.275
426.73	13.317
427.09	12.532
427.44	13.647
427.79	13.200
428.15	14.017
428.50	13.144
428.85	13.084
429.21	13.582
429.56	14.124
429.92	13.251
430.27	12.682
430.62	12.859
430.98	13.482
431.33	14.196
431.68	12.977
432.04	14.645
432.39	14.147
432.74	13.169
433.10	14.368
433.45	12.963
433.80	14.219
434.16	12.798
434.51	13.548
434.86	14.634
435.22	13.853
435.57	14.286
435.92	14.072
436.28	13.596
436.63	13.976
436.98	13.731
437.34	13.854
437.69	14.788
438.04	14.701
438.39	14.050
438.75	14.147
439.10	14.261
439.45	15.033
439.81	14.190
440.16	14.964
440.51	14.507
440.86	15.589
441.22	14.536
441.57	14.404
441.92	14.848
442.27	14.523
442.63	14.829
442.98	14.532
443.33	14.969
443.68	14.430
444.03	14.655
444.39	14.560
444.74	14.939
445.09	14.922
445.44	15.043
445.79	15.678
446.15	14.703
446.50	14.365
446.85	15.197
447.20	14.859
447.55	15.904
447.91	15.398
448.26	15.310
448.61	15.659
448.96	15.663
449.31	15.954
449.66	15.447
450.02	16.315
450.37	15.590
450.72	15.693
451.07	15.443
451.42	16.230
451.77	16.094
452.12	14.713
452.47	15.776
452.83	15.135
453.18	16.003
453.53	15.297
453.88	15.908
454.23	16.103
454.58	15.869
454.93	16.302
455.28	14.857
455.63	16.553
455.98	16.657
456.34	16.667
456.69	16.328
457.04	17.643
457.39	16.464
457.74	16.747
458.09	15.656
458.44	16.501
458.79	15.910
459.14	17.048
459.49	16.716
459.84	16.695
460.19	17.233
460.54	16.320
460.89	16.591
461.24	16.584
461.59	17.102
461.94	17.044
462.29	17.250
462.64	16.545
462.99	17.332
463.34	16.829
463.69	16.860
464.04	17.010
464.39	17.283
464.74	17.239
465.09	17.405
465.44	17.023
465.79	17.460
466.14	17.047
466.49	16.619
466.84	17.668
467.19	17.334
467.54	18.135
467.89	17.183
468.24	17.397
468.59	18.095
468.94	16.825
469.29	18.230
469.64	17.567
469.99	18.290
470.34	16.928
470.68	18.419
471.03	18.684
471.38	18.616
471.73	17.717
472.08	18.385
472.43	17.248
472.78	17.409
473.13	17.551
473.48	17.590
473.83	18.244
474.17	18.782
474.52	17.932
474.87	17.333
475.22	18.060
475.57	18.012
475.92	18.102
476.27	18.335
476.61	17.824
476.96	17.736
477.31	18.334
477.66	18.258
478.01	18.304
478.36	17.810
478.70	18.760
479.05	18.077
479.40	18.760
479.75	18.092
480.10	18.126
480.45	18.450
480.79	19.084
481.14	19.262
481.49	18.522
481.84	18.581
482.19	17.680
482.53	18.417
482.88	18.329
483.23	18.330
483.58	18.679
483.92	18.683
484.27	18.140
484.62	18.691
484.97	18.408
485.31	17.775
485.66	18.297
486.01	17.423
486.36	16.775
486.70	16.703
487.05	17.132
487.40	17.813
487.75	18.056
488.09	17.862
488.44	18.638
488.79	19.089
489.13	19.311
489.48	19.410
489.83	18.655
490.17	19.326
490.52	19.169
490.87	19.389
491.22	19.819
491.56	19.497
491.91	19.551
492.26	19.349
492.60	19.146
492.95	20.020
493.30	18.857
493.64	19.646
493.99	19.614
494.34	18.398
494.68	19.048
495.03	19.611
495.37	19.185
495.72	20.091
496.07	19.902
496.41	18.868
496.76	19.208
497.11	19.283
497.45	19.618
497.80	20.888
498.14	19.622
498.49	19.451
498.84	19.810
499.18	20.432
499.53	20.685
499.87	19.455
500.22	20.425
500.56	20.474
500.91	21.084
501.26	20.020
501.60	19.675
501.95	20.087
502.29	19.370
502.64	20.994
502.98	20.326
503.33	19.404
503.67	20.627
504.02	20.870
504.36	20.732
504.71	20.657
505.06	20.483
505.40	19.797
505.75	21.031
506.09	20.628
506.44	21.458
506.78	21.378
507.13	20.941
507.47	20.679
507.82	20.673
508.16	20.602
508.51	21.406
508.85	21.298
509.19	20.170
509.54	21.448
509.88	21.521
510.23	21.732
510.57	21.700
510.92	19.883
511.26	22.259
511.61	21.782
511.95	21.863
512.30	21.341
512.64	22.315
512.98	21.729
513.33	22.720
513.67	21.887
514.02	22.998
514.36	23.200
514.70	22.960
515.05	22.797
515.39	22.078
515.74	23.293
516.08	22.534
516.42	23.263
516.77	22.996
517.11	22.849
517.46	22.741
517.80	22.884
518.14	23.209
518.49	22.776
518.83	22.843
519.17	21.892
519.52	22.913
519.86	22.269
520.20	23.633
520.55	22.514
520.89	23.024
521.23	23.686
521.58	24.038
521.92	23.974
522.26	23.422
522.61	23.377
522.95	23.907
523.29	22.872
523.64	23.634
523.98	23.979
524.32	22.938
524.66	24.200
525.01	23.701
525.35	24.498
525.69	23.232
526.04	23.677
526.38	24.643
526.72	23.087
527.06	23.541
527.41	24.208
527.75	24.330
528.09	23.987
528.43	24.848
528.78	25.149
529.12	24.194
529.46	23.587
529.80	24.383
530.15	24.356
530.49	24.175
530.83	25.513
531.17	23.640
531.51	25.513
531.86	23.793
532.20	24.148
532.54	23.894
532.88	24.162
533.22	24.597
533.57	23.919
533.91	23.825
534.25	25.000
534.59	23.926
534.93	22.907
535.27	23.287
535.62	23.007
535.96	25.310
536.30	24.736
536.64	24.328
536.98	24.181
537.32	24.822
537.66	24.614
538.01	24.615
538.35	23.232
538.69	24.035
539.03	24.197
539.37	24.563
539.71	23.108
540.05	23.897
540.39	25.000
540.73	24.268
541.07	24.862
541.42	25.134
541.76	25.396
542.10	24.019
542.44	24.392
542.78	23.262
543.12	24.038
543.46	24.409
543.80	24.011
544.14	24.166
544.48	24.517
544.82	23.377
545.16	24.249
545.50	24.700
545.84	25.283
546.18	25.248
546.52	24.153
546.86	24.371
547.20	25.465
547.54	24.028
547.88	24.457
548.22	23.932
548.56	24.274
548.90	24.663
549.24	24.105
549.58	24.048
549.92	24.732
550.26	25.128
550.60	25.279
550.94	24.496
551.28	25.502
551.62	24.846
551.96	24.737
552.30	23.830
552.64	24.118
552.98	25.246
553.32	22.896
553.66	23.730
554.00	24.015
554.34	24.889
554.68	24.558
555.02	25.818
555.36	24.084
555.69	24.029
556.03	24.126
556.37	23.488
556.71	24.332
557.05	25.205
557.39	23.866
557.73	24.813
558.07	25.189
558.41	25.498
558.75	25.097
559.08	24.271
559.42	25.397
559.76	24.420
560.10	24.235
560.44	24.721
560.78	24.336
561.12	24.542
561.45	23.963
561.79	23.669
562.13	24.131
562.47	24.245
562.81	25.432
563.15	23.907
563.48	23.975
563.82	24.296
564.16	23.816
564.50	23.176
564.84	23.494
565.17	23.206
565.51	24.590
565.85	24.486
566.19	23.607
566.52	23.391
566.86	24.229
567.20	23.661
567.54	23.418
567.88	22.789
568.21	23.303
568.55	22.826
568.89	23.203
569.23	22.532
569.56	21.891
569.90	21.884
570.24	20.804
570.57	21.018
570.91	21.297
571.25	20.355
571.59	20.648
571.92	20.504
572.26	20.622
572.60	20.899
572.93	20.552
573.27	20.408
573.61	20.615
573.95	20.508
574.28	19.889
574.62	19.476
574.96	19.272
575.29	19.384
575.63	19.202
575.97	19.599
576.30	19.933
576.64	19.603
576.98	20.026
577.31	20.005
577.65	19.679
577.98	19.632
578.32	19.291
578.66	18.676
578.99	19.256
579.33	19.236
579.67	19.833
580.00	19.494
580.34	19.900
580.67	19.313
581.01	19.669
581.35	19.294
581.68	18.953
582.02	18.866
582.35	18.589
582.69	19.108
583.02	19.163
583.36	19.636
583.70	19.782
584.03	20.156
584.37	20.243
584.70	19.313
585.04	19.456
585.37	19.730
585.71	19.501
586.04	19.365
586.38	19.525
586.72	19.484
587.05	20.306
587.39	19.458
587.72	20.612
588.06	19.485
588.39	20.422
588.73	20.085
589.06	20.026
589.40	20.359
589.73	20.847
590.07	20.619
590.40	20.820
590.73	21.087
591.07	21.374
591.40	20.258
591.74	20.679
592.07	21.475
592.41	21.422
592.74	20.550
593.08	19.246
593.41	19.901
593.75	19.235
594.08	19.705
594.41	19.905
594.75	19.847
595.08	20.431
595.42	20.096
595.75	19.790
596.09	20.719
596.42	21.042
596.75	21.314
597.09	21.048
597.42	21.274
597.75	21.438
598.09	20.824
598.42	21.164
598.76	20.378
599.09	20.353
599.42	19.704
599.76	20.316
600.09	19.721
600.42	19.788
600.76	20.208
601.09	20.000
601.42	20.212
601.76	20.206
602.09	19.926
602.42	20.219
602.76	20.586
603.09	20.307
603.42	20.610
603.76	20.121
604.09	19.846
604.42	20.262
604.76	20.516
605.09	20.978
605.42	19.865
605.75	20.184
606.09	20.679
606.42	19.975
606.75	19.524
607.09	20.308
607.42	20.381
607.75	19.272
608.08	19.991
608.42	21.471
608.75	20.867
609.08	21.325
609.41	20.558
609.75	21.069
610.08	20.819
610.41	20.097
610.74	19.893
611.07	20.155
611.41	20.602
611.74	20.682
612.07	20.450
612.40	21.280
612.73	20.904
613.07	20.922
613.40	21.827
613.73	20.705
614.06	21.202
614.39	21.376
614.72	20.336
615.06	21.229
615.39	20.633
615.72	20.237
616.05	21.117
616.38	20.114
616.71	21.957
617.05	20.568
617.38	20.679
617.71	20.755
618.04	22.349
618.37	21.816
618.70	21.452
619.03	22.083
619.36	21.852
619.69	23.806
620.03	23.156
620.36	22.318
620.69	22.413
621.02	22.171
621.35	23.900
621.68	23.129
622.01	23.333
622.34	22.426
622.67	22.555
623.00	22.741
623.33	21.037
623.66	21.840
623.99	22.466
624.32	22.357
624.65	22.481
624.99	22.724
625.32	21.001
625.65	23.331
625.98	23.368
626.31	21.613
626.64	23.137
626.97	23.473
627.30	22.680
627.63	23.744
627.96	25.247
628.29	24.052
628.62	23.992
628.95	23.848
629.28	24.395
629.61	23.529
629.94	23.949
630.26	23.814
630.59	24.142
630.92	25.538
631.25	23.692
631.58	25.110
631.91	23.465
632.24	23.394
632.57	23.295
632.90	25.504
633.23	23.647
633.56	23.929
633.89	26.387
634.22	25.556
634.55	23.380
634.88	25.287
635.20	24.872
635.53	25.867
635.86	25.228
636.19	25.485
636.52	25.383
636.85	23.449
637.18	23.899
637.51	25.157
637.83	26.150
638.16	27.149
638.49	24.932
638.82	26.974
639.15	26.323
639.48	27.235
639.81	26.639
640.13	25.830
640.46	26.676
640.79	25.184
