SpectraSuite Data File
++++++++++++++++++++++++++++++++++++
Date: Fri May 15 20:15:41 PDT 2015
User: schluterlab
Dark Spectrum Present: Yes
Reference Spectrum Present: Yes
Number of Sampled Component Spectra: 1
Spectrometers: USB2E3373
Integration Time (usec): 3000 (USB2E3373)
Spectra Averaged: 3 (USB2E3373)
Boxcar Smoothing: 0 (USB2E3373)
Correct for Electrical Dark: No (USB2E3373)
Strobe/Lamp Enabled: No (USB2E3373)
Correct for Detector Non-linearity: No (USB2E3373)
Correct for Stray Light: No (USB2E3373)
Number of Pixels in Processed Spectrum: 2048
>>>>>Begin Processed Spectral Data<<<<<
178.53	0.000
178.91	0.000
179.29	-50.000
179.67	550.000
180.04	-157.143
180.42	0.000
180.80	-500.000
181.18	133.333
181.56	-0.000
181.94	250.000
182.31	-200.000
182.69	-180.000
183.07	-233.333
183.45	-120.000
183.83	233.333
184.20	45.455
184.58	122.222
184.96	-300.000
185.34	-233.333
185.72	-700.000
186.09	53.846
186.47	-500.000
186.85	166.667
187.23	177.778
187.61	100.000
187.98	-200.000
188.36	55.556
188.74	-33.333
189.12	52.941
189.49	0.000
189.87	0.000
190.25	50.000
190.63	300.000
191.00	-200.000
191.38	0.000
191.76	150.000
192.14	25.000
192.51	300.000
192.89	-11.111
193.27	-85.714
193.65	150.000
194.02	90.909
194.40	50.000
194.78	-150.000
195.15	-25.000
195.53	-25.000
195.91	125.000
196.29	-150.000
196.66	92.308
197.04	171.429
197.42	22.222
197.79	-200.000
198.17	-69.231
198.55	1900.000
198.92	133.333
199.30	0.000
199.68	-140.000
200.05	-100.000
200.43	0.000
200.81	-66.667
201.18	66.667
201.56	1500.000
201.94	450.000
202.31	-66.667
202.69	-320.000
203.07	-50.000
203.44	300.000
203.82	0.000
204.19	64.286
204.57	-333.333
204.95	12.500
205.32	10.000
205.70	142.857
206.08	50.000
206.45	166.667
206.83	71.429
207.20	0.000
207.58	1000.000
207.96	-300.000
208.33	-50.000
208.71	-50.000
209.08	-200.000
209.46	-1100.000
209.84	-40.000
210.21	-300.000
210.59	114.286
210.96	133.333
211.34	100.000
211.71	66.667
212.09	-28.571
212.46	-900.000
212.84	0.000
213.22	170.000
213.59	700.000
213.97	46.154
214.34	-54.545
214.72	-233.333
215.09	300.000
215.47	23.077
215.84	-81.818
216.22	-300.000
216.59	-25.000
216.97	0.000
217.34	25.000
217.72	-440.000
218.09	25.000
218.47	100.000
218.84	-400.000
219.22	-66.667
219.59	-80.000
219.97	266.667
220.34	250.000
220.72	-71.429
221.09	-250.000
221.47	100.000
221.84	-550.000
222.22	-100.000
222.59	36.364
222.97	66.667
223.34	166.667
223.72	-78.571
224.09	4.762
224.46	-17.857
224.84	400.000
225.21	20.000
225.59	0.000
225.96	-150.000
226.34	175.000
226.71	-85.714
227.08	33.333
227.46	-12.500
227.83	-300.000
228.21	77.778
228.58	9.091
228.95	-200.000
229.33	110.000
229.70	12.500
230.08	-12.500
230.45	42.857
230.82	-100.000
231.20	-6.667
231.57	121.429
231.95	-85.714
232.32	-70.000
232.69	21.429
233.07	-333.333
233.44	180.000
233.81	-80.000
234.19	111.111
234.56	5.882
234.93	400.000
235.31	-125.000
235.68	-380.000
236.05	-53.846
236.43	-10.000
236.80	23.529
237.17	21.875
237.55	30.000
237.92	29.630
238.29	19.444
238.67	33.333
239.04	11.765
239.41	0.000
239.79	-6.667
240.16	34.146
240.53	5.263
240.91	17.391
241.28	15.873
241.65	23.214
242.02	32.877
242.40	23.333
242.77	18.644
243.14	16.667
243.51	18.750
243.89	29.885
244.26	24.138
244.63	15.476
245.00	27.835
245.38	15.464
245.75	8.989
246.12	15.517
246.49	16.529
246.87	24.038
247.24	7.563
247.61	9.649
247.98	11.382
248.36	24.375
248.73	17.105
249.10	25.325
249.47	21.519
249.84	16.340
250.22	18.235
250.59	27.451
250.96	23.474
251.33	23.256
251.70	24.118
252.08	23.858
252.45	25.248
252.82	26.633
253.19	20.737
253.56	14.953
253.94	27.027
254.31	27.826
254.68	24.123
255.05	18.898
255.42	16.594
255.79	23.938
256.16	20.623
256.54	22.761
256.91	23.574
257.28	21.190
257.65	19.101
258.02	24.468
258.39	23.232
258.76	27.839
259.14	20.598
259.51	21.359
259.88	19.931
260.25	20.915
260.62	22.917
260.99	19.322
261.36	18.836
261.73	19.620
262.10	21.884
262.47	21.472
262.85	21.630
263.22	25.846
263.59	22.430
263.96	20.186
264.33	21.212
264.70	21.131
265.07	21.726
265.44	24.079
265.81	22.599
266.18	22.131
266.55	22.879
266.92	20.725
267.29	21.410
267.66	23.274
268.03	22.251
268.40	21.932
268.77	26.203
269.14	23.741
269.51	21.594
269.88	20.698
270.25	17.857
270.62	21.220
270.99	19.693
271.36	21.516
271.73	25.117
272.10	22.141
272.47	24.823
272.84	22.525
273.21	23.202
273.58	21.928
273.95	22.654
274.32	22.864
274.69	21.493
275.06	20.982
275.43	25.397
275.80	26.049
276.17	20.230
276.54	22.270
276.91	22.807
277.28	19.432
277.65	23.554
278.02	22.979
278.39	19.694
278.76	20.964
279.13	19.710
279.50	20.798
279.87	22.246
280.23	19.140
280.60	23.782
280.97	20.606
281.34	19.038
281.71	21.971
282.08	20.450
282.45	20.744
282.82	21.622
283.19	24.178
283.56	20.617
283.92	20.873
284.29	19.423
284.66	18.798
285.03	22.200
285.40	19.093
285.77	17.750
286.14	18.412
286.51	22.325
286.87	20.110
287.24	19.890
287.61	19.048
287.98	22.105
288.35	20.797
288.72	18.914
289.08	18.229
289.45	19.859
289.82	19.406
290.19	17.406
290.56	15.952
290.93	17.003
291.29	16.949
291.66	17.953
292.03	16.746
292.40	18.226
292.77	17.065
293.13	14.610
293.50	15.933
293.87	16.489
294.24	16.074
294.60	17.884
294.97	16.220
295.34	16.718
295.71	15.499
296.08	17.190
296.44	15.220
296.81	15.972
297.18	16.812
297.55	17.886
297.91	17.945
298.28	15.435
298.65	15.061
299.02	14.016
299.38	14.501
299.75	15.586
300.12	13.482
300.48	14.361
300.85	16.477
301.22	14.545
301.59	14.474
301.95	14.937
302.32	15.694
302.69	15.672
303.05	15.223
303.42	15.193
303.79	15.421
304.15	14.815
304.52	13.674
304.89	12.632
305.25	13.801
305.62	12.369
305.99	12.281
306.35	14.104
306.72	13.273
307.09	12.315
307.45	13.892
307.82	13.542
308.19	13.124
308.55	14.286
308.92	15.359
309.29	12.291
309.65	12.379
310.02	12.871
310.38	14.599
310.75	13.333
311.12	13.886
311.48	13.786
311.85	13.822
312.22	13.397
312.58	13.907
312.95	13.554
313.31	13.147
313.68	12.147
314.05	13.163
314.41	13.814
314.78	12.577
315.14	13.361
315.51	14.493
315.87	13.934
316.24	14.156
316.61	13.091
316.97	13.790
317.34	13.086
317.70	13.480
318.07	13.077
318.43	13.431
318.80	13.636
319.16	12.695
319.53	13.960
319.89	13.386
320.26	12.955
320.62	13.641
320.99	13.570
321.35	12.333
321.72	12.876
322.08	13.595
322.45	12.487
322.81	13.360
323.18	12.758
323.54	12.741
323.91	13.340
324.27	12.500
324.64	14.045
325.00	13.139
325.37	14.876
325.73	11.786
326.10	12.534
326.46	13.991
326.83	13.561
327.19	12.903
327.56	12.598
327.92	13.644
328.29	11.607
328.65	12.547
329.01	13.879
329.38	13.733
329.74	12.087
330.11	13.438
330.47	11.596
330.84	12.019
331.20	14.544
331.56	12.593
331.93	13.973
332.29	13.199
332.66	13.303
333.02	12.639
333.38	12.007
333.75	12.729
334.11	11.728
334.48	13.871
334.84	12.454
335.20	12.260
335.57	12.511
335.93	11.834
336.29	12.615
336.66	12.080
337.02	12.546
337.38	12.963
337.75	12.182
338.11	12.804
338.47	12.682
338.84	12.847
339.20	13.071
339.56	13.211
339.93	12.802
340.29	13.211
340.65	13.262
341.02	12.145
341.38	11.770
341.74	10.424
342.11	12.045
342.47	11.299
342.83	12.716
343.20	12.108
343.56	11.478
343.92	13.198
344.28	11.870
344.65	10.622
345.01	11.582
345.37	11.943
345.73	13.473
346.10	12.770
346.46	11.522
346.82	11.293
347.19	12.303
347.55	11.863
347.91	12.217
348.27	11.399
348.63	11.755
349.00	11.977
349.36	11.471
349.72	11.940
350.08	11.967
350.45	12.211
350.81	11.379
351.17	11.889
351.53	11.837
351.89	11.561
352.26	10.800
352.62	12.016
352.98	11.245
353.34	11.192
353.70	12.136
354.07	11.129
354.43	10.729
354.79	12.386
355.15	12.222
355.51	11.472
355.87	11.165
356.24	10.196
356.60	11.560
356.96	12.540
357.32	10.942
357.68	11.728
358.04	12.116
358.40	12.058
358.77	11.404
359.13	9.768
359.49	11.710
359.85	11.154
360.21	11.164
360.57	10.865
360.93	11.573
361.29	10.801
361.66	11.207
362.02	11.667
362.38	12.490
362.74	10.749
363.10	11.437
363.46	11.787
363.82	12.021
364.18	11.587
364.54	11.176
364.90	11.470
365.26	10.480
365.62	12.190
365.98	12.170
366.35	12.017
366.71	12.047
367.07	12.119
367.43	10.568
367.79	11.519
368.15	10.840
368.51	11.216
368.87	10.194
369.23	10.903
369.59	10.714
369.95	11.730
370.31	11.199
370.67	12.090
371.03	10.082
371.39	11.306
371.75	10.989
372.11	10.913
372.47	10.503
372.83	11.568
373.19	11.341
373.55	10.542
373.91	11.375
374.27	10.702
374.63	10.840
374.99	10.922
375.35	10.167
375.71	11.538
376.07	10.885
376.42	11.224
376.78	10.671
377.14	11.239
377.50	11.487
377.86	12.249
378.22	10.466
378.58	10.897
378.94	11.027
379.30	10.667
379.66	11.599
380.02	11.404
380.38	10.651
380.74	10.652
381.09	11.411
381.45	11.070
381.81	10.672
382.17	10.089
382.53	10.493
382.89	10.421
383.25	11.699
383.61	11.341
383.97	10.159
384.32	11.069
384.68	11.207
385.04	10.172
385.40	10.205
385.76	11.887
386.12	11.125
386.48	10.983
386.83	10.717
387.19	11.477
387.55	11.167
387.91	11.308
388.27	10.867
388.62	11.328
388.98	10.804
389.34	11.680
389.70	11.684
390.06	11.202
390.42	11.269
390.77	12.034
391.13	11.412
391.49	11.125
391.85	10.786
392.20	11.111
392.56	10.553
392.92	12.038
393.28	10.908
393.64	11.111
393.99	11.912
394.35	10.816
394.71	11.750
395.07	11.376
395.42	11.233
395.78	10.749
396.14	12.547
396.50	12.112
396.85	10.753
397.21	12.155
397.57	11.661
397.92	11.384
398.28	11.839
398.64	11.506
399.00	12.359
399.35	11.400
399.71	11.258
400.07	11.911
400.42	11.812
400.78	11.513
401.14	11.252
401.49	12.269
401.85	11.335
402.21	11.807
402.57	11.250
402.92	11.292
403.28	11.842
403.63	11.349
403.99	11.352
404.35	11.618
404.70	11.548
405.06	11.105
405.42	11.746
405.77	10.459
406.13	11.932
406.49	11.249
406.84	11.980
407.20	11.620
407.55	11.075
407.91	11.029
408.27	11.217
408.62	12.923
408.98	11.953
409.34	11.648
409.69	11.628
410.05	11.946
410.40	11.358
410.76	11.520
411.11	12.125
411.47	11.374
411.83	11.488
412.18	11.326
412.54	11.298
412.89	11.330
413.25	11.853
413.60	11.925
413.96	11.534
414.31	11.890
414.67	11.802
415.03	11.252
415.38	11.749
415.74	11.401
416.09	11.888
416.45	11.614
416.80	12.095
417.16	11.809
417.51	12.192
417.87	11.343
418.22	11.658
418.58	11.304
418.93	12.414
419.29	10.691
419.64	11.730
420.00	12.406
420.35	11.940
420.71	11.786
421.06	11.848
421.42	12.079
421.77	11.618
422.12	11.862
422.48	11.911
422.83	11.949
423.19	11.738
423.54	11.464
423.90	11.661
424.25	11.998
424.61	12.118
424.96	12.195
425.31	12.016
425.67	12.031
426.02	13.074
426.38	11.897
426.73	12.167
427.09	12.342
427.44	12.235
427.79	12.198
428.15	12.015
428.50	12.659
428.85	11.855
429.21	12.960
429.56	12.345
429.92	13.251
430.27	12.581
430.62	11.709
430.98	12.314
431.33	12.408
431.68	12.140
432.04	11.459
432.39	12.265
432.74	12.026
433.10	13.161
433.45	11.708
433.80	11.898
434.16	11.967
434.51	12.204
434.86	12.253
435.22	12.170
435.57	12.851
435.92	12.575
436.28	11.688
436.63	12.550
436.98	11.645
437.34	12.160
437.69	12.642
438.04	12.023
438.39	11.301
438.75	12.568
439.10	13.073
439.45	11.747
439.81	12.538
440.16	11.876
440.51	12.418
440.86	13.776
441.22	12.330
441.57	12.859
441.92	12.749
442.27	12.528
442.63	13.704
442.98	12.751
443.33	12.187
443.68	12.626
444.03	13.065
444.39	12.937
444.74	12.598
445.09	13.029
445.44	12.650
445.79	14.131
446.15	12.941
446.50	12.424
446.85	13.177
447.20	13.034
447.55	13.281
447.91	12.408
448.26	12.806
448.61	13.299
448.96	12.622
449.31	12.659
449.66	13.008
450.02	12.607
450.37	12.804
450.72	12.944
451.07	13.165
451.42	12.297
451.77	13.442
452.12	11.483
452.47	12.750
452.83	12.544
453.18	12.903
453.53	12.769
453.88	13.054
454.23	14.198
454.58	13.287
454.93	13.338
455.28	12.508
455.63	13.267
455.98	13.169
456.34	12.963
456.69	13.723
457.04	13.611
457.39	12.697
457.74	12.878
458.09	12.655
458.44	12.756
458.79	12.661
459.14	13.387
459.49	13.075
459.84	14.326
460.19	13.350
460.54	14.242
460.89	12.841
461.24	14.472
461.59	13.361
461.94	12.956
462.29	13.631
462.64	13.289
462.99	13.406
463.34	12.796
463.69	12.484
464.04	12.591
464.39	14.190
464.74	12.638
465.09	13.787
465.44	13.099
465.79	12.982
466.14	13.626
466.49	13.801
466.84	13.266
467.19	13.705
467.54	13.665
467.89	13.203
468.24	12.956
468.59	13.651
468.94	13.651
469.29	13.770
469.64	13.739
469.99	14.506
470.34	13.447
470.68	13.945
471.03	14.508
471.38	13.481
471.73	14.006
472.08	13.569
472.43	12.819
472.78	12.748
473.13	13.673
473.48	13.160
473.83	13.200
474.17	13.342
474.52	13.848
474.87	14.242
475.22	13.667
475.57	13.552
475.92	13.878
476.27	14.377
476.61	13.947
476.96	13.274
477.31	14.224
477.66	13.202
478.01	13.700
478.36	13.834
478.70	13.703
479.05	14.121
479.40	14.202
479.75	13.660
480.10	14.695
480.45	13.800
480.79	14.250
481.14	13.525
481.49	13.498
481.84	13.514
482.19	13.190
482.53	14.101
482.88	13.842
483.23	13.868
483.58	13.679
483.92	13.843
484.27	13.446
484.62	13.223
484.97	13.474
485.31	13.114
485.66	13.326
486.01	13.769
486.36	13.554
486.70	13.477
487.05	13.648
487.40	13.469
487.75	13.803
488.09	13.288
488.44	13.274
488.79	13.709
489.13	14.022
489.48	13.382
489.83	13.632
490.17	13.528
490.52	14.134
490.87	13.420
491.22	13.706
491.56	14.089
491.91	13.767
492.26	13.661
492.60	14.539
492.95	13.527
493.30	14.069
493.64	14.637
493.99	14.106
494.34	13.835
494.68	13.857
495.03	13.577
495.37	13.494
495.72	14.033
496.07	14.293
496.41	14.245
496.76	14.049
497.11	13.507
497.45	13.938
497.80	14.077
498.14	13.313
498.49	14.424
498.84	14.271
499.18	13.454
499.53	14.534
499.87	13.084
500.22	14.293
500.56	13.969
500.91	13.805
501.26	13.989
501.60	14.265
501.95	14.702
502.29	14.286
502.64	14.334
502.98	14.060
503.33	13.641
503.67	13.735
504.02	13.881
504.36	14.399
504.71	13.333
505.06	14.142
505.40	13.756
505.75	13.969
506.09	13.837
506.44	15.349
506.78	14.592
507.13	13.547
507.47	13.890
507.82	13.088
508.16	14.157
508.51	14.638
508.85	13.605
509.19	13.944
509.54	13.887
509.88	13.323
510.23	14.255
510.57	14.003
510.92	12.793
511.26	13.748
511.61	14.851
511.95	14.027
512.30	14.967
512.64	14.302
512.98	13.812
513.33	13.878
513.67	13.417
514.02	14.588
514.36	14.743
514.70	15.093
515.05	14.747
515.39	14.286
515.74	14.790
516.08	14.345
516.42	15.253
516.77	14.453
517.11	14.718
517.46	14.542
517.80	14.720
518.14	14.391
518.49	14.183
518.83	14.581
519.17	13.948
519.52	14.802
519.86	14.286
520.20	15.006
520.55	13.946
520.89	14.053
521.23	14.693
521.58	15.394
521.92	14.359
522.26	14.574
522.61	14.545
522.95	14.901
523.29	14.612
523.64	14.168
523.98	15.165
524.32	13.982
524.66	14.981
525.01	14.481
525.35	15.230
525.69	14.545
526.04	13.558
526.38	16.148
526.72	14.192
527.06	14.073
527.41	15.237
527.75	14.544
528.09	14.286
528.43	15.733
528.78	14.059
529.12	14.129
529.46	13.840
529.80	15.643
530.15	15.446
530.49	13.805
530.83	14.774
531.17	14.305
531.51	15.048
531.86	14.412
532.20	13.292
532.54	14.908
532.88	15.058
533.22	14.113
533.57	14.482
533.91	14.164
534.25	15.039
534.59	14.368
534.93	14.412
535.27	14.277
535.62	14.064
535.96	13.894
536.30	14.974
536.64	14.128
536.98	14.704
537.32	14.438
537.66	14.656
538.01	15.245
538.35	13.800
538.69	14.780
539.03	14.491
539.37	15.545
539.71	14.792
540.05	14.868
540.39	15.305
540.73	14.644
541.07	15.539
541.42	15.659
541.76	15.279
542.10	14.935
542.44	14.802
542.78	13.696
543.12	14.560
543.46	15.090
543.80	15.614
544.14	14.085
544.48	14.191
544.82	13.807
545.16	14.959
545.50	14.820
545.84	14.023
546.18	15.674
546.52	13.843
546.86	14.378
547.20	14.306
547.54	14.346
547.88	14.130
548.22	13.675
548.56	14.446
548.90	14.960
549.24	13.981
549.58	14.669
549.92	14.296
550.26	14.579
550.60	15.539
550.94	14.190
551.28	15.301
551.62	15.231
551.96	14.737
552.30	14.839
552.64	13.752
552.98	14.346
553.32	14.408
553.66	14.877
554.00	15.401
554.34	14.993
554.68	14.602
555.02	15.551
555.36	14.959
555.69	13.700
556.03	14.490
556.37	14.520
556.71	14.007
557.05	13.572
557.39	13.532
557.73	14.018
558.07	14.706
558.41	15.161
558.75	14.419
559.08	14.342
559.42	14.762
559.76	14.492
560.10	14.526
560.44	14.296
560.78	14.336
561.12	14.528
561.45	15.320
561.79	15.546
562.13	14.407
562.47	14.317
562.81	14.481
563.15	15.444
563.48	14.144
563.82	14.756
564.16	13.928
564.50	14.730
564.84	14.926
565.17	14.688
565.51	14.686
565.85	15.295
566.19	14.788
566.52	14.879
566.86	15.617
567.20	14.134
567.54	14.416
567.88	14.821
568.21	14.593
568.55	14.511
568.89	14.990
569.23	14.588
569.56	14.142
569.90	14.332
570.24	14.031
570.57	14.218
570.91	14.674
571.25	13.877
571.59	14.139
571.92	13.481
572.26	13.859
572.60	13.829
572.93	14.371
573.27	13.417
573.61	13.693
573.95	13.954
574.28	13.533
574.62	13.577
574.96	13.613
575.29	13.604
575.63	13.527
575.97	13.147
576.30	13.551
576.64	13.536
576.98	13.745
577.31	13.566
577.65	14.083
577.98	13.567
578.32	13.597
578.66	13.905
578.99	13.477
579.33	13.715
579.67	13.500
580.00	13.823
580.34	14.179
580.67	13.625
581.01	13.353
581.35	12.984
581.68	13.501
582.02	13.636
582.35	13.352
582.69	13.459
583.02	13.694
583.36	13.816
583.70	14.045
584.03	13.511
584.37	14.455
584.70	14.038
585.04	13.653
585.37	13.391
585.71	13.577
586.04	13.238
586.38	13.497
586.72	13.831
587.05	13.894
587.39	14.314
587.72	13.833
588.06	13.451
588.39	13.899
588.73	13.828
589.06	14.188
589.40	14.034
589.73	14.239
590.07	14.388
590.40	14.899
590.73	14.456
591.07	14.546
591.40	14.025
591.74	14.570
592.07	14.378
592.41	14.885
592.74	13.859
593.08	13.867
593.41	13.740
593.75	13.837
594.08	13.835
594.41	14.010
594.75	13.664
595.08	14.794
595.42	13.912
595.75	13.969
596.09	14.191
596.42	14.345
596.75	14.565
597.09	14.169
597.42	14.182
597.75	14.292
598.09	13.943
598.42	14.125
598.76	13.857
599.09	14.543
599.42	13.300
599.76	13.920
600.09	13.801
600.42	13.874
600.76	13.076
601.09	13.321
601.42	13.592
601.76	13.736
602.09	13.614
602.42	14.406
602.76	14.177
603.09	13.621
603.42	14.005
603.76	13.629
604.09	14.054
604.42	13.790
604.76	14.508
605.09	13.848
605.42	14.266
605.75	13.967
606.09	14.013
606.42	14.262
606.75	14.199
607.09	14.330
607.42	13.469
607.75	14.121
608.08	14.106
608.42	13.522
608.75	14.169
609.08	14.549
609.41	14.112
609.75	14.264
610.08	14.029
610.41	13.188
610.74	13.896
611.07	14.367
611.41	14.011
611.74	14.126
612.07	13.919
612.40	15.098
612.73	14.746
613.07	13.723
613.40	14.880
613.73	13.262
614.06	14.691
614.39	14.721
614.72	14.006
615.06	14.916
615.39	15.066
615.72	13.886
616.05	15.028
616.38	13.504
616.71	14.067
617.05	13.897
617.38	14.582
617.71	14.277
618.04	14.730
618.37	14.565
618.70	14.587
619.03	15.694
619.36	14.327
619.69	13.950
620.03	15.121
620.36	13.162
620.69	15.061
621.02	13.761
621.35	14.606
621.68	15.561
622.01	14.083
622.34	15.962
622.67	15.615
623.00	15.467
623.33	14.405
623.66	14.061
623.99	14.826
624.32	15.589
624.65	13.759
624.99	14.221
625.32	13.798
625.65	15.475
625.98	14.666
626.31	14.298
626.64	14.991
626.97	15.532
627.30	14.711
627.63	15.511
627.96	15.274
628.29	13.876
628.62	15.044
628.95	16.533
629.28	14.214
629.61	14.756
629.94	15.543
630.26	15.514
630.59	14.464
630.92	14.974
631.25	14.564
631.58	14.427
631.91	13.487
632.24	14.106
632.57	15.909
632.90	13.405
633.23	15.412
633.56	15.491
