SpectraSuite Data File
++++++++++++++++++++++++++++++++++++
Date: Fri May 15 17:09:15 PDT 2015
User: schluterlab
Dark Spectrum Present: Yes
Reference Spectrum Present: Yes
Number of Sampled Component Spectra: 1
Spectrometers: USB2E3373
Integration Time (usec): 3000 (USB2E3373)
Spectra Averaged: 3 (USB2E3373)
Boxcar Smoothing: 0 (USB2E3373)
Correct for Electrical Dark: No (USB2E3373)
Strobe/Lamp Enabled: No (USB2E3373)
Correct for Detector Non-linearity: No (USB2E3373)
Correct for Stray Light: No (USB2E3373)
Number of Pixels in Processed Spectrum: 2048
>>>>>Begin Processed Spectral Data<<<<<
178.53	0.000
178.91	0.000
179.29	112.500
179.67	-100.000
180.04	-157.143
180.42	250.000
180.80	1000.000
181.18	-266.667
181.56	100.000
181.94	50.000
182.31	-1300.000
182.69	-40.000
183.07	266.667
183.45	-40.000
183.83	83.333
184.20	81.818
184.58	-22.222
184.96	-200.000
185.34	-333.333
185.72	-100.000
186.09	7.692
186.47	-100.000
186.85	-33.333
187.23	55.556
187.61	-300.000
187.98	0.000
188.36	77.778
188.74	133.333
189.12	105.882
189.49	83.333
189.87	0.000
190.25	135.714
190.63	700.000
191.00	333.333
191.38	68.421
191.76	700.000
192.14	-300.000
192.51	700.000
192.89	-22.222
193.27	-114.286
193.65	33.333
194.02	9.091
194.40	90.000
194.78	25.000
195.15	16.667
195.53	25.000
195.91	175.000
196.29	-150.000
196.66	30.769
197.04	-85.714
197.42	55.556
197.79	133.333
198.17	-69.231
198.55	800.000
198.92	233.333
199.30	-600.000
199.68	-40.000
200.05	33.333
200.43	0.000
200.81	233.333
201.18	0.000
201.56	400.000
201.94	100.000
202.31	-133.333
202.69	-120.000
203.07	-200.000
203.44	1100.000
203.82	0.000
204.19	28.571
204.57	-100.000
204.95	50.000
205.32	40.000
205.70	157.143
206.08	250.000
206.45	288.889
206.83	135.714
207.20	-85.714
207.58	500.000
207.96	100.000
208.33	20.000
208.71	250.000
209.08	0.000
209.46	700.000
209.84	0.000
210.21	300.000
210.59	128.571
210.96	50.000
211.34	125.000
211.71	60.000
212.09	28.571
212.46	-1000.000
212.84	0.000
213.22	130.000
213.59	-100.000
213.97	38.462
214.34	63.636
214.72	133.333
215.09	175.000
215.47	84.615
215.84	9.091
216.22	133.333
216.59	112.500
216.97	350.000
217.34	50.000
217.72	0.000
218.09	125.000
218.47	-87.500
218.84	800.000
219.22	-33.333
219.59	80.000
219.97	-33.333
220.34	125.000
220.72	171.429
221.09	100.000
221.47	450.000
221.84	-500.000
222.22	-200.000
222.59	163.636
222.97	125.000
223.34	-133.333
223.72	-21.429
224.09	14.286
224.46	53.571
224.84	233.333
225.21	40.000
225.59	93.333
225.96	50.000
226.34	100.000
226.71	-42.857
227.08	200.000
227.46	50.000
227.83	300.000
228.21	111.111
228.58	36.364
228.95	50.000
229.33	30.000
229.70	31.250
230.08	0.000
230.45	14.286
230.82	285.714
231.20	20.000
231.57	71.429
231.95	14.286
232.32	30.000
232.69	107.143
233.07	133.333
233.44	140.000
233.81	110.000
234.19	200.000
234.56	64.706
234.93	150.000
235.31	250.000
235.68	60.000
236.05	7.692
236.43	30.000
236.80	100.000
237.17	31.250
237.55	10.000
237.92	22.222
238.29	41.667
238.67	76.667
239.04	14.706
239.41	24.390
239.79	53.333
240.16	58.537
240.53	42.105
240.91	30.435
241.28	41.270
241.65	37.500
242.02	36.986
242.40	60.000
242.77	64.407
243.14	39.394
243.51	41.250
243.89	39.080
244.26	31.034
244.63	36.905
245.00	38.144
245.38	36.082
245.75	35.955
246.12	32.759
246.49	41.322
246.87	36.538
247.24	30.252
247.61	31.579
247.98	31.707
248.36	33.750
248.73	31.579
249.10	20.130
249.47	37.975
249.84	30.065
250.22	38.235
250.59	33.333
250.96	31.925
251.33	37.791
251.70	38.235
252.08	36.548
252.45	32.178
252.82	34.673
253.19	33.641
253.56	33.178
253.94	32.432
254.31	35.652
254.68	39.035
255.05	35.039
255.42	36.245
255.79	37.838
256.16	28.794
256.54	38.433
256.91	32.700
257.28	32.714
257.65	34.082
258.02	32.270
258.39	32.997
258.76	35.531
259.14	34.884
259.51	33.333
259.88	31.271
260.25	34.641
260.62	36.458
260.99	35.593
261.36	32.877
261.73	33.861
262.10	32.827
262.47	33.742
262.85	32.602
263.22	31.385
263.59	37.072
263.96	34.783
264.33	35.455
264.70	34.226
265.07	33.333
265.44	36.261
265.81	35.311
266.18	33.060
266.55	31.877
266.92	33.938
267.29	32.637
267.66	33.504
268.03	33.770
268.40	31.593
268.77	35.294
269.14	34.053
269.51	35.733
269.88	31.421
270.25	31.888
270.62	30.976
270.99	33.248
271.36	32.029
271.73	37.089
272.10	35.280
272.47	33.097
272.84	32.426
273.21	33.875
273.58	33.735
273.95	31.808
274.32	31.640
274.69	32.579
275.06	35.491
275.43	31.293
275.80	32.009
276.17	31.494
276.54	33.619
276.91	31.579
277.28	29.694
277.65	31.612
278.02	31.489
278.39	32.166
278.76	31.027
279.13	28.631
279.50	30.672
279.87	31.533
280.23	30.968
280.60	31.969
280.97	31.919
281.34	31.731
281.71	32.238
282.08	27.812
282.45	31.311
282.82	29.151
283.19	31.915
283.56	31.407
283.92	30.740
284.29	30.962
284.66	28.876
285.03	32.613
285.40	28.922
285.77	29.701
286.14	30.325
286.51	31.365
286.87	30.347
287.24	30.018
287.61	29.630
287.98	31.228
288.35	28.596
288.72	30.123
289.08	28.299
289.45	30.580
289.82	27.972
290.19	28.669
290.56	29.160
290.93	27.778
291.29	27.427
291.66	29.134
292.03	25.678
292.40	26.774
292.77	26.156
293.13	25.162
293.50	26.404
293.87	28.550
294.24	24.730
294.60	25.633
294.97	26.637
295.34	26.074
295.71	26.379
296.08	24.664
296.44	24.040
296.81	21.944
297.18	25.652
297.55	26.965
297.91	23.836
298.28	23.747
298.65	24.830
299.02	24.528
299.38	23.803
299.75	21.931
300.12	24.346
300.48	23.188
300.85	23.954
301.22	23.896
301.59	22.895
301.95	24.684
302.32	25.032
302.69	23.756
303.05	21.782
303.42	22.790
303.79	23.481
304.15	22.820
304.52	22.235
304.89	21.053
305.25	22.760
305.62	20.537
305.99	22.105
306.35	23.468
306.72	23.172
307.09	23.147
307.45	23.077
307.82	20.139
308.19	22.184
308.55	22.683
308.92	23.094
309.29	21.899
309.65	22.174
310.02	21.012
310.38	22.613
310.75	23.060
311.12	22.713
311.48	23.012
311.85	22.827
312.22	23.418
312.58	22.718
312.95	21.558
313.31	21.739
313.68	22.723
314.05	23.673
314.41	24.330
314.78	23.814
315.14	23.227
315.51	25.362
315.87	25.717
316.24	26.390
316.61	25.787
316.97	26.488
317.34	25.879
317.70	25.813
318.07	26.635
318.43	26.373
318.80	26.326
319.16	26.465
319.53	27.825
319.89	28.248
320.26	28.340
320.62	29.388
320.99	28.184
321.35	30.524
321.72	31.049
322.08	30.111
322.45	31.980
322.81	31.238
323.18	33.072
323.54	33.108
323.91	34.275
324.27	34.180
324.64	34.551
325.00	34.398
325.37	34.986
325.73	34.542
326.10	35.241
326.46	37.578
326.83	37.533
327.19	38.274
327.56	39.531
327.92	38.204
328.29	38.036
328.65	40.566
329.01	39.430
329.38	40.737
329.74	41.549
330.11	42.632
330.47	42.208
330.84	42.212
331.20	44.962
331.56	42.778
331.93	43.288
332.29	43.813
332.66	44.163
333.02	44.052
333.38	42.988
333.75	43.956
334.11	43.868
334.48	45.150
334.84	44.414
335.20	45.471
335.57	44.062
335.93	44.625
336.29	46.777
336.66	45.141
337.02	46.190
337.38	46.296
337.75	46.727
338.11	47.160
338.47	46.807
338.84	46.396
339.20	45.887
339.56	46.881
339.93	48.165
340.29	47.798
340.65	47.133
341.02	48.316
341.38	47.699
341.74	46.555
342.11	45.407
342.47	46.263
342.83	47.232
343.20	46.429
343.56	48.696
343.92	47.564
344.28	48.506
344.65	47.409
345.01	45.981
345.37	46.930
345.73	46.946
346.10	47.541
346.46	47.687
346.82	46.236
347.19	46.384
347.55	47.118
347.91	47.249
348.27	47.211
348.63	48.211
349.00	45.857
349.36	47.465
349.72	47.181
350.08	46.967
350.45	47.725
350.81	48.256
351.17	45.684
351.53	47.265
351.89	45.169
352.26	47.680
352.62	48.065
352.98	46.265
353.34	46.296
353.70	47.087
354.07	47.984
354.43	46.117
354.79	46.986
355.15	47.937
355.51	47.073
355.87	47.735
356.24	46.900
356.60	47.696
356.96	48.095
357.32	47.284
357.68	46.755
358.04	46.365
358.40	46.061
358.77	48.884
359.13	47.398
359.49	46.225
359.85	47.270
360.21	48.724
360.57	47.054
360.93	47.882
361.29	45.695
361.66	46.865
362.02	48.939
362.38	48.667
362.74	48.751
363.10	50.038
363.46	48.999
363.82	50.188
364.18	48.192
364.54	47.794
364.90	48.889
365.26	47.962
365.62	49.781
365.98	49.413
366.35	50.182
366.71	49.298
367.07	48.911
367.43	49.461
367.79	49.894
368.15	49.318
368.51	50.036
368.87	49.103
369.23	49.314
369.59	50.292
369.95	51.613
370.31	49.133
370.67	50.149
371.03	50.112
371.39	50.620
371.75	50.110
372.11	49.358
372.47	50.962
372.83	51.171
373.19	50.285
373.55	50.181
373.91	51.332
374.27	51.453
374.63	51.041
374.99	50.709
375.35	52.994
375.71	51.888
376.07	51.615
376.42	52.925
376.78	52.013
377.14	52.810
377.50	52.125
377.86	52.878
378.22	54.180
378.58	53.141
378.94	53.560
379.30	52.464
379.66	54.671
380.02	53.342
380.38	53.317
380.74	52.962
381.09	54.540
381.45	53.578
381.81	53.794
382.17	54.695
382.53	53.467
382.89	56.434
383.25	55.507
383.61	54.390
383.97	55.810
384.32	54.784
384.68	53.870
385.04	54.963
385.40	54.698
385.76	56.541
386.12	56.921
386.48	55.747
386.83	55.866
387.19	55.495
387.55	56.713
387.91	57.396
388.27	56.838
388.62	56.388
388.98	55.371
389.34	56.090
389.70	57.489
390.06	56.073
390.42	56.347
390.77	57.554
391.13	56.873
391.49	57.633
391.85	57.115
392.20	56.309
392.56	56.961
392.92	57.546
393.28	55.837
393.64	58.498
393.99	58.746
394.35	57.116
394.71	57.982
395.07	56.505
395.42	56.284
395.78	58.502
396.14	57.125
396.50	57.134
396.85	57.759
397.21	57.143
397.57	56.050
397.92	56.741
398.28	58.276
398.64	56.687
399.00	57.449
399.35	56.208
399.71	56.175
400.07	57.195
400.42	57.222
400.78	58.420
401.14	57.229
401.49	58.487
401.85	57.465
402.21	57.530
402.57	57.125
402.92	56.587
403.28	57.832
403.63	58.260
403.99	57.653
404.35	58.089
404.70	56.429
405.06	56.404
405.42	55.935
405.77	56.711
406.13	57.334
406.49	57.194
406.84	57.335
407.20	59.061
407.55	57.695
407.91	57.219
408.27	56.597
408.62	57.538
408.98	56.870
409.34	57.683
409.69	57.235
410.05	56.158
410.40	57.469
410.76	57.600
411.11	56.563
411.47	57.331
411.83	57.376
412.18	58.494
412.54	56.554
412.89	55.419
413.25	56.980
413.60	56.149
413.96	55.951
414.31	57.073
414.67	56.639
415.03	57.190
415.38	57.050
415.74	58.176
416.09	57.740
416.45	57.731
416.80	57.303
417.16	58.218
417.51	55.763
417.87	56.649
418.22	57.902
418.58	58.060
418.93	57.680
419.29	56.210
419.64	57.161
420.00	57.809
420.35	56.597
420.71	58.384
421.06	57.581
421.42	56.731
421.77	58.555
422.12	56.867
422.48	57.607
422.83	58.875
423.19	57.731
423.54	58.142
423.90	58.127
424.25	58.496
424.61	58.996
424.96	58.130
425.31	60.081
425.67	59.214
426.02	59.541
426.38	59.862
426.73	59.504
427.09	60.253
427.44	59.941
427.79	59.281
428.15	59.466
428.50	60.206
428.85	58.784
429.21	59.310
429.56	60.270
429.92	58.552
430.27	58.897
430.62	59.540
430.98	60.456
431.33	60.252
431.68	58.765
432.04	60.760
432.39	59.270
432.74	58.870
433.10	60.747
433.45	60.275
433.80	60.534
434.16	59.778
434.51	60.591
434.86	61.672
435.22	61.862
435.57	61.260
435.92	62.216
436.28	60.584
436.63	60.924
436.98	60.371
437.34	60.859
437.69	63.626
438.04	61.197
438.39	61.759
438.75	61.445
439.10	62.196
439.45	62.690
439.81	62.752
440.16	64.549
440.51	63.164
440.86	64.532
441.22	61.369
441.57	62.417
441.92	63.484
442.27	64.357
442.63	62.741
442.98	63.010
443.33	62.104
443.68	62.918
444.03	63.587
444.39	62.863
444.74	65.440
445.09	63.474
445.44	63.704
445.79	65.756
446.15	64.042
446.50	63.727
446.85	63.762
447.20	62.774
447.55	64.342
447.91	63.847
448.26	64.087
448.61	62.982
448.96	64.429
449.31	65.087
449.66	63.415
450.02	64.689
450.37	65.323
450.72	64.548
451.07	64.810
451.42	64.856
451.77	64.678
452.12	64.294
452.47	64.713
452.83	65.135
453.18	64.769
453.53	64.096
453.88	64.663
454.23	65.950
454.58	65.554
454.93	65.464
455.28	63.619
455.63	66.088
455.98	65.604
456.34	64.879
456.69	64.994
457.04	66.352
457.39	64.520
457.74	65.236
458.09	63.037
458.44	63.780
458.79	64.538
459.14	65.332
459.49	64.896
459.84	65.539
460.19	65.959
460.54	65.770
460.89	65.284
461.24	65.776
461.59	64.727
461.94	64.340
462.29	66.285
462.64	66.047
462.99	66.757
463.34	64.395
463.69	64.221
464.04	66.162
464.39	64.585
464.74	65.031
465.09	65.876
465.44	65.840
465.79	64.116
466.14	64.937
466.49	65.325
466.84	65.259
467.19	65.332
467.54	64.623
467.89	65.698
468.24	65.633
468.59	65.651
468.94	65.016
469.29	64.852
469.64	66.370
469.99	66.153
470.34	64.915
470.68	65.921
471.03	65.817
471.38	66.690
471.73	64.706
472.08	65.604
472.43	66.913
472.78	66.347
473.13	65.918
473.48	65.147
473.83	65.131
474.17	66.256
474.52	65.667
474.87	65.515
475.22	65.650
475.57	66.008
475.92	65.222
476.27	65.774
476.61	67.014
476.96	64.863
477.31	65.224
477.66	66.236
478.01	65.750
478.36	65.142
478.70	65.633
479.05	66.868
479.40	66.137
479.75	63.816
480.10	65.745
480.45	64.750
480.79	67.069
481.14	67.674
481.49	65.419
481.84	67.085
482.19	65.482
482.53	66.667
482.88	65.203
483.23	65.883
483.58	66.368
483.92	64.569
484.27	64.631
484.62	66.203
484.97	65.713
485.31	65.499
485.66	64.240
486.01	64.643
486.36	63.762
486.70	64.324
487.05	64.664
487.40	65.589
487.75	66.169
488.09	65.822
488.44	66.437
488.79	66.156
489.13	67.067
489.48	66.909
489.83	66.009
490.17	65.124
490.52	66.097
490.87	64.785
491.22	66.762
491.56	65.607
491.91	64.914
492.26	67.088
492.60	65.403
492.95	67.142
493.30	64.631
493.64	68.369
493.99	66.039
494.34	66.019
494.68	65.286
495.03	65.450
495.37	65.751
495.72	66.583
496.07	66.878
496.41	66.321
496.76	66.145
497.11	65.580
497.45	66.158
497.80	66.902
498.14	65.822
498.49	66.531
498.84	66.118
499.18	66.466
499.53	66.071
499.87	64.300
500.22	64.886
500.56	67.221
500.91	66.315
501.26	65.843
501.60	65.814
501.95	66.424
502.29	65.714
502.64	67.616
502.98	66.897
503.33	65.226
503.67	66.169
504.02	67.009
504.36	66.353
504.71	66.919
505.06	66.532
505.40	66.345
505.75	67.938
506.09	65.687
506.44	66.786
506.78	67.449
507.13	67.580
507.47	66.736
507.82	67.415
508.16	66.614
508.51	66.317
508.85	67.347
509.19	67.483
509.54	67.668
509.88	67.584
510.23	67.617
510.57	68.092
510.92	66.684
511.26	67.103
511.61	67.107
511.95	67.836
512.30	67.129
512.64	66.500
512.98	66.423
513.33	66.816
513.67	66.401
514.02	68.593
514.36	68.343
514.70	69.406
515.05	68.155
515.39	68.418
515.74	69.701
516.08	68.380
516.42	70.259
516.77	69.573
517.11	70.326
517.46	68.223
517.80	67.104
518.14	68.157
518.49	68.149
518.83	68.044
519.17	67.738
519.52	66.430
519.86	67.827
520.20	67.861
520.55	67.667
520.89	69.573
521.23	70.171
521.58	69.653
521.92	67.949
522.26	69.226
522.61	69.351
522.95	70.927
523.29	70.013
523.64	69.123
523.98	70.188
524.32	69.008
524.66	70.807
525.01	69.481
525.35	70.382
525.69	69.899
526.04	68.386
526.38	71.790
526.72	68.607
527.06	69.650
527.41	69.723
527.75	70.308
528.09	69.435
528.43	71.236
528.78	70.165
529.12	70.065
529.46	71.475
529.80	69.094
530.15	70.825
530.49	72.189
530.83	70.588
531.17	69.846
531.51	71.341
531.86	68.729
532.20	69.311
532.54	68.754
532.88	70.979
533.22	69.556
533.57	70.118
533.91	70.822
534.25	70.247
534.59	69.083
534.93	68.597
535.27	69.099
535.62	70.512
535.96	69.276
536.30	69.129
536.64	70.779
536.98	68.990
537.32	71.266
537.66	73.001
538.01	71.119
538.35	68.447
538.69	68.975
539.03	69.651
539.37	70.929
539.71	70.893
540.05	68.568
540.39	69.737
540.73	70.084
541.07	70.028
541.42	70.296
541.76	72.333
542.10	70.819
542.44	71.438
542.78	69.787
543.12	70.673
543.46	69.471
543.80	70.437
544.14	68.358
544.48	70.686
544.82	70.882
545.16	70.560
545.50	70.561
545.84	71.388
546.18	71.489
546.52	70.368
546.86	70.525
547.20	70.815
547.54	70.177
547.88	71.332
548.22	69.165
548.56	68.602
548.90	72.507
549.24	69.766
549.58	70.240
549.92	70.550
550.26	70.330
550.60	72.416
550.94	71.322
551.28	72.102
551.62	73.077
551.96	70.902
552.30	71.491
552.64	70.733
552.98	71.660
553.32	70.827
553.66	70.610
554.00	72.628
554.34	73.117
554.68	69.912
555.02	70.387
555.36	71.578
555.69	70.916
556.03	71.592
556.37	70.676
556.71	71.552
557.05	71.961
557.39	71.004
557.73	71.139
558.07	71.493
558.41	72.282
558.75	71.473
559.08	71.395
559.42	72.778
559.76	74.299
560.10	72.095
560.44	71.258
560.78	70.909
561.12	72.003
561.45	72.242
561.79	72.199
562.13	72.108
562.47	71.655
562.81	71.830
563.15	70.804
563.48	71.853
563.82	73.233
564.16	73.955
564.50	71.419
564.84	71.888
565.17	70.892
565.51	73.975
565.85	73.457
566.19	70.756
566.52	73.928
566.86	72.108
567.20	71.171
567.54	72.993
567.88	74.400
568.21	73.529
568.55	72.446
568.89	72.279
569.23	72.171
569.56	71.673
569.90	72.635
570.24	70.488
570.57	71.236
570.91	73.057
571.25	71.128
571.59	69.854
571.92	69.156
572.26	71.377
572.60	71.101
572.93	70.756
573.27	70.502
573.61	71.062
573.95	71.136
574.28	71.133
574.62	69.362
574.96	70.107
575.29	70.217
575.63	69.655
575.97	70.019
576.30	70.706
576.64	70.543
576.98	71.634
577.31	70.116
577.65	71.307
577.98	70.520
578.32	70.115
578.66	69.482
578.99	70.262
579.33	69.673
579.67	69.770
580.00	70.861
580.34	70.348
580.67	70.796
581.01	71.350
581.35	70.004
581.68	70.065
582.02	70.215
582.35	70.808
582.69	70.588
583.02	71.032
583.36	71.800
583.70	72.066
584.03	73.645
584.37	72.586
584.70	72.665
585.04	70.751
585.37	69.926
585.71	71.785
586.04	71.508
586.38	71.272
586.72	72.884
587.05	73.108
587.39	72.239
587.72	72.362
588.06	72.765
588.39	72.230
588.73	73.168
589.06	72.994
589.40	73.004
589.73	73.311
590.07	74.056
590.40	73.568
590.73	74.629
591.07	74.724
591.40	73.241
591.74	72.896
592.07	74.722
592.41	74.028
592.74	73.198
593.08	72.441
593.41	72.191
593.75	71.704
594.08	72.709
594.41	73.071
594.75	72.672
595.08	74.309
595.42	73.831
595.75	74.315
596.09	73.886
596.42	74.122
596.75	74.423
597.09	74.077
597.42	75.068
597.75	74.622
598.09	73.517
598.42	73.917
598.76	73.445
599.09	73.438
599.42	72.831
599.76	72.987
600.09	72.964
600.42	72.972
600.76	72.660
601.09	73.244
601.42	72.738
601.76	73.521
602.09	73.886
602.42	74.937
602.76	74.533
603.09	75.208
603.42	76.714
603.76	73.427
604.09	73.957
604.42	74.492
604.76	75.389
605.09	75.686
605.42	75.034
605.75	74.781
606.09	74.947
606.42	73.103
606.75	74.156
607.09	74.022
607.42	72.796
607.75	74.290
608.08	72.462
608.42	72.225
608.75	75.036
609.08	75.934
609.41	75.685
609.75	74.294
610.08	75.287
610.41	74.058
610.74	74.793
611.07	75.039
611.41	75.506
611.74	76.493
612.07	75.054
612.40	75.875
612.73	76.667
613.07	74.634
613.40	74.453
613.73	77.112
614.06	73.734
614.39	76.029
614.72	74.902
615.06	75.084
615.39	75.164
615.72	74.704
616.05	75.642
616.38	73.447
616.71	75.902
617.05	77.085
617.38	76.241
617.71	77.296
618.04	78.286
618.37	78.247
618.70	78.152
619.03	77.639
619.36	76.556
619.69	79.378
620.03	79.839
620.36	78.112
620.69	77.231
621.02	77.982
621.35	79.087
621.68	79.082
622.01	77.917
622.34	77.733
622.67	79.259
623.00	77.642
623.33	77.896
623.66	76.290
623.99	76.248
624.32	78.783
624.65	76.541
624.99	78.330
625.32	78.317
625.65	79.654
625.98	79.291
626.31	77.805
626.64	79.983
626.97	79.930
627.30	80.123
627.63	78.769
627.96	80.683
628.29	79.741
628.62	81.023
628.95	79.058
629.28	80.746
629.61	79.661
629.94	80.450
630.26	77.964
630.59	82.934
630.92	81.333
631.25	78.462
631.58	81.828
631.91	80.482
632.24	82.798
632.57	81.136
632.90	81.257
633.23	79.529
633.56	83.123
633.89	84.340
634.22	84.444
