SpectraSuite Data File
++++++++++++++++++++++++++++++++++++
Date: Fri May 15 17:30:38 PDT 2015
User: schluterlab
Dark Spectrum Present: Yes
Reference Spectrum Present: Yes
Number of Sampled Component Spectra: 1
Spectrometers: USB2E3373
Integration Time (usec): 3000 (USB2E3373)
Spectra Averaged: 3 (USB2E3373)
Boxcar Smoothing: 0 (USB2E3373)
Correct for Electrical Dark: No (USB2E3373)
Strobe/Lamp Enabled: No (USB2E3373)
Correct for Detector Non-linearity: No (USB2E3373)
Correct for Stray Light: No (USB2E3373)
Number of Pixels in Processed Spectrum: 2048
>>>>>Begin Processed Spectral Data<<<<<
178.53	0.000
178.91	0.000
179.29	37.500
179.67	-350.000
180.04	-14.286
180.42	175.000
180.80	200.000
181.18	33.333
181.56	350.000
181.94	-100.000
182.31	-100.000
182.69	200.000
183.07	166.667
183.45	140.000
183.83	-100.000
184.20	9.091
184.58	77.778
184.96	-50.000
185.34	-300.000
185.72	50.000
186.09	38.462
186.47	-300.000
186.85	216.667
187.23	55.556
187.61	-300.000
187.98	0.000
188.36	55.556
188.74	-133.333
189.12	-35.294
189.49	27.778
189.87	0.000
190.25	64.286
190.63	200.000
191.00	0.000
191.38	47.368
191.76	400.000
192.14	-0.000
192.51	600.000
192.89	11.111
193.27	-14.286
193.65	183.333
194.02	54.545
194.40	20.000
194.78	0.000
195.15	0.000
195.53	25.000
195.91	-0.000
196.29	50.000
196.66	84.615
197.04	-42.857
197.42	11.111
197.79	-133.333
198.17	-115.385
198.55	300.000
198.92	-166.667
199.30	800.000
199.68	-180.000
200.05	166.667
200.43	0.000
200.81	133.333
201.18	-133.333
201.56	1100.000
201.94	-350.000
202.31	-200.000
202.69	-100.000
203.07	75.000
203.44	-400.000
203.82	0.000
204.19	28.571
204.57	-533.333
204.95	187.500
205.32	170.000
205.70	71.429
206.08	75.000
206.45	100.000
206.83	157.143
207.20	0.000
207.58	-800.000
207.96	100.000
208.33	-40.000
208.71	25.000
209.08	16.667
209.46	-400.000
209.84	-100.000
210.21	-1200.000
210.59	214.286
210.96	150.000
211.34	175.000
211.71	40.000
212.09	-42.857
212.46	-1200.000
212.84	0.000
213.22	130.000
213.59	-250.000
213.97	30.769
214.34	36.364
214.72	0.000
215.09	200.000
215.47	0.000
215.84	54.545
216.22	-233.333
216.59	62.500
216.97	400.000
217.34	300.000
217.72	-60.000
218.09	125.000
218.47	175.000
218.84	-900.000
219.22	-88.889
219.59	-60.000
219.97	200.000
220.34	275.000
220.72	28.571
221.09	75.000
221.47	-100.000
221.84	-300.000
222.22	150.000
222.59	45.455
222.97	0.000
223.34	-233.333
223.72	-28.571
224.09	0.000
224.46	42.857
224.84	-200.000
225.21	60.000
225.59	66.667
225.96	-400.000
226.34	400.000
226.71	128.571
227.08	83.333
227.46	25.000
227.83	-350.000
228.21	-33.333
228.58	9.091
228.95	100.000
229.33	-20.000
229.70	37.500
230.08	-50.000
230.45	42.857
230.82	42.857
231.20	-6.667
231.57	78.571
231.95	100.000
232.32	-40.000
232.69	92.857
233.07	-100.000
233.44	-80.000
233.81	-50.000
234.19	133.333
234.56	52.941
234.93	-650.000
235.31	425.000
235.68	-40.000
236.05	-7.692
236.43	35.000
236.80	88.235
237.17	46.875
237.55	60.000
237.92	29.630
238.29	55.556
238.67	86.667
239.04	47.059
239.41	43.902
239.79	96.667
240.16	70.732
240.53	60.526
240.91	63.043
241.28	58.730
241.65	67.857
242.02	73.973
242.40	51.667
242.77	69.492
243.14	77.273
243.51	58.750
243.89	83.908
244.26	63.218
244.63	63.095
245.00	59.794
245.38	82.474
245.75	68.539
246.12	57.759
246.49	61.157
246.87	78.846
247.24	59.664
247.61	71.053
247.98	57.724
248.36	58.125
248.73	69.737
249.10	61.688
249.47	68.354
249.84	62.745
250.22	61.176
250.59	76.471
250.96	61.033
251.33	66.860
251.70	71.176
252.08	68.020
252.45	64.356
252.82	70.854
253.19	64.516
253.56	65.421
253.94	66.216
254.31	63.913
254.68	69.298
255.05	65.748
255.42	64.629
255.79	67.181
256.16	70.428
256.54	68.284
256.91	62.738
257.28	66.171
257.65	67.416
258.02	65.603
258.39	64.646
258.76	66.667
259.14	66.777
259.51	65.372
259.88	71.134
260.25	63.072
260.62	69.097
260.99	65.424
261.36	63.699
261.73	66.139
262.10	65.957
262.47	68.712
262.85	66.771
263.22	67.385
263.59	67.601
263.96	69.565
264.33	69.091
264.70	66.964
265.07	66.964
265.44	67.422
265.81	61.299
266.18	68.033
266.55	64.524
266.92	64.767
267.29	68.146
267.66	66.240
268.03	70.681
268.40	65.013
268.77	68.449
269.14	61.871
269.51	71.208
269.88	63.342
270.25	65.816
270.62	64.146
270.99	65.985
271.36	63.081
271.73	65.962
272.10	63.017
272.47	64.066
272.84	69.059
273.21	67.981
273.58	64.096
273.95	63.158
274.32	64.665
274.69	62.670
275.06	65.625
275.43	64.626
275.80	62.472
276.17	64.368
276.54	59.101
276.91	65.132
277.28	60.917
277.65	59.917
278.02	60.426
278.39	62.801
278.76	62.474
279.13	59.336
279.50	64.706
279.87	63.283
280.23	61.720
280.60	61.209
280.97	62.828
281.34	58.462
281.71	63.039
282.08	59.714
282.45	58.708
282.82	62.355
283.19	60.928
283.56	59.152
283.92	60.342
284.29	60.385
284.66	61.628
285.03	59.921
285.40	57.467
285.77	55.536
286.14	57.762
286.51	61.439
286.87	56.307
287.24	60.958
287.61	58.730
287.98	55.263
288.35	57.366
288.72	56.392
289.08	55.208
289.45	56.239
289.82	53.497
290.19	52.730
290.56	55.918
290.93	54.714
291.29	51.156
291.66	50.236
292.03	53.110
292.40	51.129
292.77	51.196
293.13	48.864
293.50	47.951
293.87	48.550
294.24	44.513
294.60	45.306
294.97	47.024
295.34	48.773
295.71	46.796
296.08	46.786
296.44	45.804
296.81	44.444
297.18	46.812
297.55	47.425
297.91	46.027
298.28	44.855
298.65	43.419
299.02	43.935
299.38	42.955
299.75	42.483
300.12	43.063
300.48	43.610
300.85	42.839
301.22	42.987
301.59	42.763
301.95	43.291
302.32	42.672
302.69	41.418
303.05	40.965
303.42	42.092
303.79	41.121
304.15	42.413
304.52	41.855
304.89	40.234
305.25	39.952
305.62	38.390
305.99	38.596
306.35	39.075
306.72	38.695
307.09	39.111
307.45	39.954
307.82	38.426
308.19	41.231
308.55	38.168
308.92	40.523
309.29	38.212
309.65	39.397
310.02	38.724
310.38	38.858
310.75	39.781
311.12	40.151
311.48	38.282
311.85	38.115
312.22	38.186
312.58	38.641
312.95	37.567
313.31	37.164
313.68	38.010
314.05	37.245
314.41	37.216
314.78	36.701
315.14	38.335
315.51	38.820
315.87	38.217
316.24	36.198
316.61	37.205
316.97	37.798
317.34	36.621
317.70	36.807
318.07	36.346
318.43	38.235
318.80	35.795
319.16	37.598
319.53	36.467
319.89	35.630
320.26	36.336
320.62	36.810
320.99	36.952
321.35	36.691
321.72	36.656
322.08	36.858
322.45	36.548
322.81	37.426
323.18	36.114
323.54	36.776
323.91	36.611
324.27	36.230
324.64	35.955
325.00	36.679
325.37	36.455
325.73	35.811
326.10	35.695
326.46	35.336
326.83	34.296
327.19	35.397
327.56	36.751
327.92	36.444
328.29	34.464
328.65	36.415
329.01	35.478
329.38	35.115
329.74	36.072
330.11	34.476
330.47	33.952
330.84	34.712
331.20	37.928
331.56	33.611
331.93	35.068
332.29	34.830
332.66	34.932
333.02	34.944
333.38	35.289
333.75	34.799
334.11	33.751
334.48	34.814
334.84	34.615
335.20	35.041
335.57	33.817
335.93	34.959
336.29	34.715
336.66	32.516
337.02	33.829
337.38	33.889
337.75	34.909
338.11	34.896
338.47	33.303
338.84	32.810
339.20	33.821
339.56	34.771
339.93	35.094
340.29	35.229
340.65	33.333
341.02	34.574
341.38	33.982
341.74	33.569
342.11	32.929
342.47	33.719
342.83	34.516
343.20	32.491
343.56	33.739
343.92	32.861
344.28	33.988
344.65	33.074
345.01	33.103
345.37	32.044
345.73	32.134
346.10	33.046
346.46	32.969
346.82	32.488
347.19	32.086
347.55	32.498
347.91	31.877
348.27	32.094
348.63	33.646
349.00	30.927
349.36	32.502
349.72	32.919
350.08	33.115
350.45	33.121
350.81	32.558
351.17	32.003
351.53	32.571
351.89	31.709
352.26	31.840
352.62	32.258
352.98	30.924
353.34	30.676
353.70	32.686
354.07	31.129
354.43	31.305
354.79	31.462
355.15	31.905
355.51	32.199
355.87	31.634
356.24	30.750
356.60	31.205
356.96	32.540
357.32	31.390
357.68	31.118
358.04	30.614
358.40	31.672
358.77	31.180
359.13	30.264
359.49	29.815
359.85	29.797
360.21	31.738
360.57	30.069
360.93	31.392
361.29	28.776
361.66	31.113
362.02	31.212
362.38	30.693
362.74	31.945
363.10	31.076
363.46	31.134
363.82	31.630
364.18	30.037
364.54	30.368
364.90	31.039
365.26	30.422
365.62	30.949
365.98	30.645
366.35	31.173
366.71	30.820
367.07	30.769
367.43	29.907
367.79	30.459
368.15	30.653
368.51	30.517
368.87	29.864
369.23	29.170
369.59	30.321
369.95	30.499
370.31	30.130
370.67	28.955
371.03	28.753
371.39	28.738
371.75	30.256
372.11	28.887
372.47	29.290
372.83	30.234
373.19	29.601
373.55	29.819
373.91	29.734
374.27	29.270
374.63	29.505
374.99	29.149
375.35	29.944
375.71	30.559
376.07	28.441
376.42	28.776
376.78	29.799
377.14	29.045
377.50	28.021
377.86	28.313
378.22	28.909
378.58	29.295
378.94	29.679
379.30	29.632
379.66	29.091
380.02	29.552
380.38	28.424
380.74	28.665
381.09	28.957
381.45	28.318
381.81	28.809
382.17	28.553
382.53	29.419
382.89	29.818
383.25	28.811
383.61	29.939
383.97	28.254
384.32	29.143
384.68	29.350
385.04	28.431
385.40	28.376
385.76	29.623
386.12	29.690
386.48	30.460
386.83	28.662
387.19	28.266
387.55	29.109
387.91	28.056
388.27	28.205
388.62	28.823
388.98	28.422
389.34	28.420
389.70	29.273
390.06	29.075
390.42	27.979
390.77	29.366
391.13	28.184
391.49	28.784
391.85	27.940
392.20	27.997
392.56	28.671
392.92	28.890
393.28	28.302
393.64	28.468
393.99	29.216
394.35	28.463
394.71	28.289
395.07	27.844
395.42	28.294
395.78	28.664
396.14	28.247
396.50	28.535
396.85	28.783
397.21	28.070
397.57	28.401
397.92	28.760
398.28	28.506
398.64	28.133
399.00	28.217
399.35	26.919
399.71	27.800
400.07	29.202
400.42	28.213
400.78	28.475
401.14	28.675
401.49	27.874
401.85	28.032
402.21	28.133
402.57	28.938
402.92	28.419
403.28	28.258
403.63	28.499
403.99	28.635
404.35	29.856
404.70	27.202
405.06	27.732
405.42	27.595
405.77	27.716
406.13	27.648
406.49	27.827
406.84	27.445
407.20	28.718
407.55	26.980
407.91	27.406
408.27	27.342
408.62	28.492
408.98	27.418
409.34	27.819
409.69	27.261
410.05	27.340
410.40	27.593
410.76	27.925
411.11	27.938
411.47	28.665
411.83	26.114
412.18	28.378
412.54	27.715
412.89	27.401
413.25	27.377
413.60	27.329
413.96	28.160
414.31	28.049
414.67	27.774
415.03	28.096
415.38	27.611
415.74	28.599
416.09	28.478
416.45	27.346
416.80	25.843
417.16	27.693
417.51	27.981
417.87	27.445
418.22	27.461
418.58	26.756
418.93	28.025
419.29	26.569
419.64	27.414
420.00	28.463
420.35	26.866
420.71	27.886
421.06	28.115
421.42	28.065
421.77	27.688
422.12	27.526
422.48	27.558
422.83	26.914
423.19	28.837
423.54	26.631
423.90	26.737
424.25	28.014
424.61	28.764
424.96	27.120
425.31	28.596
425.67	27.289
426.02	28.151
426.38	27.802
426.73	28.269
427.09	28.734
427.44	27.882
427.79	27.873
428.15	28.095
428.50	27.014
428.85	26.843
429.21	27.391
429.56	27.871
429.92	27.170
430.27	27.569
430.62	27.339
430.98	27.919
431.33	27.708
431.68	26.740
432.04	28.340
432.39	26.982
432.74	27.420
433.10	27.701
433.45	27.240
433.80	27.220
434.16	27.258
434.51	27.204
434.86	27.410
435.22	27.650
435.57	27.199
435.92	27.545
436.28	28.086
436.63	27.895
436.98	26.419
437.34	27.707
437.69	27.847
438.04	27.293
438.39	27.123
438.75	27.080
439.10	26.712
439.45	27.632
439.81	27.890
440.16	28.207
440.51	28.299
440.86	28.882
441.22	28.224
441.57	27.539
441.92	28.541
442.27	27.716
442.63	28.694
442.98	28.202
443.33	27.880
443.68	27.056
444.03	28.713
444.39	27.742
444.74	28.540
445.09	27.561
445.44	27.977
445.79	28.726
446.15	27.753
446.50	27.177
446.85	28.002
447.20	27.216
447.55	28.125
447.91	28.314
448.26	28.571
448.61	27.922
448.96	27.424
449.31	28.092
449.66	28.281
450.02	28.180
450.37	28.097
450.72	27.835
451.07	26.835
451.42	27.840
451.77	28.089
452.12	27.033
452.47	26.529
452.83	27.974
453.18	27.767
453.53	28.192
453.88	27.444
454.23	28.457
454.58	28.149
454.93	28.286
455.28	26.095
455.63	28.270
455.98	28.382
456.34	28.225
456.69	27.637
457.04	28.986
457.39	27.582
457.74	27.993
458.09	27.546
458.44	27.911
458.79	26.499
459.14	27.975
459.49	28.119
459.84	27.806
460.19	27.549
460.54	28.729
460.89	27.614
461.24	27.329
461.59	28.385
461.94	26.918
462.29	27.744
462.64	27.641
462.99	27.894
463.34	27.816
463.69	27.091
464.04	27.785
464.39	26.925
464.74	27.546
465.09	28.447
465.44	28.159
465.79	26.701
466.14	27.993
466.49	27.430
466.84	28.019
467.19	27.597
467.54	28.672
467.89	27.479
468.24	28.041
468.59	28.127
468.94	27.365
469.29	27.607
469.64	27.068
469.99	27.961
470.34	26.894
470.68	27.964
471.03	28.450
471.38	27.960
471.73	28.081
472.08	26.459
472.43	26.913
472.78	26.662
473.13	26.735
473.48	27.296
473.83	27.086
474.17	27.979
474.52	26.994
474.87	26.970
475.22	27.151
475.57	27.160
475.92	27.647
476.27	28.405
476.61	27.546
476.96	26.827
477.31	26.988
477.66	26.798
478.01	27.456
478.36	26.961
478.70	27.787
479.05	27.253
479.40	27.027
479.75	27.268
480.10	27.445
480.45	27.600
480.79	27.845
481.14	27.203
481.49	27.143
481.84	26.882
482.19	27.035
482.53	27.722
482.88	26.826
483.23	27.495
483.58	27.311
483.92	27.009
484.27	26.299
484.62	27.521
484.97	27.280
485.31	26.698
485.66	26.814
486.01	27.814
486.36	27.541
486.70	28.342
487.05	28.077
487.40	27.508
487.75	28.423
488.09	27.812
488.44	28.611
488.79	27.792
489.13	27.845
489.48	27.277
489.83	27.713
490.17	26.562
490.52	26.928
490.87	26.006
491.22	26.361
491.56	26.423
491.91	26.625
492.26	27.078
492.60	26.871
492.95	26.857
493.30	26.673
493.64	26.621
493.99	26.618
494.34	26.650
494.68	25.857
495.03	26.423
495.37	26.546
495.72	26.956
496.07	26.927
496.41	25.708
496.76	26.992
497.11	26.409
497.45	26.683
497.80	26.842
498.14	26.776
498.49	26.511
498.84	26.597
499.18	26.406
499.53	26.091
499.87	25.681
500.22	25.964
500.56	26.425
500.91	25.904
501.26	26.644
501.60	26.611
501.95	27.026
502.29	26.053
502.64	27.075
502.98	26.591
503.33	25.889
503.67	26.458
504.02	26.686
504.36	25.977
504.71	25.808
505.06	25.566
505.40	26.142
505.75	26.804
506.09	26.305
506.44	27.105
506.78	26.378
507.13	26.319
507.47	25.640
507.82	25.374
508.16	26.149
508.51	26.495
508.85	26.792
509.19	24.907
509.54	26.059
509.88	26.321
510.23	26.627
510.57	26.724
510.92	24.254
511.26	25.586
511.61	26.183
511.95	25.479
512.30	26.441
512.64	26.377
512.98	25.716
513.33	26.413
513.67	26.322
514.02	26.144
514.36	25.829
514.70	26.340
515.05	26.439
515.39	25.148
515.74	26.407
516.08	25.045
516.42	27.150
516.77	26.156
517.11	25.579
517.46	25.194
517.80	25.805
518.14	25.107
518.49	24.099
518.83	25.334
519.17	24.985
519.52	24.630
519.86	25.090
520.20	25.152
520.55	24.953
520.89	25.596
521.23	25.269
521.58	25.678
521.92	24.872
522.26	25.895
522.61	24.740
522.95	25.762
523.29	25.095
523.64	25.349
523.98	25.470
524.32	24.356
524.66	26.120
525.01	25.195
525.35	25.794
525.69	24.983
526.04	25.463
526.38	26.135
526.72	24.787
527.06	24.708
527.41	25.792
527.75	24.464
528.09	24.518
528.43	25.726
528.78	24.224
529.12	25.290
529.46	24.561
529.80	24.763
530.15	25.413
530.49	24.781
530.83	25.855
531.17	24.916
531.51	26.265
531.86	24.881
532.20	24.356
532.54	25.528
532.88	26.010
533.22	25.470
533.57	25.950
533.91	25.522
534.25	26.693
534.59	23.926
534.93	24.921
535.27	24.492
535.62	24.822
535.96	25.766
536.30	25.198
536.64	25.982
536.98	25.366
537.32	25.818
537.66	24.755
538.01	26.224
538.35	25.243
538.69	25.166
539.03	24.129
539.37	26.312
539.71	25.222
540.05	25.051
540.39	25.208
540.73	25.732
541.07	25.483
541.42	26.344
541.76	25.120
542.10	25.258
542.44	25.295
542.78	24.501
543.12	25.343
543.46	25.035
543.80	24.913
544.14	24.766
544.48	26.049
544.82	25.290
545.16	25.546
545.50	25.033
545.84	25.708
546.18	25.390
546.52	24.802
546.86	23.652
547.20	25.751
547.54	24.452
547.88	25.476
548.22	24.852
548.56	25.660
548.90	25.135
549.24	25.551
549.58	24.824
549.92	24.660
550.26	25.861
550.60	24.833
550.94	25.765
551.28	24.884
551.62	24.846
551.96	25.263
552.30	24.927
552.64	24.824
552.98	24.613
553.32	25.392
553.66	24.383
554.00	24.015
554.34	26.809
554.68	25.074
555.02	24.777
555.36	25.280
555.69	25.495
556.03	23.840
556.37	24.698
556.71	26.209
557.05	24.981
557.39	23.941
557.73	24.513
558.07	25.038
558.41	25.498
558.75	24.240
559.08	24.901
559.42	24.603
559.76	25.300
560.10	24.235
560.44	23.529
560.78	24.755
561.12	24.612
561.45	25.650
561.79	24.160
562.13	24.485
562.47	24.820
562.81	24.928
563.15	24.260
563.48	25.248
563.82	25.875
564.16	26.671
564.50	24.662
564.84	25.435
565.17	25.017
565.51	26.913
565.85	25.240
566.19	25.862
566.52	25.335
566.86	25.835
567.20	25.405
567.54	25.912
567.88	27.065
568.21	26.923
568.55	25.978
568.89	26.129
569.23	26.721
569.56	26.489
569.90	27.284
570.24	27.317
570.57	27.309
570.91	27.396
571.25	26.669
571.59	26.503
571.92	26.133
572.26	27.053
572.60	27.380
572.93	27.581
573.27	26.803
573.61	27.536
573.95	27.335
574.28	27.304
574.62	26.850
574.96	26.427
575.29	27.082
575.63	26.354
575.97	26.484
576.30	27.298
576.64	26.649
576.98	27.902
577.31	27.845
577.65	27.064
577.98	27.874
578.32	27.404
578.66	27.079
578.99	26.860
579.33	26.805
579.67	26.823
580.00	27.013
580.34	27.910
580.67	27.151
581.01	27.642
581.35	26.960
581.68	27.121
582.02	27.546
582.35	27.892
582.69	27.892
583.02	27.494
583.36	27.419
583.70	27.882
584.03	28.107
584.37	28.317
584.70	27.995
585.04	27.383
585.37	27.371
585.71	27.425
586.04	27.257
586.38	26.914
586.72	27.288
587.05	27.123
587.39	28.040
587.72	27.884
588.06	27.789
588.39	27.627
588.73	27.015
589.06	27.691
589.40	27.757
589.73	28.003
590.07	28.059
590.40	26.858
590.73	27.306
591.07	26.887
591.40	27.159
591.74	27.330
592.07	27.134
592.41	26.988
592.74	27.121
593.08	26.336
593.41	26.623
593.75	27.118
594.08	26.571
594.41	26.783
594.75	26.679
595.08	26.826
595.42	26.868
595.75	27.563
596.09	27.522
596.42	27.367
596.75	27.087
597.09	26.970
597.42	27.191
597.75	26.752
598.09	27.343
598.42	26.083
598.76	26.384
599.09	26.763
599.42	26.715
599.76	26.599
600.09	27.187
600.42	27.218
600.76	25.892
601.09	26.489
601.42	27.145
601.76	26.876
602.09	27.021
602.42	26.748
602.76	27.504
603.09	26.744
603.42	27.467
603.76	25.968
604.09	26.731
604.42	27.030
604.76	26.747
605.09	27.422
605.42	26.591
605.75	26.489
606.09	26.412
606.42	26.814
606.75	26.537
607.09	27.165
607.42	26.717
607.75	26.377
608.08	26.280
608.42	26.953
608.75	26.988
609.08	26.358
609.41	27.005
609.75	27.016
610.08	26.710
610.41	25.314
610.74	25.500
611.07	26.512
611.41	25.895
611.74	26.226
612.07	26.124
612.40	26.258
612.73	25.932
613.07	26.603
613.40	26.586
613.73	26.133
614.06	25.487
614.39	26.509
614.72	25.658
615.06	25.922
615.39	25.600
615.72	26.211
616.05	25.754
616.38	25.470
616.71	25.994
617.05	26.313
617.38	25.581
617.71	26.352
618.04	26.921
618.37	27.301
618.70	26.931
619.03	26.736
619.36	25.760
619.69	26.080
620.03	26.881
620.36	26.609
620.69	24.911
621.02	25.994
621.35	25.643
621.68	25.340
622.01	25.083
622.34	25.060
622.67	26.498
623.00	25.038
623.33	25.686
623.66	24.682
623.99	25.794
624.32	26.084
624.65	24.436
624.99	26.336
625.32	24.185
625.65	26.394
625.98	26.511
626.31	25.021
626.64	25.390
626.97	25.218
627.30	24.869
627.63	25.650
627.96	25.876
628.29	23.589
628.62	24.680
628.95	25.551
629.28	24.597
629.61	24.726
629.94	26.979
630.26	23.814
630.59	25.806
630.92	25.744
631.25	23.179
631.58	25.000
631.91	24.013
632.24	24.656
632.57	24.545
632.90	22.894
633.23	25.059
633.56	22.670
633.89	23.428
