SpectraSuite Data File
++++++++++++++++++++++++++++++++++++
Date: Fri May 15 17:30:00 PDT 2015
User: schluterlab
Dark Spectrum Present: Yes
Reference Spectrum Present: Yes
Number of Sampled Component Spectra: 1
Spectrometers: USB2E3373
Integration Time (usec): 3000 (USB2E3373)
Spectra Averaged: 3 (USB2E3373)
Boxcar Smoothing: 0 (USB2E3373)
Correct for Electrical Dark: No (USB2E3373)
Strobe/Lamp Enabled: No (USB2E3373)
Correct for Detector Non-linearity: No (USB2E3373)
Correct for Stray Light: No (USB2E3373)
Number of Pixels in Processed Spectrum: 2048
>>>>>Begin Processed Spectral Data<<<<<
178.53	0.000
178.91	0.000
179.29	175.000
179.67	-300.000
180.04	28.571
180.42	0.000
180.80	-200.000
181.18	233.333
181.56	-100.000
181.94	250.000
182.31	100.000
182.69	0.000
183.07	33.333
183.45	-160.000
183.83	216.667
184.20	18.182
184.58	77.778
184.96	-175.000
185.34	-333.333
185.72	-150.000
186.09	46.154
186.47	400.000
186.85	133.333
187.23	155.556
187.61	-600.000
187.98	-66.667
188.36	11.111
188.74	0.000
189.12	35.294
189.49	-5.556
189.87	0.000
190.25	21.429
190.63	-150.000
191.00	0.000
191.38	15.789
191.76	500.000
192.14	-250.000
192.51	450.000
192.89	-22.222
193.27	14.286
193.65	250.000
194.02	36.364
194.40	60.000
194.78	-200.000
195.15	-8.333
195.53	150.000
195.91	200.000
196.29	175.000
196.66	76.923
197.04	71.429
197.42	77.778
197.79	-400.000
198.17	-38.462
198.55	-0.000
198.92	-100.000
199.30	700.000
199.68	0.000
200.05	233.333
200.43	0.000
200.81	166.667
201.18	166.667
201.56	200.000
201.94	200.000
202.31	-33.333
202.69	-260.000
203.07	25.000
203.44	300.000
203.82	0.000
204.19	42.857
204.57	-466.667
204.95	-25.000
205.32	30.000
205.70	28.571
206.08	275.000
206.45	133.333
206.83	100.000
207.20	-157.143
207.58	200.000
207.96	-266.667
208.33	-20.000
208.71	0.000
209.08	-166.667
209.46	-500.000
209.84	-100.000
210.21	100.000
210.59	42.857
210.96	16.667
211.34	175.000
211.71	20.000
212.09	-71.429
212.46	-600.000
212.84	0.000
213.22	70.000
213.59	200.000
213.97	107.692
214.34	63.636
214.72	-16.667
215.09	175.000
215.47	-53.846
215.84	9.091
216.22	66.667
216.59	-37.500
216.97	100.000
217.34	200.000
217.72	-20.000
218.09	62.500
218.47	125.000
218.84	-100.000
219.22	11.111
219.59	-40.000
219.97	-66.667
220.34	225.000
220.72	157.143
221.09	-50.000
221.47	50.000
221.84	-300.000
222.22	-350.000
222.59	-54.545
222.97	91.667
223.34	166.667
223.72	114.286
224.09	52.381
224.46	14.286
224.84	133.333
225.21	40.000
225.59	46.667
225.96	-150.000
226.34	425.000
226.71	-57.143
227.08	50.000
227.46	62.500
227.83	-100.000
228.21	55.556
228.58	72.727
228.95	50.000
229.33	-10.000
229.70	31.250
230.08	-37.500
230.45	-14.286
230.82	57.143
231.20	-6.667
231.57	7.143
231.95	128.571
232.32	-10.000
232.69	150.000
233.07	233.333
233.44	80.000
233.81	40.000
234.19	122.222
234.56	47.059
234.93	400.000
235.31	100.000
235.68	0.000
236.05	46.154
236.43	25.000
236.80	29.412
237.17	53.125
237.55	70.000
237.92	48.148
238.29	69.444
238.67	26.667
239.04	35.294
239.41	21.951
239.79	53.333
240.16	36.585
240.53	31.579
240.91	36.957
241.28	41.270
241.65	57.143
242.02	58.904
242.40	63.333
242.77	45.763
243.14	34.848
243.51	42.500
243.89	48.276
244.26	49.425
244.63	48.810
245.00	53.608
245.38	57.732
245.75	38.202
246.12	45.690
246.49	45.455
246.87	44.231
247.24	37.815
247.61	37.719
247.98	40.650
248.36	43.750
248.73	47.368
249.10	40.260
249.47	47.468
249.84	50.327
250.22	42.353
250.59	46.405
250.96	45.540
251.33	43.605
251.70	51.176
252.08	41.117
252.45	48.020
252.82	48.744
253.19	46.083
253.56	39.720
253.94	45.045
254.31	43.478
254.68	42.982
255.05	45.669
255.42	45.852
255.79	46.718
256.16	45.914
256.54	45.896
256.91	45.247
257.28	39.777
257.65	40.824
258.02	39.007
258.39	46.465
258.76	47.619
259.14	48.173
259.51	46.278
259.88	45.704
260.25	42.484
260.62	53.819
260.99	42.373
261.36	43.151
261.73	45.886
262.10	46.201
262.47	46.012
262.85	43.260
263.22	45.846
263.59	48.910
263.96	44.410
264.33	45.455
264.70	47.321
265.07	44.940
265.44	46.742
265.81	48.023
266.18	46.175
266.55	42.931
266.92	45.596
267.29	46.997
267.66	46.036
268.03	43.979
268.40	45.692
268.77	49.465
269.14	42.446
269.51	43.959
269.88	43.392
270.25	41.327
270.62	40.732
270.99	40.665
271.36	42.543
271.73	44.836
272.10	45.499
272.47	44.917
272.84	46.535
273.21	44.780
273.58	46.024
273.95	45.309
274.32	44.342
274.69	41.403
275.06	43.527
275.43	44.444
275.80	43.046
276.17	42.299
276.54	41.970
276.91	43.421
277.28	42.576
277.65	42.562
278.02	41.915
278.39	41.794
278.76	43.187
279.13	41.079
279.50	42.227
279.87	43.629
280.23	38.925
280.60	42.105
280.97	45.253
281.34	39.423
281.71	43.943
282.08	40.491
282.45	41.096
282.82	41.313
283.19	40.039
283.56	41.811
283.92	42.694
284.29	40.192
284.66	39.147
285.03	43.615
285.40	41.021
285.77	38.313
286.14	38.267
286.51	42.804
286.87	39.488
287.24	41.436
287.61	37.743
287.98	41.579
288.35	38.821
288.72	41.331
289.08	36.979
289.45	40.070
289.82	40.035
290.19	37.884
290.56	38.422
290.93	37.879
291.29	36.980
291.66	33.543
292.03	35.247
292.40	35.806
292.77	36.204
293.13	32.792
293.50	33.384
293.87	33.282
294.24	33.385
294.60	32.787
294.97	33.780
295.34	33.589
295.71	32.638
296.08	34.529
296.44	31.437
296.81	32.917
297.18	32.319
297.55	35.095
297.91	31.644
298.28	32.850
298.65	29.037
299.02	30.054
299.38	30.780
299.75	32.276
300.12	31.021
300.48	29.776
300.85	30.418
301.22	30.390
301.59	29.605
301.95	30.253
302.32	31.128
302.69	29.726
303.05	29.208
303.42	30.012
303.79	29.322
304.15	29.152
304.52	28.181
304.89	27.018
305.25	28.450
305.62	27.305
305.99	27.485
306.35	28.671
306.72	27.784
307.09	27.252
307.45	28.358
307.82	27.083
308.19	29.501
308.55	28.462
308.92	28.867
309.29	27.263
309.65	27.341
310.02	27.943
310.38	28.430
310.75	29.836
311.12	27.449
311.48	27.890
311.85	27.016
312.22	27.215
312.58	27.707
312.95	26.574
313.31	27.743
313.68	27.016
314.05	27.653
314.41	28.041
314.78	28.969
315.14	29.496
315.51	29.193
315.87	28.484
316.24	30.334
316.61	29.429
316.97	28.869
317.34	30.371
317.70	30.688
318.07	30.288
318.43	30.294
318.80	28.314
319.16	30.273
319.53	31.434
319.89	31.594
320.26	31.275
320.62	32.297
320.99	31.942
321.35	31.449
321.72	32.814
322.08	31.823
322.45	33.096
322.81	32.711
323.18	31.600
323.54	32.915
323.91	32.911
324.27	34.473
324.64	35.487
325.00	35.036
325.37	36.547
325.73	35.358
326.10	37.965
326.46	36.861
326.83	37.970
327.19	39.407
327.56	37.880
327.92	39.877
328.29	40.089
328.65	40.660
329.01	41.176
329.38	42.857
329.74	42.115
330.11	40.686
330.47	43.135
330.84	42.404
331.20	44.772
331.56	43.611
331.93	44.475
332.29	44.730
332.66	42.081
333.02	44.796
333.38	44.363
333.75	45.330
334.11	43.062
334.48	46.782
334.84	44.597
335.20	44.465
335.57	43.880
335.93	47.154
336.29	46.133
336.66	45.595
337.02	45.353
337.38	45.000
337.75	46.455
338.11	45.627
338.47	45.255
338.84	45.656
339.20	45.338
339.56	45.596
339.93	46.106
340.29	45.963
340.65	47.670
341.02	47.784
341.38	46.814
341.74	46.113
342.11	43.068
342.47	47.153
342.83	46.280
343.20	45.035
343.56	45.913
343.92	46.324
344.28	47.139
344.65	46.632
345.01	46.067
345.37	45.248
345.73	46.360
346.10	46.937
346.46	47.014
346.82	46.072
347.19	45.636
347.55	45.196
347.91	46.602
348.27	45.028
348.63	47.189
349.00	44.955
349.36	46.966
349.72	49.088
350.08	46.066
350.45	46.209
350.81	47.093
351.17	45.358
351.53	46.857
351.89	45.252
352.26	47.120
352.62	47.581
352.98	45.703
353.34	45.813
353.70	48.625
354.07	47.581
354.43	45.637
354.79	47.069
355.15	46.349
355.51	47.468
355.87	47.492
356.24	46.656
356.60	47.454
356.96	47.698
357.32	48.083
357.68	46.677
358.04	47.254
358.40	47.267
358.77	47.289
359.13	48.279
359.49	47.304
359.85	47.582
360.21	48.565
360.57	48.355
360.93	48.563
361.29	46.224
361.66	49.530
362.02	48.333
362.38	48.439
362.74	48.448
363.10	48.683
363.46	50.185
363.82	50.488
364.18	48.635
364.54	47.574
364.90	50.108
365.26	50.073
365.62	50.073
365.98	49.560
366.35	52.149
366.71	51.293
367.07	50.290
367.43	50.467
367.79	50.035
368.15	50.754
368.51	50.838
368.87	50.754
369.23	50.253
369.59	51.312
369.95	51.320
370.31	51.879
370.67	52.090
371.03	52.128
371.39	52.516
371.75	51.868
372.11	51.213
372.47	51.109
372.83	52.236
373.19	50.785
373.55	51.697
373.91	52.484
374.27	54.004
374.63	52.261
374.99	52.340
375.35	52.019
375.71	54.895
376.07	53.792
376.42	54.218
376.78	54.430
377.14	54.976
377.50	54.117
377.86	55.556
378.22	54.754
378.58	55.705
378.94	55.640
379.30	56.207
379.66	56.803
380.02	55.610
380.38	56.117
380.74	55.835
381.09	56.994
381.45	55.596
381.81	56.262
382.17	56.409
382.53	56.777
382.89	57.753
383.25	58.619
383.61	57.195
383.97	57.841
384.32	58.224
384.68	57.833
385.04	57.782
385.40	57.747
385.76	59.811
386.12	60.091
386.48	60.026
386.83	59.417
387.19	59.402
387.55	60.477
387.91	58.741
388.27	59.585
388.62	59.975
388.98	59.791
389.34	60.212
389.70	60.286
390.06	58.716
390.42	59.845
390.77	61.805
391.13	59.836
391.49	60.931
391.85	61.598
392.20	60.640
392.56	61.602
392.92	60.364
393.28	60.731
393.64	60.961
393.99	61.944
394.35	61.670
394.71	61.175
395.07	60.654
395.42	60.777
395.78	61.303
396.14	60.656
396.50	62.651
396.85	61.816
397.21	61.028
397.57	61.630
397.92	61.174
398.28	61.552
398.64	60.482
399.00	61.907
399.35	60.102
399.71	61.172
400.07	62.576
400.42	62.240
400.78	62.768
401.14	61.041
401.49	60.929
401.85	61.426
402.21	60.723
402.57	61.312
402.92	60.665
403.28	62.218
403.63	61.349
403.99	61.288
404.35	62.711
404.70	59.583
405.06	60.987
405.42	60.534
405.77	62.231
406.13	61.583
406.49	61.101
406.84	61.369
407.20	61.710
407.55	61.687
407.91	61.430
408.27	61.568
408.62	61.046
408.98	60.505
409.34	61.648
409.69	61.240
410.05	59.975
410.40	60.185
410.76	61.218
411.11	61.625
411.47	62.262
411.83	61.142
412.18	62.227
412.54	60.737
412.89	60.899
413.25	60.168
413.60	60.248
413.96	60.245
414.31	61.524
414.67	60.295
415.03	61.252
415.38	60.509
415.74	61.629
416.09	62.704
416.45	61.783
416.80	61.996
417.16	61.809
417.51	61.626
417.87	61.213
418.22	61.658
418.58	63.010
418.93	61.567
419.29	60.819
419.64	62.281
420.00	61.965
420.35	61.254
420.71	62.515
421.06	61.265
421.42	61.839
421.77	61.561
422.12	62.032
422.48	60.422
422.83	62.065
423.19	61.682
423.54	62.728
423.90	61.896
424.25	61.711
424.61	62.485
424.96	61.731
425.31	64.876
425.67	63.263
426.02	63.310
426.38	63.369
426.73	63.983
427.09	63.291
427.44	63.882
427.79	63.406
428.15	63.956
428.50	63.477
428.85	62.531
429.21	63.950
429.56	63.720
429.92	63.174
430.27	62.757
430.62	63.774
430.98	64.809
431.33	63.933
431.68	63.108
432.04	64.449
432.39	63.662
432.74	63.199
433.10	62.816
433.45	64.337
433.80	65.061
434.16	64.986
434.51	64.624
434.86	64.228
435.22	64.049
435.57	65.752
435.92	65.269
436.28	64.103
436.63	64.575
436.98	63.963
437.34	64.852
437.69	65.534
438.04	64.729
438.39	63.775
438.75	65.938
439.10	65.082
439.45	66.464
439.81	63.792
440.16	66.686
440.51	65.134
440.86	66.707
441.22	65.441
441.57	65.949
441.92	66.159
442.27	67.350
442.63	66.006
442.98	66.571
443.33	66.388
443.68	66.737
444.03	65.425
444.39	65.470
444.74	68.116
445.09	66.871
445.44	67.066
445.79	67.922
446.15	64.703
446.50	64.226
446.85	66.631
447.20	66.475
447.55	67.020
447.91	66.046
448.26	65.965
448.61	66.494
448.96	67.183
449.31	66.532
449.66	65.215
450.02	66.400
450.37	67.635
450.72	65.636
451.07	67.532
451.42	65.169
451.77	65.280
452.12	65.969
452.47	66.645
452.83	65.489
453.18	66.287
453.53	66.814
453.88	66.727
454.23	65.642
454.58	66.877
454.93	66.366
455.28	64.889
455.63	66.026
455.98	64.702
456.34	65.964
456.69	66.963
457.04	67.486
457.39	65.614
457.74	66.082
458.09	64.391
458.44	66.238
458.79	64.706
459.14	66.419
459.49	66.269
459.84	64.185
460.19	66.323
460.54	66.015
460.89	66.193
461.24	65.466
461.59	66.686
461.94	64.906
462.29	66.285
462.64	64.917
462.99	64.590
463.34	64.882
463.69	64.286
464.04	64.286
464.39	65.130
464.74	64.294
465.09	65.565
465.44	65.147
465.79	64.399
466.14	66.192
466.49	64.807
466.84	65.021
467.19	65.144
467.54	64.751
467.89	65.130
468.24	64.173
468.59	65.905
468.94	63.937
469.29	65.639
469.64	64.525
469.99	66.783
470.34	63.618
470.68	66.219
471.03	64.331
471.38	64.194
471.73	63.305
472.08	63.161
472.43	65.705
472.78	64.291
473.13	64.694
473.48	63.713
473.83	64.134
474.17	65.803
474.52	63.433
474.87	64.667
475.22	65.528
475.57	64.257
475.92	64.893
476.27	64.610
476.61	65.394
476.96	63.246
477.31	65.008
477.66	64.775
478.01	64.009
478.36	64.978
478.70	65.253
479.05	64.780
479.40	64.176
479.75	63.347
480.10	64.875
480.45	64.750
480.79	65.408
481.14	65.625
481.49	63.842
481.84	63.948
482.19	63.938
482.53	64.269
482.88	63.771
483.23	62.860
483.58	63.255
483.92	61.907
484.27	62.443
484.62	64.142
484.97	62.728
485.31	64.306
485.66	65.368
486.01	66.274
486.36	65.648
486.70	64.919
487.05	64.239
487.40	63.650
487.75	63.352
488.09	63.010
488.44	62.001
488.79	62.159
489.13	62.460
489.48	62.847
489.83	61.480
490.17	62.787
490.52	62.956
490.87	60.990
491.22	62.751
491.56	61.954
491.91	61.138
492.26	63.393
492.60	61.996
492.95	63.109
493.30	61.553
493.64	63.851
493.99	62.802
494.34	62.524
494.68	62.000
495.03	61.606
495.37	62.610
495.72	63.251
496.07	63.268
496.41	63.255
496.76	62.183
497.11	63.065
497.45	62.148
497.80	63.320
498.14	61.153
498.49	62.164
498.84	62.425
499.18	63.303
499.53	63.194
499.87	61.381
500.22	63.403
500.56	63.540
500.91	62.651
501.26	62.037
501.60	62.076
501.95	61.766
502.29	62.760
502.64	63.031
502.98	63.000
503.33	60.759
503.67	61.639
504.02	62.708
504.36	63.038
504.71	61.717
505.06	61.600
505.40	62.690
505.75	62.165
506.09	61.531
506.44	63.860
506.78	63.571
507.13	61.686
507.47	61.775
507.82	63.568
508.16	61.278
508.51	62.907
508.85	62.585
509.19	61.735
509.54	62.413
509.88	62.244
510.23	61.969
510.57	63.068
510.92	61.301
511.26	62.193
511.61	63.036
511.95	62.575
512.30	62.306
512.64	61.770
512.98	61.089
513.33	61.724
513.67	62.592
514.02	63.558
514.36	63.257
514.70	63.054
515.05	64.042
515.39	61.983
515.74	63.653
516.08	62.582
516.42	63.545
516.77	62.844
517.11	62.730
517.46	63.136
517.80	61.621
518.14	62.339
518.49	62.019
518.83	62.211
519.17	62.098
519.52	62.049
519.86	61.765
520.20	63.001
520.55	62.789
520.89	62.359
521.23	62.255
521.58	64.038
521.92	62.500
522.26	62.785
522.61	62.078
522.95	64.040
523.29	63.405
523.64	63.088
523.98	63.837
524.32	62.371
524.66	63.636
525.01	62.922
525.35	63.059
525.69	62.694
526.04	62.434
526.38	64.851
526.72	61.347
527.06	62.322
527.41	62.071
527.75	63.271
528.09	62.924
528.43	64.213
528.78	62.904
529.12	63.355
529.46	63.028
529.80	62.951
530.15	64.026
530.49	63.232
530.83	63.748
531.17	60.846
531.51	63.543
531.86	62.135
532.20	63.187
532.54	62.151
532.88	62.971
533.22	62.298
533.57	63.041
533.91	63.316
534.25	64.062
534.59	62.925
534.93	62.303
535.27	62.437
535.62	63.124
535.96	63.927
536.30	63.984
536.64	64.025
536.98	62.578
537.32	63.442
537.66	63.254
538.01	64.266
538.35	63.107
538.69	62.916
539.03	61.859
539.37	62.786
539.71	62.304
540.05	63.204
540.39	63.504
540.73	63.459
541.07	63.329
541.42	62.769
541.76	63.661
542.10	62.216
542.44	64.350
542.78	59.670
543.12	62.294
543.46	63.491
543.80	63.359
544.14	61.549
544.48	64.290
544.82	63.158
545.16	64.959
545.50	62.283
545.84	64.164
546.18	62.979
546.52	63.446
546.86	63.120
547.20	62.804
547.54	61.272
547.88	64.198
548.22	62.459
548.56	62.599
548.90	63.747
549.24	62.121
549.58	62.906
549.92	62.116
550.26	62.857
550.60	64.387
550.94	63.928
551.28	62.906
551.62	63.231
551.96	63.459
552.30	64.620
552.64	63.329
552.98	62.799
553.32	62.696
553.66	62.554
554.00	65.036
554.34	62.703
554.68	62.463
555.02	64.732
555.36	64.024
555.69	63.736
556.03	63.597
556.37	62.776
556.71	63.610
557.05	63.908
557.39	62.751
557.73	63.193
558.07	64.178
558.41	62.098
558.75	64.147
559.08	64.539
559.42	63.968
559.76	64.131
560.10	64.373
560.44	63.366
560.78	62.867
561.12	64.034
561.45	64.652
561.79	65.056
562.13	66.572
562.47	64.173
562.81	65.850
563.15	64.739
563.48	64.710
563.82	65.202
564.16	65.529
564.50	63.851
564.84	63.788
565.17	65.191
565.51	66.667
565.85	65.295
566.19	63.793
566.52	65.416
566.86	65.424
567.20	65.629
567.54	66.606
567.88	67.545
568.21	66.799
568.55	66.630
568.89	66.786
569.23	66.827
569.56	67.513
569.90	68.210
570.24	65.687
570.57	67.345
570.91	67.619
571.25	66.623
571.59	66.521
571.92	66.044
572.26	66.214
572.60	65.984
572.93	65.579
573.27	64.922
573.61	66.050
573.95	66.466
574.28	67.029
574.62	65.828
574.96	65.819
575.29	65.926
575.63	64.887
575.97	65.600
576.30	66.095
576.64	66.093
576.98	66.049
577.31	66.994
577.65	66.766
577.98	67.773
578.32	67.132
578.66	66.065
578.99	66.752
579.33	64.826
579.67	64.875
580.00	65.823
580.34	66.766
580.67	65.653
581.01	66.835
581.35	66.839
581.68	68.195
582.02	67.609
582.35	67.354
582.69	67.744
583.02	66.909
583.36	67.163
583.70	66.563
584.03	67.779
584.37	66.685
584.70	66.868
585.04	66.373
585.37	67.346
585.71	67.465
586.04	66.314
586.38	67.245
586.72	68.723
587.05	67.360
587.39	68.857
587.72	68.234
588.06	67.866
588.39	67.160
588.73	67.735
589.06	68.134
589.40	67.681
589.73	67.068
590.07	68.618
590.40	67.183
590.73	68.781
591.07	67.981
591.40	68.210
591.74	67.602
592.07	68.043
592.41	68.375
592.74	68.658
593.08	67.412
593.41	68.402
593.75	68.499
594.08	67.697
594.41	67.394
594.75	67.824
595.08	68.596
595.42	68.237
595.75	69.395
596.09	68.960
596.42	68.375
596.75	67.584
597.09	68.610
597.42	67.615
597.75	68.575
598.09	66.818
598.42	68.502
598.76	69.069
599.09	68.790
599.42	67.147
599.76	68.021
600.09	68.552
600.42	68.044
600.76	67.459
601.09	68.206
601.42	67.528
601.76	69.234
602.09	67.368
602.42	69.292
602.76	68.591
603.09	69.767
603.42	70.652
603.76	68.387
604.09	68.489
604.42	68.866
604.76	69.693
605.09	68.739
605.42	67.404
605.75	68.520
606.09	69.087
606.42	68.307
606.75	68.961
607.09	68.044
607.42	68.144
607.75	68.828
608.08	67.475
608.42	66.834
608.75	69.205
609.08	70.354
609.41	68.325
609.75	68.448
610.08	69.845
610.41	68.406
610.74	69.283
611.07	70.491
611.41	69.331
611.74	69.350
612.07	68.201
612.40	68.873
612.73	69.379
613.07	69.123
613.40	67.943
613.73	68.663
614.06	67.891
614.39	69.712
614.72	68.403
615.06	69.441
615.39	68.013
615.72	68.030
616.05	68.492
616.38	69.003
616.71	67.890
617.05	68.561
617.38	68.699
617.71	70.063
618.04	69.968
618.37	69.735
618.70	70.363
619.03	69.653
619.36	67.800
619.69	70.053
620.03	69.832
620.36	70.172
620.69	69.522
621.02	67.202
621.35	69.129
621.68	69.813
622.01	68.833
622.34	68.236
622.67	69.716
623.00	68.683
623.33	70.046
623.66	69.484
623.99	68.230
624.32	69.810
624.65	70.000
624.99	70.956
625.32	70.281
625.65	68.028
625.98	69.380
626.31	68.745
626.64	70.884
626.97	68.848
627.30	68.476
627.63	68.371
627.96	70.979
628.29	70.120
628.62	69.027
628.95	68.838
629.28	70.161
629.61	70.389
629.94	70.577
630.26	68.577
630.59	70.968
630.92	69.026
631.25	66.564
631.58	69.604
631.91	70.943
632.24	69.266
632.57	68.977
632.90	67.734
633.23	67.647
633.56	69.899
633.89	69.544
634.22	69.383
