SpectraSuite Data File
++++++++++++++++++++++++++++++++++++
Date: Fri May 15 17:16:01 PDT 2015
User: schluterlab
Dark Spectrum Present: Yes
Reference Spectrum Present: Yes
Number of Sampled Component Spectra: 1
Spectrometers: USB2E3373
Integration Time (usec): 3000 (USB2E3373)
Spectra Averaged: 3 (USB2E3373)
Boxcar Smoothing: 0 (USB2E3373)
Correct for Electrical Dark: No (USB2E3373)
Strobe/Lamp Enabled: No (USB2E3373)
Correct for Detector Non-linearity: No (USB2E3373)
Correct for Stray Light: No (USB2E3373)
Number of Pixels in Processed Spectrum: 2048
>>>>>Begin Processed Spectral Data<<<<<
178.53	0.000
178.91	0.000
179.29	100.000
179.67	200.000
180.04	-42.857
180.42	200.000
180.80	-100.000
181.18	200.000
181.56	100.000
181.94	250.000
182.31	-100.000
182.69	40.000
183.07	-100.000
183.45	40.000
183.83	66.667
184.20	36.364
184.58	33.333
184.96	-150.000
185.34	-200.000
185.72	100.000
186.09	15.385
186.47	-100.000
186.85	116.667
187.23	-0.000
187.61	-500.000
187.98	233.333
188.36	100.000
188.74	33.333
189.12	0.000
189.49	100.000
189.87	0.000
190.25	14.286
190.63	600.000
191.00	-200.000
191.38	36.842
191.76	400.000
192.14	-125.000
192.51	400.000
192.89	0.000
193.27	71.429
193.65	-16.667
194.02	109.091
194.40	30.000
194.78	-37.500
195.15	-66.667
195.53	-87.500
195.91	50.000
196.29	0.000
196.66	-7.692
197.04	100.000
197.42	33.333
197.79	-266.667
198.17	15.385
198.55	-100.000
198.92	233.333
199.30	200.000
199.68	0.000
200.05	-266.667
200.43	0.000
200.81	266.667
201.18	100.000
201.56	-200.000
201.94	50.000
202.31	-166.667
202.69	0.000
203.07	-125.000
203.44	1000.000
203.82	0.000
204.19	85.714
204.57	-166.667
204.95	75.000
205.32	-10.000
205.70	-42.857
206.08	275.000
206.45	122.222
206.83	135.714
207.20	-128.571
207.58	-900.000
207.96	233.333
208.33	-80.000
208.71	150.000
209.08	-66.667
209.46	-200.000
209.84	120.000
210.21	0.000
210.59	242.857
210.96	100.000
211.34	-75.000
211.71	33.333
212.09	42.857
212.46	-900.000
212.84	0.000
213.22	60.000
213.59	200.000
213.97	100.000
214.34	154.545
214.72	-66.667
215.09	-25.000
215.47	92.308
215.84	54.545
216.22	166.667
216.59	162.500
216.97	400.000
217.34	125.000
217.72	200.000
218.09	162.500
218.47	87.500
218.84	0.000
219.22	-77.778
219.59	180.000
219.97	-266.667
220.34	50.000
220.72	71.429
221.09	-225.000
221.47	150.000
221.84	-350.000
222.22	-350.000
222.59	72.727
222.97	125.000
223.34	-133.333
223.72	-7.143
224.09	14.286
224.46	50.000
224.84	-33.333
225.21	90.000
225.59	66.667
225.96	-100.000
226.34	75.000
226.71	-28.571
227.08	16.667
227.46	112.500
227.83	-450.000
228.21	33.333
228.58	27.273
228.95	-25.000
229.33	60.000
229.70	43.750
230.08	37.500
230.45	128.571
230.82	57.143
231.20	20.000
231.57	100.000
231.95	157.143
232.32	50.000
232.69	71.429
233.07	300.000
233.44	0.000
233.81	-20.000
234.19	44.444
234.56	47.059
234.93	300.000
235.31	0.000
235.68	-120.000
236.05	7.692
236.43	-60.000
236.80	41.176
237.17	25.000
237.55	-5.000
237.92	11.111
238.29	30.556
238.67	50.000
239.04	0.000
239.41	-2.439
239.79	-10.000
240.16	34.146
240.53	-7.895
240.91	2.174
241.28	14.286
241.65	32.143
242.02	12.329
242.40	10.000
242.77	18.644
243.14	-1.515
243.51	11.250
243.89	16.092
244.26	1.149
244.63	10.714
245.00	3.093
245.38	7.216
245.75	-13.483
246.12	0.862
246.49	7.438
246.87	6.731
247.24	-3.361
247.61	-6.140
247.98	-0.813
248.36	6.250
248.73	6.579
249.10	1.299
249.47	0.000
249.84	2.614
250.22	7.059
250.59	-2.614
250.96	7.042
251.33	-0.581
251.70	4.706
252.08	11.675
252.45	0.495
252.82	1.005
253.19	3.687
253.56	2.804
253.94	7.207
254.31	2.609
254.68	5.263
255.05	1.575
255.42	3.493
255.79	2.317
256.16	6.226
256.54	5.970
256.91	0.380
257.28	4.089
257.65	0.749
258.02	2.128
258.39	4.377
258.76	6.227
259.14	2.658
259.51	7.443
259.88	-1.718
260.25	1.307
260.62	5.903
260.99	2.034
261.36	0.685
261.73	3.797
262.10	5.167
262.47	1.227
262.85	-1.254
263.22	1.231
263.59	4.673
263.96	4.037
264.33	0.000
264.70	1.190
265.07	2.083
265.44	4.533
265.81	3.390
266.18	3.825
266.55	5.141
266.92	5.699
267.29	0.522
267.66	2.558
268.03	4.974
268.40	1.044
268.77	4.011
269.14	3.597
269.51	4.884
269.88	0.748
270.25	-1.020
270.62	0.244
270.99	-0.256
271.36	1.467
271.73	4.225
272.10	2.433
272.47	2.364
272.84	1.980
273.21	3.712
273.58	3.614
273.95	2.059
274.32	2.771
274.69	0.000
275.06	4.241
275.43	1.814
275.80	2.870
276.17	2.759
276.54	2.784
276.91	3.289
277.28	2.183
277.65	2.686
278.02	2.766
278.39	3.939
278.76	1.677
279.13	1.452
279.50	1.050
279.87	0.864
280.23	1.935
280.60	3.704
280.97	3.030
281.34	1.731
281.71	3.491
282.08	-1.022
282.45	1.566
282.82	3.861
283.19	3.288
283.56	3.661
283.92	0.759
284.29	3.269
284.66	1.550
285.03	1.179
285.40	1.134
285.77	4.218
286.14	2.347
286.51	1.476
286.87	2.559
287.24	2.210
287.61	1.235
287.98	3.860
288.35	2.080
288.72	4.028
289.08	1.736
289.45	4.569
289.82	2.972
290.19	1.706
290.56	1.887
290.93	1.515
291.29	2.003
291.66	2.992
292.03	3.030
292.40	1.935
292.77	1.914
293.13	0.649
293.50	0.910
293.87	3.664
294.24	1.236
294.60	2.385
294.97	2.827
295.34	1.227
295.71	1.043
296.08	1.943
296.44	0.996
296.81	1.528
297.18	2.899
297.55	3.930
297.91	1.096
298.28	4.090
298.65	1.628
299.02	3.100
299.38	-0.137
299.75	0.966
300.12	0.654
300.48	2.503
300.85	2.788
301.22	1.429
301.59	1.053
301.95	3.038
302.32	2.724
302.69	3.109
303.05	2.723
303.42	2.989
303.79	1.752
304.15	3.345
304.52	0.951
304.89	1.988
305.25	1.332
305.62	1.867
305.99	2.105
306.35	0.462
306.72	0.562
307.09	2.509
307.45	1.033
307.82	1.273
308.19	1.974
308.55	0.872
308.92	2.397
309.29	1.788
309.65	2.260
310.02	0.880
310.38	2.086
310.75	2.951
311.12	1.938
311.48	2.439
311.85	3.141
312.22	1.477
312.58	2.654
312.95	1.067
313.31	0.725
313.68	1.571
314.05	1.939
314.41	3.505
314.78	2.371
315.14	3.700
315.51	3.416
315.87	1.947
316.24	4.348
316.61	3.642
316.97	3.671
317.34	3.613
317.70	2.677
318.07	3.750
318.43	4.216
318.80	3.883
319.16	3.906
319.53	5.033
319.89	4.134
320.26	5.263
320.62	5.416
320.99	3.549
321.35	5.242
321.72	7.061
322.08	6.143
322.45	6.497
322.81	7.760
323.18	6.771
323.54	7.432
323.91	6.719
324.27	7.227
324.64	7.772
325.00	9.672
325.37	11.111
325.73	9.066
326.10	10.082
326.46	11.659
326.83	9.799
327.19	12.031
327.56	10.947
327.92	13.116
328.29	12.143
328.65	14.528
329.01	14.430
329.38	13.733
329.74	15.109
330.11	15.570
330.47	15.770
330.84	16.346
331.20	19.297
331.56	17.315
331.93	18.265
332.29	18.882
332.66	18.552
333.02	19.703
333.38	20.257
333.75	21.795
334.11	20.233
334.48	21.668
334.84	22.802
335.20	22.781
335.57	21.759
335.93	22.493
336.29	22.192
336.66	22.071
337.02	22.212
337.38	24.259
337.75	23.727
338.11	25.338
338.47	24.179
338.84	24.584
339.20	25.411
339.56	24.404
339.93	25.515
340.29	23.761
340.65	25.717
341.02	25.621
341.38	25.752
341.74	24.028
342.11	24.350
342.47	23.843
342.83	25.519
343.20	25.000
343.56	25.565
343.92	25.421
344.28	24.680
344.65	25.130
345.01	25.411
345.37	25.315
345.73	25.941
346.10	25.971
346.46	24.979
346.82	24.141
347.19	25.104
347.55	25.564
347.91	23.706
348.27	24.576
348.63	24.957
349.00	24.938
349.36	24.439
349.72	25.373
350.08	24.508
350.45	24.900
350.81	24.086
351.17	23.697
351.53	25.061
351.89	24.773
352.26	25.600
352.62	25.645
352.98	24.980
353.34	24.718
353.70	25.081
354.07	25.403
354.43	25.460
354.79	24.112
355.15	25.794
355.51	25.949
355.87	25.162
356.24	24.470
356.60	25.546
356.96	26.984
357.32	25.319
357.68	26.349
358.04	26.171
358.40	25.402
358.77	25.678
359.13	25.300
359.49	23.575
359.85	24.961
360.21	24.641
360.57	24.637
360.93	25.416
361.29	24.622
361.66	24.765
362.02	25.833
362.38	25.133
362.74	25.587
363.10	25.884
363.46	25.204
363.82	25.394
364.18	25.830
364.54	25.441
364.90	25.161
365.26	25.691
365.62	26.715
365.98	25.806
366.35	27.167
366.71	25.795
367.07	26.197
367.43	25.162
367.79	25.936
368.15	24.767
368.51	25.929
368.87	24.982
369.23	25.993
369.59	25.802
369.95	25.733
370.31	26.228
370.67	25.672
371.03	24.944
371.39	26.623
371.75	27.253
372.11	26.106
372.47	25.740
372.83	26.473
373.19	25.678
373.55	26.065
373.91	27.070
374.27	26.152
374.63	26.920
374.99	26.879
375.35	25.905
375.71	28.112
376.07	27.037
376.42	27.755
376.78	27.114
377.14	26.337
377.50	26.892
377.86	26.908
378.22	26.611
378.58	26.410
378.94	26.843
379.30	26.887
379.66	28.025
380.02	27.284
380.38	27.024
380.74	27.409
381.09	27.239
381.45	27.768
381.81	28.192
382.17	28.236
382.53	27.545
382.89	28.311
383.25	28.874
383.61	28.659
383.97	27.238
384.32	28.143
384.68	28.050
385.04	27.574
385.40	28.189
385.76	28.994
386.12	28.719
386.48	29.566
386.83	28.282
387.19	29.060
387.55	30.050
387.91	28.606
388.27	28.632
388.62	28.886
388.98	28.300
389.34	29.482
389.70	29.708
390.06	28.446
390.42	28.756
390.77	29.300
391.13	28.373
391.49	28.784
391.85	29.175
392.20	29.127
392.56	28.226
392.92	29.184
393.28	28.892
393.64	28.348
393.99	29.592
394.35	28.969
394.71	29.949
395.07	28.661
395.42	28.415
395.78	29.577
396.14	29.319
396.50	29.486
396.85	29.234
397.21	28.321
397.57	28.715
397.92	29.059
398.28	29.195
398.64	28.976
399.00	29.910
399.35	27.540
399.71	28.489
400.07	28.779
400.42	28.213
400.78	29.210
401.14	29.038
401.49	29.244
401.85	29.311
402.21	28.675
402.57	29.250
402.92	28.733
403.28	29.073
403.63	28.499
403.99	28.635
404.35	29.669
404.70	28.155
405.06	27.615
405.42	28.651
405.77	27.600
406.13	28.754
406.49	28.182
406.84	28.667
407.20	28.718
407.55	28.203
407.91	28.275
408.27	27.852
408.62	27.692
408.98	28.281
409.34	29.120
409.69	27.842
410.05	28.510
410.40	28.272
410.76	29.011
411.11	28.937
411.47	29.257
411.83	27.495
412.18	29.151
412.54	28.215
412.89	28.264
413.25	27.978
413.60	28.447
413.96	28.405
414.31	28.049
414.67	28.672
415.03	27.164
415.38	27.611
415.74	29.121
416.09	28.413
416.45	28.157
416.80	28.817
417.16	29.765
417.51	28.914
417.87	28.031
418.22	29.469
418.58	28.829
418.93	29.906
419.29	28.169
419.64	29.682
420.00	29.849
420.35	28.418
420.71	29.951
421.06	29.650
421.42	29.808
421.77	29.075
422.12	29.171
422.48	29.182
422.83	29.350
423.19	29.458
423.54	28.689
423.90	29.270
424.25	30.482
424.61	30.906
424.96	30.081
425.31	31.196
425.67	31.279
426.02	31.567
426.38	30.683
426.73	32.264
427.09	32.278
427.44	31.000
427.79	31.173
428.15	32.039
428.50	31.133
428.85	31.634
429.21	32.032
429.56	32.183
429.92	31.330
430.27	31.830
430.62	31.208
430.98	32.166
431.33	32.597
431.68	31.763
432.04	32.588
432.39	31.432
432.74	32.411
433.10	34.023
433.45	33.692
433.80	33.256
434.16	32.632
434.51	33.280
434.86	33.391
435.22	33.202
435.57	34.186
435.92	32.575
436.28	33.154
436.63	32.687
436.98	33.662
437.34	33.394
437.69	34.466
438.04	34.302
438.39	34.209
438.75	35.701
439.10	35.201
439.45	35.058
439.81	35.291
440.16	36.105
440.51	36.239
440.86	36.677
441.22	35.520
441.57	36.755
441.92	36.097
442.27	36.475
442.63	36.456
442.98	36.646
443.33	36.060
443.68	36.499
444.03	36.562
444.39	35.170
444.74	36.845
445.09	36.748
445.44	36.467
445.79	38.164
446.15	36.399
446.50	35.829
446.85	37.726
447.20	36.392
447.55	36.942
447.91	37.563
448.26	37.621
448.61	37.306
448.96	37.866
449.31	38.092
449.66	38.560
450.02	38.391
450.37	39.360
450.72	38.202
451.07	39.430
451.42	38.889
451.77	38.517
452.12	38.158
452.47	37.411
452.83	38.339
453.18	39.089
453.53	40.582
453.88	40.437
454.23	39.213
454.58	40.491
454.93	40.077
455.28	39.873
455.63	39.616
455.98	40.649
456.34	39.527
456.69	39.708
457.04	41.210
457.39	40.887
457.74	40.629
458.09	39.082
458.44	40.023
458.79	39.944
459.14	40.904
459.49	41.433
459.84	40.722
460.19	40.716
460.54	41.076
460.89	40.795
461.24	41.491
461.59	41.686
461.94	41.761
462.29	42.220
462.64	42.791
462.99	42.316
463.34	42.142
463.69	41.828
464.04	42.554
464.39	41.844
464.74	42.086
465.09	42.545
465.44	42.297
465.79	41.667
466.14	41.790
466.49	41.518
466.84	43.070
467.19	41.865
467.54	41.252
467.89	42.198
468.24	43.491
468.59	43.810
468.94	42.730
469.29	44.197
469.64	44.361
469.99	44.639
470.34	43.413
470.68	44.444
471.03	45.577
471.38	44.650
471.73	45.658
472.08	43.826
472.43	45.570
472.78	44.277
473.13	44.966
473.48	44.365
473.83	44.583
474.17	45.402
474.52	45.054
474.87	45.394
475.22	45.577
475.57	44.438
475.92	44.707
476.27	44.587
476.61	45.949
476.96	43.726
477.31	46.079
477.66	45.449
478.01	45.536
478.36	45.370
478.70	46.982
479.05	45.440
479.40	47.165
479.75	45.985
480.10	44.598
480.45	46.100
480.79	46.022
481.14	47.182
481.49	45.123
481.84	46.911
482.19	45.510
482.53	47.146
482.88	46.444
483.23	46.257
483.58	46.651
483.92	46.176
484.27	45.305
484.62	46.437
484.97	45.813
485.31	45.340
485.66	44.438
486.01	45.335
486.36	44.750
486.70	44.541
487.05	45.678
487.40	45.217
487.75	46.000
488.09	45.828
488.44	47.283
488.79	48.188
489.13	48.197
489.48	47.969
489.83	48.610
490.17	48.045
490.52	47.483
490.87	48.913
491.22	48.567
491.56	47.770
491.91	48.327
492.26	49.052
492.60	48.512
492.95	49.729
493.30	49.047
493.64	49.214
493.99	48.792
494.34	49.223
494.68	48.667
495.03	48.662
495.37	49.215
495.72	50.177
496.07	50.439
496.41	49.245
496.76	50.299
497.11	48.486
497.45	50.072
497.80	50.757
498.14	49.429
498.49	50.889
498.84	50.000
499.18	50.452
499.53	51.240
499.87	49.368
500.22	50.346
500.56	50.681
500.91	50.803
501.26	50.371
501.60	51.205
501.95	50.704
502.29	50.993
502.64	51.786
502.98	51.505
503.33	50.336
503.67	50.072
504.02	51.026
504.36	51.311
504.71	50.909
505.06	50.981
505.40	51.371
505.75	52.990
506.09	51.749
506.44	53.388
506.78	52.347
507.13	52.120
507.47	51.070
507.82	52.030
508.16	53.038
508.51	53.778
508.85	53.375
509.19	53.379
509.54	53.083
509.88	53.074
510.23	52.985
510.57	53.982
510.92	52.452
511.26	53.028
511.61	54.125
511.95	53.918
512.30	54.102
512.64	54.535
512.98	54.688
513.33	53.609
513.67	55.088
514.02	55.149
514.36	55.371
514.70	56.352
515.05	54.935
515.39	56.257
515.74	56.108
516.08	56.007
516.42	56.537
516.77	55.530
517.11	57.033
517.46	56.074
517.80	56.555
518.14	57.257
518.49	55.349
518.83	56.683
519.17	55.913
519.52	56.424
519.86	56.363
520.20	58.019
520.55	57.036
520.89	57.842
521.23	58.201
521.58	57.855
521.92	58.141
522.26	58.621
522.61	57.922
522.95	59.139
523.29	57.179
523.64	58.323
523.98	58.652
524.32	57.796
524.66	59.155
525.01	58.377
525.35	59.430
525.69	58.316
526.04	58.532
526.38	59.209
526.72	57.031
527.06	58.301
527.41	60.950
527.75	58.378
528.09	57.874
528.43	61.445
528.78	58.812
529.12	59.290
529.46	59.324
529.80	57.315
530.15	60.594
530.49	59.461
530.83	62.038
531.17	59.503
531.51	61.423
531.86	59.143
532.20	60.334
532.54	58.407
532.88	60.096
533.22	60.887
533.57	58.585
533.91	60.183
534.25	60.612
534.59	58.691
534.93	57.709
535.27	58.566
535.62	59.430
535.96	59.035
536.30	59.697
536.64	61.544
536.98	60.418
537.32	61.522
537.66	61.010
538.01	60.909
538.35	59.362
538.69	59.055
539.03	59.809
539.37	60.767
539.71	60.600
540.05	60.760
540.39	60.942
540.73	60.879
541.07	61.188
541.42	59.677
541.76	60.358
542.10	60.083
542.44	60.320
542.78	59.394
543.12	59.615
543.46	61.196
543.80	61.693
544.14	59.813
544.48	60.693
544.82	61.791
545.16	62.158
545.50	60.147
545.84	61.473
546.18	61.348
546.52	61.139
546.86	60.532
547.20	61.087
547.54	61.272
547.88	61.685
548.22	60.618
548.56	60.488
548.90	61.456
549.24	60.124
549.58	60.719
549.92	60.615
550.26	62.125
550.60	63.346
550.94	62.733
551.28	62.133
551.62	62.615
551.96	62.707
552.30	62.939
552.64	61.142
552.98	62.588
553.32	62.126
553.66	61.901
554.00	62.190
554.34	62.555
554.68	62.537
555.02	63.244
555.36	63.126
555.69	61.392
556.03	61.599
556.37	62.633
556.71	62.527
557.05	63.087
557.39	62.602
557.73	62.594
558.07	63.047
558.41	64.701
558.75	64.692
559.08	63.593
559.42	64.603
559.76	64.452
560.10	65.902
560.44	63.440
560.78	63.846
561.12	63.822
561.45	65.074
561.79	61.134
562.13	63.378
562.47	63.669
562.81	63.473
563.15	62.623
563.48	63.154
563.82	63.898
564.16	63.788
564.50	62.703
564.84	62.048
565.17	63.112
565.51	64.276
565.85	64.060
566.19	62.334
566.52	64.410
566.86	63.496
567.20	60.834
567.54	61.922
567.88	64.030
568.21	62.274
568.55	62.174
568.89	60.678
569.23	60.713
569.56	60.289
569.90	60.049
570.24	58.467
570.57	59.782
570.91	60.160
571.25	57.514
571.59	57.334
571.92	56.267
572.26	56.310
572.60	57.395
572.93	57.327
573.27	56.897
573.61	56.653
573.95	57.346
574.28	57.071
574.62	56.242
574.96	56.195
575.29	55.755
575.63	55.766
575.97	55.815
576.30	56.902
576.64	56.079
576.98	57.014
577.31	57.311
577.65	56.583
577.98	56.488
578.32	55.746
578.66	55.642
578.99	55.849
579.33	55.983
579.67	55.917
580.00	56.380
580.34	56.841
580.67	56.528
581.01	56.916
581.35	56.137
581.68	55.835
582.02	55.808
582.35	55.339
582.69	55.727
583.02	56.291
583.36	56.920
583.70	57.503
584.03	59.077
584.37	58.865
584.70	57.500
585.04	56.244
585.37	56.953
585.71	56.801
586.04	57.186
586.38	57.189
586.72	58.651
587.05	59.157
587.39	58.010
587.72	59.158
588.06	57.902
588.39	57.761
588.73	58.364
589.06	59.491
589.40	59.108
589.73	60.204
590.07	59.932
590.40	60.642
590.73	61.038
591.07	60.941
591.40	61.754
591.74	61.719
592.07	62.106
592.41	61.263
592.74	59.538
593.08	58.295
593.41	59.769
593.75	58.423
594.08	58.599
594.41	59.461
594.75	59.771
595.08	60.348
595.42	60.508
595.75	61.547
596.09	60.868
596.42	61.596
596.75	61.456
597.09	62.232
597.42	62.376
597.75	62.941
598.09	61.249
598.42	60.785
598.76	60.875
599.09	60.617
599.42	58.090
599.76	59.481
600.09	59.238
600.42	59.098
600.76	59.101
601.09	59.809
601.42	59.381
601.76	60.699
602.09	60.726
602.42	61.837
602.76	61.036
603.09	61.462
603.42	62.375
603.76	60.685
604.09	60.834
604.42	61.760
604.76	62.750
605.09	61.380
605.42	61.716
605.75	60.946
606.09	60.977
606.42	60.676
606.75	61.126
607.09	61.143
607.42	61.320
607.75	61.146
608.08	60.377
608.42	60.530
608.75	61.783
609.08	62.830
609.41	62.792
609.75	62.500
610.08	63.904
610.41	62.174
610.74	62.116
611.07	62.274
611.41	63.985
611.74	64.552
612.07	62.473
612.40	62.418
612.73	64.124
613.07	62.655
613.40	63.512
613.73	63.626
614.06	63.383
614.39	64.241
614.72	63.529
615.06	63.352
615.39	62.664
615.72	61.948
616.05	63.296
616.38	62.336
616.71	64.220
617.05	65.040
617.38	63.419
617.71	64.277
618.04	65.714
618.37	65.700
618.70	65.347
619.03	66.389
619.36	66.281
619.69	67.854
620.03	68.809
620.36	66.452
620.69	67.595
621.02	68.425
621.35	70.207
621.68	69.643
622.01	69.417
622.34	67.917
622.67	67.350
623.00	67.458
623.33	66.616
623.66	66.791
623.99	68.003
624.32	68.441
624.65	66.842
624.99	69.225
625.32	66.566
625.65	70.621
625.98	69.702
626.31	68.329
626.64	70.017
626.97	69.284
627.30	71.629
627.63	70.191
627.96	71.069
628.29	70.028
628.62	71.190
628.95	71.142
629.28	72.077
629.61	72.183
629.94	73.314
630.26	71.344
630.59	72.633
630.92	70.872
631.25	70.051
631.58	74.780
631.91	72.588
632.24	76.606
632.57	74.432
632.90	75.089
633.23	72.588
633.56	76.952
633.89	76.695
634.22	76.914
634.55	75.095
634.88	77.011
635.20	76.538
635.53	76.800
635.86	74.772
636.19	75.550
636.52	74.235
636.85	74.442
637.18	72.704
637.51	74.088
637.83	75.690
638.16	76.944
638.49	75.886
638.82	75.132
