SpectraSuite Data File
++++++++++++++++++++++++++++++++++++
Date: Fri May 15 17:28:14 PDT 2015
User: schluterlab
Dark Spectrum Present: Yes
Reference Spectrum Present: Yes
Number of Sampled Component Spectra: 1
Spectrometers: USB2E3373
Integration Time (usec): 3000 (USB2E3373)
Spectra Averaged: 3 (USB2E3373)
Boxcar Smoothing: 0 (USB2E3373)
Correct for Electrical Dark: No (USB2E3373)
Strobe/Lamp Enabled: No (USB2E3373)
Correct for Detector Non-linearity: No (USB2E3373)
Correct for Stray Light: No (USB2E3373)
Number of Pixels in Processed Spectrum: 2048
>>>>>Begin Processed Spectral Data<<<<<
178.53	0.000
178.91	0.000
179.29	37.500
179.67	-500.000
180.04	-85.714
180.42	350.000
180.80	-200.000
181.18	133.333
181.56	450.000
181.94	-300.000
182.31	-100.000
182.69	-120.000
183.07	-66.667
183.45	-180.000
183.83	83.333
184.20	9.091
184.58	44.444
184.96	-75.000
185.34	-100.000
185.72	0.000
186.09	23.077
186.47	-200.000
186.85	-0.000
187.23	-11.111
187.61	-1100.000
187.98	-233.333
188.36	22.222
188.74	-166.667
189.12	5.882
189.49	83.333
189.87	0.000
190.25	92.857
190.63	50.000
191.00	33.333
191.38	52.632
191.76	100.000
192.14	50.000
192.51	250.000
192.89	44.444
193.27	-71.429
193.65	166.667
194.02	118.182
194.40	110.000
194.78	-125.000
195.15	-41.667
195.53	-50.000
195.91	350.000
196.29	-100.000
196.66	76.923
197.04	85.714
197.42	0.000
197.79	-233.333
198.17	-107.692
198.55	1500.000
198.92	-133.333
199.30	-100.000
199.68	-160.000
200.05	-200.000
200.43	0.000
200.81	-133.333
201.18	-333.333
201.56	300.000
201.94	-100.000
202.31	-33.333
202.69	-20.000
203.07	225.000
203.44	200.000
203.82	0.000
204.19	92.857
204.57	-333.333
204.95	87.500
205.32	10.000
205.70	57.143
206.08	-50.000
206.45	155.556
206.83	64.286
207.20	57.143
207.58	-500.000
207.96	-133.333
208.33	-140.000
208.71	-175.000
209.08	-150.000
209.46	-400.000
209.84	20.000
210.21	-100.000
210.59	100.000
210.96	-16.667
211.34	75.000
211.71	93.333
212.09	-85.714
212.46	-800.000
212.84	0.000
213.22	70.000
213.59	-0.000
213.97	15.385
214.34	72.727
214.72	100.000
215.09	300.000
215.47	100.000
215.84	27.273
216.22	-33.333
216.59	62.500
216.97	250.000
217.34	225.000
217.72	-160.000
218.09	200.000
218.47	62.500
218.84	300.000
219.22	-33.333
219.59	300.000
219.97	433.333
220.34	-25.000
220.72	157.143
221.09	-50.000
221.47	250.000
221.84	-650.000
222.22	-350.000
222.59	109.091
222.97	58.333
223.34	-66.667
223.72	-28.571
224.09	-19.048
224.46	32.143
224.84	-133.333
225.21	50.000
225.59	140.000
225.96	-500.000
226.34	450.000
226.71	114.286
227.08	-100.000
227.46	62.500
227.83	-550.000
228.21	0.000
228.58	81.818
228.95	25.000
229.33	50.000
229.70	25.000
230.08	37.500
230.45	-57.143
230.82	85.714
231.20	0.000
231.57	128.571
231.95	114.286
232.32	-30.000
232.69	100.000
233.07	0.000
233.44	0.000
233.81	-20.000
234.19	11.111
234.56	64.706
234.93	-50.000
235.31	100.000
235.68	-60.000
236.05	23.077
236.43	5.000
236.80	58.824
237.17	50.000
237.55	30.000
237.92	3.704
238.29	27.778
238.67	90.000
239.04	41.176
239.41	2.439
239.79	46.667
240.16	60.976
240.53	60.526
240.91	39.130
241.28	57.143
241.65	66.071
242.02	41.096
242.40	38.333
242.77	52.542
243.14	39.394
243.51	42.500
243.89	54.023
244.26	44.828
244.63	44.048
245.00	57.732
245.38	53.608
245.75	50.562
246.12	41.379
246.49	51.240
246.87	64.423
247.24	37.815
247.61	44.737
247.98	50.407
248.36	46.250
248.73	47.368
249.10	42.857
249.47	45.570
249.84	49.020
250.22	55.294
250.59	58.170
250.96	47.418
251.33	47.674
251.70	58.824
252.08	42.640
252.45	50.495
252.82	44.221
253.19	49.309
253.56	44.860
253.94	45.495
254.31	47.391
254.68	46.930
255.05	44.882
255.42	46.725
255.79	45.560
256.16	44.747
256.54	46.269
256.91	44.106
257.28	40.520
257.65	50.936
258.02	43.617
258.39	45.455
258.76	51.648
259.14	50.831
259.51	46.602
259.88	49.485
260.25	46.405
260.62	47.917
260.99	52.542
261.36	42.123
261.73	46.519
262.10	48.024
262.47	46.933
262.85	44.828
263.22	47.077
263.59	51.090
263.96	50.311
264.33	45.758
264.70	49.702
265.07	48.214
265.44	49.575
265.81	44.350
266.18	47.814
266.55	47.044
266.92	45.855
267.29	47.520
267.66	44.501
268.03	47.906
268.40	45.431
268.77	50.535
269.14	47.722
269.51	44.987
269.88	45.885
270.25	45.918
270.62	44.146
270.99	47.059
271.36	41.076
271.73	48.592
272.10	47.202
272.47	47.991
272.84	45.050
273.21	45.940
273.58	48.916
273.95	43.478
274.32	45.958
274.69	40.045
275.06	47.545
275.43	44.671
275.80	45.254
276.17	45.287
276.54	42.184
276.91	47.368
277.28	44.760
277.65	42.975
278.02	42.128
278.39	43.982
278.76	42.977
279.13	39.212
279.50	47.479
279.87	42.549
280.23	39.355
280.60	43.470
280.97	46.465
281.34	42.308
281.71	42.505
282.08	44.581
282.45	41.683
282.82	43.243
283.19	44.101
283.56	42.197
283.92	42.505
284.29	42.692
284.66	43.798
285.03	40.275
285.40	41.966
285.77	38.313
286.14	40.794
286.51	45.387
286.87	38.940
287.24	41.621
287.61	37.213
287.98	42.105
288.35	38.648
288.72	41.506
289.08	38.368
289.45	41.301
289.82	40.210
290.19	40.273
290.56	38.079
290.93	39.226
291.29	36.980
291.66	36.693
292.03	35.247
292.40	37.742
292.77	34.769
293.13	35.227
293.50	33.536
293.87	33.435
294.24	35.240
294.60	36.811
294.97	31.994
295.34	31.748
295.71	33.979
296.08	34.380
296.44	33.855
296.81	33.611
297.18	34.348
297.55	35.230
297.91	32.192
298.28	32.850
298.65	32.700
299.02	31.132
299.38	31.327
299.75	31.310
300.12	31.152
300.48	30.040
300.85	31.305
301.22	30.519
301.59	31.579
301.95	30.886
302.32	33.333
302.69	31.965
303.05	29.950
303.42	31.133
303.79	29.089
304.15	30.108
304.52	27.943
304.89	28.889
305.25	30.872
305.62	27.538
305.99	28.772
306.35	29.017
306.72	27.559
307.09	28.962
307.45	29.047
307.82	29.051
308.19	30.662
308.55	27.917
308.92	29.303
309.29	28.603
309.65	28.095
310.02	28.823
310.38	29.089
310.75	29.290
311.12	29.386
311.48	27.466
311.85	27.958
312.22	29.219
312.58	28.025
312.95	28.068
313.31	28.054
313.68	28.063
314.05	27.347
314.41	26.392
314.78	27.423
315.14	29.496
315.51	29.296
315.87	28.484
316.24	29.323
316.61	28.937
316.97	29.464
317.34	28.027
317.70	28.585
318.07	29.423
318.43	30.000
318.80	28.409
319.16	29.590
319.53	29.345
319.89	29.528
320.26	28.947
320.62	30.893
320.99	29.958
321.35	29.599
321.72	29.803
322.08	29.104
322.45	29.543
322.81	28.880
323.18	30.029
323.54	29.440
323.91	30.088
324.27	31.152
324.64	31.180
325.00	31.204
325.37	31.956
325.73	30.553
326.10	31.971
326.46	31.300
326.83	30.796
327.19	32.258
327.56	31.885
327.92	32.130
328.29	31.161
328.65	32.358
329.01	31.250
329.38	31.982
329.74	31.822
330.11	31.140
330.47	31.169
330.84	31.346
331.20	32.510
331.56	31.296
331.93	31.781
332.29	32.997
332.66	31.041
333.02	31.227
333.38	32.081
333.75	31.136
334.11	30.081
334.48	32.276
334.84	30.952
335.20	31.290
335.57	30.825
335.93	31.707
336.29	32.689
336.66	31.244
337.02	32.435
337.38	30.648
337.75	31.000
338.11	31.289
338.47	31.934
338.84	31.146
339.20	30.347
339.56	31.560
339.93	31.782
340.29	31.284
340.65	31.093
341.02	32.181
341.38	30.354
341.74	30.389
342.11	29.376
342.47	32.028
342.83	31.315
343.20	31.098
343.56	31.478
343.92	31.355
344.28	31.426
344.65	29.793
345.01	31.547
345.37	30.530
345.73	30.962
346.10	32.097
346.46	30.614
346.82	29.624
347.19	30.756
347.55	31.245
347.91	31.472
348.27	28.941
348.63	31.601
349.00	29.861
349.36	31.255
349.72	30.929
350.08	30.164
350.45	31.684
350.81	30.066
351.17	29.235
351.53	31.592
351.89	30.553
352.26	30.560
352.62	30.403
352.98	30.763
353.34	30.596
353.70	31.311
354.07	31.290
354.43	30.504
354.79	30.966
355.15	30.714
355.51	31.092
355.87	30.502
356.24	29.935
356.60	30.315
356.96	29.921
357.32	30.192
357.68	30.414
358.04	30.695
358.40	30.868
358.77	31.659
359.13	30.665
359.49	30.971
359.85	29.641
360.21	30.303
360.57	29.686
360.93	31.543
361.29	31.193
361.66	31.113
362.02	31.364
362.38	31.074
362.74	31.718
363.10	31.452
363.46	30.319
363.82	32.156
364.18	30.037
364.54	30.735
364.90	31.756
365.26	31.077
365.62	33.212
365.98	31.672
366.35	33.212
366.71	31.855
367.07	32.075
367.43	31.776
367.79	31.661
368.15	32.017
368.51	31.901
368.87	31.730
369.23	31.625
369.59	31.268
369.95	33.284
370.31	32.587
370.67	33.134
371.03	32.188
371.39	32.093
371.75	32.308
372.11	31.598
372.47	32.692
372.83	33.357
373.19	32.454
373.55	32.058
373.91	33.765
374.27	33.168
374.63	32.304
374.99	34.326
375.35	32.521
375.71	33.497
376.07	33.708
376.42	34.082
376.78	34.295
377.14	32.905
377.50	34.130
377.86	34.940
378.22	33.886
378.58	34.295
378.94	33.711
379.30	33.375
379.66	34.734
380.02	35.316
380.38	35.545
380.74	34.470
381.09	34.356
381.45	35.902
381.81	34.547
382.17	35.025
382.53	35.228
382.89	35.154
383.25	36.154
383.61	35.854
383.97	35.556
384.32	35.710
384.68	36.780
385.04	36.152
385.40	36.652
385.76	37.610
386.12	36.934
386.48	37.229
386.83	35.954
387.19	37.729
387.55	38.269
387.91	37.775
388.27	36.569
388.62	37.823
388.98	37.876
389.34	38.039
389.70	38.347
390.06	37.634
390.42	38.018
390.77	39.111
391.13	37.768
391.49	37.646
391.85	37.752
392.20	37.288
392.56	39.288
392.92	39.577
393.28	38.679
393.64	38.258
393.99	39.373
394.35	39.848
394.71	40.166
395.07	39.158
395.42	39.284
395.78	39.739
396.14	39.092
396.50	39.379
396.85	40.953
397.21	39.223
397.57	40.439
397.92	41.402
398.28	41.494
398.64	39.940
399.00	40.124
399.35	39.898
399.71	40.781
400.07	40.810
400.42	39.718
400.78	41.090
401.14	41.016
401.49	40.977
401.85	39.915
402.21	42.169
402.57	41.625
402.92	40.025
403.28	42.857
403.63	42.119
403.99	41.901
404.35	41.724
404.70	40.774
405.06	41.011
405.42	40.771
405.77	41.023
406.13	41.269
406.49	41.504
406.84	42.115
407.20	42.023
407.55	40.373
407.91	41.310
408.27	41.746
408.62	42.031
408.98	42.699
409.34	42.441
409.69	40.052
410.05	42.611
410.40	41.296
410.76	43.305
411.11	42.125
411.47	43.655
411.83	42.687
412.18	43.436
412.54	42.884
412.89	43.165
413.25	43.742
413.60	42.174
413.96	42.822
414.31	42.622
414.67	41.950
415.03	43.009
415.38	41.775
415.74	43.583
416.09	44.089
416.45	44.632
416.80	43.490
417.16	44.268
417.51	43.571
417.87	42.764
418.22	43.782
418.58	43.880
418.93	44.514
419.29	42.638
419.64	43.357
420.00	45.718
420.35	43.284
420.71	44.289
421.06	44.629
421.42	44.892
421.77	45.723
422.12	44.892
422.48	44.450
422.83	45.012
423.19	44.526
423.54	44.856
423.90	45.053
424.25	45.522
424.61	45.104
424.96	45.703
425.31	45.812
425.67	45.892
426.02	46.172
426.38	46.775
426.73	46.429
427.09	47.342
427.44	46.882
427.79	46.317
428.15	46.359
428.50	46.093
428.85	46.622
429.21	47.425
429.56	47.763
429.92	47.304
430.27	46.717
430.62	47.935
430.98	47.558
431.33	46.530
431.68	46.834
432.04	47.177
432.39	47.347
432.74	46.963
433.10	48.563
433.45	47.670
433.80	47.998
434.16	49.584
434.51	49.570
434.86	48.316
435.22	48.345
435.57	48.784
435.92	50.120
436.28	47.287
436.63	49.002
436.98	48.783
437.34	47.913
437.69	48.599
438.04	49.402
438.39	49.053
438.75	50.273
439.10	49.066
439.45	49.848
439.81	49.480
440.16	49.941
440.51	49.134
440.86	51.118
441.22	49.378
441.57	50.331
441.92	50.682
442.27	50.388
442.63	50.428
442.98	51.292
443.33	49.360
443.68	49.390
444.03	50.224
444.39	51.205
444.74	50.725
445.09	50.668
445.44	50.826
445.79	50.593
446.15	49.945
446.50	49.529
446.85	50.266
447.20	50.886
447.55	50.781
447.91	50.818
448.26	51.110
448.61	51.007
448.96	50.660
449.31	50.809
449.66	50.407
450.02	51.169
450.37	49.674
450.72	50.000
451.07	51.456
451.42	51.248
451.77	51.236
452.12	50.658
452.47	50.805
452.83	51.001
453.18	51.739
453.53	49.810
453.88	51.002
454.23	50.584
454.58	51.952
454.93	50.580
455.28	49.397
455.63	50.651
455.98	51.413
456.34	50.766
456.69	50.826
457.04	51.166
457.39	50.365
457.74	50.484
458.09	48.676
458.44	51.024
458.79	50.476
459.14	50.286
459.49	52.179
459.84	51.382
460.19	49.818
460.54	52.384
460.89	51.534
461.24	52.112
461.59	50.356
461.94	49.245
462.29	52.413
462.64	50.698
462.99	49.898
463.34	51.043
463.69	50.515
464.04	51.332
464.39	51.425
464.74	50.859
465.09	50.967
465.44	50.894
465.79	50.907
466.14	52.794
466.49	50.604
466.84	50.922
467.19	50.626
467.54	50.447
467.89	50.095
468.24	50.061
468.59	51.238
468.94	50.095
469.29	50.164
469.64	51.401
469.99	51.086
470.34	49.693
470.68	53.095
471.03	51.238
471.38	49.929
471.73	50.840
472.08	50.000
472.43	50.537
472.78	49.623
473.13	50.272
473.48	51.336
473.83	48.941
474.17	50.972
474.52	50.415
474.87	51.333
475.22	50.824
475.57	50.367
475.92	52.057
476.27	50.524
476.61	51.620
476.96	50.251
477.31	50.730
477.66	49.719
478.01	50.590
478.36	50.436
478.70	51.876
479.05	50.549
479.40	50.662
479.75	50.209
480.10	50.589
480.45	50.550
480.79	51.460
481.14	51.230
481.49	50.837
481.84	50.290
482.19	50.561
482.53	50.887
482.88	49.690
483.23	49.712
483.58	50.283
483.92	50.581
484.27	50.137
484.62	49.126
484.97	49.420
485.31	50.181
485.66	51.800
486.01	53.054
486.36	52.696
486.70	52.180
487.05	51.441
487.40	50.905
487.75	50.873
488.09	50.031
488.44	48.900
488.79	48.973
489.13	49.920
489.48	49.850
489.83	49.686
490.17	49.528
490.52	49.053
490.87	48.357
491.22	50.143
491.56	48.861
491.91	48.614
492.26	49.344
492.60	49.904
492.95	50.221
493.30	49.438
493.64	50.098
493.99	49.903
494.34	50.243
494.68	49.952
495.03	48.564
495.37	49.902
495.72	49.621
496.07	49.659
496.41	49.717
496.76	50.161
497.11	49.697
497.45	50.119
497.80	49.899
498.14	48.982
498.49	49.010
498.84	49.351
499.18	49.649
499.53	49.901
499.87	49.027
500.22	49.852
500.56	50.378
500.91	49.147
501.26	48.591
501.60	49.533
501.95	48.957
502.29	49.201
502.64	50.290
502.98	50.469
503.33	48.367
503.67	49.301
504.02	49.462
504.36	50.124
504.71	49.949
505.06	49.069
505.40	48.985
505.75	49.639
506.09	49.316
506.44	50.205
506.78	50.153
507.13	49.638
507.47	49.086
507.82	49.786
508.16	49.181
508.51	50.472
508.85	50.131
509.19	49.494
509.54	49.705
509.88	48.382
510.23	51.157
510.57	49.546
510.92	49.200
511.26	50.191
511.61	48.625
511.95	49.370
512.30	49.390
512.64	48.859
512.98	49.354
513.33	49.636
513.67	48.209
514.02	51.201
514.36	50.514
514.70	49.534
515.05	49.882
515.39	49.646
515.74	49.641
516.08	50.329
516.42	50.942
516.77	50.790
517.11	50.148
517.46	49.671
517.80	50.119
518.14	50.031
518.49	47.476
518.83	49.514
519.17	48.090
519.52	49.023
519.86	48.379
520.20	49.514
520.55	48.780
520.89	49.561
521.23	48.892
521.58	49.590
521.92	48.974
522.26	47.951
522.61	48.442
522.95	51.258
523.29	50.127
523.64	48.793
523.98	51.264
524.32	48.969
524.66	49.616
525.01	50.000
525.35	49.255
525.69	50.505
526.04	48.876
526.38	50.065
526.72	48.659
527.06	48.314
527.41	48.813
527.75	48.458
528.09	49.302
528.43	51.519
528.78	49.637
529.12	50.129
529.46	49.448
529.80	49.778
530.15	50.099
530.49	50.034
530.83	51.026
531.17	50.034
531.51	49.316
531.86	50.034
532.20	49.339
532.54	50.374
532.88	51.061
533.22	49.798
533.57	50.852
533.91	50.065
534.25	50.195
534.59	50.738
534.93	49.969
535.27	49.619
535.62	49.190
535.96	49.772
536.30	50.858
536.64	50.793
536.98	50.314
537.32	50.569
537.66	50.631
538.01	49.371
538.35	50.139
538.69	50.666
539.03	49.282
539.37	50.808
539.71	50.716
540.05	50.509
540.39	50.762
540.73	50.070
541.07	50.069
541.42	50.000
541.76	50.723
542.10	51.480
542.44	50.521
542.78	48.658
543.12	50.412
543.46	51.321
543.80	50.104
544.14	48.131
544.48	50.100
544.82	50.581
545.16	50.615
545.50	50.267
545.84	52.054
546.18	50.780
546.52	51.118
546.86	49.389
547.20	50.858
547.54	48.763
547.88	50.340
548.22	51.216
548.56	50.198
548.90	51.011
549.24	49.449
549.58	50.353
549.92	49.392
550.26	50.037
550.60	50.186
550.94	51.008
551.28	50.618
551.62	51.231
551.96	50.075
552.30	52.120
552.64	50.494
552.98	51.406
553.32	51.498
553.66	51.379
554.00	51.387
554.34	52.363
554.68	49.410
555.02	51.414
555.36	51.010
555.69	50.549
556.03	50.535
556.37	50.605
556.71	51.336
557.05	50.858
557.39	49.591
557.73	50.150
558.07	52.112
558.41	51.072
558.75	50.273
559.08	50.512
559.42	51.032
559.76	51.882
560.10	50.994
560.44	50.931
560.78	51.818
561.12	52.257
561.45	51.792
561.79	51.611
562.13	51.242
562.47	51.439
562.81	51.585
563.15	50.846
563.48	51.556
563.82	50.377
564.16	51.532
564.50	51.554
564.84	50.937
565.17	51.040
565.51	52.596
565.85	52.538
566.19	52.586
566.52	52.279
566.86	52.699
567.20	52.055
567.54	52.616
567.88	54.950
568.21	53.563
568.55	53.859
568.89	55.082
569.23	53.972
569.56	54.816
569.90	54.689
570.24	53.815
570.57	55.309
570.91	55.281
571.25	54.357
571.59	53.597
571.92	53.126
572.26	54.106
572.60	53.240
572.93	53.718
573.27	54.389
573.61	54.833
573.95	55.134
574.28	54.290
574.62	54.132
574.96	54.375
575.29	54.341
575.63	52.086
575.97	53.050
576.30	53.584
576.64	53.483
576.98	54.517
577.31	55.370
577.65	55.023
577.98	55.347
578.32	54.536
578.66	54.030
578.99	53.369
579.33	53.035
579.67	53.091
580.00	53.494
580.34	53.881
580.67	53.610
581.01	55.115
581.35	55.189
581.68	55.363
582.02	55.276
582.35	55.896
582.69	55.337
583.02	54.689
583.36	54.649
583.70	54.725
584.03	54.684
584.37	54.658
584.70	54.341
585.04	53.782
585.37	54.963
585.71	55.098
586.04	54.942
586.38	54.815
586.72	54.663
587.05	55.517
587.39	56.108
587.72	55.714
588.06	55.107
588.39	54.258
588.73	55.281
589.06	55.055
589.40	54.338
589.73	54.034
590.07	55.551
590.40	54.063
590.73	54.778
591.07	55.174
591.40	54.764
591.74	54.887
592.07	55.427
592.41	55.256
592.74	54.998
593.08	54.558
593.41	56.672
593.75	55.218
594.08	55.544
594.41	55.277
594.75	54.580
595.08	55.581
595.42	55.355
595.75	55.952
596.09	55.004
596.42	55.147
596.75	54.973
597.09	52.847
597.42	54.110
597.75	56.115
598.09	54.006
598.42	54.242
598.76	54.698
599.09	54.888
599.42	53.808
599.76	55.004
600.09	55.505
600.42	55.155
600.76	54.829
601.09	54.771
601.42	54.289
601.76	54.903
602.09	54.827
602.42	55.560
602.76	54.754
603.09	55.772
603.42	56.355
603.76	55.081
604.09	54.516
604.42	55.668
604.76	57.143
605.09	55.256
605.42	54.176
605.75	54.510
606.09	55.626
606.42	54.170
606.75	54.416
607.09	53.978
607.42	54.364
607.75	54.751
608.08	53.908
608.42	54.134
608.75	54.747
609.08	55.506
609.41	55.838
609.75	54.889
610.08	56.166
610.41	53.527
610.74	55.729
611.07	55.917
611.41	55.838
611.74	55.757
612.07	54.283
612.40	55.088
612.73	55.254
613.07	54.949
613.40	54.322
613.73	55.512
614.06	54.702
614.39	55.386
614.72	53.669
615.06	55.307
615.39	53.493
615.72	54.144
616.05	54.804
616.38	54.131
616.71	53.823
617.05	54.849
617.38	55.311
617.71	54.151
618.04	56.000
618.37	56.557
618.70	54.059
619.03	54.931
619.36	52.026
619.69	55.497
620.03	53.689
620.36	55.222
620.69	54.675
621.02	54.052
621.35	53.859
621.68	55.697
622.01	55.417
622.34	53.951
622.67	52.997
623.00	52.986
623.33	54.802
623.66	54.226
623.99	53.858
624.32	56.122
624.65	53.684
624.99	56.208
625.32	55.269
625.65	55.145
625.98	55.117
626.31	54.697
626.64	55.546
626.97	54.974
627.30	55.166
627.63	52.860
627.96	54.807
628.29	53.839
628.62	53.097
628.95	53.407
629.28	54.435
629.61	53.938
629.94	53.275
630.26	52.075
630.59	56.087
630.92	53.744
631.25	52.615
631.58	53.855
631.91	52.412
632.24	55.619
632.57	53.750
632.90	54.330
633.23	53.059
633.56	53.778
633.89	53.268
