SpectraSuite Data File
++++++++++++++++++++++++++++++++++++
Date: Fri May 15 17:23:31 PDT 2015
User: schluterlab
Dark Spectrum Present: Yes
Reference Spectrum Present: Yes
Number of Sampled Component Spectra: 1
Spectrometers: USB2E3373
Integration Time (usec): 3000 (USB2E3373)
Spectra Averaged: 3 (USB2E3373)
Boxcar Smoothing: 0 (USB2E3373)
Correct for Electrical Dark: No (USB2E3373)
Strobe/Lamp Enabled: No (USB2E3373)
Correct for Detector Non-linearity: No (USB2E3373)
Correct for Stray Light: No (USB2E3373)
Number of Pixels in Processed Spectrum: 2048
>>>>>Begin Processed Spectral Data<<<<<
178.53	0.000
178.91	0.000
179.29	112.500
179.67	-600.000
180.04	-100.000
180.42	250.000
180.80	300.000
181.18	133.333
181.56	400.000
181.94	850.000
182.31	-400.000
182.69	100.000
183.07	66.667
183.45	140.000
183.83	233.333
184.20	81.818
184.58	22.222
184.96	-200.000
185.34	-266.667
185.72	-200.000
186.09	53.846
186.47	0.000
186.85	-100.000
187.23	-33.333
187.61	-800.000
187.98	200.000
188.36	0.000
188.74	-266.667
189.12	47.059
189.49	55.556
189.87	0.000
190.25	50.000
190.63	200.000
191.00	366.667
191.38	31.579
191.76	850.000
192.14	-75.000
192.51	300.000
192.89	-100.000
193.27	-14.286
193.65	100.000
194.02	100.000
194.40	0.000
194.78	50.000
195.15	41.667
195.53	12.500
195.91	100.000
196.29	-150.000
196.66	38.462
197.04	100.000
197.42	22.222
197.79	-200.000
198.17	-53.846
198.55	600.000
198.92	-66.667
199.30	-100.000
199.68	-140.000
200.05	-333.333
200.43	0.000
200.81	66.667
201.18	66.667
201.56	500.000
201.94	300.000
202.31	-333.333
202.69	-120.000
203.07	-150.000
203.44	700.000
203.82	0.000
204.19	42.857
204.57	-233.333
204.95	175.000
205.32	-30.000
205.70	14.286
206.08	-75.000
206.45	188.889
206.83	50.000
207.20	42.857
207.58	-500.000
207.96	66.667
208.33	-50.000
208.71	50.000
209.08	-16.667
209.46	700.000
209.84	80.000
210.21	-300.000
210.59	71.429
210.96	0.000
211.34	225.000
211.71	33.333
212.09	0.000
212.46	-500.000
212.84	0.000
213.22	70.000
213.59	-150.000
213.97	53.846
214.34	100.000
214.72	83.333
215.09	225.000
215.47	-23.077
215.84	-18.182
216.22	-66.667
216.59	62.500
216.97	300.000
217.34	-25.000
217.72	-120.000
218.09	-137.500
218.47	175.000
218.84	300.000
219.22	-111.111
219.59	160.000
219.97	-66.667
220.34	-150.000
220.72	-14.286
221.09	-25.000
221.47	100.000
221.84	-350.000
222.22	-350.000
222.59	18.182
222.97	150.000
223.34	100.000
223.72	14.286
224.09	19.048
224.46	64.286
224.84	66.667
225.21	120.000
225.59	6.667
225.96	-400.000
226.34	150.000
226.71	28.571
227.08	33.333
227.46	37.500
227.83	-300.000
228.21	77.778
228.58	45.455
228.95	37.500
229.33	40.000
229.70	87.500
230.08	-100.000
230.45	-57.143
230.82	42.857
231.20	-60.000
231.57	78.571
231.95	185.714
232.32	-20.000
232.69	28.571
233.07	100.000
233.44	40.000
233.81	-10.000
234.19	100.000
234.56	5.882
234.93	-400.000
235.31	250.000
235.68	-140.000
236.05	-76.923
236.43	-30.000
236.80	47.059
237.17	43.750
237.55	60.000
237.92	25.926
238.29	30.556
238.67	40.000
239.04	23.529
239.41	4.878
239.79	20.000
240.16	51.220
240.53	23.684
240.91	23.913
241.28	41.270
241.65	44.643
242.02	56.164
242.40	43.333
242.77	33.898
243.14	30.303
243.51	26.250
243.89	34.483
244.26	18.391
244.63	32.143
245.00	37.113
245.38	38.144
245.75	23.596
246.12	28.448
246.49	26.446
246.87	50.000
247.24	30.252
247.61	28.070
247.98	34.959
248.36	29.375
248.73	30.921
249.10	33.766
249.47	37.342
249.84	30.719
250.22	30.000
250.59	38.562
250.96	34.272
251.33	29.651
251.70	33.529
252.08	36.548
252.45	30.198
252.82	40.201
253.19	35.484
253.56	28.505
253.94	34.685
254.31	35.217
254.68	39.912
255.05	31.102
255.42	35.371
255.79	36.293
256.16	36.187
256.54	37.687
256.91	32.700
257.28	32.342
257.65	37.079
258.02	32.979
258.39	35.690
258.76	35.897
259.14	34.884
259.51	33.981
259.88	37.457
260.25	34.314
260.62	35.764
260.99	34.237
261.36	30.137
261.73	35.443
262.10	31.307
262.47	35.583
262.85	32.915
263.22	36.308
263.59	34.579
263.96	34.783
264.33	36.667
264.70	31.250
265.07	35.417
265.44	35.694
265.81	37.288
266.18	33.060
266.55	32.134
266.92	34.456
267.29	33.681
267.66	34.271
268.03	31.937
268.40	32.637
268.77	38.770
269.14	33.094
269.51	33.419
269.88	33.167
270.25	31.888
270.62	31.707
270.99	32.992
271.36	33.007
271.73	34.038
272.10	33.333
272.47	33.570
272.84	33.911
273.21	38.283
273.58	34.940
273.95	35.240
274.32	32.794
274.69	29.638
275.06	33.929
275.43	31.519
275.80	32.892
276.17	32.414
276.54	32.120
276.91	32.675
277.28	31.004
277.65	31.198
278.02	33.191
278.39	31.072
278.76	33.124
279.13	29.461
279.50	31.723
279.87	33.909
280.23	28.817
280.60	31.384
280.97	31.313
281.34	28.462
281.71	32.854
282.08	30.879
282.45	32.877
282.82	30.309
283.19	32.495
283.56	30.058
283.92	29.981
284.29	27.500
284.66	30.814
285.03	31.238
285.40	28.922
285.77	30.756
286.14	31.227
286.51	30.627
286.87	28.336
287.24	31.123
287.61	29.453
287.98	31.228
288.35	29.983
288.72	30.298
289.08	27.604
289.45	29.525
289.82	28.497
290.19	28.669
290.56	27.616
290.93	27.273
291.29	26.656
291.66	28.819
292.03	26.635
292.40	26.290
292.77	27.751
293.13	25.000
293.50	25.190
293.87	26.412
294.24	26.739
294.60	23.994
294.97	26.488
295.34	24.233
295.71	24.888
296.08	25.112
296.44	23.186
296.81	25.972
297.18	24.348
297.55	25.474
297.91	24.521
298.28	22.691
298.65	23.745
299.02	24.798
299.38	24.213
299.75	21.793
300.12	22.644
300.48	23.452
300.85	22.180
301.22	22.338
301.59	23.421
301.95	22.911
302.32	24.643
302.69	22.512
303.05	22.277
303.42	20.922
303.79	21.379
304.15	22.700
304.52	21.165
304.89	21.637
305.25	21.186
305.62	21.237
305.99	21.520
306.35	20.231
306.72	20.247
307.09	20.753
307.45	20.321
307.82	21.991
308.19	22.067
308.55	20.174
308.92	21.133
309.29	21.229
309.65	20.022
310.02	20.792
310.38	21.625
310.75	21.530
311.12	21.851
311.48	19.830
311.85	21.047
312.22	20.148
312.58	19.958
312.95	19.637
313.31	22.050
313.68	21.047
314.05	20.204
314.41	20.825
314.78	19.897
315.14	19.836
315.51	20.600
315.87	20.902
316.24	20.728
316.61	19.980
316.97	20.635
317.34	19.141
317.70	19.790
318.07	20.096
318.43	20.588
318.80	18.561
319.16	20.117
319.53	20.038
319.89	19.291
320.26	20.547
320.62	21.063
320.99	20.251
321.35	20.349
321.72	20.561
322.08	19.839
322.45	20.203
322.81	19.057
323.18	18.351
323.54	19.402
323.91	20.156
324.27	19.043
324.64	20.225
325.00	20.255
325.37	20.018
325.73	20.036
326.10	19.346
326.46	20.717
326.83	19.773
327.19	19.442
327.56	20.070
327.92	19.718
328.29	18.661
328.65	20.000
329.01	19.118
329.38	20.000
329.74	19.358
330.11	19.926
330.47	19.109
330.84	19.135
331.20	20.722
331.56	18.796
331.93	19.635
332.29	19.432
332.66	18.100
333.02	18.401
333.38	18.148
333.75	19.689
334.11	18.890
334.48	19.402
334.84	18.590
335.20	18.664
335.57	17.316
335.93	19.783
336.29	19.061
336.66	18.165
337.02	16.450
337.38	18.333
337.75	18.455
338.11	18.124
338.47	19.708
338.84	19.501
339.20	18.921
339.56	18.073
339.93	19.964
340.29	18.073
340.65	18.459
341.02	18.883
341.38	18.142
341.74	17.580
342.11	18.198
342.47	18.416
342.83	19.031
343.20	18.118
343.56	18.261
343.92	17.715
344.28	19.300
344.65	18.739
345.01	18.583
345.37	18.587
345.73	18.661
346.10	19.413
346.46	17.998
346.82	18.576
347.19	17.789
347.55	18.045
347.91	19.013
348.27	18.674
348.63	17.717
349.00	18.540
349.36	18.204
349.72	19.735
350.08	19.016
350.45	19.393
350.81	18.023
351.17	16.694
351.53	18.776
351.89	16.763
352.26	18.400
352.62	17.984
352.98	17.831
353.34	16.828
353.70	18.689
354.07	17.903
354.43	18.014
354.79	18.002
355.15	18.810
355.51	18.513
355.87	18.042
356.24	17.292
356.60	17.542
356.96	18.175
357.32	19.409
357.68	18.686
358.04	18.174
358.40	17.846
358.77	18.660
359.13	18.175
359.49	17.797
359.85	17.785
360.21	17.384
360.57	17.062
360.93	17.171
361.29	17.069
361.66	18.182
362.02	18.788
362.38	17.289
362.74	18.168
363.10	17.381
363.46	17.939
363.82	18.557
364.18	17.417
364.54	17.279
364.90	17.348
365.26	17.977
365.62	17.591
365.98	17.449
366.35	17.771
366.71	17.664
367.07	17.925
367.43	17.398
367.79	17.314
368.15	17.875
368.51	18.281
368.87	16.726
369.23	17.690
369.59	18.149
369.95	17.889
370.31	17.775
370.67	17.164
371.03	16.953
371.39	16.849
371.75	17.289
372.11	18.188
372.47	17.234
372.83	17.530
373.19	17.974
373.55	17.329
373.91	17.495
374.27	17.434
374.63	17.516
374.99	17.021
375.35	17.688
375.71	17.203
376.07	17.205
376.42	17.347
376.78	17.517
377.14	16.926
377.50	17.995
377.86	18.005
378.22	17.358
378.58	17.308
378.94	17.391
379.30	17.779
379.66	17.367
380.02	17.781
380.38	16.190
380.74	16.577
381.09	17.669
381.45	16.942
381.81	16.533
382.17	17.322
382.53	16.927
382.89	16.824
383.25	17.237
383.61	17.500
383.97	17.016
384.32	17.198
384.68	16.904
385.04	17.218
385.40	16.739
385.76	18.428
386.12	17.400
386.48	17.561
386.83	16.931
387.19	18.559
387.55	17.754
387.91	17.115
388.27	16.911
388.62	17.369
388.98	17.864
389.34	18.301
389.70	17.589
390.06	17.118
390.42	17.034
390.77	17.005
391.13	16.898
391.49	16.882
391.85	16.504
392.20	17.828
392.56	16.720
392.92	16.676
393.28	17.925
393.64	17.417
393.99	18.683
394.35	17.710
394.71	17.305
395.07	17.473
395.42	16.758
395.78	17.524
396.14	18.096
396.50	17.438
396.85	17.965
397.21	16.604
397.57	17.806
397.92	18.214
398.28	17.529
398.64	16.506
399.00	16.930
399.35	16.986
399.71	17.921
400.07	17.715
400.42	16.830
400.78	18.004
401.14	18.088
401.49	17.927
401.85	18.160
402.21	17.651
402.57	17.438
402.92	17.629
403.28	17.732
403.63	17.844
403.99	16.709
404.35	17.989
404.70	17.619
405.06	17.391
405.42	16.905
405.77	17.257
406.13	17.579
406.49	17.466
406.84	17.604
407.20	18.061
407.55	17.321
407.91	18.048
408.27	17.846
408.62	18.954
408.98	17.190
409.34	18.216
409.69	17.829
410.05	17.611
410.40	17.407
410.76	18.396
411.11	17.563
411.47	18.014
411.83	16.949
412.18	17.889
412.54	16.292
412.89	16.933
413.25	18.231
413.60	17.764
413.96	16.933
414.31	17.744
414.67	17.640
415.03	17.577
415.38	17.689
415.74	18.046
416.09	17.636
416.45	18.433
416.80	17.184
417.16	18.646
417.51	18.388
417.87	18.774
418.22	17.293
418.58	18.395
418.93	18.746
419.29	16.901
419.64	18.146
420.00	18.199
420.35	18.090
420.71	18.348
421.06	17.741
421.42	19.111
421.77	18.902
422.12	17.764
422.48	17.380
422.83	18.155
423.19	18.284
423.54	17.519
423.90	18.021
424.25	18.083
424.61	18.360
424.96	17.480
425.31	18.313
425.67	18.427
426.02	18.257
426.38	18.096
426.73	18.341
427.09	18.924
427.44	18.941
427.79	19.446
428.15	18.993
428.50	18.110
428.85	18.305
429.21	18.166
429.56	19.030
429.92	19.569
430.27	18.947
430.62	17.564
430.98	17.622
431.33	18.980
431.68	18.629
432.04	18.558
432.39	18.711
432.74	18.400
433.10	19.310
433.45	18.399
433.80	18.572
434.16	19.280
434.51	19.247
434.86	19.919
435.22	19.181
435.57	18.902
435.92	18.623
436.28	18.962
436.63	19.966
436.98	18.830
437.34	18.391
437.69	19.261
438.04	19.145
438.39	18.754
438.75	19.126
439.10	18.959
439.45	19.537
439.81	19.205
440.16	19.121
440.51	19.940
440.86	19.819
441.22	19.061
441.57	18.764
441.92	19.780
442.27	19.845
442.63	19.647
442.98	19.299
443.33	19.421
443.68	19.045
444.03	20.368
444.39	20.069
444.74	20.067
445.09	19.989
445.44	20.456
445.79	20.526
446.15	19.604
446.50	19.246
446.85	20.351
447.20	19.708
447.55	20.424
447.91	19.797
448.26	20.262
448.61	20.495
448.96	20.425
449.31	19.422
449.66	21.312
450.02	20.536
450.37	20.273
450.72	19.989
451.07	20.443
451.42	19.850
451.77	20.735
452.12	20.335
452.47	20.155
452.83	20.612
453.18	20.936
453.53	21.113
453.88	20.886
454.23	21.143
454.58	20.718
454.93	21.198
455.28	19.492
455.63	20.707
455.98	21.106
456.34	20.754
456.69	21.665
457.04	20.416
457.39	20.535
457.74	19.226
458.09	19.835
458.44	20.187
458.79	20.336
459.14	21.110
459.49	20.955
459.84	20.756
460.19	20.752
460.54	21.210
460.89	20.625
461.24	20.186
461.59	21.556
461.94	20.314
462.29	20.627
462.64	20.797
462.99	21.259
463.34	20.167
463.69	20.399
464.04	20.642
464.39	21.043
464.74	20.736
465.09	21.834
465.44	21.985
465.79	19.955
466.14	20.182
466.49	20.184
466.84	21.178
467.19	21.402
467.54	20.945
467.89	20.467
468.24	20.620
468.59	21.524
468.94	20.444
469.29	20.918
469.64	21.736
469.99	21.934
470.34	20.000
470.68	22.222
471.03	21.868
471.38	21.969
471.73	22.129
472.08	20.896
472.43	21.342
472.78	22.070
473.13	21.293
473.48	21.564
473.83	21.046
474.17	22.798
474.52	21.634
474.87	21.879
475.22	21.293
475.57	20.723
475.92	21.558
476.27	21.420
476.61	22.222
476.96	21.584
477.31	21.850
477.66	21.292
478.01	21.673
478.36	21.187
478.70	21.316
479.05	22.582
479.40	22.523
479.75	20.699
480.10	21.505
480.45	21.500
480.79	21.903
481.14	21.465
481.49	21.478
481.84	21.766
482.19	21.328
482.53	20.815
482.88	21.575
483.23	21.401
483.58	21.226
483.92	21.200
484.27	21.057
484.62	20.708
484.97	21.227
485.31	21.134
485.66	20.688
486.01	21.234
486.36	20.664
486.70	20.144
487.05	19.634
487.40	20.631
487.75	20.056
488.09	19.901
488.44	20.323
488.79	20.247
489.13	21.595
489.48	21.462
489.83	21.031
490.17	21.573
490.52	22.079
490.87	22.490
491.22	21.968
491.56	21.679
491.91	21.750
492.26	22.120
492.60	21.833
492.95	23.119
493.30	22.228
493.64	22.790
493.99	22.995
494.34	21.408
494.68	21.810
495.03	21.655
495.37	22.375
495.72	22.463
496.07	22.634
496.41	21.981
496.76	22.018
497.11	22.310
497.45	22.768
497.80	22.957
498.14	22.057
498.49	22.194
498.84	22.705
499.18	22.590
499.53	22.619
499.87	22.033
500.22	22.107
500.56	22.189
500.91	22.139
501.26	22.195
501.60	22.577
501.95	22.416
502.29	22.373
502.64	22.346
502.98	22.792
503.33	21.278
503.67	22.313
504.02	23.021
504.36	23.107
504.71	21.414
505.06	22.194
505.40	22.690
505.75	22.526
506.09	22.808
506.44	23.152
506.78	22.704
507.13	23.009
507.47	22.611
507.82	22.756
508.16	22.293
508.51	23.033
508.85	22.972
509.19	21.927
509.54	22.627
509.88	22.276
510.23	22.700
510.57	23.784
510.92	22.281
511.26	23.295
511.61	22.772
511.95	22.849
512.30	22.506
512.64	23.372
512.98	22.459
513.33	23.559
513.67	22.854
514.02	23.970
514.36	23.257
514.70	24.301
515.05	24.266
515.39	22.845
515.74	23.952
516.08	23.551
516.42	24.441
516.77	23.757
517.11	23.798
517.46	25.254
517.80	23.957
518.14	24.189
518.49	22.837
518.83	23.998
519.17	22.741
519.52	23.505
519.86	24.010
520.20	24.666
520.55	24.265
520.89	24.529
521.23	24.509
521.58	24.606
521.92	24.167
522.26	24.333
522.61	24.221
522.95	25.563
523.29	25.540
523.64	24.651
523.98	25.340
524.32	23.905
524.66	25.224
525.01	25.649
525.35	25.405
525.69	25.118
526.04	24.934
526.38	25.292
526.72	23.806
527.06	24.060
527.41	24.736
527.75	24.464
528.09	25.116
528.43	25.861
528.78	25.017
529.12	24.903
529.46	24.172
529.80	24.763
530.15	25.677
530.49	24.512
530.83	25.308
531.17	25.789
531.51	25.513
531.86	25.289
532.20	24.217
532.54	25.255
532.88	26.146
533.22	25.403
533.57	24.771
533.91	23.695
534.25	25.846
534.59	24.824
534.93	24.733
535.27	23.794
535.62	24.368
535.96	24.853
536.30	25.330
536.64	25.569
536.98	24.878
537.32	25.605
537.66	25.386
538.01	24.895
538.35	25.312
538.69	24.967
539.03	24.334
539.37	25.034
539.71	24.131
540.05	25.458
540.39	24.584
540.73	24.477
541.07	25.691
541.42	25.605
541.76	25.258
542.10	25.189
542.44	25.017
542.78	24.226
543.12	24.794
543.46	25.800
543.80	25.538
544.14	23.632
544.48	25.516
544.82	24.880
545.16	25.205
545.50	25.033
545.84	25.779
546.18	25.745
546.52	24.730
546.86	25.665
547.20	25.465
547.54	25.583
547.88	25.611
548.22	24.392
548.56	24.077
548.90	26.078
549.24	25.138
549.58	24.612
549.92	25.447
550.26	24.908
550.60	26.171
550.94	26.064
551.28	25.039
551.62	25.615
551.96	25.489
552.30	25.950
552.64	24.683
552.98	25.738
553.32	25.749
553.66	25.181
554.00	25.328
554.34	26.662
554.68	25.295
555.02	26.414
555.36	25.430
555.69	26.593
556.03	25.981
556.37	24.840
556.71	24.982
557.05	25.727
557.39	25.279
557.73	25.787
558.07	26.848
558.41	26.034
558.75	25.253
559.08	24.823
559.42	25.635
559.76	25.781
560.10	25.382
560.44	26.284
560.78	25.804
561.12	24.753
561.45	26.072
561.79	26.331
562.13	26.473
562.47	25.899
562.81	26.225
563.15	24.894
563.48	25.672
563.82	26.012
564.16	26.045
564.50	24.392
564.84	26.238
565.17	25.017
565.51	27.049
565.85	25.377
566.19	25.928
566.52	26.340
566.86	26.221
567.20	25.529
567.54	25.791
567.88	24.956
568.21	24.830
568.55	24.130
568.89	24.641
569.23	24.169
569.56	24.518
569.90	23.833
570.24	23.781
570.57	23.455
570.91	23.771
571.25	23.249
571.59	22.579
571.92	22.222
572.26	21.528
572.60	22.450
572.93	21.964
573.27	22.665
573.61	22.345
573.95	22.802
574.28	22.007
574.62	21.917
574.96	22.039
575.29	22.287
575.63	21.119
575.97	21.876
576.30	22.154
576.64	21.669
576.98	22.059
577.31	22.512
577.65	22.431
577.98	21.957
578.32	21.502
578.66	21.277
578.99	21.175
579.33	21.234
579.67	21.625
580.00	21.696
580.34	21.965
580.67	21.390
581.01	21.758
581.35	21.705
581.68	21.512
582.02	21.637
582.35	21.188
582.69	21.757
583.02	21.491
583.36	21.647
583.70	22.170
584.03	22.324
584.37	22.558
584.70	21.593
585.04	21.710
585.37	21.916
585.71	21.846
586.04	22.037
586.38	21.819
586.72	22.410
587.05	22.646
587.39	22.896
587.72	22.608
588.06	22.032
588.39	22.301
588.73	23.016
589.06	23.157
589.40	22.295
589.73	23.366
590.07	23.452
590.40	23.878
590.73	23.806
591.07	23.537
591.40	23.375
591.74	23.891
592.07	24.722
592.41	24.072
592.74	24.094
593.08	23.472
593.41	23.624
593.75	22.440
594.08	23.103
594.41	23.544
594.75	23.053
595.08	23.156
595.42	23.666
595.75	23.620
596.09	23.143
596.42	23.109
596.75	23.446
597.09	24.191
597.42	24.164
597.75	23.912
598.09	22.861
598.42	23.601
598.76	23.166
599.09	23.397
599.42	23.039
599.76	22.573
600.09	23.718
600.42	22.934
600.76	23.180
601.09	22.328
601.42	23.188
601.76	22.906
602.09	22.814
602.42	23.631
602.76	23.939
603.09	23.380
603.42	24.164
603.76	23.226
604.09	24.139
604.42	23.139
604.76	24.388
605.09	23.263
605.42	24.018
605.75	23.292
606.09	23.057
606.42	23.603
606.75	23.506
607.09	24.264
607.42	22.818
607.75	23.490
608.08	22.956
608.42	24.029
608.75	24.193
609.08	23.617
609.41	23.858
609.75	25.101
610.08	24.513
610.41	23.768
610.74	24.135
611.07	24.703
611.41	24.546
611.74	24.467
612.07	24.143
612.40	24.398
612.73	24.576
613.07	24.128
613.40	24.672
613.73	23.335
614.06	24.374
614.39	25.268
614.72	24.706
615.06	24.190
615.39	23.690
615.72	24.543
616.05	25.028
616.38	23.875
616.71	25.015
617.05	25.077
617.38	25.079
617.71	24.780
618.04	25.587
618.37	26.103
618.70	24.488
619.03	25.625
619.36	25.181
619.69	26.687
620.03	27.611
620.36	25.823
620.69	26.053
621.02	25.841
621.35	26.307
621.68	27.551
622.01	27.417
622.34	27.135
622.67	26.814
623.00	27.335
623.33	25.838
623.66	25.879
623.99	25.567
624.32	26.388
624.65	25.865
624.99	26.411
625.32	25.550
625.65	27.573
625.98	28.122
626.31	25.935
626.64	27.123
626.97	26.876
627.30	27.145
627.63	29.203
627.96	26.056
628.29	26.920
628.62	28.614
628.95	27.455
629.28	28.730
629.61	28.016
629.94	28.641
630.26	27.668
630.59	29.553
630.92	28.205
631.25	27.487
631.58	28.524
631.91	28.509
632.24	27.752
632.57	30.000
632.90	29.419
633.23	30.000
633.56	29.975
633.89	29.716
