SpectraSuite Data File
++++++++++++++++++++++++++++++++++++
Date: Fri May 15 20:13:21 PDT 2015
User: schluterlab
Dark Spectrum Present: Yes
Reference Spectrum Present: Yes
Number of Sampled Component Spectra: 1
Spectrometers: USB2E3373
Integration Time (usec): 3000 (USB2E3373)
Spectra Averaged: 3 (USB2E3373)
Boxcar Smoothing: 0 (USB2E3373)
Correct for Electrical Dark: No (USB2E3373)
Strobe/Lamp Enabled: No (USB2E3373)
Correct for Detector Non-linearity: No (USB2E3373)
Correct for Stray Light: No (USB2E3373)
Number of Pixels in Processed Spectrum: 2048
>>>>>Begin Processed Spectral Data<<<<<
178.53	0.000
178.91	0.000
179.29	62.500
179.67	-500.000
180.04	-42.857
180.42	75.000
180.80	-600.000
181.18	33.333
181.56	300.000
181.94	250.000
182.31	-400.000
182.69	80.000
183.07	-166.667
183.45	0.000
183.83	183.333
184.20	9.091
184.58	77.778
184.96	-350.000
185.34	-166.667
185.72	-250.000
186.09	123.077
186.47	-100.000
186.85	183.333
187.23	144.444
187.61	-500.000
187.98	100.000
188.36	33.333
188.74	33.333
189.12	58.824
189.49	44.444
189.87	0.000
190.25	121.429
190.63	-250.000
191.00	-66.667
191.38	0.000
191.76	300.000
192.14	100.000
192.51	150.000
192.89	-22.222
193.27	14.286
193.65	16.667
194.02	118.182
194.40	120.000
194.78	-75.000
195.15	0.000
195.53	-62.500
195.91	100.000
196.29	-200.000
196.66	53.846
197.04	28.571
197.42	-66.667
197.79	-233.333
198.17	-15.385
198.55	1300.000
198.92	133.333
199.30	-100.000
199.68	40.000
200.05	-200.000
200.43	0.000
200.81	200.000
201.18	166.667
201.56	300.000
201.94	50.000
202.31	-333.333
202.69	-20.000
203.07	-175.000
203.44	700.000
203.82	0.000
204.19	-7.143
204.57	-133.333
204.95	200.000
205.32	50.000
205.70	-42.857
206.08	175.000
206.45	155.556
206.83	128.571
207.20	-71.429
207.58	100.000
207.96	-166.667
208.33	20.000
208.71	-125.000
209.08	50.000
209.46	200.000
209.84	-20.000
210.21	-300.000
210.59	171.429
210.96	83.333
211.34	100.000
211.71	100.000
212.09	-28.571
212.46	-500.000
212.84	0.000
213.22	-20.000
213.59	550.000
213.97	46.154
214.34	45.455
214.72	66.667
215.09	250.000
215.47	7.692
215.84	-9.091
216.22	0.000
216.59	-25.000
216.97	700.000
217.34	100.000
217.72	0.000
218.09	-12.500
218.47	150.000
218.84	-100.000
219.22	-22.222
219.59	160.000
219.97	33.333
220.34	50.000
220.72	57.143
221.09	-25.000
221.47	100.000
221.84	-400.000
222.22	-300.000
222.59	127.273
222.97	75.000
223.34	166.667
223.72	14.286
224.09	66.667
224.46	14.286
224.84	266.667
225.21	10.000
225.59	46.667
225.96	-600.000
226.34	-25.000
226.71	100.000
227.08	-66.667
227.46	87.500
227.83	-500.000
228.21	133.333
228.58	45.455
228.95	37.500
229.33	-20.000
229.70	6.250
230.08	100.000
230.45	-42.857
230.82	14.286
231.20	20.000
231.57	92.857
231.95	85.714
232.32	10.000
232.69	64.286
233.07	366.667
233.44	60.000
233.81	0.000
234.19	144.444
234.56	58.824
234.93	-750.000
235.31	375.000
235.68	-100.000
236.05	38.462
236.43	30.000
236.80	141.176
237.17	53.125
237.55	45.000
237.92	37.037
238.29	44.444
238.67	110.000
239.04	41.176
239.41	34.146
239.79	66.667
240.16	68.293
240.53	68.421
240.91	67.391
241.28	73.016
241.65	66.071
242.02	52.055
242.40	56.667
242.77	66.102
243.14	68.182
243.51	65.000
243.89	86.207
244.26	65.517
244.63	73.810
245.00	65.979
245.38	78.351
245.75	77.528
246.12	56.034
246.49	69.421
246.87	69.231
247.24	60.504
247.61	71.930
247.98	65.041
248.36	63.750
248.73	71.053
249.10	64.935
249.47	72.152
249.84	72.549
250.22	67.059
250.59	80.392
250.96	68.075
251.33	68.023
251.70	72.941
252.08	68.020
252.45	67.822
252.82	70.352
253.19	67.742
253.56	66.355
253.94	64.865
254.31	70.435
254.68	75.439
255.05	66.142
255.42	71.179
255.79	67.181
256.16	65.759
256.54	70.896
256.91	71.863
257.28	63.197
257.65	67.416
258.02	65.957
258.39	69.697
258.76	67.766
259.14	68.771
259.51	67.314
259.88	72.509
260.25	67.647
260.62	69.097
260.99	68.475
261.36	69.521
261.73	71.203
262.10	69.605
262.47	71.779
262.85	71.787
263.22	68.615
263.59	67.290
263.96	67.391
264.33	70.606
264.70	72.321
265.07	69.940
265.44	71.955
265.81	71.751
266.18	72.131
266.55	69.152
266.92	68.135
267.29	67.102
267.66	68.798
268.03	71.466
268.40	67.885
268.77	76.471
269.14	67.386
269.51	69.152
269.88	69.077
270.25	69.133
270.62	67.073
270.99	67.775
271.36	62.592
271.73	69.249
272.10	71.776
272.47	67.139
272.84	65.594
273.21	65.661
273.58	68.675
273.95	67.277
274.32	65.820
274.69	61.312
275.06	66.741
275.43	63.719
275.80	67.550
276.17	65.977
276.54	65.953
276.91	68.860
277.28	64.847
277.65	62.190
278.02	64.894
278.39	65.864
278.76	65.409
279.13	62.241
279.50	66.807
279.87	65.011
280.23	65.591
280.60	63.743
280.97	65.253
281.34	62.885
281.71	67.146
282.08	62.372
282.45	63.992
282.82	63.707
283.19	63.830
283.56	62.235
283.92	63.188
284.29	62.308
284.66	62.403
285.03	62.083
285.40	62.760
285.77	59.051
286.14	59.025
286.51	63.284
286.87	58.867
287.24	61.510
287.61	60.317
287.98	59.123
288.35	58.579
288.72	61.471
289.08	59.375
289.45	59.578
289.82	57.692
290.19	57.338
290.56	57.290
290.93	56.229
291.29	52.080
291.66	53.701
292.03	53.907
292.40	51.774
292.77	55.024
293.13	50.812
293.50	50.683
293.87	52.672
294.24	49.923
294.60	51.714
294.97	50.893
295.34	50.613
295.71	51.416
296.08	50.374
296.44	46.799
296.81	47.639
297.18	47.246
297.55	48.238
297.91	47.534
298.28	48.021
298.65	43.826
299.02	47.170
299.38	43.776
299.75	45.241
300.12	46.597
300.48	45.191
300.85	44.106
301.22	44.156
301.59	44.342
301.95	44.430
302.32	45.266
302.69	44.279
303.05	45.173
303.42	42.839
303.79	43.458
304.15	44.086
304.52	42.925
304.89	41.053
305.25	41.768
305.62	40.723
305.99	42.456
306.35	42.081
306.72	39.483
307.09	42.075
307.45	40.299
307.82	41.898
308.19	42.625
308.55	41.003
308.92	43.137
309.29	41.117
309.65	41.335
310.02	40.704
310.38	41.493
310.75	41.967
311.12	40.151
311.48	40.615
311.85	40.628
312.22	40.717
312.58	41.614
312.95	39.274
313.31	39.130
313.68	40.209
314.05	40.408
314.41	40.412
314.78	40.515
315.14	41.932
315.51	39.545
315.87	40.574
316.24	40.950
316.61	40.846
316.97	39.683
317.34	40.527
317.70	40.249
318.07	40.192
318.43	41.569
318.80	40.341
319.16	42.285
319.53	42.640
319.89	41.240
320.26	42.611
320.62	43.330
320.99	41.649
321.35	43.268
321.72	42.991
322.08	43.303
322.45	42.843
322.81	42.927
323.18	42.493
323.54	43.243
323.91	43.622
324.27	44.922
324.64	44.569
325.00	46.350
325.37	46.648
325.73	46.963
326.10	47.775
326.46	48.610
326.83	49.606
327.19	49.782
327.56	50.652
327.92	51.849
328.29	50.268
328.65	53.868
329.01	53.768
329.38	53.641
329.74	55.619
330.11	54.032
330.47	53.803
330.84	55.481
331.20	57.700
331.56	55.370
331.93	56.164
332.29	57.745
332.66	57.557
333.02	57.156
333.38	57.654
333.75	59.524
334.11	56.312
334.48	57.933
334.84	58.242
335.20	60.018
335.57	58.568
335.93	59.350
336.29	60.589
336.66	59.219
337.02	59.665
337.38	58.056
337.75	60.545
338.11	60.234
338.47	61.405
338.84	60.628
339.20	61.883
339.56	61.560
339.93	60.161
340.29	61.284
340.65	60.036
341.02	59.840
341.38	59.912
341.74	59.629
342.11	60.659
342.47	60.409
342.83	61.505
343.20	60.017
343.56	60.435
343.92	62.090
344.28	61.571
344.65	61.313
345.01	59.983
345.37	60.050
345.73	60.502
346.10	61.346
346.46	59.798
346.82	60.065
347.19	60.100
347.55	61.320
347.91	60.032
348.27	60.711
348.63	61.329
349.00	59.639
349.36	60.599
349.72	63.267
350.08	60.738
350.45	59.936
350.81	61.130
351.17	60.831
351.53	61.878
351.89	61.189
352.26	59.120
352.62	61.613
352.98	61.928
353.34	59.259
353.70	61.003
354.07	60.968
354.43	60.048
354.79	61.024
355.15	61.032
355.51	60.918
355.87	61.731
356.24	60.848
356.60	61.277
356.96	59.603
357.32	59.505
357.68	60.672
358.04	61.955
358.40	60.129
358.77	62.839
359.13	59.808
359.49	59.014
359.85	59.750
360.21	61.722
360.57	61.285
360.93	60.968
361.29	60.725
361.66	62.382
362.02	61.515
362.38	62.224
362.74	62.074
363.10	63.732
363.46	62.046
363.82	62.960
364.18	62.952
364.54	60.588
364.90	62.079
365.26	61.572
365.62	63.723
365.98	62.610
366.35	63.074
366.71	64.449
367.07	62.264
367.43	62.473
367.79	62.049
368.15	64.106
368.51	63.365
368.87	62.312
369.23	62.022
369.59	63.994
369.95	62.903
370.31	62.789
370.67	62.164
371.03	62.957
371.39	63.311
371.75	63.370
372.11	61.983
372.47	64.645
372.83	64.372
373.19	62.910
373.55	62.744
373.91	64.363
374.27	63.643
374.63	64.322
374.99	63.972
375.35	63.858
375.71	64.196
376.07	66.433
376.42	63.946
376.78	65.235
377.14	64.590
377.50	63.347
377.86	64.993
378.22	63.689
378.58	64.679
378.94	64.650
379.30	65.565
379.66	64.702
380.02	64.684
380.38	65.125
380.74	66.128
381.09	67.362
381.45	65.566
381.81	65.453
382.17	65.863
382.53	64.460
382.89	68.110
383.25	67.268
383.61	67.317
383.97	67.810
384.32	66.854
384.68	66.563
385.04	65.870
385.40	66.148
385.76	68.302
386.12	68.241
386.48	67.880
386.83	68.041
387.19	67.888
387.55	67.566
387.91	67.237
388.27	67.338
388.62	68.345
388.98	66.789
389.34	67.458
389.70	68.925
390.06	67.590
390.42	68.653
390.77	68.738
391.13	67.024
391.49	69.405
391.85	69.916
392.20	67.106
392.56	68.277
392.92	69.759
393.28	68.514
393.64	67.868
393.99	69.843
394.35	68.817
394.71	68.902
395.07	69.516
395.42	68.852
395.78	68.534
396.14	67.654
396.50	69.182
396.85	69.800
397.21	68.860
397.57	68.777
397.92	68.304
398.28	69.080
398.64	67.711
399.00	69.074
399.35	67.607
399.71	67.892
400.07	69.891
400.42	67.625
400.78	68.769
401.14	68.482
401.49	69.327
401.85	68.373
402.21	66.747
402.57	69.000
402.92	67.942
403.28	69.110
403.63	69.735
403.99	69.324
404.35	69.144
404.70	67.083
405.06	67.333
405.42	67.993
405.77	67.926
406.13	69.616
406.49	68.917
406.84	68.643
407.20	69.416
407.55	67.869
407.91	67.112
408.27	68.005
408.62	68.738
408.98	68.762
409.34	67.596
409.69	67.506
410.05	66.995
410.40	67.469
410.76	67.973
411.11	68.312
411.47	67.784
411.83	66.416
412.18	69.820
412.54	66.542
412.89	66.995
413.25	68.652
413.60	67.888
413.96	67.301
414.31	66.951
414.67	65.747
415.03	67.443
415.38	66.449
415.74	68.404
416.09	66.950
416.45	67.792
416.80	65.565
417.16	69.061
417.51	67.355
417.87	67.210
418.22	67.422
418.58	68.896
418.93	68.715
419.29	66.005
419.64	67.725
420.00	67.758
420.35	68.119
420.71	68.348
421.06	67.833
421.42	69.050
421.77	67.168
422.12	68.218
422.48	68.110
422.83	66.415
423.19	67.664
423.54	67.313
423.90	68.551
424.25	66.648
424.61	68.421
424.96	66.202
425.31	68.920
425.67	67.840
426.02	68.551
426.38	69.317
426.73	68.341
427.09	68.924
427.44	68.294
427.79	67.708
428.15	68.386
428.50	68.867
428.85	67.383
429.21	68.025
429.56	69.488
429.92	67.694
430.27	67.168
430.62	68.531
430.98	68.684
431.33	67.140
431.68	66.771
432.04	68.865
432.39	67.370
432.74	66.266
433.10	67.701
433.45	68.041
433.80	68.369
434.16	67.535
434.51	67.634
434.86	68.931
435.22	68.592
435.57	68.185
435.92	68.383
436.28	66.667
436.63	68.112
436.98	67.439
437.34	68.603
437.69	69.469
438.04	68.034
438.39	67.746
438.75	70.370
439.10	68.308
439.45	69.264
439.81	68.991
440.16	69.181
440.51	68.060
440.86	70.514
441.22	66.855
441.57	67.605
441.92	68.206
442.27	70.067
442.63	68.255
442.98	67.490
443.33	67.446
443.68	67.798
444.03	69.101
444.39	68.618
444.74	69.565
445.09	69.154
445.44	69.117
445.79	69.366
446.15	67.346
446.50	68.386
446.85	69.022
447.20	68.040
447.55	68.136
447.91	69.036
448.26	69.493
448.61	67.991
448.96	69.306
449.31	68.555
449.66	67.944
450.02	68.112
450.37	69.650
450.72	69.645
451.07	67.722
451.42	67.790
451.77	67.149
452.12	67.703
452.47	67.354
452.83	68.551
453.18	68.438
453.53	69.027
453.88	68.549
454.23	67.240
454.58	69.521
454.93	68.557
455.28	66.857
455.63	67.762
455.98	68.671
456.34	67.561
456.69	67.344
457.04	68.746
457.39	67.740
457.74	68.380
458.09	67.628
458.44	67.466
458.79	67.171
459.14	66.648
459.49	67.881
459.84	67.061
460.19	68.507
460.54	68.826
460.89	68.580
461.24	69.193
461.59	66.568
461.94	66.855
462.29	68.456
462.64	69.037
462.99	66.960
463.34	66.829
463.69	66.988
464.04	67.554
464.39	65.737
464.74	65.890
465.09	67.498
465.44	67.859
465.79	65.760
466.14	67.617
466.49	66.705
466.84	66.330
467.19	67.334
467.54	66.475
467.89	66.961
468.24	67.153
468.59	66.159
468.94	66.857
469.29	67.344
469.64	65.482
469.99	67.414
470.34	66.143
470.68	66.070
471.03	66.525
471.38	65.763
471.73	66.317
472.08	65.197
472.43	67.450
472.78	65.730
473.13	66.395
473.48	66.384
473.83	64.384
474.17	66.710
474.52	64.454
474.87	65.818
475.22	66.199
475.57	66.121
475.92	66.703
476.27	65.367
476.61	66.551
476.96	64.027
477.31	65.387
477.66	64.775
478.01	65.525
478.36	66.122
478.70	66.449
479.05	64.505
479.40	65.289
479.75	65.328
480.10	63.902
480.45	65.000
480.79	66.818
481.14	66.547
481.49	64.581
481.84	65.685
482.19	65.154
482.53	65.947
482.88	64.153
483.23	63.676
483.58	64.528
483.92	63.359
484.27	62.489
484.62	64.142
484.97	64.345
485.31	64.270
485.66	64.078
486.01	66.117
486.36	65.532
486.70	66.180
487.05	65.513
487.40	64.866
487.75	64.535
488.09	63.350
488.44	63.102
488.79	64.064
489.13	63.381
489.48	63.702
489.83	63.946
490.17	62.607
490.52	63.418
490.87	63.119
491.22	65.282
491.56	63.283
491.91	62.380
492.26	64.949
492.60	63.916
492.95	63.994
493.30	63.019
493.64	64.145
493.99	63.430
494.34	63.058
494.68	63.619
495.03	63.552
495.37	63.690
495.72	64.311
496.07	64.244
496.41	62.123
496.76	63.381
497.11	62.646
497.45	63.723
497.80	64.228
498.14	63.239
498.49	64.500
498.84	62.076
499.18	63.504
499.53	64.187
499.87	62.695
500.22	63.798
500.56	63.439
500.91	63.303
501.26	62.729
501.60	63.060
501.95	63.707
502.29	63.971
502.64	63.562
502.98	64.332
503.33	62.680
503.67	62.361
504.02	63.245
504.36	63.236
504.71	62.374
505.06	62.204
505.40	63.756
505.75	63.918
506.09	61.987
506.44	63.758
506.78	62.755
507.13	63.495
507.47	60.574
507.82	62.286
508.16	62.546
508.51	63.694
508.85	62.533
509.19	61.788
509.54	62.681
509.88	62.999
510.23	64.067
510.57	62.801
510.92	61.567
511.26	63.557
511.61	62.761
511.95	63.452
512.30	63.248
512.64	62.326
512.98	61.538
513.33	62.675
513.67	62.251
514.02	63.158
514.36	64.400
514.70	62.587
515.05	63.337
515.39	62.810
515.74	63.713
516.08	62.762
516.42	63.369
516.77	63.546
517.11	61.721
517.46	61.759
517.80	63.766
518.14	62.400
518.49	62.320
518.83	62.151
519.17	61.128
519.52	61.634
519.86	63.025
520.20	60.996
520.55	62.477
520.89	62.296
521.23	61.811
521.58	62.461
521.92	62.051
522.26	60.638
522.61	61.883
522.95	63.377
523.29	62.389
523.64	61.055
523.98	63.642
524.32	62.242
524.66	63.252
525.01	62.597
525.35	63.059
525.69	62.896
526.04	62.632
526.38	63.813
526.72	61.674
527.06	61.414
527.41	61.478
527.75	63.003
528.09	62.326
528.43	63.741
528.78	61.386
529.12	61.935
529.46	61.923
529.80	62.508
530.15	62.838
530.49	63.434
530.83	62.654
531.17	61.921
531.51	62.517
531.86	62.135
532.20	61.030
532.54	62.628
532.88	62.286
533.22	62.567
533.57	62.254
533.91	61.031
534.25	63.542
534.59	62.797
534.93	60.352
535.27	60.787
535.62	61.115
535.96	62.361
536.30	61.478
536.64	63.405
536.98	62.021
537.32	62.020
537.66	62.272
538.01	63.147
538.35	62.691
538.69	61.318
539.03	61.654
539.37	61.373
539.71	60.941
540.05	61.847
540.39	62.742
540.73	62.622
541.07	61.533
541.42	61.022
541.76	62.491
542.10	62.491
542.44	61.779
542.78	60.358
543.12	61.401
543.46	60.987
543.80	62.110
544.14	59.413
544.48	61.292
544.82	62.269
545.16	61.544
545.50	61.615
545.84	61.898
546.18	61.844
546.52	62.437
546.86	60.388
547.20	62.876
547.54	60.989
547.88	61.821
548.22	60.158
548.56	61.478
548.90	61.927
549.24	61.777
549.58	59.873
549.92	59.042
550.26	59.853
550.60	62.230
550.94	61.688
551.28	61.360
551.62	62.692
551.96	62.256
552.30	62.427
552.64	61.354
552.98	61.955
553.32	61.626
553.66	61.393
554.00	62.701
554.34	60.709
554.68	60.546
555.02	61.607
555.36	61.855
555.69	60.952
556.03	59.529
556.37	61.210
556.71	60.650
557.05	61.521
557.39	60.372
557.73	60.945
558.07	60.709
558.41	61.715
558.75	62.120
559.08	61.387
559.42	61.190
559.76	62.370
560.10	61.468
560.44	61.802
560.78	61.958
561.12	61.707
561.45	63.106
561.79	61.345
562.13	62.030
562.47	60.935
562.81	61.744
563.15	60.931
563.48	61.103
563.82	61.496
564.16	62.465
564.50	59.324
564.84	61.245
565.17	61.301
565.51	63.934
565.85	62.483
566.19	62.931
566.52	62.668
566.86	62.018
567.20	61.955
567.54	61.618
567.88	64.323
568.21	63.575
568.55	62.554
568.89	61.756
569.23	62.783
569.56	63.004
569.90	64.190
570.24	61.556
570.57	63.673
570.91	64.622
571.25	62.414
571.59	62.255
571.92	61.422
572.26	62.591
572.60	62.140
572.93	62.222
573.27	61.536
573.61	62.321
573.95	62.780
574.28	62.209
574.62	61.302
574.96	61.381
575.29	61.610
575.63	61.052
575.97	60.829
576.30	61.766
576.64	61.430
576.98	62.471
577.31	61.883
577.65	62.339
577.98	62.574
578.32	62.127
578.66	61.100
578.99	61.371
579.33	61.154
579.67	60.686
580.00	62.633
580.34	61.443
580.67	61.474
581.01	62.536
581.35	61.477
581.68	62.468
582.02	62.452
582.35	62.210
582.69	62.466
583.02	61.504
583.36	61.959
583.70	63.214
584.03	63.192
584.37	62.931
584.70	62.060
585.04	61.399
585.37	61.278
585.71	62.355
586.04	61.725
586.38	61.510
586.72	61.980
587.05	62.449
587.39	62.371
587.72	62.931
588.06	62.773
588.39	61.891
588.73	62.454
589.06	62.329
589.40	61.078
589.73	62.760
590.07	62.576
590.40	63.545
590.73	63.344
591.07	62.850
591.40	61.398
591.74	62.489
592.07	62.523
592.41	61.749
592.74	61.888
593.08	61.125
593.41	62.273
593.75	61.760
594.08	61.140
594.41	61.863
594.75	62.481
595.08	62.467
595.42	62.422
595.75	63.312
596.09	62.979
596.42	62.547
596.75	61.634
597.09	62.096
597.42	62.692
597.75	62.803
598.09	61.431
598.42	61.327
598.76	61.261
599.09	61.859
599.42	60.629
599.76	61.926
600.09	61.765
600.42	61.221
600.76	60.736
601.09	61.794
601.42	61.144
601.76	61.016
602.09	61.922
602.42	62.553
602.76	62.012
603.09	62.666
603.42	62.918
603.76	63.145
604.09	61.239
604.42	62.183
604.76	62.261
605.09	62.294
605.42	62.844
605.75	62.347
606.09	62.930
606.42	62.010
606.75	62.078
607.09	61.099
607.42	61.498
607.75	61.368
608.08	61.680
608.42	60.758
608.75	63.952
609.08	63.428
609.41	62.690
609.75	62.097
610.08	63.055
610.41	61.449
610.74	61.433
611.07	63.152
611.41	63.985
611.74	62.846
612.07	61.188
612.40	62.801
612.73	63.955
613.07	62.148
613.40	62.309
613.73	61.835
614.06	62.270
614.39	62.888
614.72	62.969
615.06	61.397
615.39	61.026
615.72	60.172
616.05	62.011
616.38	61.254
616.71	62.936
617.05	63.620
617.38	61.974
617.71	62.830
618.04	64.127
618.37	63.052
618.70	62.442
619.03	62.500
619.36	61.650
619.69	63.457
620.03	65.011
620.36	62.089
620.69	61.956
621.02	64.679
621.35	63.320
621.68	63.095
622.01	63.083
622.34	62.490
622.67	62.303
623.00	60.413
623.33	62.348
623.66	62.528
623.99	60.893
624.32	64.106
624.65	62.105
624.99	63.055
625.32	60.804
625.65	63.001
625.98	62.450
626.31	62.095
626.64	63.432
626.97	62.914
627.30	63.748
627.63	63.258
627.96	63.702
628.29	62.812
628.62	62.340
628.95	62.926
629.28	63.609
629.61	63.709
629.94	64.027
630.26	61.660
630.59	63.684
630.92	63.487
631.25	61.538
631.58	62.335
631.91	62.061
632.24	65.023
632.57	62.841
632.90	62.752
633.23	62.941
633.56	64.861
633.89	62.639
634.22	64.198
