SpectraSuite Data File
++++++++++++++++++++++++++++++++++++
Date: Fri May 15 17:03:34 PDT 2015
User: schluterlab
Dark Spectrum Present: Yes
Reference Spectrum Present: Yes
Number of Sampled Component Spectra: 1
Spectrometers: USB2E3373
Integration Time (usec): 3000 (USB2E3373)
Spectra Averaged: 3 (USB2E3373)
Boxcar Smoothing: 0 (USB2E3373)
Correct for Electrical Dark: No (USB2E3373)
Strobe/Lamp Enabled: No (USB2E3373)
Correct for Detector Non-linearity: No (USB2E3373)
Correct for Stray Light: No (USB2E3373)
Number of Pixels in Processed Spectrum: 2048
>>>>>Begin Processed Spectral Data<<<<<
178.53	0.000
178.91	0.000
179.29	100.000
179.67	300.000
180.04	-185.714
180.42	200.000
180.80	-300.000
181.18	-133.333
181.56	250.000
181.94	350.000
182.31	-600.000
182.69	100.000
183.07	400.000
183.45	200.000
183.83	216.667
184.20	81.818
184.58	77.778
184.96	-200.000
185.34	133.333
185.72	450.000
186.09	23.077
186.47	100.000
186.85	16.667
187.23	100.000
187.61	-900.000
187.98	133.333
188.36	-22.222
188.74	-100.000
189.12	76.471
189.49	88.889
189.87	0.000
190.25	71.429
190.63	150.000
191.00	-166.667
191.38	52.632
191.76	650.000
192.14	-225.000
192.51	550.000
192.89	44.444
193.27	0.000
193.65	66.667
194.02	90.909
194.40	90.000
194.78	-75.000
195.15	58.333
195.53	-112.500
195.91	150.000
196.29	-50.000
196.66	38.462
197.04	114.286
197.42	11.111
197.79	33.333
198.17	53.846
198.55	-100.000
198.92	0.000
199.30	200.000
199.68	-40.000
200.05	-133.333
200.43	0.000
200.81	-133.333
201.18	200.000
201.56	-200.000
201.94	250.000
202.31	-566.667
202.69	-60.000
203.07	-125.000
203.44	800.000
203.82	0.000
204.19	50.000
204.57	-33.333
204.95	-37.500
205.32	80.000
205.70	228.571
206.08	50.000
206.45	333.333
206.83	128.571
207.20	-14.286
207.58	-1000.000
207.96	300.000
208.33	10.000
208.71	225.000
209.08	-33.333
209.46	-200.000
209.84	-40.000
210.21	400.000
210.59	114.286
210.96	216.667
211.34	100.000
211.71	46.667
212.09	-14.286
212.46	-400.000
212.84	0.000
213.22	170.000
213.59	100.000
213.97	46.154
214.34	127.273
214.72	16.667
215.09	300.000
215.47	-7.692
215.84	27.273
216.22	100.000
216.59	75.000
216.97	250.000
217.34	275.000
217.72	-80.000
218.09	75.000
218.47	50.000
218.84	-500.000
219.22	133.333
219.59	-160.000
219.97	233.333
220.34	100.000
220.72	200.000
221.09	0.000
221.47	350.000
221.84	-100.000
222.22	-300.000
222.59	90.909
222.97	83.333
223.34	-33.333
223.72	14.286
224.09	42.857
224.46	42.857
224.84	200.000
225.21	60.000
225.59	60.000
225.96	100.000
226.34	-175.000
226.71	-14.286
227.08	0.000
227.46	112.500
227.83	100.000
228.21	66.667
228.58	109.091
228.95	75.000
229.33	-0.000
229.70	62.500
230.08	50.000
230.45	71.429
230.82	42.857
231.20	73.333
231.57	50.000
231.95	100.000
232.32	0.000
232.69	100.000
233.07	266.667
233.44	-140.000
233.81	20.000
234.19	77.778
234.56	41.176
234.93	250.000
235.31	400.000
235.68	0.000
236.05	7.692
236.43	45.000
236.80	58.824
237.17	34.375
237.55	35.000
237.92	-7.407
238.29	55.556
238.67	33.333
239.04	32.353
239.41	4.878
239.79	16.667
240.16	51.220
240.53	31.579
240.91	19.565
241.28	39.683
241.65	33.929
242.02	36.986
242.40	30.000
242.77	25.424
243.14	10.606
243.51	25.000
243.89	27.586
244.26	8.046
244.63	21.429
245.00	28.866
245.38	31.959
245.75	7.865
246.12	14.655
246.49	15.702
246.87	23.077
247.24	14.286
247.61	19.298
247.98	20.325
248.36	22.500
248.73	28.947
249.10	18.182
249.47	22.785
249.84	25.490
250.22	19.412
250.59	23.529
250.96	24.883
251.33	16.860
251.70	17.059
252.08	19.289
252.45	20.297
252.82	16.583
253.19	14.747
253.56	15.888
253.94	20.721
254.31	20.435
254.68	25.877
255.05	19.291
255.42	19.651
255.79	16.988
256.16	19.066
256.54	24.627
256.91	17.110
257.28	20.446
257.65	14.607
258.02	16.312
258.39	23.569
258.76	18.315
259.14	21.595
259.51	20.065
259.88	17.869
260.25	20.261
260.62	18.403
260.99	18.644
261.36	13.699
261.73	19.620
262.10	19.453
262.47	16.564
262.85	20.690
263.22	19.077
263.59	23.676
263.96	22.050
264.33	18.182
264.70	18.452
265.07	18.155
265.44	20.113
265.81	18.079
266.18	19.399
266.55	17.224
266.92	17.098
267.29	14.883
267.66	18.414
268.03	18.586
268.40	18.799
268.77	19.786
269.14	19.185
269.51	19.794
269.88	15.711
270.25	17.857
270.62	15.122
270.99	20.972
271.36	19.071
271.73	16.432
272.10	17.275
272.47	16.548
272.84	16.584
273.21	19.722
273.58	17.831
273.95	17.391
274.32	18.014
274.69	18.326
275.06	18.527
275.43	17.460
275.80	20.530
276.17	16.322
276.54	17.345
276.91	18.860
277.28	15.502
277.65	19.421
278.02	16.596
278.39	18.162
278.76	18.449
279.13	13.071
279.50	18.277
279.87	19.654
280.23	15.914
280.60	19.298
280.97	17.172
281.34	13.846
281.71	20.329
282.08	13.292
282.45	17.613
282.82	16.795
283.19	17.988
283.56	19.075
283.92	15.939
284.29	16.346
284.66	15.698
285.03	13.752
285.40	19.093
285.77	13.181
286.14	15.523
286.51	17.897
286.87	14.442
287.24	15.285
287.61	15.168
287.98	19.123
288.35	18.198
288.72	17.338
289.08	14.757
289.45	17.399
289.82	15.909
290.19	15.188
290.56	16.467
290.93	12.795
291.29	11.094
291.66	17.165
292.03	15.470
292.40	13.548
292.77	15.470
293.13	11.526
293.50	14.264
293.87	14.962
294.24	14.219
294.60	13.711
294.97	12.946
295.34	13.804
295.71	13.860
296.08	12.257
296.44	11.807
296.81	14.306
297.18	11.014
297.55	13.686
297.91	11.233
298.28	13.193
298.65	13.840
299.02	13.342
299.38	11.218
299.75	12.690
300.12	10.602
300.48	13.307
300.85	12.928
301.22	11.169
301.59	11.974
301.95	12.152
302.32	13.878
302.69	12.935
303.05	12.005
303.42	12.080
303.79	12.617
304.15	12.306
304.52	11.772
304.89	11.696
305.25	12.107
305.62	9.802
305.99	10.877
306.35	12.254
306.72	11.136
307.09	11.745
307.45	11.825
307.82	11.343
308.19	9.988
308.55	11.996
308.92	11.983
309.29	11.173
309.65	11.841
310.02	11.441
310.38	11.526
310.75	10.929
311.12	12.056
311.48	11.453
311.85	11.204
312.22	9.494
312.58	11.996
312.95	11.099
313.31	10.766
313.68	9.529
314.05	10.306
314.41	11.134
314.78	11.959
315.14	11.408
315.51	12.215
315.87	10.963
316.24	11.931
316.61	12.402
316.97	11.905
317.34	11.816
317.70	11.663
318.07	11.923
318.43	10.392
318.80	11.742
319.16	11.230
319.53	12.251
319.89	10.728
320.26	12.146
320.62	12.939
320.99	10.960
321.35	12.436
321.72	13.915
322.08	12.991
322.45	14.112
322.81	13.752
323.18	13.150
323.54	12.741
323.91	13.242
324.27	15.527
324.64	14.700
325.00	14.781
325.37	16.162
325.73	14.415
326.10	17.166
326.46	16.592
326.83	17.060
327.19	17.611
327.56	18.853
327.92	19.366
328.29	19.464
328.65	19.340
329.01	20.772
329.38	20.829
329.74	20.774
330.11	21.316
330.47	21.336
330.84	22.019
331.20	24.525
331.56	23.148
331.93	24.658
332.29	24.840
332.66	24.253
333.02	25.743
333.38	26.214
333.75	26.282
334.11	26.410
334.48	27.924
334.84	28.480
335.20	27.813
335.57	27.017
335.93	28.546
336.29	28.453
336.66	27.793
337.02	29.182
337.38	28.704
337.75	29.091
338.11	29.757
338.47	31.022
338.84	30.314
339.20	30.347
339.56	30.826
339.93	30.976
340.29	32.018
340.65	30.108
341.02	31.472
341.38	31.150
341.74	31.890
342.11	30.329
342.47	31.406
342.83	33.304
343.20	31.359
343.56	32.783
343.92	31.355
344.28	33.305
344.65	32.902
345.01	31.029
345.37	32.380
345.73	31.967
346.10	33.822
346.46	33.389
346.82	31.751
347.19	32.253
347.55	33.668
347.91	34.304
348.27	33.387
348.63	33.390
349.00	33.306
349.36	33.167
349.72	34.660
350.08	33.934
350.45	33.520
350.81	33.140
351.17	32.655
351.53	34.776
351.89	33.196
352.26	34.000
352.62	35.081
352.98	34.940
353.34	33.655
353.70	34.628
354.07	35.403
354.43	34.748
354.79	35.178
355.15	35.873
355.51	36.472
355.87	35.356
356.24	34.421
356.60	34.842
356.96	35.317
357.32	35.703
357.68	35.027
358.04	35.703
358.40	35.691
358.77	35.885
359.13	35.629
359.49	35.285
359.85	36.037
360.21	36.443
360.57	36.496
360.93	37.065
361.29	36.556
361.66	36.677
362.02	37.879
362.38	38.462
362.74	37.774
363.10	38.826
363.46	39.140
363.82	38.167
364.18	36.827
364.54	37.574
364.90	37.849
365.26	38.501
365.62	39.197
365.98	39.003
366.35	39.621
366.71	40.281
367.07	39.478
367.43	39.540
367.79	40.071
368.15	39.698
368.51	40.932
368.87	40.488
369.23	39.856
369.59	41.108
369.95	40.836
370.31	40.824
370.67	41.343
371.03	40.777
371.39	40.992
371.75	43.223
372.11	41.512
372.47	42.160
372.83	42.796
373.19	42.439
373.55	43.177
373.91	41.973
374.27	44.507
374.63	43.001
374.99	43.333
375.35	43.454
375.71	43.776
376.07	45.225
376.42	44.354
376.78	45.436
377.14	44.414
377.50	44.422
377.86	45.917
378.22	44.480
378.58	45.000
378.94	45.369
379.30	44.853
379.66	44.828
380.02	45.677
380.38	45.466
380.74	44.464
381.09	45.890
381.45	45.321
381.81	47.008
382.17	46.256
382.53	45.971
382.89	47.583
383.25	48.164
383.61	48.293
383.97	46.603
384.32	45.654
384.68	47.492
385.04	47.488
385.40	46.920
385.76	49.371
386.12	48.771
386.48	48.914
386.83	47.812
387.19	48.413
387.55	49.749
387.91	48.594
388.27	48.657
388.62	49.780
388.98	48.987
389.34	49.656
389.70	48.788
390.06	48.395
390.42	49.482
390.77	49.509
391.13	49.433
391.49	50.453
391.85	50.032
392.20	49.969
392.56	50.540
392.92	50.382
393.28	50.059
393.64	50.450
393.99	50.219
394.35	50.158
394.71	51.405
395.07	49.843
395.42	49.362
395.78	50.228
396.14	50.694
396.50	51.237
396.85	50.998
397.21	49.937
397.57	50.533
397.92	51.049
398.28	50.977
398.64	48.434
399.00	50.677
399.35	50.113
399.71	49.052
400.07	51.391
400.42	50.000
400.78	51.194
401.14	48.578
401.49	51.459
401.85	49.299
402.21	49.639
402.57	50.187
402.92	50.314
403.28	50.188
403.63	50.189
403.99	49.681
404.35	50.281
404.70	48.988
405.06	49.471
405.42	49.099
405.77	49.157
406.13	50.582
406.49	49.142
406.84	49.633
407.20	50.391
407.55	49.195
407.91	49.332
408.27	49.267
408.62	49.908
408.98	49.476
409.34	49.318
409.69	49.031
410.05	49.384
410.40	48.519
410.76	48.794
411.11	48.875
411.47	49.441
411.83	49.404
412.18	49.678
412.54	47.566
412.89	48.645
413.25	50.181
413.60	49.068
413.96	47.914
414.31	48.720
414.67	48.877
415.03	49.334
415.38	49.674
415.74	48.925
416.09	49.575
416.45	49.291
416.80	50.496
417.16	51.036
417.51	50.033
417.87	49.935
418.22	50.907
418.58	49.365
418.93	51.034
419.29	47.887
419.64	50.032
420.00	51.700
420.35	49.075
420.71	50.608
421.06	50.583
421.42	51.442
421.77	50.867
422.12	50.511
422.48	50.839
422.83	50.696
423.19	50.959
423.54	50.265
423.90	50.883
424.25	52.526
424.61	51.530
424.96	50.581
425.31	52.166
425.67	51.937
426.02	52.415
426.38	52.223
426.73	53.208
427.09	53.354
427.44	53.647
427.79	52.858
428.15	52.124
428.50	52.453
428.85	52.457
429.21	52.745
429.56	52.776
429.92	53.056
430.27	52.080
430.62	52.849
430.98	53.238
431.33	52.576
431.68	52.747
432.04	53.326
432.39	52.995
432.74	52.375
433.10	54.943
433.45	54.182
433.80	54.962
434.16	53.518
434.51	54.032
434.86	55.168
435.22	55.188
435.57	54.959
435.92	54.611
436.28	55.039
436.63	55.048
436.98	55.562
437.34	56.080
437.69	56.887
438.04	55.783
438.39	54.856
438.75	58.106
439.10	57.725
439.45	57.152
439.81	55.780
440.16	58.670
440.51	56.836
440.86	58.489
441.22	56.900
441.57	57.230
441.92	57.188
442.27	57.650
442.63	58.244
442.98	58.070
443.33	56.928
443.68	56.074
444.03	58.271
444.39	56.714
444.74	58.919
445.09	57.628
445.44	57.493
445.79	59.309
446.15	57.269
446.50	58.014
446.85	59.671
447.20	58.029
447.55	58.036
447.91	57.248
448.26	58.964
448.61	59.470
448.96	59.036
449.31	58.786
449.66	59.466
450.02	59.384
450.37	58.388
450.72	58.419
451.07	60.570
451.42	58.989
451.77	58.710
452.12	57.775
452.47	59.240
452.83	57.715
453.18	59.203
453.53	60.936
453.88	59.259
454.23	59.004
454.58	60.076
454.93	59.601
455.28	58.730
455.63	59.206
455.98	59.230
456.34	57.407
456.69	60.038
457.04	61.059
457.39	59.174
457.74	59.371
458.09	57.799
458.44	58.572
458.79	58.880
459.14	59.211
459.49	59.284
459.84	60.632
460.19	60.255
460.54	57.885
460.89	61.023
461.24	58.944
461.59	59.561
461.94	59.119
462.29	59.771
462.64	60.731
462.99	60.460
463.34	58.067
463.69	58.945
464.04	59.927
464.39	59.551
464.74	59.264
465.09	59.139
465.44	60.877
465.79	58.844
466.14	59.692
466.49	59.862
466.84	60.381
467.19	59.324
467.54	60.026
467.89	60.076
468.24	58.394
468.59	59.302
468.94	59.683
469.29	58.951
469.64	58.578
469.99	60.547
470.34	60.478
470.68	61.969
471.03	61.217
471.38	60.913
471.73	61.064
472.08	59.294
472.43	60.403
472.78	59.973
473.13	60.272
473.48	59.544
473.83	58.593
474.17	61.399
474.52	60.498
474.87	60.364
475.22	59.915
475.57	60.305
475.92	60.340
476.27	60.361
476.61	61.574
476.96	58.003
477.31	60.249
477.66	59.438
478.01	60.247
478.36	58.333
478.70	60.903
479.05	59.890
479.40	59.883
479.75	58.603
480.10	59.959
480.45	60.100
480.79	60.826
481.14	60.861
481.49	58.966
481.84	60.714
482.19	59.869
482.53	60.384
482.88	60.286
483.23	59.741
483.58	59.623
483.92	58.906
484.27	58.888
484.62	59.346
484.97	58.416
485.31	59.140
485.66	56.878
486.01	56.865
486.36	56.351
486.70	56.396
487.05	56.600
487.40	57.808
487.75	58.000
488.09	57.509
488.44	58.459
488.79	58.909
489.13	60.777
489.48	58.914
489.83	59.103
490.17	59.281
490.52	60.046
490.87	59.509
491.22	60.267
491.56	60.057
491.91	59.034
492.26	61.740
492.60	59.645
492.95	60.403
493.30	59.551
493.64	61.690
493.99	60.193
494.34	59.757
494.68	60.381
495.03	60.487
495.37	60.550
495.72	60.323
496.07	60.976
496.41	60.849
496.76	60.341
497.11	59.851
497.45	61.432
497.80	61.403
498.14	60.060
498.49	60.284
498.84	61.826
499.18	61.998
499.53	61.111
499.87	59.582
500.22	59.842
500.56	61.422
500.91	60.442
501.26	60.999
501.60	60.157
501.95	60.747
502.29	60.872
502.64	61.149
502.98	62.062
503.33	60.519
503.67	60.096
504.02	62.805
504.36	61.405
504.71	61.616
505.06	61.953
505.40	62.081
505.75	62.526
506.09	61.835
506.44	62.628
506.78	62.347
507.13	62.513
507.47	62.350
507.82	62.286
508.16	62.282
508.51	64.113
508.85	62.951
509.19	63.119
509.54	62.306
509.88	63.161
510.23	63.959
510.57	64.939
510.92	62.154
511.26	64.321
511.61	63.641
511.95	64.712
512.30	64.135
512.64	64.107
512.98	62.830
513.33	65.249
513.67	64.070
514.02	66.819
514.36	65.371
514.70	65.793
515.05	66.392
515.39	66.293
515.74	66.527
516.08	66.288
516.42	66.313
516.77	65.652
517.11	67.181
517.46	66.607
517.80	65.912
518.14	67.177
518.49	66.466
518.83	66.829
519.17	67.738
519.52	65.838
519.86	67.347
520.20	66.950
520.55	68.543
520.89	68.193
521.23	67.258
521.58	68.770
521.92	68.077
522.26	68.510
522.61	68.701
522.95	69.603
523.29	68.615
523.64	67.853
523.98	69.475
524.32	68.299
524.66	68.630
525.01	68.506
525.35	68.438
525.69	69.158
526.04	70.106
526.38	69.650
526.72	68.084
527.06	69.066
527.41	69.789
527.75	70.107
528.09	69.037
528.43	71.911
528.78	70.231
529.12	69.548
529.46	69.851
529.80	68.461
530.15	69.373
530.49	70.976
530.83	70.451
531.17	69.577
531.51	70.657
531.86	69.613
532.20	70.981
532.54	69.435
532.88	70.363
533.22	71.371
533.57	69.463
533.91	68.930
534.25	71.354
534.59	68.570
534.93	69.415
535.27	68.464
535.62	71.160
535.96	70.907
536.30	70.185
536.64	72.088
536.98	69.756
537.32	72.404
537.66	72.370
538.01	71.119
538.35	71.359
538.69	70.439
539.03	67.874
539.37	70.121
539.71	70.075
540.05	69.179
540.39	71.399
540.73	71.409
541.07	72.169
541.42	70.161
541.76	70.888
542.10	71.576
542.44	70.535
542.78	70.200
543.12	71.497
543.46	70.376
543.80	72.588
544.14	70.294
544.48	71.819
544.82	71.429
545.16	71.380
545.50	71.429
545.84	72.380
546.18	72.837
546.52	72.026
546.86	71.675
547.20	72.961
547.54	70.318
547.88	72.147
548.22	69.691
548.56	69.789
548.90	72.776
549.24	70.661
549.58	74.048
549.92	72.981
550.26	73.187
550.60	73.978
550.94	74.235
551.28	72.952
551.62	74.154
551.96	73.985
552.30	72.661
552.64	70.945
552.98	72.644
553.32	72.325
553.66	72.859
554.00	75.401
554.34	73.264
554.68	73.156
555.02	73.884
555.36	74.570
555.69	74.066
556.03	73.733
556.37	73.665
556.71	73.791
557.05	74.646
557.39	73.086
557.73	74.888
558.07	75.339
558.41	74.426
558.75	75.682
559.08	76.123
559.42	76.905
559.76	76.541
560.10	74.771
560.44	75.279
560.78	74.755
561.12	75.811
561.45	74.280
561.79	74.370
562.13	74.308
562.47	74.532
562.81	75.720
563.15	75.035
563.48	74.894
563.82	74.674
564.16	75.000
564.50	74.932
564.84	74.565
565.17	74.715
565.51	76.844
565.85	77.846
566.19	74.934
566.52	75.536
566.86	75.000
567.20	73.225
567.54	74.635
567.88	74.810
568.21	74.152
568.55	72.935
568.89	74.538
569.23	72.508
569.56	72.154
569.90	73.041
570.24	69.371
570.57	70.764
570.91	71.523
571.25	70.536
571.59	68.639
571.92	67.911
572.26	68.901
572.60	69.271
572.93	68.748
573.27	69.154
573.61	69.511
573.95	69.143
574.28	67.691
574.62	67.938
574.96	68.013
575.29	69.031
575.63	67.323
575.97	67.661
576.30	68.738
576.64	68.954
576.98	69.344
577.31	69.083
577.65	68.624
577.98	67.709
578.32	68.196
578.66	67.182
578.99	67.782
579.33	67.624
579.67	67.903
580.00	67.899
580.34	68.408
580.67	68.076
581.01	69.452
581.35	68.131
581.68	67.802
582.02	67.994
582.35	67.558
582.69	68.426
583.02	67.763
583.36	69.080
583.70	70.587
584.03	71.170
584.37	71.824
584.70	70.604
585.04	69.767
585.37	70.098
585.71	70.180
586.04	69.642
586.38	69.645
586.72	71.650
587.05	71.462
587.39	71.401
587.72	72.526
588.06	71.381
588.39	71.888
588.73	71.703
589.06	73.027
589.40	72.416
589.73	73.311
590.07	74.245
590.40	73.839
590.73	75.577
591.07	73.876
591.40	74.844
591.74	74.615
592.07	75.974
592.41	75.265
592.74	74.671
593.08	71.673
593.41	72.356
593.75	72.718
594.08	72.674
594.41	72.962
594.75	73.473
595.08	73.326
595.42	74.936
595.75	74.615
596.09	74.668
596.42	75.362
596.75	75.355
597.09	74.715
597.42	75.745
597.75	77.691
598.09	74.966
598.42	74.368
598.76	76.062
599.09	74.639
599.42	73.475
599.76	74.304
600.09	74.020
600.42	74.829
600.76	74.108
601.09	74.695
601.42	73.756
601.76	75.625
602.09	76.691
602.42	76.790
602.76	77.122
603.09	77.159
603.42	78.679
603.76	76.290
604.09	77.400
604.42	76.777
604.76	77.793
605.09	76.965
605.42	76.433
605.75	77.233
606.09	76.093
606.42	77.356
606.75	76.840
607.09	77.011
607.42	75.897
607.75	76.554
608.08	76.999
608.42	76.610
608.75	79.373
609.08	80.319
609.41	79.695
609.75	78.931
610.08	79.331
610.41	77.971
610.74	78.791
611.07	80.930
611.41	80.125
611.74	80.544
612.07	79.390
612.40	79.650
612.73	82.147
613.07	81.159
613.40	80.963
613.73	80.918
614.06	79.800
614.39	81.782
614.72	79.608
615.06	80.615
615.39	78.657
615.72	80.786
616.05	80.950
616.38	80.000
616.71	81.346
617.05	82.705
617.38	84.035
617.71	82.767
618.04	84.635
618.37	84.048
618.70	85.281
619.03	85.486
619.36	85.456
619.69	86.732
620.03	86.779
620.36	84.835
620.69	84.297
621.02	86.391
621.35	87.718
621.68	89.881
622.01	89.250
622.34	88.188
622.67	87.066
623.00	87.136
623.33	88.415
623.66	85.639
623.99	86.233
624.32	87.148
624.65	86.917
624.99	88.111
625.32	87.566
625.65	90.181
625.98	89.122
626.31	87.697
626.64	90.121
626.97	90.401
627.30	89.492
627.63	89.255
627.96	93.441
628.29	90.564
628.62	92.920
628.95	93.487
629.28	94.859
629.61	92.024
629.94	93.060
630.26	92.984
630.59	97.086
630.92	94.974
631.25	92.718
631.58	95.815
631.91	98.465
632.24	98.050
632.57	95.341
632.90	97.390
633.23	95.647
633.56	101.259
633.89	99.507
634.22	98.765
