SpectraSuite Data File
++++++++++++++++++++++++++++++++++++
Date: Fri May 15 20:14:43 PDT 2015
User: schluterlab
Dark Spectrum Present: Yes
Reference Spectrum Present: Yes
Number of Sampled Component Spectra: 1
Spectrometers: USB2E3373
Integration Time (usec): 3000 (USB2E3373)
Spectra Averaged: 3 (USB2E3373)
Boxcar Smoothing: 0 (USB2E3373)
Correct for Electrical Dark: No (USB2E3373)
Strobe/Lamp Enabled: No (USB2E3373)
Correct for Detector Non-linearity: No (USB2E3373)
Correct for Stray Light: No (USB2E3373)
Number of Pixels in Processed Spectrum: 2048
>>>>>Begin Processed Spectral Data<<<<<
178.53	0.000
178.91	0.000
179.29	-62.500
179.67	-450.000
180.04	-14.286
180.42	-225.000
180.80	-900.000
181.18	33.333
181.56	-0.000
181.94	50.000
182.31	800.000
182.69	140.000
183.07	-66.667
183.45	-100.000
183.83	100.000
184.20	72.727
184.58	44.444
184.96	50.000
185.34	66.667
185.72	-650.000
186.09	46.154
186.47	-100.000
186.85	116.667
187.23	122.222
187.61	-700.000
187.98	-33.333
188.36	0.000
188.74	33.333
189.12	35.294
189.49	38.889
189.87	0.000
190.25	42.857
190.63	550.000
191.00	-133.333
191.38	15.789
191.76	550.000
192.14	100.000
192.51	50.000
192.89	-11.111
193.27	114.286
193.65	83.333
194.02	63.636
194.40	30.000
194.78	-50.000
195.15	-25.000
195.53	-37.500
195.91	125.000
196.29	-150.000
196.66	53.846
197.04	-14.286
197.42	44.444
197.79	-533.333
198.17	-53.846
198.55	300.000
198.92	-100.000
199.30	200.000
199.68	-20.000
200.05	-133.333
200.43	0.000
200.81	100.000
201.18	-300.000
201.56	600.000
201.94	-100.000
202.31	-266.667
202.69	-200.000
203.07	175.000
203.44	-100.000
203.82	0.000
204.19	28.571
204.57	-600.000
204.95	125.000
205.32	80.000
205.70	14.286
206.08	25.000
206.45	222.222
206.83	100.000
207.20	100.000
207.58	-0.000
207.96	0.000
208.33	10.000
208.71	75.000
209.08	-33.333
209.46	-500.000
209.84	120.000
210.21	400.000
210.59	100.000
210.96	100.000
211.34	100.000
211.71	6.667
212.09	0.000
212.46	-1000.000
212.84	0.000
213.22	-20.000
213.59	700.000
213.97	23.077
214.34	72.727
214.72	-83.333
215.09	300.000
215.47	23.077
215.84	-45.455
216.22	-366.667
216.59	-125.000
216.97	-150.000
217.34	-100.000
217.72	-140.000
218.09	112.500
218.47	100.000
218.84	-500.000
219.22	-144.444
219.59	-180.000
219.97	-33.333
220.34	175.000
220.72	100.000
221.09	-225.000
221.47	-50.000
221.84	-850.000
222.22	-600.000
222.59	9.091
222.97	66.667
223.34	33.333
223.72	42.857
224.09	57.143
224.46	25.000
224.84	266.667
225.21	-30.000
225.59	20.000
225.96	-50.000
226.34	175.000
226.71	-57.143
227.08	33.333
227.46	-75.000
227.83	-350.000
228.21	-11.111
228.58	-27.273
228.95	0.000
229.33	-30.000
229.70	56.250
230.08	-62.500
230.45	-14.286
230.82	71.429
231.20	-66.667
231.57	57.143
231.95	-85.714
232.32	70.000
232.69	0.000
233.07	-100.000
233.44	-20.000
233.81	-130.000
234.19	-111.111
234.56	-23.529
234.93	600.000
235.31	50.000
235.68	-260.000
236.05	-92.308
236.43	-45.000
236.80	-35.294
237.17	40.625
237.55	5.000
237.92	3.704
238.29	19.444
238.67	36.667
239.04	-5.882
239.41	-21.951
239.79	-26.667
240.16	12.195
240.53	7.895
240.91	4.348
241.28	3.175
241.65	14.286
242.02	10.959
242.40	-5.000
242.77	1.695
243.14	-1.515
243.51	1.250
243.89	10.345
244.26	-1.149
244.63	-3.571
245.00	4.124
245.38	7.216
245.75	-2.247
246.12	0.862
246.49	5.785
246.87	3.846
247.24	2.521
247.61	-4.386
247.98	1.626
248.36	8.750
248.73	6.579
249.10	4.545
249.47	6.329
249.84	7.190
250.22	-0.588
250.59	-0.654
250.96	10.798
251.33	4.070
251.70	4.118
252.08	-1.015
252.45	3.465
252.82	-1.005
253.19	4.608
253.56	2.804
253.94	4.505
254.31	0.000
254.68	4.386
255.05	2.362
255.42	9.607
255.79	3.475
256.16	2.724
256.54	4.851
256.91	5.703
257.28	5.576
257.65	1.124
258.02	3.901
258.39	3.367
258.76	4.762
259.14	2.990
259.51	3.883
259.88	3.093
260.25	1.307
260.62	3.819
260.99	1.017
261.36	0.000
261.73	1.582
262.10	6.383
262.47	2.454
262.85	4.389
263.22	6.154
263.59	2.492
263.96	2.795
264.33	-0.606
264.70	2.083
265.07	-1.488
265.44	2.833
265.81	4.237
266.18	4.372
266.55	5.398
266.92	4.663
267.29	3.394
267.66	2.046
268.03	1.832
268.40	2.089
268.77	4.278
269.14	4.796
269.51	4.884
269.88	1.496
270.25	1.276
270.62	0.732
270.99	1.279
271.36	3.912
271.73	2.582
272.10	3.163
272.47	1.891
272.84	2.723
273.21	4.176
273.58	3.133
273.95	2.059
274.32	1.386
274.69	0.000
275.06	2.232
275.43	0.454
275.80	3.091
276.17	1.149
276.54	4.925
276.91	2.412
277.28	2.620
277.65	4.545
278.02	3.830
278.39	1.751
278.76	4.403
279.13	0.830
279.50	3.571
279.87	4.320
280.23	1.075
280.60	5.068
280.97	4.848
281.34	-0.192
281.71	5.339
282.08	2.454
282.45	2.740
282.82	1.158
283.19	5.029
283.56	3.661
283.92	0.000
284.29	2.500
284.66	1.357
285.03	3.929
285.40	1.323
285.77	2.285
286.14	3.249
286.51	5.904
286.87	1.463
287.24	2.394
287.61	4.938
287.98	6.140
288.35	3.120
288.72	6.480
289.08	5.035
289.45	4.218
289.82	2.622
290.19	3.072
290.56	2.916
290.93	2.189
291.29	2.928
291.66	6.299
292.03	5.104
292.40	3.226
292.77	4.306
293.13	1.786
293.50	2.731
293.87	4.427
294.24	3.709
294.60	5.067
294.97	5.208
295.34	3.988
295.71	4.471
296.08	3.886
296.44	2.703
296.81	5.139
297.18	5.797
297.55	7.995
297.91	5.068
298.28	6.860
298.65	5.020
299.02	3.235
299.38	1.642
299.75	4.690
300.12	4.581
300.48	5.270
300.85	5.830
301.22	3.506
301.59	4.211
301.95	7.215
302.32	5.447
302.69	5.224
303.05	6.064
303.42	6.974
303.79	6.893
304.15	5.735
304.52	4.518
304.89	5.848
305.25	7.022
305.62	5.484
305.99	5.848
306.35	6.243
306.72	6.187
307.09	7.526
307.45	8.037
307.82	6.829
308.19	8.943
308.55	8.179
308.92	8.606
309.29	7.263
309.65	7.535
310.02	7.371
310.38	8.342
310.75	8.743
311.12	9.042
311.48	8.802
311.85	9.738
312.22	10.127
312.58	9.660
312.95	9.819
313.31	10.145
313.68	10.052
314.05	10.000
314.41	12.268
314.78	12.784
315.14	11.408
315.51	12.836
315.87	11.885
316.24	13.448
316.61	12.402
316.97	14.484
317.34	13.574
317.70	13.671
318.07	12.981
318.43	14.510
318.80	14.867
319.16	16.406
319.53	16.809
319.89	15.846
320.26	15.081
320.62	17.051
320.99	15.762
321.35	18.705
321.72	18.692
322.08	19.235
322.45	19.289
322.81	20.432
323.18	20.118
323.54	20.753
323.91	22.493
324.27	23.047
324.64	24.532
325.00	26.277
325.37	26.997
325.73	26.473
326.10	28.065
326.46	29.238
326.83	30.534
327.19	30.776
327.56	32.233
327.92	34.331
328.29	34.554
328.65	36.321
329.01	35.754
329.38	37.419
329.74	36.355
330.11	38.832
330.47	39.425
330.84	40.673
331.20	43.346
331.56	40.926
331.93	42.009
332.29	42.805
332.66	41.991
333.02	44.981
333.38	43.721
333.75	45.971
334.11	44.136
334.48	44.787
334.84	44.597
335.20	45.654
335.57	44.878
335.93	45.077
336.29	47.698
336.66	45.958
337.02	46.097
337.38	45.463
337.75	48.000
338.11	45.446
338.47	48.905
338.84	48.059
339.20	47.349
339.56	47.982
339.93	48.344
340.29	47.798
340.65	47.222
341.02	48.493
341.38	48.053
341.74	48.498
342.11	47.140
342.47	50.534
342.83	48.270
343.20	46.341
343.56	49.391
343.92	48.007
344.28	48.164
344.65	48.618
345.01	47.882
345.37	47.855
345.73	47.782
346.10	49.439
346.46	48.949
346.82	48.118
347.19	47.963
347.55	48.705
347.91	49.595
348.27	46.968
348.63	49.830
349.00	49.467
349.36	46.717
349.72	50.415
350.08	47.623
350.45	48.923
350.81	48.671
351.17	46.417
351.53	51.184
351.89	47.399
352.26	48.320
352.62	50.161
352.98	49.076
353.34	47.182
353.70	48.786
354.07	50.161
354.43	49.400
354.79	50.537
355.15	48.968
355.51	50.475
355.87	49.110
356.24	50.653
356.60	48.343
356.96	49.444
357.32	49.521
357.68	49.883
358.04	50.808
358.40	50.804
358.77	50.957
359.13	48.919
359.49	48.305
359.85	49.922
360.21	52.632
360.57	49.197
360.93	50.151
361.29	49.622
361.66	50.313
362.02	52.121
362.38	51.181
362.74	51.249
363.10	51.618
363.46	52.780
363.82	51.916
364.18	50.996
364.54	51.029
364.90	51.900
365.26	50.946
365.62	52.701
365.98	51.760
366.35	54.115
366.71	52.846
367.07	52.250
367.43	51.330
367.79	51.307
368.15	52.046
368.51	53.387
368.87	52.190
369.23	52.274
369.59	55.102
369.95	53.592
370.31	53.468
370.67	53.582
371.03	51.904
371.39	53.319
371.75	52.821
372.11	52.211
372.47	54.068
372.83	53.300
373.19	53.994
373.55	53.069
373.91	53.636
374.27	54.784
374.63	55.492
374.99	53.475
375.35	53.900
375.71	55.175
376.07	55.758
376.42	54.966
376.78	55.101
377.14	53.893
377.50	54.316
377.86	54.752
378.22	55.584
378.58	56.410
378.94	55.514
379.30	55.958
379.66	56.050
380.02	55.487
380.38	56.360
380.74	55.595
381.09	56.503
381.45	56.575
381.81	56.508
382.17	56.282
382.53	56.715
382.89	56.811
383.25	57.747
383.61	56.585
383.97	58.095
384.32	57.348
384.68	57.214
385.04	56.924
385.40	56.627
385.76	57.987
386.12	59.379
386.48	59.004
386.83	57.958
387.19	57.326
387.55	58.030
387.91	58.435
388.27	56.716
388.62	58.527
388.98	57.029
389.34	58.339
389.70	58.546
390.06	56.325
390.42	58.614
390.77	59.124
391.13	58.260
391.49	58.732
391.85	59.064
392.20	58.067
392.56	58.614
392.92	58.661
393.28	58.314
393.64	58.258
393.99	58.370
394.35	58.824
394.71	58.174
395.07	57.260
395.42	57.620
395.78	58.111
396.14	56.747
396.50	58.656
396.85	58.854
397.21	58.208
397.57	57.994
397.92	57.460
398.28	58.276
398.64	57.048
399.00	57.336
399.35	57.280
399.71	57.496
400.07	59.613
400.42	58.323
400.78	58.053
401.14	58.137
401.49	57.653
401.85	57.160
402.21	58.976
402.57	57.625
402.92	57.277
403.28	57.456
403.63	58.575
403.99	57.972
404.35	57.964
404.70	55.536
405.06	57.051
405.42	55.811
405.77	56.421
406.13	57.625
406.49	57.608
406.84	58.007
407.20	57.556
407.55	56.021
407.91	57.152
408.27	57.425
408.62	55.938
408.98	56.624
409.34	57.125
409.69	57.429
410.05	56.835
410.40	56.667
410.76	57.660
411.11	57.562
411.47	57.199
411.83	55.493
412.18	58.108
412.54	56.117
412.89	56.281
413.25	56.258
413.60	56.584
413.96	54.969
414.31	56.890
414.67	56.318
415.03	57.257
415.38	56.593
415.74	57.329
416.09	57.218
416.45	57.394
416.80	55.585
417.16	58.840
417.51	57.295
417.87	56.519
418.22	57.578
418.58	57.659
418.93	58.119
419.29	55.954
419.64	56.902
420.00	58.942
420.35	57.075
420.71	58.202
421.06	57.950
421.42	57.873
421.77	58.671
422.12	57.321
422.48	58.202
422.83	57.425
423.19	58.126
423.54	56.085
423.90	57.479
424.25	58.152
424.61	58.935
424.96	58.130
425.31	59.330
425.67	59.096
426.02	58.893
426.38	61.240
426.73	59.019
427.09	59.810
427.44	61.235
427.79	58.397
428.15	59.223
428.50	59.055
428.85	59.767
429.21	59.196
429.56	59.353
429.92	58.706
430.27	59.449
430.62	59.906
430.98	59.820
431.33	59.043
431.68	59.131
432.04	60.872
432.39	60.011
432.74	58.870
433.10	61.207
433.45	60.215
433.80	61.230
434.16	59.501
434.51	59.946
434.86	61.847
435.22	59.450
435.57	61.884
435.92	61.377
436.28	60.167
436.63	60.068
436.98	58.806
437.34	59.710
437.69	61.360
438.04	61.254
438.39	60.721
438.75	61.749
439.10	61.913
439.45	61.473
439.81	61.835
440.16	63.064
440.51	62.030
440.86	63.988
441.22	60.690
441.57	61.258
441.92	62.172
442.27	62.971
442.63	62.259
442.98	61.804
443.33	60.824
443.68	62.334
444.03	61.500
444.39	62.076
444.74	63.768
445.09	62.639
445.44	62.621
445.79	62.816
446.15	61.619
446.50	62.341
446.85	62.487
447.20	61.992
447.55	62.221
447.91	62.493
448.26	62.151
448.61	62.464
448.96	63.052
449.31	61.965
449.66	63.298
450.02	62.122
450.37	63.663
450.72	62.027
451.07	64.873
451.42	61.923
451.77	62.688
452.12	61.124
452.47	63.748
452.83	63.486
453.18	62.682
453.53	62.895
453.88	63.509
454.23	63.184
454.58	63.350
454.93	63.595
455.28	61.968
455.63	63.670
455.98	63.440
456.34	64.176
456.69	62.452
457.04	64.020
457.39	63.487
457.74	63.180
458.09	62.213
458.44	62.083
458.79	62.241
459.14	63.101
459.49	63.343
459.84	62.267
460.19	62.864
460.54	64.303
460.89	63.750
461.24	64.099
461.59	63.955
461.94	61.635
462.29	63.691
462.64	65.249
462.99	65.132
463.34	62.031
463.69	63.900
464.04	63.862
464.39	64.221
464.74	62.945
465.09	63.444
465.44	63.993
465.79	62.585
466.14	63.626
466.49	63.427
466.84	64.188
467.19	63.892
467.54	64.815
467.89	63.929
468.24	63.382
468.59	64.635
468.94	64.381
469.29	65.049
469.64	64.046
469.99	65.242
470.34	65.188
470.68	66.070
471.03	64.756
471.38	66.120
471.73	66.106
472.08	64.993
472.43	65.034
472.78	65.867
473.13	66.259
473.48	64.821
473.83	63.948
474.17	65.220
474.52	64.327
474.87	65.091
475.22	64.857
475.57	63.523
475.92	66.813
476.27	63.912
476.61	65.567
476.96	63.915
477.31	65.549
477.66	64.607
478.01	65.693
478.36	64.052
478.70	66.069
479.05	64.560
479.40	65.713
479.75	64.911
480.10	64.209
480.45	64.700
480.79	65.055
481.14	66.547
481.49	65.419
481.84	65.927
482.19	65.108
482.53	65.276
482.88	64.010
483.23	64.539
483.58	65.236
483.92	65.489
484.27	64.768
484.62	65.531
484.97	64.386
485.31	64.559
485.66	62.359
486.01	62.306
486.36	62.611
486.70	63.766
487.05	63.971
487.40	63.935
487.75	64.394
488.09	64.493
488.44	64.684
488.79	65.446
489.13	65.104
489.48	64.985
489.83	64.484
490.17	63.730
490.52	66.744
490.87	64.137
491.22	66.141
491.56	65.133
491.91	65.440
492.26	66.456
492.60	65.067
492.95	68.028
493.30	65.901
493.64	65.422
493.99	66.135
494.34	65.825
494.68	66.143
495.03	65.645
495.37	66.143
495.72	67.542
496.07	65.805
496.41	64.953
496.76	66.099
497.11	64.788
497.45	65.967
497.80	67.709
498.14	65.872
498.49	66.836
498.84	65.669
499.18	67.169
499.53	66.121
499.87	65.661
500.22	65.331
500.56	67.423
500.91	66.416
501.26	66.041
501.60	66.552
501.95	66.521
502.29	67.554
502.64	67.471
502.98	67.489
503.33	66.715
503.67	65.735
504.02	68.280
504.36	66.799
504.71	67.071
505.06	66.331
505.40	68.832
505.75	68.918
506.09	66.853
506.44	68.583
506.78	68.316
507.13	68.201
507.47	67.572
507.82	68.429
508.16	69.255
508.51	68.993
508.85	69.231
509.19	68.494
509.54	68.740
509.88	67.853
510.23	69.984
510.57	69.856
510.92	68.124
511.26	70.213
511.61	71.342
511.95	71.014
512.30	71.120
512.64	71.174
512.98	71.589
513.33	70.565
513.67	71.575
514.02	71.911
514.36	71.943
514.70	72.494
515.05	73.854
515.39	73.554
515.74	73.713
516.08	72.445
516.42	73.793
516.77	73.318
517.11	72.582
517.46	73.369
517.80	73.063
518.14	73.729
518.49	73.678
518.83	74.848
519.17	73.984
519.52	72.528
519.86	74.130
520.20	74.058
520.55	73.546
520.89	73.839
521.23	74.731
521.58	75.899
521.92	77.051
522.26	76.383
522.61	75.584
522.95	78.278
523.29	76.048
523.64	75.858
523.98	77.252
524.32	76.095
524.66	76.761
525.01	76.558
525.35	76.798
525.69	78.721
526.04	77.116
526.38	78.470
526.72	77.240
527.06	77.043
527.41	77.639
527.75	77.614
528.09	77.608
528.43	80.149
528.78	78.614
529.12	75.935
529.46	78.038
529.80	77.011
530.15	79.208
530.49	78.316
530.83	80.985
531.17	78.308
531.51	78.728
531.86	78.858
532.20	78.427
532.54	79.578
532.88	80.082
533.22	78.965
533.57	78.440
533.91	79.112
534.25	80.990
534.59	80.629
534.93	76.086
535.27	77.602
535.62	79.261
535.96	77.626
536.30	79.749
536.64	80.358
536.98	79.930
537.32	80.228
537.66	80.295
538.01	80.490
538.35	81.761
538.69	79.494
539.03	77.307
539.37	79.677
539.71	78.868
540.05	81.466
540.39	80.332
540.73	81.381
541.07	81.423
541.42	80.175
541.76	80.867
542.10	80.592
542.44	81.932
542.78	80.385
543.12	80.288
543.46	81.641
543.80	81.263
544.14	78.238
544.48	81.013
544.82	80.383
545.16	82.036
545.50	80.307
545.84	82.578
546.18	80.780
546.52	80.822
546.86	81.812
547.20	81.617
547.54	82.615
547.88	79.755
548.22	79.027
548.56	79.288
548.90	81.469
549.24	79.683
549.58	80.254
549.92	80.915
550.26	81.026
550.60	82.379
550.94	83.943
551.28	82.535
551.62	82.846
551.96	83.308
552.30	83.041
552.64	81.382
552.98	81.786
553.32	81.669
553.66	81.495
554.00	83.358
554.34	83.013
554.68	81.711
555.02	83.482
555.36	82.049
555.69	82.344
556.03	81.656
556.37	81.708
556.71	81.300
557.05	81.581
557.39	81.487
557.73	83.808
558.07	83.333
558.41	82.312
558.75	83.710
559.08	85.579
559.42	84.841
559.76	86.069
560.10	83.563
560.44	82.204
560.78	82.727
561.12	83.075
561.45	83.767
561.79	82.913
562.13	82.825
562.47	82.374
562.81	82.565
563.15	82.440
563.48	81.895
563.82	83.802
564.16	83.635
564.50	80.946
564.84	80.054
565.17	81.757
565.51	84.221
565.85	82.167
566.19	82.692
566.52	83.512
566.86	82.519
567.20	81.756
567.54	82.725
567.88	82.542
568.21	81.618
568.55	81.957
568.89	80.236
569.23	82.427
569.56	79.510
569.90	79.456
570.24	77.521
570.57	78.618
570.91	77.693
571.25	77.047
571.59	76.487
571.92	75.230
572.26	76.208
572.60	76.000
572.93	75.337
573.27	76.332
573.61	75.805
573.95	76.406
574.28	75.238
574.62	75.108
574.96	75.492
575.29	74.255
575.63	73.698
575.97	74.871
576.30	75.935
576.64	74.252
576.98	75.933
577.31	75.621
577.65	74.771
577.98	74.577
578.32	74.223
578.66	73.931
578.99	73.889
579.33	74.294
579.67	74.060
580.00	75.291
580.34	75.323
580.67	73.615
581.01	75.480
581.35	74.246
581.68	73.568
582.02	73.885
582.35	74.280
582.69	73.744
583.02	73.659
583.36	74.734
583.70	75.857
584.03	77.370
584.37	77.555
584.70	75.824
585.04	74.689
585.37	74.177
585.71	75.438
586.04	74.811
586.38	75.247
586.72	76.700
587.05	76.776
587.39	75.538
587.72	77.337
588.06	75.228
588.39	76.075
588.73	76.374
589.06	77.593
589.40	76.979
589.73	77.693
590.07	78.663
590.40	78.909
590.73	79.530
591.07	79.644
591.40	78.406
591.74	79.186
592.07	80.334
592.41	79.329
592.74	77.061
593.08	76.109
593.41	76.936
593.75	76.120
594.08	76.279
594.41	77.584
594.75	77.481
595.08	76.731
595.42	76.886
595.75	78.070
596.09	78.655
596.42	77.387
596.75	78.996
597.09	78.588
597.42	77.913
597.75	80.119
598.09	77.275
598.42	77.301
598.76	77.177
599.09	76.482
599.42	76.014
599.76	75.621
600.09	77.451
600.42	76.497
600.76	75.892
601.09	76.756
601.42	76.146
601.76	77.173
602.09	77.599
602.42	79.149
602.76	78.268
603.09	78.738
603.42	80.017
603.76	77.782
604.09	77.643
604.42	78.723
604.76	79.306
605.09	79.707
605.42	78.194
605.75	78.109
606.09	78.514
606.42	78.107
606.75	77.489
607.09	76.923
607.42	77.935
607.75	76.288
608.08	76.415
608.42	76.153
608.75	79.759
609.08	80.717
609.41	78.731
609.75	78.982
610.08	79.281
610.41	77.198
610.74	79.620
611.07	80.930
611.41	79.606
611.74	79.851
612.07	79.550
612.40	81.072
612.73	79.944
613.07	80.146
613.40	80.470
613.73	81.813
614.06	80.356
614.39	80.654
614.72	79.720
615.06	80.279
615.39	78.384
615.72	78.579
616.05	79.497
616.38	77.607
616.71	80.979
617.05	80.667
617.38	80.013
617.71	81.258
618.04	81.460
618.37	81.778
618.70	82.310
619.03	84.028
619.36	83.719
619.69	82.942
620.03	83.930
620.36	82.189
620.69	82.584
621.02	82.569
621.35	85.892
621.68	86.310
622.01	86.083
622.34	82.682
622.67	84.148
623.00	83.155
623.33	82.851
623.66	82.797
623.99	82.753
624.32	84.106
624.65	83.158
624.99	83.672
625.32	81.880
625.65	84.446
625.98	85.576
626.31	82.876
626.64	85.615
626.97	86.213
627.30	86.340
627.63	84.142
627.96	86.253
628.29	86.957
628.62	87.906
628.95	87.675
629.28	89.012
629.61	85.942
629.94	89.247
630.26	86.166
630.59	89.906
630.92	89.436
631.25	83.590
631.58	87.555
631.91	88.925
632.24	91.628
632.57	91.250
632.90	92.052
633.23	89.059
633.56	95.214
633.89	91.369
634.22	93.704
634.55	91.868
634.88	92.465
635.20	91.795
635.53	94.400
635.86	89.857
636.19	91.850
636.52	92.985
636.85	90.447
637.18	89.182
637.51	87.421
