SpectraSuite Data File
++++++++++++++++++++++++++++++++++++
Date: Fri May 15 20:12:02 PDT 2015
User: schluterlab
Dark Spectrum Present: Yes
Reference Spectrum Present: Yes
Number of Sampled Component Spectra: 1
Spectrometers: USB2E3373
Integration Time (usec): 3000 (USB2E3373)
Spectra Averaged: 3 (USB2E3373)
Boxcar Smoothing: 0 (USB2E3373)
Correct for Electrical Dark: No (USB2E3373)
Strobe/Lamp Enabled: No (USB2E3373)
Correct for Detector Non-linearity: No (USB2E3373)
Correct for Stray Light: No (USB2E3373)
Number of Pixels in Processed Spectrum: 2048
>>>>>Begin Processed Spectral Data<<<<<
178.53	0.000
178.91	0.000
179.29	150.000
179.67	-400.000
180.04	-42.857
180.42	225.000
180.80	700.000
181.18	100.000
181.56	100.000
181.94	-350.000
182.31	400.000
182.69	0.000
183.07	0.000
183.45	-140.000
183.83	-33.333
184.20	54.545
184.58	-55.556
184.96	-150.000
185.34	-0.000
185.72	0.000
186.09	7.692
186.47	100.000
186.85	16.667
187.23	133.333
187.61	-700.000
187.98	200.000
188.36	88.889
188.74	-133.333
189.12	64.706
189.49	5.556
189.87	0.000
190.25	114.286
190.63	700.000
191.00	-133.333
191.38	5.263
191.76	50.000
192.14	-100.000
192.51	-300.000
192.89	-44.444
193.27	71.429
193.65	233.333
194.02	118.182
194.40	70.000
194.78	62.500
195.15	58.333
195.53	-25.000
195.91	175.000
196.29	-75.000
196.66	-38.462
197.04	28.571
197.42	-88.889
197.79	-500.000
198.17	-130.769
198.55	600.000
198.92	66.667
199.30	-500.000
199.68	20.000
200.05	-200.000
200.43	0.000
200.81	300.000
201.18	-166.667
201.56	100.000
201.94	-450.000
202.31	66.667
202.69	-120.000
203.07	175.000
203.44	500.000
203.82	0.000
204.19	0.000
204.57	-366.667
204.95	50.000
205.32	0.000
205.70	-28.571
206.08	100.000
206.45	166.667
206.83	85.714
207.20	-28.571
207.58	400.000
207.96	-133.333
208.33	20.000
208.71	-100.000
209.08	-50.000
209.46	-500.000
209.84	0.000
210.21	-400.000
210.59	100.000
210.96	-50.000
211.34	-150.000
211.71	106.667
212.09	28.571
212.46	-600.000
212.84	0.000
213.22	130.000
213.59	450.000
213.97	30.769
214.34	72.727
214.72	0.000
215.09	300.000
215.47	7.692
215.84	-9.091
216.22	-66.667
216.59	-162.500
216.97	100.000
217.34	75.000
217.72	100.000
218.09	12.500
218.47	150.000
218.84	-300.000
219.22	-55.556
219.59	20.000
219.97	66.667
220.34	125.000
220.72	42.857
221.09	-125.000
221.47	-100.000
221.84	-300.000
222.22	-650.000
222.59	63.636
222.97	-8.333
223.34	33.333
223.72	0.000
224.09	14.286
224.46	7.143
224.84	566.667
225.21	-70.000
225.59	53.333
225.96	-100.000
226.34	375.000
226.71	100.000
227.08	50.000
227.46	87.500
227.83	-450.000
228.21	66.667
228.58	-18.182
228.95	12.500
229.33	30.000
229.70	68.750
230.08	0.000
230.45	-57.143
230.82	85.714
231.20	13.333
231.57	-42.857
231.95	-42.857
232.32	-70.000
232.69	64.286
233.07	-200.000
233.44	-40.000
233.81	50.000
234.19	-22.222
234.56	-29.412
234.93	200.000
235.31	50.000
235.68	-300.000
236.05	-84.615
236.43	-40.000
236.80	29.412
237.17	28.125
237.55	0.000
237.92	7.407
238.29	36.111
238.67	10.000
239.04	-23.529
239.41	-12.195
239.79	-3.333
240.16	12.195
240.53	7.895
240.91	-6.522
241.28	11.111
241.65	23.214
242.02	8.219
242.40	11.667
242.77	20.339
243.14	6.061
243.51	0.000
243.89	12.644
244.26	-9.195
244.63	9.524
245.00	6.186
245.38	1.031
245.75	-12.360
246.12	1.724
246.49	4.132
246.87	5.769
247.24	-2.521
247.61	-6.140
247.98	-6.504
248.36	2.500
248.73	2.632
249.10	1.299
249.47	4.430
249.84	1.307
250.22	1.765
250.59	4.575
250.96	2.347
251.33	0.000
251.70	1.176
252.08	3.046
252.45	0.495
252.82	-1.005
253.19	1.843
253.56	1.402
253.94	2.252
254.31	5.217
254.68	6.140
255.05	0.787
255.42	3.493
255.79	4.247
256.16	0.000
256.54	3.731
256.91	2.662
257.28	1.859
257.65	1.124
258.02	2.837
258.39	5.051
258.76	2.198
259.14	3.654
259.51	1.618
259.88	0.687
260.25	4.902
260.62	5.556
260.99	2.373
261.36	-0.685
261.73	1.899
262.10	1.824
262.47	3.067
262.85	-0.627
263.22	2.462
263.59	0.623
263.96	4.348
264.33	0.606
264.70	2.083
265.07	-2.381
265.44	3.116
265.81	5.085
266.18	2.186
266.55	6.427
266.92	5.440
267.29	2.872
267.66	2.046
268.03	3.403
268.40	3.916
268.77	5.348
269.14	3.357
269.51	3.856
269.88	4.239
270.25	-1.276
270.62	1.463
270.99	-0.256
271.36	0.489
271.73	4.225
272.10	1.217
272.47	2.364
272.84	3.465
273.21	2.784
273.58	2.410
273.95	4.805
274.32	0.693
274.69	0.452
275.06	2.902
275.43	1.587
275.80	3.532
276.17	0.920
276.54	2.784
276.91	2.851
277.28	1.747
277.65	3.926
278.02	3.617
278.39	1.969
278.76	1.258
279.13	-1.867
279.50	4.832
279.87	1.944
280.23	-0.430
280.60	3.509
280.97	1.212
281.34	1.538
281.71	3.901
282.08	2.045
282.45	1.761
282.82	1.931
283.19	3.288
283.56	1.927
283.92	0.380
284.29	0.769
284.66	1.357
285.03	2.554
285.40	1.701
285.77	1.933
286.14	3.069
286.51	4.059
286.87	3.839
287.24	1.289
287.61	2.116
287.98	4.211
288.35	1.906
288.72	3.503
289.08	0.521
289.45	4.042
289.82	3.497
290.19	0.000
290.56	1.372
290.93	1.852
291.29	1.541
291.66	2.835
292.03	3.030
292.40	0.484
292.77	2.552
293.13	0.000
293.50	1.973
293.87	3.817
294.24	1.855
294.60	1.788
294.97	4.018
295.34	1.994
295.71	1.788
296.08	2.691
296.44	0.142
296.81	1.806
297.18	3.478
297.55	3.930
297.91	2.466
298.28	4.749
298.65	3.392
299.02	1.887
299.38	1.368
299.75	1.655
300.12	1.702
300.48	0.922
300.85	3.042
301.22	1.169
301.59	1.184
301.95	2.911
302.32	2.594
302.69	2.736
303.05	1.361
303.42	1.868
303.79	3.621
304.15	2.987
304.52	-0.595
304.89	1.988
305.25	1.090
305.62	0.467
305.99	1.170
306.35	1.503
306.72	0.675
307.09	0.684
307.45	2.411
307.82	1.620
308.19	2.439
308.55	1.745
308.92	3.268
309.29	1.006
309.65	0.215
310.02	0.660
310.38	1.756
310.75	1.858
311.12	1.184
311.48	1.591
311.85	1.780
312.22	2.743
312.58	1.380
312.95	0.747
313.31	1.242
313.68	0.838
314.05	2.245
314.41	2.577
314.78	1.134
315.14	3.186
315.51	1.967
315.87	1.127
316.24	2.528
316.61	3.051
316.97	2.778
317.34	2.734
317.70	2.868
318.07	2.596
318.43	3.529
318.80	1.989
319.16	3.809
319.53	3.324
319.89	4.035
320.26	3.340
320.62	3.310
320.99	3.653
321.35	3.494
321.72	4.465
322.08	4.733
322.45	4.772
322.81	3.733
323.18	4.809
323.54	4.537
323.91	4.187
324.27	4.883
324.64	5.337
325.00	6.478
325.37	7.071
325.73	6.346
326.10	6.630
326.46	7.175
326.83	7.437
327.19	8.021
327.56	8.514
327.92	8.627
328.29	10.000
328.65	8.302
329.01	10.294
329.38	9.862
329.74	9.443
330.11	10.287
330.47	9.369
330.84	10.673
331.20	10.932
331.56	10.093
331.93	11.598
332.29	11.091
332.66	11.855
333.02	11.524
333.38	11.366
333.75	12.363
334.11	11.012
334.48	12.421
334.84	12.179
335.20	12.077
335.57	11.061
335.93	11.924
336.29	13.352
336.66	12.080
337.02	11.710
337.38	11.852
337.75	12.364
338.11	13.075
338.47	12.044
338.84	12.662
339.20	12.797
339.56	13.578
339.93	13.608
340.29	14.220
340.65	13.082
341.02	13.564
341.38	12.832
341.74	13.339
342.11	13.172
342.47	12.367
342.83	13.581
343.20	13.066
343.56	13.478
343.92	13.995
344.28	13.920
344.65	13.385
345.01	13.051
345.37	14.382
345.73	14.644
346.10	13.632
346.46	14.634
346.82	14.403
347.19	12.801
347.55	14.369
347.91	13.754
348.27	14.228
348.63	14.906
349.00	13.454
349.36	14.796
349.72	15.008
350.08	13.770
350.45	15.084
350.81	13.704
351.17	13.599
351.53	14.939
351.89	13.625
352.26	13.840
352.62	14.839
352.98	14.538
353.34	14.654
353.70	15.453
354.07	14.516
354.43	15.452
354.79	14.864
355.15	15.476
355.51	15.427
355.87	14.887
356.24	14.274
356.60	16.734
356.96	15.397
357.32	15.815
357.68	14.934
358.04	16.155
358.40	15.675
358.77	15.391
359.13	14.892
359.49	15.485
359.85	15.757
360.21	16.427
360.57	16.297
360.93	16.112
361.29	15.937
361.66	16.458
362.02	15.758
362.38	15.918
362.74	16.654
363.10	16.554
363.46	16.457
363.82	18.332
364.18	15.941
364.54	16.691
364.90	16.989
365.26	17.322
365.62	18.248
365.98	17.962
366.35	18.135
366.71	17.591
367.07	17.997
367.43	17.685
367.79	17.668
368.15	18.593
368.51	17.917
368.87	17.229
369.23	17.545
369.59	18.659
369.95	18.842
370.31	19.003
370.67	17.985
371.03	17.999
371.39	18.673
371.75	18.022
372.11	17.832
372.47	18.639
372.83	19.517
373.19	19.900
373.55	18.123
373.91	19.222
374.27	19.064
374.63	19.598
374.99	19.149
375.35	19.847
375.71	20.979
376.07	20.295
376.42	20.612
376.78	20.872
377.14	20.582
377.50	21.182
377.86	21.017
378.22	20.357
378.58	21.987
378.94	21.172
379.30	21.148
379.66	22.508
380.02	21.827
380.38	21.424
380.74	22.322
381.09	23.190
381.45	22.385
381.81	23.319
382.17	22.843
382.53	22.798
382.89	23.289
383.25	23.211
383.61	24.695
383.97	23.619
384.32	23.640
384.68	23.406
385.04	24.265
385.40	23.460
385.76	25.031
386.12	25.097
386.48	24.904
386.83	25.238
387.19	25.336
387.55	25.659
387.91	25.122
388.27	24.908
388.62	25.802
388.98	25.599
389.34	25.109
389.70	25.979
390.06	25.928
390.42	25.777
390.77	26.488
391.13	26.040
391.49	26.779
391.85	26.641
392.20	26.930
392.56	27.972
392.92	27.657
393.28	28.066
393.64	26.847
393.99	28.527
394.35	26.882
394.71	27.586
395.07	27.656
395.42	27.201
395.78	27.818
396.14	28.247
396.50	28.789
396.85	28.139
397.21	28.258
397.57	27.712
397.92	28.041
398.28	27.989
398.64	27.229
399.00	28.837
399.35	27.709
399.71	27.341
400.07	29.262
400.42	28.641
400.78	29.271
401.14	28.554
401.49	28.410
401.85	27.727
402.21	29.217
402.57	29.125
402.92	27.541
403.28	28.446
403.63	29.067
403.99	28.508
404.35	29.669
404.70	28.452
405.06	28.437
405.42	29.211
405.77	28.704
406.13	29.395
406.49	29.781
406.84	29.156
407.20	29.862
407.55	28.847
407.91	29.278
408.27	29.892
408.62	29.846
408.98	29.205
409.34	29.678
409.69	28.747
410.05	28.571
410.40	28.642
410.76	29.011
411.11	29.312
411.47	29.191
411.83	28.939
412.18	29.601
412.54	29.213
412.89	28.818
413.25	29.362
413.60	29.068
413.96	29.202
414.31	29.329
414.67	30.019
415.03	29.760
415.38	29.439
415.74	30.293
416.09	30.699
416.45	29.034
416.80	29.874
417.16	30.249
417.51	31.179
417.87	29.791
418.22	30.117
418.58	29.833
418.93	31.285
419.29	29.641
419.64	28.516
420.00	32.179
420.35	29.731
420.71	31.106
421.06	29.159
421.42	30.108
421.77	30.925
422.12	30.533
422.48	29.724
422.83	30.394
423.19	30.643
423.54	29.630
423.90	30.624
424.25	31.458
424.61	31.089
424.96	29.849
425.31	31.311
425.67	31.221
426.02	31.095
426.38	32.311
426.73	31.538
427.09	31.203
427.44	31.294
427.79	31.467
428.15	32.100
428.50	31.496
428.85	30.528
429.21	31.692
429.56	32.615
429.92	32.255
430.27	31.479
430.62	31.260
430.98	31.900
431.33	32.177
431.68	31.293
432.04	31.694
432.39	31.546
432.74	30.607
433.10	33.046
433.45	32.079
433.80	31.283
434.16	31.357
434.51	31.344
434.86	32.462
435.22	33.427
435.57	32.751
435.92	32.695
436.28	31.664
436.63	32.687
436.98	31.460
437.34	32.728
437.69	33.512
438.04	32.536
438.39	32.437
438.75	32.969
439.10	32.711
439.45	32.319
439.81	32.722
440.16	34.145
440.51	34.030
440.86	34.743
441.22	32.862
441.57	33.278
441.92	34.155
442.27	32.927
442.63	33.030
442.98	33.659
443.33	33.667
443.68	34.005
444.03	33.433
444.39	33.104
444.74	33.668
445.09	33.909
445.44	33.789
445.79	33.883
446.15	32.819
446.50	32.779
446.85	33.634
447.20	33.733
447.55	33.371
447.91	33.108
448.26	34.946
448.61	34.485
448.96	33.276
449.31	33.353
449.66	33.914
450.02	33.657
450.37	33.966
450.72	33.448
451.07	34.367
451.42	34.332
451.77	33.996
452.12	32.416
452.47	33.934
452.83	34.040
453.18	33.586
453.53	34.576
453.88	33.151
454.23	33.682
454.58	34.824
454.93	34.214
455.28	32.444
455.63	34.780
455.98	34.636
456.34	33.653
456.69	34.244
457.04	33.900
457.39	33.779
457.74	33.132
458.09	33.078
458.44	33.645
458.79	33.669
459.14	33.924
459.49	34.328
459.84	33.897
460.19	34.466
460.54	34.841
460.89	33.523
461.24	34.348
461.59	33.610
461.94	33.585
462.29	34.379
462.64	34.684
462.99	33.988
463.34	33.866
463.69	33.462
464.04	34.322
464.39	32.868
464.74	33.742
465.09	33.437
465.44	34.449
465.79	34.070
466.14	34.550
466.49	34.445
466.84	34.741
467.19	34.355
467.54	34.419
467.89	34.302
468.24	34.246
468.59	34.032
468.94	34.032
469.29	35.344
469.64	34.108
469.99	34.828
470.34	32.969
470.68	35.869
471.03	34.961
471.38	33.238
471.73	34.524
472.08	34.057
472.43	34.362
472.78	33.516
473.13	34.082
473.48	32.573
473.83	33.064
474.17	34.521
474.52	33.759
474.87	34.303
475.22	34.289
475.57	33.936
475.92	34.174
476.27	35.565
476.61	34.028
476.96	33.519
477.31	34.721
477.66	32.584
478.01	34.587
478.36	32.680
478.70	33.986
479.05	34.341
479.40	34.075
479.75	33.003
480.10	33.845
480.45	34.300
480.79	34.491
481.14	34.324
481.49	33.202
481.84	33.929
482.19	33.162
482.53	33.861
482.88	34.177
483.23	33.589
483.58	33.774
483.92	34.366
484.27	33.364
484.62	34.514
484.97	32.753
485.31	33.273
485.66	32.106
486.01	32.410
486.36	32.165
486.70	32.126
487.05	32.164
487.40	32.730
487.75	32.789
488.09	32.138
488.44	31.809
488.79	32.088
489.13	33.894
489.48	33.091
489.83	32.825
490.17	33.393
490.52	33.718
490.87	32.716
491.22	33.477
491.56	33.112
491.91	33.126
492.26	34.419
492.60	33.589
492.95	33.792
493.30	33.219
493.64	32.809
493.99	33.865
494.34	32.864
494.68	32.762
495.03	33.041
495.37	33.808
495.72	33.367
496.07	34.341
496.41	33.821
496.76	32.934
497.11	32.650
497.45	34.320
497.80	33.653
498.14	32.936
498.49	33.215
498.84	32.535
499.18	33.584
499.53	34.474
499.87	32.588
500.22	33.284
500.56	33.333
500.91	33.032
501.26	32.971
501.60	33.055
501.95	33.236
502.29	34.044
502.64	33.639
502.98	33.794
503.33	33.333
503.67	33.253
504.02	33.773
504.36	32.608
504.71	32.323
505.06	32.461
505.40	32.386
505.75	33.814
506.09	32.184
506.44	33.265
506.78	33.316
507.13	32.523
507.47	33.420
507.82	33.280
508.16	33.228
508.51	33.106
508.85	33.857
509.19	33.422
509.54	34.424
509.88	32.416
510.23	33.782
510.57	33.351
510.92	32.356
511.26	32.951
511.61	33.168
511.95	34.301
512.30	34.035
512.64	33.667
512.98	33.127
513.33	32.289
513.67	32.973
514.02	34.840
514.36	34.686
514.70	34.557
515.05	34.548
515.39	34.238
515.74	33.293
516.08	33.413
516.42	35.336
516.77	34.172
517.11	34.006
517.46	34.351
517.80	34.148
518.14	33.129
518.49	34.255
518.83	33.779
519.17	32.990
519.52	32.978
519.86	33.253
520.20	34.022
520.55	33.709
520.89	34.065
521.23	34.452
521.58	34.637
521.92	33.141
522.26	33.247
522.61	34.351
522.95	34.702
523.29	34.307
523.64	34.053
523.98	34.673
524.32	33.183
524.66	34.827
525.01	34.481
525.35	34.673
525.69	33.939
526.04	33.598
526.38	34.890
526.72	33.355
527.06	33.787
527.41	34.894
527.75	33.110
528.09	33.953
528.43	35.314
528.78	34.125
529.12	34.129
529.46	34.243
529.80	33.059
530.15	35.380
530.49	34.882
530.83	34.268
531.17	33.714
531.51	35.157
531.86	34.058
532.20	34.029
532.54	35.330
532.88	34.976
533.22	33.602
533.57	33.028
533.91	33.616
534.25	34.766
534.59	33.483
534.93	32.662
535.27	32.805
535.62	33.052
535.96	32.811
536.30	33.443
536.64	33.632
536.98	32.404
537.32	35.206
537.66	33.801
538.01	33.706
538.35	32.247
538.69	33.289
539.03	34.176
539.37	33.849
539.71	33.265
540.05	33.062
540.39	34.211
540.73	33.473
541.07	33.149
541.42	34.073
541.76	34.343
542.10	33.586
542.44	33.426
542.78	32.072
543.12	32.624
543.46	33.171
543.80	33.102
544.14	31.509
544.48	32.378
544.82	33.014
545.16	33.607
545.50	33.178
545.84	34.207
546.18	33.546
546.52	34.247
546.86	33.789
547.20	34.979
547.54	31.943
547.88	33.288
548.22	32.479
548.56	33.575
548.90	32.884
549.24	32.231
549.58	32.652
549.92	33.095
550.26	33.846
550.60	33.606
550.94	33.458
551.28	33.617
551.62	33.769
551.96	33.835
552.30	33.626
552.64	33.498
552.98	32.982
553.32	33.524
553.66	32.511
554.00	32.628
554.34	33.383
554.68	33.628
555.02	33.705
555.36	32.835
555.69	31.209
556.03	31.977
556.37	33.737
556.71	33.213
557.05	33.930
557.39	31.896
557.73	33.433
558.07	33.786
558.41	33.844
558.75	33.905
559.08	33.176
559.42	33.095
559.76	33.707
560.10	33.869
560.44	33.060
560.78	33.217
561.12	32.511
561.45	33.732
561.79	33.193
562.13	33.286
562.47	32.374
562.81	32.277
563.15	32.722
563.48	33.310
563.82	33.699
564.16	33.774
564.50	32.635
564.84	32.062
565.17	32.327
565.51	33.402
565.85	33.608
566.19	33.223
566.52	33.713
566.86	32.776
567.20	31.320
567.54	31.326
567.88	32.806
568.21	33.710
568.55	32.065
568.89	32.752
569.23	32.595
569.56	31.567
569.90	31.994
570.24	30.852
570.57	30.909
570.91	31.823
571.25	30.155
571.59	30.832
571.92	29.867
572.26	30.012
572.60	30.357
572.93	30.405
573.27	30.251
573.61	29.922
573.95	29.656
574.28	29.529
574.62	29.621
574.96	29.070
575.29	29.127
575.63	29.075
575.97	29.412
576.30	29.885
576.64	29.166
576.98	29.524
577.31	28.877
577.65	29.702
577.98	29.374
578.32	29.030
578.66	28.584
578.99	28.989
579.33	29.678
579.67	28.716
580.00	28.886
580.34	29.502
580.67	28.684
581.01	29.131
581.35	29.134
581.68	29.423
582.02	28.941
582.35	28.802
582.69	29.022
583.02	28.925
583.36	29.477
583.70	29.621
584.03	29.274
584.37	29.898
584.70	29.505
585.04	28.705
585.37	28.698
585.71	28.684
586.04	28.870
586.38	28.994
586.72	29.354
587.05	29.578
587.39	29.829
587.72	29.825
588.06	28.951
588.39	29.650
588.73	29.945
589.06	30.170
589.40	29.900
589.73	29.901
590.07	30.136
590.40	30.302
590.73	31.096
591.07	30.195
591.40	29.475
591.74	30.724
592.07	30.891
592.41	30.124
592.74	30.227
593.08	29.549
593.41	29.588
593.75	29.212
594.08	28.939
594.41	30.095
594.75	29.771
595.08	29.625
595.42	30.070
595.75	29.478
596.09	29.750
596.42	29.971
596.75	29.796
597.09	30.205
597.42	30.352
597.75	30.692
598.09	29.425
598.42	28.836
598.76	30.073
599.09	29.888
599.42	29.595
599.76	29.421
600.09	29.600
600.42	29.416
600.76	29.012
601.09	29.733
601.42	28.476
601.76	29.416
602.09	29.373
602.42	30.792
602.76	30.306
603.09	29.693
603.42	30.853
603.76	29.597
604.09	29.931
604.42	29.653
604.76	30.708
605.09	30.073
605.42	29.436
605.75	30.035
606.09	29.724
606.42	29.733
606.75	30.260
607.09	29.934
607.42	29.375
607.75	29.796
608.08	29.200
608.42	29.648
608.75	30.313
609.08	29.895
609.41	30.812
609.75	30.242
610.08	30.255
610.41	29.275
610.74	30.278
611.07	30.594
611.41	30.150
611.74	30.544
612.07	29.764
612.40	30.033
612.73	30.113
613.07	29.471
613.40	30.470
613.73	29.491
614.06	29.994
614.39	30.231
614.72	29.804
615.06	29.777
615.39	29.258
615.72	28.633
616.05	29.497
616.38	29.060
616.71	29.847
617.05	29.648
617.38	30.295
617.71	31.132
618.04	31.175
618.37	32.030
618.70	31.287
619.03	31.319
619.36	30.463
619.69	31.463
620.03	32.286
620.36	30.973
620.69	31.121
621.02	31.728
621.35	31.037
621.68	32.058
622.01	32.417
622.34	31.285
622.67	32.177
623.00	30.551
623.33	30.716
623.66	30.366
623.99	30.635
624.32	31.787
624.65	30.602
624.99	31.001
625.32	29.947
625.65	31.422
625.98	33.038
626.31	31.338
626.64	32.496
626.97	30.977
627.30	32.574
627.63	32.496
627.96	31.357
628.29	31.637
628.62	33.235
628.95	32.164
629.28	33.770
629.61	32.901
629.94	32.258
630.26	31.917
630.59	33.715
630.92	32.513
631.25	30.974
631.58	32.819
631.91	32.346
632.24	32.454
632.57	32.727
632.90	34.638
633.23	32.941
633.56	32.116
633.89	33.785
634.22	34.815
634.55	32.147
634.88	33.844
635.20	32.051
635.53	33.333
635.86	34.070
636.19	33.247
636.52	32.653
636.85	32.754
637.18	33.962
637.51	32.579
637.83	32.720
638.16	34.243
638.49	33.924
638.82	33.684
639.15	33.650
