SpectraSuite Data File
++++++++++++++++++++++++++++++++++++
Date: Fri May 15 20:07:11 PDT 2015
User: schluterlab
Dark Spectrum Present: Yes
Reference Spectrum Present: Yes
Number of Sampled Component Spectra: 1
Spectrometers: USB2E3373
Integration Time (usec): 3000 (USB2E3373)
Spectra Averaged: 3 (USB2E3373)
Boxcar Smoothing: 0 (USB2E3373)
Correct for Electrical Dark: No (USB2E3373)
Strobe/Lamp Enabled: No (USB2E3373)
Correct for Detector Non-linearity: No (USB2E3373)
Correct for Stray Light: No (USB2E3373)
Number of Pixels in Processed Spectrum: 2048
>>>>>Begin Processed Spectral Data<<<<<
178.53	0.000
178.91	0.000
179.29	37.500
179.67	-400.000
180.04	-0.000
180.42	400.000
180.80	-800.000
181.18	-66.667
181.56	350.000
181.94	350.000
182.31	100.000
182.69	140.000
183.07	-66.667
183.45	40.000
183.83	150.000
184.20	63.636
184.58	77.778
184.96	200.000
185.34	133.333
185.72	-400.000
186.09	69.231
186.47	-300.000
186.85	116.667
187.23	22.222
187.61	300.000
187.98	-433.333
188.36	33.333
188.74	-133.333
189.12	-5.882
189.49	27.778
189.87	0.000
190.25	21.429
190.63	-100.000
191.00	-66.667
191.38	31.579
191.76	500.000
192.14	225.000
192.51	50.000
192.89	-77.778
193.27	85.714
193.65	33.333
194.02	136.364
194.40	-40.000
194.78	-175.000
195.15	8.333
195.53	-87.500
195.91	350.000
196.29	-200.000
196.66	100.000
197.04	85.714
197.42	55.556
197.79	-300.000
198.17	23.077
198.55	500.000
198.92	-166.667
199.30	0.000
199.68	-120.000
200.05	-166.667
200.43	0.000
200.81	333.333
201.18	200.000
201.56	1400.000
201.94	200.000
202.31	233.333
202.69	-100.000
203.07	100.000
203.44	0.000
203.82	0.000
204.19	50.000
204.57	-200.000
204.95	25.000
205.32	-60.000
205.70	14.286
206.08	150.000
206.45	244.444
206.83	57.143
207.20	-57.143
207.58	-800.000
207.96	66.667
208.33	-30.000
208.71	100.000
209.08	-250.000
209.46	-1500.000
209.84	-140.000
210.21	200.000
210.59	-42.857
210.96	116.667
211.34	75.000
211.71	60.000
212.09	-42.857
212.46	-1500.000
212.84	0.000
213.22	210.000
213.59	300.000
213.97	0.000
214.34	45.455
214.72	-50.000
215.09	375.000
215.47	15.385
215.84	-9.091
216.22	266.667
216.59	-112.500
216.97	150.000
217.34	-125.000
217.72	-220.000
218.09	100.000
218.47	87.500
218.84	-800.000
219.22	-22.222
219.59	0.000
219.97	166.667
220.34	125.000
220.72	42.857
221.09	75.000
221.47	-200.000
221.84	-150.000
222.22	-600.000
222.59	72.727
222.97	41.667
223.34	66.667
223.72	50.000
224.09	4.762
224.46	7.143
224.84	66.667
225.21	70.000
225.59	66.667
225.96	0.000
226.34	300.000
226.71	-28.571
227.08	0.000
227.46	-25.000
227.83	-400.000
228.21	22.222
228.58	18.182
228.95	37.500
229.33	120.000
229.70	50.000
230.08	12.500
230.45	14.286
230.82	-57.143
231.20	26.667
231.57	14.286
231.95	-157.143
232.32	-90.000
232.69	50.000
233.07	33.333
233.44	-100.000
233.81	-90.000
234.19	-22.222
234.56	29.412
234.93	-250.000
235.31	75.000
235.68	-200.000
236.05	-46.154
236.43	5.000
236.80	-11.765
237.17	34.375
237.55	15.000
237.92	14.815
238.29	38.889
238.67	16.667
239.04	32.353
239.41	-9.756
239.79	-26.667
240.16	31.707
240.53	-13.158
240.91	-8.696
241.28	14.286
241.65	19.643
242.02	28.767
242.40	31.667
242.77	20.339
243.14	25.758
243.51	23.750
243.89	20.690
244.26	10.345
244.63	26.190
245.00	21.649
245.38	20.619
245.75	13.483
246.12	13.793
246.49	14.876
246.87	19.231
247.24	13.445
247.61	8.772
247.98	26.016
248.36	19.375
248.73	23.684
249.10	20.130
249.47	26.582
249.84	14.379
250.22	21.176
250.59	23.529
250.96	17.840
251.33	20.349
251.70	23.529
252.08	16.751
252.45	18.317
252.82	14.573
253.19	26.267
253.56	15.888
253.94	20.721
254.31	20.870
254.68	23.684
255.05	24.409
255.42	15.721
255.79	23.166
256.16	17.899
256.54	19.776
256.91	19.392
257.28	18.216
257.65	17.603
258.02	17.730
258.39	20.875
258.76	19.780
259.14	21.262
259.51	20.712
259.88	18.213
260.25	17.647
260.62	16.319
260.99	15.932
261.36	18.836
261.73	18.987
262.10	19.453
262.47	18.098
262.85	16.928
263.22	17.538
263.59	22.741
263.96	24.534
264.33	22.424
264.70	19.940
265.07	16.071
265.44	23.796
265.81	18.927
266.18	21.311
266.55	20.566
266.92	21.244
267.29	23.499
267.66	20.460
268.03	21.466
268.40	17.232
268.77	21.925
269.14	19.664
269.51	21.851
269.88	20.449
270.25	18.622
270.62	18.537
270.99	19.182
271.36	18.826
271.73	23.709
272.10	19.708
272.47	19.385
272.84	20.545
273.21	20.418
273.58	21.928
273.95	19.680
274.32	18.938
274.69	18.552
275.06	21.429
275.43	17.460
275.80	20.530
276.17	20.690
276.54	19.058
276.91	18.860
277.28	17.904
277.65	21.488
278.02	18.936
278.39	18.381
278.76	20.755
279.13	17.012
279.50	21.218
279.87	20.734
280.23	19.570
280.60	20.468
280.97	19.394
281.34	18.077
281.71	21.766
282.08	16.769
282.45	17.613
282.82	19.305
283.19	20.116
283.56	19.461
283.92	18.596
284.29	18.846
284.66	18.798
285.03	18.861
285.40	18.147
285.77	17.750
286.14	19.495
286.51	20.295
286.87	18.099
287.24	19.337
287.61	18.871
287.98	20.877
288.35	16.638
288.72	18.914
289.08	16.319
289.45	18.278
289.82	18.357
290.19	16.041
290.56	17.153
290.93	15.657
291.29	16.641
291.66	18.583
292.03	16.587
292.40	18.226
292.77	17.384
293.13	14.610
293.50	16.540
293.87	17.099
294.24	14.529
294.60	15.797
294.97	15.923
295.34	16.564
295.71	15.499
296.08	13.752
296.44	15.363
296.81	13.194
297.18	16.087
297.55	15.718
297.91	16.575
298.28	16.491
298.65	14.518
299.02	14.420
299.38	12.996
299.75	13.793
300.12	13.482
300.48	13.834
300.85	14.956
301.22	14.675
301.59	13.553
301.95	14.430
302.32	14.656
302.69	12.438
303.05	13.243
303.42	13.823
303.79	14.603
304.15	14.337
304.52	12.366
304.89	12.164
305.25	15.012
305.62	13.186
305.99	14.971
306.35	12.254
306.72	12.823
307.09	11.973
307.45	13.548
307.82	13.310
308.19	14.170
308.55	12.650
308.92	14.597
309.29	13.520
309.65	13.348
310.02	13.751
310.38	12.843
310.75	14.754
311.12	13.994
311.48	13.256
311.85	12.880
312.22	12.975
312.58	13.694
312.95	12.487
313.31	11.180
313.68	13.298
314.05	13.061
314.41	13.608
314.78	13.196
315.14	14.594
315.51	14.596
315.87	13.832
316.24	15.066
316.61	14.272
316.97	15.476
317.34	14.063
317.70	13.384
318.07	15.000
318.43	15.392
318.80	14.489
319.16	15.820
319.53	16.334
319.89	16.240
320.26	16.296
320.62	17.051
320.99	16.806
321.35	16.444
321.72	16.511
322.08	18.731
322.45	17.462
322.81	17.780
323.18	18.351
323.54	16.409
323.91	18.890
324.27	17.871
324.64	19.476
325.00	19.252
325.37	20.845
325.73	19.583
326.10	19.891
326.46	20.807
326.83	20.122
327.19	22.668
327.56	21.720
327.92	22.535
328.29	21.696
328.65	22.453
329.01	23.254
329.38	21.751
329.74	23.324
330.11	23.262
330.47	21.336
330.84	22.500
331.20	25.000
331.56	22.315
331.93	24.292
332.29	24.290
332.66	24.072
333.02	24.814
333.38	23.923
333.75	25.366
334.11	24.440
334.48	26.292
334.84	25.366
335.20	25.618
335.57	24.479
335.93	24.210
336.29	24.770
336.66	24.796
337.02	25.093
337.38	25.741
337.75	24.455
338.11	24.887
338.47	26.825
338.84	25.046
339.20	26.325
339.56	26.697
339.93	25.604
340.29	25.505
340.65	26.613
341.02	27.039
341.38	25.575
341.74	25.000
342.11	25.737
342.47	25.623
342.83	25.692
343.20	26.132
343.56	26.609
343.92	24.801
344.28	26.558
344.65	25.648
345.01	25.583
345.37	26.156
345.73	26.444
346.10	25.194
346.46	26.745
346.82	25.859
347.19	27.016
347.55	26.650
347.91	26.375
348.27	26.516
348.63	27.768
349.00	25.759
349.36	26.351
349.72	27.695
350.08	26.557
350.45	27.215
350.81	26.827
351.17	25.814
351.53	27.673
351.89	26.755
352.26	25.760
352.62	26.855
352.98	26.747
353.34	24.557
353.70	28.074
354.07	26.532
354.43	26.181
354.79	26.342
355.15	27.381
355.51	27.532
355.87	27.265
356.24	25.530
356.60	25.950
356.96	26.667
357.32	27.396
357.68	27.522
358.04	26.333
358.40	27.090
358.77	29.187
359.13	27.542
359.49	27.273
359.85	26.755
360.21	26.715
360.57	26.932
360.93	28.215
361.29	25.906
361.66	28.448
362.02	27.955
362.38	28.256
362.74	28.463
363.10	28.819
363.46	28.169
363.82	29.301
364.18	27.380
364.54	28.088
364.90	29.247
365.26	28.675
365.62	29.124
365.98	28.739
366.35	29.206
366.71	29.120
367.07	29.898
367.43	28.900
367.79	28.693
368.15	28.930
368.51	28.332
368.87	28.500
369.23	28.231
369.59	29.665
369.95	29.326
370.31	28.902
370.67	30.448
371.03	28.678
371.39	28.592
371.75	29.744
372.11	29.601
372.47	29.512
372.83	30.376
373.19	30.599
373.55	28.881
373.91	29.734
374.27	30.191
374.63	30.007
374.99	29.929
375.35	30.223
375.71	29.231
376.07	30.478
376.42	30.612
376.78	31.208
377.14	30.941
377.50	30.080
377.86	31.258
378.22	30.696
378.58	31.859
378.94	31.065
379.30	30.755
379.66	31.787
380.02	31.147
380.38	31.223
380.74	31.299
381.09	32.515
381.45	31.927
381.81	31.894
382.17	31.472
382.53	32.105
382.89	32.454
383.25	33.105
383.61	32.988
383.97	33.524
384.32	31.770
384.68	33.684
385.04	31.495
385.40	33.230
385.76	34.340
386.12	34.541
386.48	33.972
386.83	32.594
387.19	33.639
387.55	34.630
387.91	34.658
388.27	33.394
388.62	34.991
388.98	34.561
389.34	33.604
389.70	34.121
390.06	33.732
390.42	35.557
390.77	34.402
391.13	34.363
391.49	34.347
391.85	35.153
392.20	35.028
392.56	34.329
392.92	35.232
393.28	34.788
393.64	34.535
393.99	35.549
394.35	34.598
394.71	36.526
395.07	34.884
395.42	35.823
395.78	35.831
396.14	36.003
396.50	36.018
396.85	35.866
397.21	36.905
397.57	34.984
397.92	36.429
398.28	35.230
398.64	34.398
399.00	36.625
399.35	35.271
399.71	35.497
400.07	36.397
400.42	36.965
400.78	36.742
401.14	36.056
401.49	36.510
401.85	35.893
402.21	36.084
402.57	36.312
402.92	35.822
403.28	37.406
403.63	36.696
403.99	37.054
404.35	36.540
404.70	36.369
405.06	36.193
405.42	37.228
405.77	35.328
406.13	35.565
406.49	36.116
406.84	35.758
407.20	38.170
407.55	36.059
407.91	35.963
408.27	36.648
408.62	36.492
408.98	37.338
409.34	36.617
409.69	36.499
410.05	35.899
410.40	37.593
410.76	38.299
411.11	37.125
411.47	37.278
411.83	36.535
412.18	37.066
412.54	37.953
412.89	36.823
413.25	36.703
413.60	37.329
413.96	36.135
414.31	36.524
414.67	35.920
415.03	37.150
415.38	37.794
415.74	36.808
416.09	37.818
416.45	37.745
416.80	37.673
417.16	38.674
417.51	38.041
417.87	36.962
418.22	38.212
418.58	38.060
418.93	38.433
419.29	36.172
419.64	37.330
420.00	38.350
420.35	38.090
420.71	38.275
421.06	37.630
421.42	38.462
421.77	38.208
422.12	38.309
422.48	38.657
422.83	38.341
423.19	37.754
423.54	38.272
423.90	37.633
424.25	38.404
424.61	38.188
424.96	38.734
425.31	40.324
425.67	39.847
426.02	40.047
426.38	38.698
426.73	39.528
427.09	40.000
427.44	39.118
427.79	39.776
428.15	39.563
428.50	39.370
428.85	37.715
429.21	39.672
429.56	38.598
429.92	39.599
430.27	39.148
430.62	39.467
430.98	39.703
431.33	40.589
431.68	39.299
432.04	39.966
432.39	40.103
432.74	39.567
433.10	41.207
433.45	39.367
433.80	39.814
434.16	38.892
434.51	40.376
434.86	40.825
435.22	39.877
435.57	41.422
435.92	40.659
436.28	39.296
436.63	40.616
436.98	39.571
437.34	40.109
437.69	41.145
438.04	41.766
438.39	39.768
438.75	41.834
439.10	40.181
439.45	41.570
439.81	41.774
440.16	42.162
440.51	41.493
440.86	42.961
441.22	41.176
441.57	41.115
441.92	40.661
442.27	42.184
442.63	40.953
442.98	41.470
443.33	41.068
443.68	41.432
444.03	41.232
444.39	41.712
444.74	41.862
445.09	42.038
445.44	42.051
445.79	43.012
446.15	40.694
446.50	41.320
446.85	42.614
447.20	41.606
447.55	41.908
447.91	42.583
448.26	41.946
448.61	42.372
448.96	42.685
449.31	43.006
449.66	41.173
450.02	42.270
450.37	42.916
450.72	42.153
451.07	43.165
451.42	42.697
451.77	42.495
452.12	42.285
452.47	43.142
452.83	41.696
453.18	42.884
453.53	43.679
453.88	42.562
454.23	43.516
454.58	44.018
454.93	43.750
455.28	41.968
455.63	43.087
455.98	42.934
456.34	42.656
456.69	43.520
457.04	44.234
457.39	42.770
457.74	42.805
458.09	41.201
458.44	43.593
458.79	42.521
459.14	43.993
459.49	43.403
459.84	43.542
460.19	43.083
460.54	43.582
460.89	43.352
461.24	42.795
461.59	44.002
461.94	43.962
462.29	43.546
462.64	43.920
462.99	43.060
463.34	43.533
463.69	44.015
464.04	44.007
464.39	44.087
464.74	42.822
465.09	44.042
465.44	44.662
465.79	42.971
466.14	43.216
466.49	42.726
466.84	43.427
467.19	43.867
467.54	43.742
467.89	43.967
468.24	44.404
468.59	44.952
468.94	43.365
469.29	45.508
469.64	45.865
469.99	47.162
470.34	44.642
470.68	46.309
471.03	45.931
471.38	45.934
471.73	45.728
472.08	45.183
472.43	44.765
472.78	44.414
473.13	44.490
473.48	45.342
473.83	44.707
474.17	44.365
474.52	45.437
474.87	44.545
475.22	45.210
475.57	44.720
475.92	45.584
476.27	45.227
476.61	45.718
476.96	44.897
477.31	45.592
477.66	45.562
478.01	45.255
478.36	44.281
478.70	45.786
479.05	45.220
479.40	44.462
479.75	45.203
480.10	44.752
480.45	45.550
480.79	46.324
481.14	46.260
481.49	45.764
481.84	46.091
482.19	44.949
482.53	44.796
482.88	45.251
483.23	45.537
483.58	46.038
483.92	45.160
484.27	44.850
484.62	45.271
484.97	44.776
485.31	43.136
485.66	41.805
486.01	41.249
486.36	41.045
486.70	41.712
487.05	42.193
487.40	43.459
487.75	43.211
488.09	43.201
488.44	44.670
488.79	45.349
489.13	45.913
489.48	45.532
489.83	45.830
490.17	46.247
490.52	47.067
490.87	45.858
491.22	46.609
491.56	45.636
491.91	46.415
492.26	47.982
492.60	45.825
492.95	46.827
493.30	46.605
493.64	47.593
493.99	47.150
494.34	46.650
494.68	46.286
495.03	46.910
495.37	47.596
495.72	47.855
496.07	47.756
496.41	46.085
496.76	47.213
497.11	46.903
497.45	47.112
497.80	48.184
498.14	47.094
498.49	48.146
498.84	46.457
499.18	48.092
499.53	46.230
499.87	46.790
500.22	45.598
500.56	47.907
500.91	47.289
501.26	46.565
501.60	47.270
501.95	47.792
502.29	47.700
502.64	47.828
502.98	47.459
503.33	46.830
503.67	47.663
504.02	48.289
504.36	47.650
504.71	47.727
505.06	46.905
505.40	48.629
505.75	48.557
506.09	48.555
506.44	48.871
506.78	49.133
507.13	49.535
507.47	46.789
507.82	48.985
508.16	49.392
508.51	49.843
508.85	48.613
509.19	48.909
509.54	50.188
509.88	48.652
510.23	48.790
510.57	49.759
510.92	47.655
511.26	50.245
511.61	50.495
511.95	50.466
512.30	48.836
512.64	49.360
512.98	50.702
513.33	50.811
513.67	50.199
514.02	51.430
514.36	50.686
514.70	51.632
515.05	51.645
515.39	51.063
515.74	51.796
516.08	52.301
516.42	52.650
516.77	52.428
517.11	53.056
517.46	52.184
517.80	50.596
518.14	51.562
518.49	50.962
518.83	50.243
519.17	51.001
519.52	51.806
519.86	51.981
520.20	52.552
520.55	51.532
520.89	53.262
521.23	52.692
521.58	53.123
521.92	54.295
522.26	52.635
522.61	54.091
522.95	54.702
523.29	53.685
523.64	52.922
523.98	54.180
524.32	52.771
524.66	55.122
525.01	54.286
525.35	53.791
525.69	53.333
526.04	53.373
526.38	55.447
526.72	53.826
527.06	53.048
527.41	54.881
527.75	54.692
528.09	54.219
528.43	55.503
528.78	55.380
529.12	54.968
529.46	54.776
529.80	54.085
530.15	55.974
530.49	55.152
530.83	55.198
531.17	54.265
531.51	56.430
531.86	54.317
532.20	54.976
532.54	55.208
532.88	55.647
533.22	54.906
533.57	53.473
533.91	53.460
534.25	54.622
534.59	54.394
534.93	53.367
535.27	52.855
535.62	53.532
535.96	53.751
536.30	54.354
536.64	56.513
536.98	54.983
537.32	56.259
537.66	55.330
538.01	55.734
538.35	54.369
538.69	53.862
539.03	53.110
539.37	54.105
539.71	54.601
540.05	54.922
540.39	54.778
540.73	54.184
541.07	56.077
541.42	55.914
541.76	55.540
542.10	54.164
542.44	54.969
542.78	53.131
543.12	53.984
543.46	54.381
543.80	56.003
544.14	54.272
544.48	54.031
544.82	53.930
545.16	54.986
545.50	54.740
545.84	56.161
546.18	55.957
546.52	55.588
546.86	54.493
547.20	56.509
547.54	56.113
547.88	55.774
548.22	52.663
548.56	53.892
548.90	54.178
549.24	54.201
549.58	55.360
549.92	53.824
550.26	55.385
550.60	56.283
550.94	55.639
551.28	56.569
551.62	57.615
551.96	56.541
552.30	54.825
552.64	54.795
552.98	55.063
553.32	56.134
553.66	54.644
554.00	56.350
554.34	57.386
554.68	54.941
555.02	57.292
555.36	56.470
555.69	55.165
556.03	54.318
556.37	55.801
556.71	55.884
557.05	56.600
557.39	55.019
557.73	56.672
558.07	57.919
558.41	57.427
558.75	59.002
559.08	58.471
559.42	58.413
559.76	57.486
560.10	56.422
560.44	56.739
560.78	56.224
561.12	57.052
561.45	55.446
561.79	55.742
562.13	56.636
562.47	56.835
562.81	55.692
563.15	55.219
563.48	56.011
563.82	57.515
564.16	57.591
564.50	55.405
564.84	54.953
565.17	54.259
565.51	58.402
565.85	56.104
566.19	54.841
566.52	56.568
566.86	55.077
567.20	54.172
567.54	54.562
567.88	55.185
568.21	53.676
568.55	53.152
568.89	52.721
569.23	52.624
569.56	51.182
569.90	50.832
570.24	48.902
570.57	49.491
570.91	49.983
571.25	48.570
571.59	48.178
571.92	48.030
572.26	48.007
572.60	48.496
572.93	47.568
573.27	48.025
573.61	47.882
573.95	47.843
574.28	46.610
574.62	45.995
574.96	46.323
575.29	47.451
575.63	46.541
575.97	47.005
576.30	47.877
576.64	46.755
576.98	47.490
577.31	47.628
577.65	46.330
577.98	46.534
578.32	46.298
578.66	46.013
578.99	45.952
579.33	46.590
579.67	46.556
580.00	46.886
580.34	47.512
580.67	46.241
581.01	46.926
581.35	46.275
581.68	45.582
582.02	46.100
582.35	45.460
582.69	45.910
583.02	46.400
583.36	47.197
583.70	48.027
584.03	48.040
584.37	48.475
584.70	48.819
585.04	47.824
585.37	47.322
585.71	47.272
586.04	46.646
586.38	47.266
586.72	47.776
587.05	48.354
587.39	48.281
587.72	48.715
588.06	48.104
588.39	48.277
588.73	48.382
589.06	50.294
589.40	49.775
589.73	50.164
590.07	50.642
590.40	50.697
590.73	52.306
591.07	51.018
591.40	50.935
591.74	52.489
592.07	51.763
592.41	51.988
592.74	50.020
593.08	48.830
593.41	48.699
593.75	48.577
594.08	48.301
594.41	49.527
594.75	50.229
595.08	50.132
595.42	49.614
595.75	49.944
596.09	51.056
596.42	49.814
596.75	51.510
597.09	50.752
597.42	51.400
597.75	53.000
598.09	50.702
598.42	50.903
598.76	50.794
599.09	49.479
599.42	49.337
599.76	49.850
600.09	49.133
600.42	49.204
600.76	48.663
601.09	49.313
601.42	49.667
601.76	50.258
602.09	50.124
602.42	51.390
602.76	50.806
603.09	50.291
603.42	52.007
603.76	49.556
604.09	49.737
604.42	50.635
604.76	52.960
605.09	51.874
605.42	51.603
605.75	52.014
606.09	51.380
606.42	50.042
606.75	50.779
607.09	51.516
607.42	51.174
607.75	51.643
608.08	51.123
608.42	50.937
608.75	53.446
609.08	52.666
609.41	54.264
609.75	51.663
610.08	52.771
610.41	50.966
610.74	53.145
611.07	53.798
611.41	53.347
611.74	53.571
612.07	52.837
612.40	54.322
612.73	54.011
613.07	53.206
613.40	54.048
613.73	53.889
614.06	53.979
614.39	54.766
614.72	53.669
615.06	53.911
615.39	52.620
615.72	52.637
616.05	53.184
616.38	53.333
616.71	55.107
617.05	57.072
617.38	55.563
617.71	55.031
618.04	56.825
618.37	56.494
618.70	56.898
619.03	57.708
619.36	57.091
619.69	60.045
620.03	59.240
620.36	56.938
620.69	56.531
621.02	58.486
621.35	61.577
621.68	60.034
622.01	60.500
622.34	59.298
622.67	59.779
623.00	58.270
623.33	58.765
623.66	58.115
623.99	58.321
624.32	59.468
624.65	58.571
624.99	59.669
625.32	58.302
625.65	60.801
625.98	61.966
626.31	60.432
626.64	61.612
626.97	60.733
627.30	61.559
627.63	60.312
627.96	62.803
628.29	62.350
628.62	64.012
628.95	64.128
629.28	65.524
629.61	61.914
629.94	64.027
630.26	63.735
630.59	66.493
630.92	65.949
631.25	63.179
631.58	65.969
631.91	66.228
632.24	68.578
632.57	65.568
632.90	67.853
633.23	67.529
633.56	69.521
633.89	68.434
634.22	69.506
