SpectraSuite Data File
++++++++++++++++++++++++++++++++++++
Date: Fri May 15 17:18:26 PDT 2015
User: schluterlab
Dark Spectrum Present: Yes
Reference Spectrum Present: Yes
Number of Sampled Component Spectra: 1
Spectrometers: USB2E3373
Integration Time (usec): 3000 (USB2E3373)
Spectra Averaged: 3 (USB2E3373)
Boxcar Smoothing: 0 (USB2E3373)
Correct for Electrical Dark: No (USB2E3373)
Strobe/Lamp Enabled: No (USB2E3373)
Correct for Detector Non-linearity: No (USB2E3373)
Correct for Stray Light: No (USB2E3373)
Number of Pixels in Processed Spectrum: 2048
>>>>>Begin Processed Spectral Data<<<<<
178.53	0.000
178.91	0.000
179.29	125.000
179.67	0.000
180.04	-142.857
180.42	500.000
180.80	-100.000
181.18	300.000
181.56	200.000
181.94	450.000
182.31	-0.000
182.69	20.000
183.07	166.667
183.45	20.000
183.83	-50.000
184.20	100.000
184.58	-55.556
184.96	-200.000
185.34	33.333
185.72	200.000
186.09	-15.385
186.47	100.000
186.85	-33.333
187.23	55.556
187.61	-500.000
187.98	-100.000
188.36	122.222
188.74	133.333
189.12	82.353
189.49	38.889
189.87	0.000
190.25	78.571
190.63	150.000
191.00	-66.667
191.38	57.895
191.76	350.000
192.14	50.000
192.51	500.000
192.89	22.222
193.27	28.571
193.65	-66.667
194.02	90.909
194.40	0.000
194.78	-37.500
195.15	16.667
195.53	-87.500
195.91	-50.000
196.29	125.000
196.66	46.154
197.04	-114.286
197.42	66.667
197.79	-266.667
198.17	-46.154
198.55	300.000
198.92	-100.000
199.30	200.000
199.68	0.000
200.05	-200.000
200.43	0.000
200.81	33.333
201.18	100.000
201.56	700.000
201.94	400.000
202.31	-200.000
202.69	-20.000
203.07	-150.000
203.44	1100.000
203.82	0.000
204.19	42.857
204.57	-266.667
204.95	37.500
205.32	120.000
205.70	100.000
206.08	50.000
206.45	222.222
206.83	85.714
207.20	28.571
207.58	700.000
207.96	-333.333
208.33	0.000
208.71	-50.000
209.08	-166.667
209.46	600.000
209.84	-60.000
210.21	-300.000
210.59	128.571
210.96	50.000
211.34	275.000
211.71	46.667
212.09	14.286
212.46	-600.000
212.84	0.000
213.22	80.000
213.59	-400.000
213.97	0.000
214.34	100.000
214.72	-50.000
215.09	175.000
215.47	46.154
215.84	54.545
216.22	-133.333
216.59	-12.500
216.97	-100.000
217.34	0.000
217.72	-20.000
218.09	212.500
218.47	-12.500
218.84	-100.000
219.22	33.333
219.59	80.000
219.97	300.000
220.34	125.000
220.72	157.143
221.09	100.000
221.47	0.000
221.84	-450.000
222.22	-250.000
222.59	54.545
222.97	33.333
223.34	-66.667
223.72	-57.143
224.09	9.524
224.46	78.571
224.84	-266.667
225.21	-30.000
225.59	53.333
225.96	200.000
226.34	275.000
226.71	114.286
227.08	83.333
227.46	37.500
227.83	-350.000
228.21	88.889
228.58	0.000
228.95	112.500
229.33	50.000
229.70	62.500
230.08	100.000
230.45	-114.286
230.82	128.571
231.20	46.667
231.57	114.286
231.95	28.571
232.32	0.000
232.69	71.429
233.07	33.333
233.44	-20.000
233.81	40.000
234.19	66.667
234.56	35.294
234.93	-100.000
235.31	150.000
235.68	-40.000
236.05	46.154
236.43	35.000
236.80	64.706
237.17	21.875
237.55	25.000
237.92	18.519
238.29	30.556
238.67	40.000
239.04	17.647
239.41	-21.951
239.79	20.000
240.16	46.341
240.53	18.421
240.91	-2.174
241.28	28.571
241.65	41.071
242.02	21.918
242.40	18.333
242.77	20.339
243.14	12.121
243.51	11.250
243.89	39.080
244.26	16.092
244.63	21.429
245.00	25.773
245.38	16.495
245.75	1.124
246.12	4.310
246.49	13.223
246.87	18.269
247.24	9.244
247.61	21.930
247.98	21.138
248.36	11.875
248.73	18.421
249.10	19.481
249.47	18.354
249.84	11.111
250.22	14.706
250.59	15.033
250.96	22.535
251.33	11.628
251.70	18.235
252.08	18.782
252.45	18.317
252.82	17.085
253.19	20.276
253.56	13.084
253.94	14.865
254.31	20.000
254.68	21.053
255.05	16.142
255.42	19.214
255.79	14.286
256.16	16.732
256.54	18.284
256.91	21.293
257.28	19.331
257.65	16.105
258.02	16.667
258.39	18.855
258.76	21.245
259.14	19.934
259.51	15.534
259.88	18.213
260.25	15.686
260.62	21.528
260.99	14.576
261.36	18.836
261.73	16.139
262.10	18.541
262.47	15.337
262.85	17.868
263.22	16.308
263.59	18.069
263.96	18.323
264.33	14.242
264.70	15.179
265.07	16.964
265.44	18.130
265.81	17.797
266.18	17.486
266.55	19.280
266.92	18.912
267.29	16.188
267.66	19.182
268.03	18.063
268.40	16.449
268.77	18.449
269.14	16.787
269.51	17.738
269.88	15.960
270.25	15.561
270.62	16.341
270.99	15.857
271.36	16.381
271.73	16.901
272.10	16.788
272.47	18.203
272.84	19.802
273.21	16.473
273.58	18.072
273.95	16.934
274.32	17.552
274.69	14.932
275.06	17.634
275.43	16.780
275.80	17.660
276.17	15.172
276.54	16.274
276.91	15.789
277.28	15.721
277.65	16.736
278.02	15.319
278.39	16.193
278.76	16.771
279.13	12.448
279.50	17.017
279.87	19.870
280.23	14.624
280.60	17.349
280.97	17.980
281.34	14.615
281.71	15.811
282.08	16.360
282.45	16.830
282.82	14.093
283.19	19.923
283.56	17.919
283.92	15.180
284.29	14.615
284.66	13.760
285.03	15.324
285.40	16.824
285.77	14.587
286.14	17.690
286.51	17.897
286.87	15.174
287.24	16.390
287.61	14.638
287.98	17.368
288.35	15.945
288.72	15.061
289.08	16.146
289.45	16.696
289.82	15.909
290.19	13.823
290.56	13.722
290.93	14.310
291.29	14.330
291.66	14.488
292.03	12.919
292.40	13.226
292.77	13.876
293.13	12.338
293.50	12.595
293.87	13.282
294.24	14.219
294.60	13.115
294.97	13.988
295.34	11.043
295.71	13.860
296.08	12.556
296.44	9.957
296.81	12.222
297.18	11.594
297.55	14.634
297.91	13.288
298.28	12.137
298.65	11.805
299.02	12.129
299.38	11.218
299.75	13.103
300.12	10.340
300.48	12.385
300.85	12.674
301.22	11.688
301.59	11.842
301.95	12.911
302.32	12.192
302.69	10.945
303.05	10.520
303.42	13.200
303.79	12.850
304.15	12.784
304.52	11.415
304.89	10.526
305.25	11.259
305.62	10.268
305.99	9.942
306.35	10.751
306.72	9.336
307.09	11.403
307.45	10.563
307.82	10.880
308.19	11.847
308.55	11.341
308.92	11.111
309.29	9.832
309.65	10.872
310.02	10.121
310.38	11.855
310.75	12.131
311.12	9.473
311.48	11.453
311.85	10.471
312.22	10.654
312.58	11.146
312.95	10.779
313.31	9.834
313.68	11.309
314.05	10.000
314.41	10.722
314.78	11.340
315.14	11.100
315.51	10.663
315.87	10.861
316.24	11.729
316.61	11.220
316.97	11.210
317.34	10.254
317.70	11.185
318.07	10.962
318.43	10.490
318.80	10.701
319.16	11.426
319.53	12.441
319.89	10.236
320.26	11.336
320.62	10.933
320.99	10.752
321.35	10.997
321.72	10.488
322.08	10.977
322.45	12.081
322.81	11.395
323.18	9.617
323.54	10.618
323.91	9.737
324.27	10.840
324.64	10.206
325.00	11.861
325.37	12.121
325.73	10.698
326.10	11.172
326.46	11.121
326.83	10.411
327.19	11.683
327.56	10.686
327.92	11.444
328.29	11.071
328.65	11.415
329.01	11.581
329.38	11.797
329.74	10.293
330.11	11.029
330.47	9.647
330.84	10.288
331.20	11.407
331.56	11.019
331.93	11.598
332.29	11.549
332.66	10.769
333.02	11.524
333.38	9.166
333.75	11.538
334.11	8.863
334.48	10.607
334.84	11.538
335.20	12.077
335.57	9.973
335.93	11.111
336.29	9.945
336.66	11.262
337.02	10.037
337.38	9.815
337.75	10.182
338.11	11.271
338.47	11.223
338.84	11.645
339.20	10.146
339.56	11.009
339.93	10.922
340.29	9.817
340.65	10.842
341.02	10.727
341.38	9.912
341.74	10.071
342.11	10.052
342.47	9.431
342.83	10.121
343.20	9.408
343.56	10.522
343.92	10.186
344.28	10.589
344.65	10.363
345.01	9.680
345.37	10.849
345.73	10.879
346.10	10.526
346.46	9.672
346.82	10.556
347.19	9.975
347.55	9.607
347.91	10.194
348.27	10.186
348.63	9.881
349.00	9.844
349.36	9.892
349.72	10.697
350.08	10.656
350.45	9.896
350.81	9.801
351.17	9.609
351.53	10.612
351.89	9.661
352.26	9.600
352.62	9.919
352.98	10.040
353.34	10.789
353.70	10.437
354.07	9.919
354.43	10.568
354.79	9.579
355.15	10.635
355.51	10.443
355.87	9.466
356.24	9.135
356.60	9.701
356.96	10.635
357.32	10.383
357.68	10.086
358.04	9.693
358.40	10.129
358.77	9.888
359.13	10.168
359.49	9.707
359.85	9.828
360.21	9.888
360.57	10.252
360.93	10.514
361.29	9.743
361.66	9.796
362.02	10.227
362.38	10.282
362.74	10.068
363.10	9.631
363.46	10.007
363.82	10.894
364.18	9.963
364.54	9.338
364.90	9.749
365.26	10.044
365.62	11.314
365.98	10.191
366.35	10.415
366.71	9.387
367.07	10.450
367.43	9.274
367.79	10.318
368.15	9.978
368.51	9.687
368.87	8.615
369.23	9.675
369.59	10.058
369.95	9.971
370.31	10.116
370.67	9.627
371.03	9.858
371.39	9.336
371.75	9.744
372.11	10.485
372.47	9.763
372.83	10.007
373.19	10.057
373.55	9.242
373.91	9.215
374.27	9.851
374.63	10.266
374.99	10.638
375.35	10.306
375.71	10.420
376.07	9.831
376.42	9.932
376.78	10.201
377.14	10.088
377.50	10.491
377.86	10.710
378.22	9.764
378.58	9.551
378.94	9.641
379.30	9.669
379.66	10.846
380.02	8.890
380.38	10.103
380.74	9.994
381.09	10.982
381.45	10.520
381.81	10.487
382.17	9.835
382.53	10.993
382.89	9.918
383.25	10.579
383.61	11.098
383.97	10.857
384.32	9.944
384.68	10.712
385.04	9.926
385.40	9.956
385.76	10.881
386.12	10.543
386.48	10.089
386.83	10.146
387.19	11.172
387.55	11.606
387.91	10.024
388.27	10.256
388.62	10.761
388.98	11.172
389.34	10.181
389.70	11.063
390.06	10.824
390.42	10.557
390.77	10.334
391.13	10.530
391.49	11.449
391.85	10.526
392.20	11.676
392.56	10.935
392.92	11.627
393.28	10.908
393.64	11.592
393.99	12.226
394.35	10.563
394.71	11.558
395.07	10.999
395.42	10.504
395.78	10.684
396.14	12.295
396.50	12.112
396.85	11.269
397.21	11.591
397.57	11.411
397.92	12.522
398.28	11.437
398.64	10.843
399.00	12.246
399.35	11.456
399.71	11.028
400.07	11.911
400.42	11.628
400.78	11.513
401.14	11.736
401.49	11.852
401.85	11.944
402.21	12.349
402.57	11.812
402.92	11.104
403.28	11.591
403.63	11.223
403.99	11.671
404.35	11.743
404.70	12.381
405.06	11.986
405.42	12.181
405.77	11.737
406.13	11.292
406.49	11.723
406.84	11.369
407.20	12.222
407.55	12.106
407.91	11.096
408.27	11.791
408.62	12.308
408.98	12.446
409.34	12.577
409.69	12.145
410.05	11.576
410.40	12.037
410.76	12.123
411.11	12.687
411.47	13.018
411.83	11.174
412.18	12.677
412.54	11.985
412.89	11.453
413.25	12.455
413.60	11.925
413.96	12.331
414.31	12.622
414.67	12.316
415.03	12.184
415.38	11.945
415.74	12.378
416.09	11.692
416.45	12.559
416.80	12.095
417.16	12.707
417.51	12.725
417.87	13.429
418.22	13.860
418.58	13.311
418.93	13.480
419.29	11.780
419.64	12.184
420.00	12.846
420.35	12.358
420.71	12.819
421.06	12.032
421.42	12.500
421.77	13.237
422.12	12.429
422.48	12.344
422.83	12.529
423.19	12.867
423.54	12.287
423.90	12.544
424.25	13.146
424.61	12.974
424.96	12.892
425.31	13.287
425.67	13.028
426.02	13.722
426.38	13.651
426.73	13.983
427.09	13.861
427.44	13.529
427.79	13.435
428.15	12.561
428.50	13.386
428.85	12.838
429.21	13.696
429.56	13.639
429.92	14.022
430.27	13.634
430.62	13.382
430.98	13.747
431.33	13.565
431.68	13.239
432.04	13.024
432.39	12.721
432.74	13.349
433.10	13.736
433.45	13.620
433.80	14.045
434.16	14.183
434.51	13.925
434.86	14.111
435.22	14.077
435.57	13.600
435.92	13.593
436.28	13.953
436.63	13.976
436.98	13.673
437.34	13.067
437.69	14.192
438.04	13.618
438.39	13.256
438.75	13.540
439.10	14.205
439.45	14.121
439.81	13.578
440.16	13.895
440.51	15.642
440.86	15.347
441.22	14.367
441.57	14.845
441.92	14.428
442.27	13.969
442.63	14.882
442.98	14.819
443.33	14.691
443.68	14.164
444.03	14.903
444.39	14.953
444.74	15.385
445.09	14.588
445.44	15.214
445.79	15.833
446.15	15.088
446.50	13.866
446.85	15.197
447.20	14.964
447.55	15.234
447.91	15.003
448.26	15.424
448.61	14.450
448.96	15.146
449.31	15.318
449.66	15.854
450.02	15.859
450.37	14.345
450.72	15.407
451.07	15.759
451.42	15.543
451.77	14.647
452.12	14.653
452.47	15.068
452.83	15.489
453.18	14.991
453.53	15.044
453.88	15.301
454.23	16.103
454.58	16.058
454.93	16.624
455.28	14.667
455.63	15.251
455.98	16.837
456.34	15.645
456.69	15.121
457.04	16.824
457.39	15.492
457.74	15.417
458.09	15.009
458.44	15.916
458.79	15.350
459.14	16.876
459.49	16.179
459.84	15.285
460.19	15.231
460.54	15.709
460.89	15.739
461.24	15.590
461.59	17.221
461.94	15.157
462.29	16.043
462.64	16.279
462.99	15.911
463.34	15.716
463.69	16.281
464.04	16.041
464.39	15.585
464.74	15.890
465.09	16.719
465.44	16.676
465.79	15.816
466.14	16.021
466.49	16.331
466.84	16.062
467.19	16.333
467.54	15.709
467.89	15.982
468.24	16.241
468.59	16.762
468.94	16.317
469.29	17.049
469.64	16.405
469.99	17.449
470.34	15.017
470.68	16.853
471.03	17.268
471.38	17.190
471.73	16.807
472.08	17.503
472.43	16.242
472.78	16.587
473.13	17.551
473.48	16.743
473.83	16.874
474.17	17.811
474.52	16.847
474.87	17.030
475.22	15.497
475.57	15.867
475.92	17.005
476.27	16.822
476.61	17.130
476.96	16.341
477.31	16.982
477.66	16.292
478.01	16.171
478.36	16.885
478.70	16.531
479.05	17.198
479.40	16.534
479.75	16.893
480.10	16.743
480.45	16.550
480.79	17.120
481.14	16.547
481.49	16.207
481.84	16.651
482.19	16.558
482.53	16.691
482.88	16.659
483.23	16.459
483.58	16.745
483.92	16.457
484.27	16.454
484.62	16.898
484.97	16.501
485.31	16.474
485.66	15.798
486.01	15.910
486.36	15.590
486.70	15.712
487.05	15.904
487.40	15.745
487.75	15.408
488.09	15.389
488.44	16.231
488.79	16.362
489.13	17.388
489.48	16.717
489.83	16.547
490.17	16.225
490.52	17.321
490.87	17.353
491.22	17.431
491.56	16.698
491.91	16.013
492.26	16.918
492.60	17.322
492.95	17.708
493.30	16.610
493.64	18.075
493.99	17.681
494.34	16.408
494.68	17.667
495.03	16.886
495.37	18.400
495.72	17.415
496.07	18.195
496.41	17.217
496.76	17.135
497.11	17.233
497.45	17.709
497.80	18.416
498.14	17.784
498.49	18.080
498.84	17.565
499.18	17.671
499.53	17.659
499.87	17.072
500.22	17.409
500.56	17.801
500.91	17.319
501.26	16.955
501.60	17.314
501.95	17.807
502.29	17.918
502.64	18.292
502.98	17.415
503.33	16.907
503.67	17.060
504.02	17.742
504.36	17.516
504.71	17.626
505.06	17.464
505.40	18.122
505.75	17.268
506.09	17.334
506.44	18.070
506.78	17.806
507.13	17.890
507.47	17.702
507.82	18.323
508.16	17.274
508.51	17.943
508.85	17.896
509.19	16.871
509.54	17.694
509.88	17.584
510.23	17.751
510.57	18.332
510.92	17.324
511.26	18.331
511.61	17.932
511.95	17.808
512.30	18.792
512.64	18.698
512.98	17.743
513.33	18.467
513.67	18.249
514.02	18.593
514.36	19.086
514.70	18.998
515.05	18.096
515.39	18.477
515.74	18.802
516.08	18.589
516.42	19.435
516.77	18.900
517.11	18.754
517.46	19.928
517.80	18.653
518.14	19.228
518.49	18.450
518.83	18.469
519.17	18.496
519.52	18.887
519.86	19.208
520.20	18.530
520.55	18.887
520.89	19.824
521.23	18.936
521.58	19.558
521.92	19.038
522.26	18.998
522.61	19.545
522.95	19.404
523.29	19.949
523.64	19.377
523.98	20.544
524.32	18.686
524.66	20.679
525.01	20.000
525.35	19.443
525.69	18.519
526.04	18.981
526.38	21.012
526.72	18.770
527.06	19.844
527.41	20.185
527.75	18.767
528.09	18.937
528.43	20.594
528.78	20.000
529.12	19.935
529.46	19.883
529.80	20.266
530.15	19.670
530.49	19.057
530.83	20.315
531.17	19.073
531.51	19.904
531.86	19.103
532.20	19.485
532.54	20.694
532.88	19.713
533.22	20.363
533.57	19.856
533.91	19.974
534.25	20.443
534.59	18.602
534.93	18.943
535.27	18.338
535.62	19.248
535.96	18.526
536.30	19.525
536.64	19.848
536.98	19.721
537.32	21.053
537.66	20.477
538.01	20.210
538.35	19.695
538.69	19.574
539.03	19.959
539.37	19.112
539.71	18.746
540.05	20.163
540.39	19.737
540.73	20.502
541.07	19.544
541.42	20.833
541.76	19.546
542.10	19.752
542.44	19.180
542.78	18.789
543.12	18.681
543.46	19.541
543.80	19.709
544.14	19.359
544.48	19.187
544.82	20.164
545.16	19.945
545.50	20.694
545.84	20.184
546.18	19.362
546.52	20.043
546.86	19.482
547.20	19.671
547.54	18.940
547.88	19.429
548.22	18.606
548.56	19.789
548.90	20.148
549.24	18.733
549.58	20.451
549.92	18.728
550.26	20.440
550.60	21.190
550.94	20.463
551.28	20.556
551.62	21.462
551.96	19.398
552.30	19.371
552.64	19.182
552.98	19.902
553.32	20.185
553.66	19.376
554.00	20.292
554.34	21.049
554.68	21.313
555.02	20.313
555.36	20.568
555.69	20.293
556.03	19.700
556.37	19.929
556.71	19.495
557.05	20.283
557.39	18.662
557.73	19.940
558.07	20.437
558.41	20.061
558.75	19.875
559.08	20.410
559.42	19.683
559.76	20.256
560.10	20.183
560.44	19.360
560.78	19.790
561.12	19.887
561.45	20.098
561.79	19.048
562.13	19.517
562.47	20.504
562.81	19.308
563.15	21.298
563.48	20.226
563.82	19.973
564.16	19.916
564.50	19.527
564.84	20.950
565.17	19.450
565.51	19.740
565.85	20.782
566.19	20.424
566.52	19.705
566.86	20.308
567.20	19.925
567.54	19.100
567.88	19.215
568.21	19.910
568.55	19.076
568.89	19.097
569.23	19.259
569.56	18.214
569.90	18.027
570.24	17.827
570.57	18.145
570.91	17.741
571.25	17.330
571.59	17.222
571.92	16.681
572.26	17.059
572.60	17.178
572.93	17.791
573.27	17.085
573.61	16.945
573.95	17.395
574.28	17.002
574.62	16.807
574.96	16.953
575.29	16.961
575.63	16.403
575.97	16.861
576.30	17.065
576.64	16.662
576.98	17.503
577.31	16.785
577.65	17.087
577.98	16.970
578.32	16.455
578.66	16.226
578.99	16.659
579.33	16.538
579.67	16.553
580.00	16.709
580.34	16.318
580.67	16.592
581.01	16.619
581.35	16.753
581.68	17.280
582.02	16.205
582.35	16.063
582.69	16.478
583.02	16.279
583.36	16.868
583.70	17.186
584.03	17.264
584.37	17.561
584.70	17.170
585.04	16.710
585.37	16.880
585.71	16.983
586.04	17.045
586.38	16.644
586.72	16.987
587.05	17.100
587.39	17.529
587.72	17.742
588.06	17.603
588.39	17.232
588.73	17.766
589.06	18.134
589.40	17.179
589.73	17.744
590.07	17.749
590.40	18.498
590.73	18.781
591.07	18.448
591.40	18.477
591.74	18.326
592.07	18.738
592.41	18.728
592.74	17.563
593.08	18.163
593.41	18.023
593.75	17.763
594.08	18.057
594.41	18.086
594.75	17.939
595.08	18.161
595.42	17.703
595.75	18.551
596.09	18.100
596.42	18.272
596.75	17.895
597.09	18.041
597.42	18.609
597.75	18.049
598.09	17.881
598.42	18.096
598.76	18.233
599.09	17.989
599.42	17.582
599.76	17.419
600.09	18.024
600.42	18.347
600.76	16.939
601.09	17.786
601.42	17.313
601.76	17.666
602.09	17.863
602.42	18.197
602.76	18.124
603.09	18.314
603.42	18.395
603.76	17.661
604.09	18.307
604.42	17.766
604.76	18.736
605.09	18.190
605.42	18.014
605.75	18.433
606.09	17.749
606.42	18.015
606.75	18.052
607.09	18.593
607.42	18.121
607.75	18.073
608.08	17.790
608.42	18.821
608.75	18.699
609.08	18.087
609.41	19.289
609.75	18.800
610.08	18.922
610.41	18.261
610.74	17.455
611.07	18.346
611.41	18.215
611.74	18.923
612.07	18.469
612.40	19.037
612.73	18.079
613.07	18.841
613.40	19.694
613.73	18.747
614.06	18.920
614.39	18.725
614.72	18.992
615.06	18.547
615.39	18.614
615.72	18.245
616.05	17.709
616.38	18.063
616.71	18.838
617.05	19.086
617.38	19.170
617.71	19.182
618.04	18.794
618.37	20.303
618.70	19.670
619.03	18.958
619.36	18.234
619.69	19.864
620.03	20.161
620.36	18.956
620.69	19.415
621.02	20.031
621.35	20.830
621.68	20.408
622.01	21.583
622.34	20.830
622.67	20.347
623.00	19.908
623.33	19.893
623.66	19.970
623.99	19.516
624.32	19.696
624.65	19.323
624.99	20.166
625.32	19.409
625.65	19.953
625.98	21.354
626.31	18.953
626.64	20.191
626.97	20.506
627.30	20.315
627.63	22.010
627.96	21.114
628.29	20.352
628.62	21.141
628.95	21.142
629.28	20.464
629.61	20.339
629.94	21.799
630.26	20.356
630.59	22.893
630.92	20.718
631.25	20.410
631.58	22.467
631.91	21.053
632.24	21.445
632.57	21.250
632.90	21.708
633.23	22.118
633.56	21.662
633.89	20.469
634.22	22.840
634.55	20.712
634.88	22.095
635.20	20.769
635.53	22.267
635.86	22.107
