SpectraSuite Data File
++++++++++++++++++++++++++++++++++++
Date: Fri May 15 20:02:31 PDT 2015
User: schluterlab
Dark Spectrum Present: Yes
Reference Spectrum Present: Yes
Number of Sampled Component Spectra: 1
Spectrometers: USB2E3373
Integration Time (usec): 3000 (USB2E3373)
Spectra Averaged: 3 (USB2E3373)
Boxcar Smoothing: 0 (USB2E3373)
Correct for Electrical Dark: No (USB2E3373)
Strobe/Lamp Enabled: No (USB2E3373)
Correct for Detector Non-linearity: No (USB2E3373)
Correct for Stray Light: No (USB2E3373)
Number of Pixels in Processed Spectrum: 2048
>>>>>Begin Processed Spectral Data<<<<<
178.53	0.000
178.91	0.000
179.29	100.000
179.67	-50.000
180.04	-71.429
180.42	125.000
180.80	-500.000
181.18	-166.667
181.56	50.000
181.94	-200.000
182.31	-900.000
182.69	20.000
183.07	-100.000
183.45	100.000
183.83	66.667
184.20	27.273
184.58	155.556
184.96	-0.000
185.34	-133.333
185.72	300.000
186.09	38.462
186.47	-500.000
186.85	-116.667
187.23	166.667
187.61	-100.000
187.98	-166.667
188.36	88.889
188.74	-100.000
189.12	64.706
189.49	66.667
189.87	0.000
190.25	92.857
190.63	300.000
191.00	233.333
191.38	0.000
191.76	300.000
192.14	-0.000
192.51	200.000
192.89	-33.333
193.27	-114.286
193.65	266.667
194.02	81.818
194.40	50.000
194.78	-100.000
195.15	8.333
195.53	-12.500
195.91	150.000
196.29	-100.000
196.66	69.231
197.04	142.857
197.42	33.333
197.79	-500.000
198.17	-46.154
198.55	1700.000
198.92	-233.333
199.30	100.000
199.68	-40.000
200.05	133.333
200.43	0.000
200.81	166.667
201.18	-66.667
201.56	1000.000
201.94	-600.000
202.31	66.667
202.69	-120.000
203.07	75.000
203.44	1700.000
203.82	0.000
204.19	42.857
204.57	-133.333
204.95	100.000
205.32	70.000
205.70	0.000
206.08	25.000
206.45	111.111
206.83	92.857
207.20	0.000
207.58	-600.000
207.96	33.333
208.33	-90.000
208.71	-25.000
209.08	-83.333
209.46	-500.000
209.84	-60.000
210.21	-1000.000
210.59	0.000
210.96	83.333
211.34	200.000
211.71	60.000
212.09	-128.571
212.46	-200.000
212.84	0.000
213.22	110.000
213.59	450.000
213.97	23.077
214.34	45.455
214.72	-16.667
215.09	275.000
215.47	-7.692
215.84	-18.182
216.22	-133.333
216.59	0.000
216.97	100.000
217.34	50.000
217.72	-200.000
218.09	12.500
218.47	-25.000
218.84	-400.000
219.22	-11.111
219.59	-220.000
219.97	200.000
220.34	100.000
220.72	-14.286
221.09	75.000
221.47	-300.000
221.84	-700.000
222.22	-600.000
222.59	27.273
222.97	50.000
223.34	-300.000
223.72	-57.143
224.09	47.619
224.46	32.143
224.84	166.667
225.21	-20.000
225.59	40.000
225.96	300.000
226.34	350.000
226.71	42.857
227.08	0.000
227.46	100.000
227.83	-350.000
228.21	-11.111
228.58	0.000
228.95	62.500
229.33	20.000
229.70	62.500
230.08	-150.000
230.45	0.000
230.82	185.714
231.20	6.667
231.57	85.714
231.95	-57.143
232.32	20.000
232.69	71.429
233.07	-100.000
233.44	20.000
233.81	-50.000
234.19	77.778
234.56	-11.765
234.93	500.000
235.31	-125.000
235.68	-80.000
236.05	-46.154
236.43	-45.000
236.80	-5.882
237.17	9.375
237.55	-30.000
237.92	25.926
238.29	22.222
238.67	0.000
239.04	20.588
239.41	-4.878
239.79	-40.000
240.16	-2.439
240.53	-21.053
240.91	-8.696
241.28	11.111
241.65	16.071
242.02	21.918
242.40	0.000
242.77	0.000
243.14	0.000
243.51	12.500
243.89	21.839
244.26	1.149
244.63	-2.381
245.00	12.371
245.38	19.588
245.75	8.989
246.12	18.103
246.49	16.529
246.87	19.231
247.24	8.403
247.61	5.263
247.98	9.756
248.36	10.625
248.73	10.526
249.10	12.338
249.47	10.127
249.84	14.379
250.22	12.353
250.59	11.111
250.96	16.901
251.33	8.721
251.70	11.765
252.08	14.213
252.45	11.386
252.82	9.045
253.19	12.442
253.56	12.150
253.94	13.514
254.31	11.739
254.68	10.088
255.05	9.055
255.42	14.410
255.79	14.286
256.16	14.008
256.54	14.552
256.91	12.167
257.28	9.665
257.65	6.742
258.02	12.766
258.39	14.478
258.76	12.088
259.14	10.299
259.51	9.709
259.88	10.653
260.25	12.418
260.62	12.153
260.99	10.508
261.36	7.192
261.73	12.658
262.10	10.030
262.47	10.736
262.85	10.658
263.22	10.769
263.59	13.396
263.96	13.043
264.33	13.939
264.70	10.417
265.07	9.524
265.44	12.748
265.81	13.559
266.18	9.836
266.55	13.111
266.92	15.026
267.29	13.055
267.66	9.207
268.03	10.471
268.40	13.055
268.77	16.845
269.14	11.271
269.51	11.568
269.88	11.222
270.25	10.459
270.62	11.220
270.99	8.951
271.36	9.780
271.73	10.329
272.10	12.409
272.47	12.766
272.84	10.891
273.21	13.225
273.58	13.494
273.95	13.501
274.32	10.855
274.69	10.407
275.06	12.723
275.43	12.245
275.80	10.155
276.17	9.885
276.54	12.206
276.91	11.404
277.28	9.389
277.65	9.298
278.02	10.638
278.39	9.628
278.76	12.788
279.13	9.959
279.50	12.185
279.87	12.311
280.23	11.398
280.60	11.111
280.97	13.535
281.34	12.885
281.71	15.195
282.08	8.998
282.45	11.155
282.82	10.425
283.19	12.766
283.56	11.561
283.92	8.918
284.29	10.769
284.66	10.659
285.03	10.806
285.40	11.720
285.77	10.369
286.14	11.372
286.51	12.362
286.87	11.152
287.24	9.024
287.61	12.346
287.98	12.807
288.35	9.012
288.72	12.084
289.08	9.201
289.45	10.721
289.82	12.587
290.19	11.433
290.56	11.321
290.93	9.259
291.29	10.786
291.66	9.921
292.03	12.281
292.40	10.645
292.77	11.483
293.13	10.227
293.50	9.560
293.87	10.076
294.24	12.210
294.60	11.923
294.97	11.607
295.34	11.656
295.71	12.072
296.08	11.659
296.44	9.104
296.81	11.250
297.18	10.435
297.55	12.195
297.91	11.370
298.28	12.929
298.65	10.719
299.02	9.973
299.38	9.850
299.75	11.586
300.12	12.173
300.48	10.672
300.85	12.167
301.22	12.208
301.59	10.395
301.95	12.152
302.32	12.581
302.69	10.448
303.05	11.139
303.42	11.333
303.79	11.215
304.15	13.978
304.52	10.345
304.89	11.813
305.25	10.896
305.62	10.385
305.99	10.760
306.35	11.098
306.72	10.461
307.09	11.517
307.45	12.170
307.82	10.648
308.19	11.963
308.55	10.469
308.92	13.181
309.29	11.508
309.65	11.948
310.02	10.891
310.38	12.294
310.75	12.459
311.12	10.549
311.48	11.877
311.85	12.147
312.22	12.342
312.58	11.571
312.95	11.633
313.31	11.180
313.68	12.461
314.05	12.245
314.41	14.330
314.78	12.371
315.14	12.025
315.51	12.629
315.87	12.500
316.24	12.942
316.61	11.909
316.97	11.706
317.34	11.426
317.70	13.002
318.07	12.692
318.43	12.647
318.80	12.879
319.16	12.988
319.53	13.105
319.89	12.303
320.26	11.134
320.62	13.440
320.99	12.422
321.35	12.127
321.72	12.150
322.08	14.804
322.45	11.878
322.81	12.868
323.18	12.463
323.54	13.320
323.91	12.269
324.27	13.086
324.64	13.858
325.00	14.781
325.37	15.243
325.73	13.690
326.10	13.896
326.46	15.516
326.83	13.823
327.19	14.037
327.56	15.639
327.92	15.933
328.29	14.911
328.65	15.566
329.01	14.982
329.38	15.392
329.74	14.825
330.11	16.682
330.47	15.863
330.84	16.154
331.20	18.821
331.56	17.963
331.93	18.447
332.29	17.690
332.66	17.828
333.02	17.844
333.38	16.865
333.75	18.864
334.11	17.547
334.48	18.404
334.84	18.315
335.20	17.932
335.57	17.860
335.93	19.241
336.29	18.969
336.66	17.348
337.02	18.123
337.38	17.778
337.75	17.636
338.11	18.395
338.47	17.883
338.84	18.762
339.20	18.373
339.56	18.807
339.93	18.979
340.29	19.266
340.65	18.190
341.02	18.085
341.38	17.788
341.74	18.463
342.11	17.418
342.47	18.594
342.83	19.118
343.20	19.251
343.56	18.957
343.92	19.398
344.28	19.556
344.65	19.603
345.01	19.274
345.37	18.251
345.73	19.079
346.10	18.896
346.46	19.008
346.82	18.412
347.19	17.623
347.55	19.382
347.91	18.851
348.27	19.159
348.63	18.825
349.00	19.032
349.36	18.537
349.72	19.320
350.08	18.607
350.45	19.473
350.81	18.189
351.17	18.241
351.53	19.510
351.89	17.176
352.26	18.400
352.62	18.952
352.98	18.715
353.34	18.519
353.70	17.880
354.07	18.468
354.43	17.694
354.79	17.589
355.15	19.127
355.51	19.383
355.87	19.337
356.24	18.352
356.60	19.159
356.96	20.317
357.32	19.329
357.68	19.077
358.04	19.225
358.40	19.132
358.77	19.219
359.13	19.055
359.49	18.721
359.85	18.721
360.21	17.943
360.57	18.745
360.93	18.986
361.29	17.825
361.66	18.809
362.02	19.773
362.38	17.746
362.74	18.168
363.10	19.488
363.46	19.199
363.82	19.609
364.18	20.443
364.54	19.485
364.90	19.283
365.26	18.559
365.62	20.000
365.98	19.282
366.35	20.175
366.71	19.734
367.07	19.666
367.43	19.626
367.79	19.576
368.15	19.885
368.51	18.864
368.87	18.737
369.23	19.422
369.59	19.388
369.95	20.455
370.31	18.642
370.67	19.552
371.03	19.791
371.39	19.183
371.75	19.194
372.11	19.686
372.47	19.601
372.83	19.163
373.19	18.830
373.55	19.350
373.91	18.934
374.27	20.198
374.63	20.747
374.99	19.645
375.35	20.056
375.71	20.629
376.07	19.874
376.42	19.388
376.78	20.403
377.14	19.973
377.50	20.784
377.86	20.080
378.22	19.974
378.58	19.359
378.94	20.038
379.30	19.214
379.66	19.749
380.02	20.417
380.38	20.024
380.74	20.646
381.09	21.718
381.45	20.550
381.81	21.098
382.17	20.558
382.53	20.050
382.89	21.406
383.25	21.780
383.61	21.220
383.97	19.937
384.32	21.639
384.68	21.300
385.04	20.221
385.40	20.411
385.76	21.447
386.12	21.281
386.48	21.392
386.83	21.179
387.19	21.368
387.55	21.330
387.91	20.844
388.27	20.818
388.62	21.271
388.98	21.363
389.34	20.987
389.70	21.877
390.06	20.516
390.42	20.855
390.77	22.171
391.13	21.311
391.49	21.216
391.85	20.338
392.20	21.406
392.56	20.852
392.92	20.963
393.28	21.108
393.64	20.661
393.99	21.317
394.35	20.999
394.71	21.392
395.07	20.993
395.42	20.583
395.78	21.498
396.14	20.996
396.50	20.926
396.85	21.120
397.21	20.739
397.57	21.191
397.92	20.431
398.28	20.920
398.64	19.819
399.00	20.711
399.35	19.582
399.71	20.505
400.07	20.193
400.42	20.930
400.78	19.657
401.14	20.206
401.49	20.250
401.85	19.378
402.21	20.181
402.57	19.938
402.92	19.824
403.28	20.301
403.63	20.050
403.99	19.452
404.35	19.425
404.70	18.750
405.06	18.684
405.42	19.764
405.77	19.117
406.13	19.499
406.49	18.591
406.84	18.888
407.20	19.687
407.55	19.060
407.91	18.249
408.27	17.973
408.62	19.754
408.98	18.977
409.34	19.455
409.69	19.251
410.05	17.796
410.40	18.827
410.76	18.999
411.11	18.312
411.47	19.329
411.83	17.765
412.18	18.597
412.54	18.352
412.89	18.596
413.25	19.254
413.60	18.571
413.96	17.607
414.31	18.780
414.67	18.281
415.03	18.043
415.38	17.820
415.74	19.283
416.09	18.681
416.45	18.569
416.80	18.638
417.16	19.268
417.51	18.787
417.87	17.797
418.22	18.459
418.58	18.261
418.93	19.687
419.29	18.054
419.64	18.665
420.00	20.214
420.35	19.284
420.71	19.745
421.06	19.276
421.42	19.892
421.77	19.249
422.12	20.034
422.48	18.841
422.83	19.664
423.19	19.865
423.54	19.694
423.90	19.081
424.25	20.034
424.61	20.379
424.96	19.861
425.31	21.490
425.67	21.244
426.02	21.084
426.38	21.102
426.73	21.913
427.09	21.519
427.44	21.765
427.79	21.332
428.15	21.481
428.50	19.927
428.85	20.946
429.21	21.449
429.56	22.102
429.92	21.828
430.27	21.604
430.62	21.850
430.98	21.921
431.33	22.713
431.68	21.769
432.04	22.750
432.39	22.019
432.74	22.008
433.10	22.644
433.45	22.162
433.80	22.519
434.16	22.438
434.51	23.172
434.86	23.171
435.22	22.771
435.57	23.206
435.92	23.593
436.28	22.838
436.63	22.647
436.98	22.480
437.34	22.444
437.69	23.435
438.04	22.906
438.39	22.602
438.75	23.012
439.10	23.373
439.45	24.467
439.81	22.997
440.16	24.406
440.51	24.358
440.86	23.807
441.22	23.303
441.57	23.510
441.92	24.397
442.27	23.004
442.63	24.465
442.98	24.124
443.33	23.984
443.68	24.828
444.03	23.646
444.39	24.201
444.74	24.916
445.09	24.165
445.44	23.305
445.79	24.858
446.15	24.394
446.50	23.960
446.85	24.655
447.20	23.306
447.55	24.833
447.91	24.027
448.26	24.360
448.61	24.295
448.96	25.588
449.31	23.584
449.66	23.984
450.02	24.016
450.37	24.126
450.72	24.112
451.07	25.063
451.42	24.345
451.77	25.497
452.12	24.222
452.47	24.340
452.83	24.087
453.18	24.415
453.53	24.210
453.88	24.104
454.23	25.200
454.58	24.559
454.93	25.322
455.28	23.365
455.63	25.480
455.98	25.556
456.34	24.521
456.69	24.841
457.04	25.079
457.39	25.091
457.74	25.272
458.09	23.720
458.44	24.283
458.79	24.874
459.14	25.229
459.49	24.299
459.84	25.324
460.19	24.939
460.54	24.817
460.89	24.716
461.24	24.472
461.59	25.297
461.94	24.277
462.29	25.332
462.64	25.116
462.99	24.509
463.34	24.965
463.69	24.517
464.04	24.758
464.39	25.288
464.74	24.479
465.09	25.140
465.44	24.928
465.79	25.113
466.14	25.029
466.49	24.842
466.84	25.877
467.19	25.407
467.54	24.968
467.89	25.016
468.24	25.061
468.59	25.905
468.94	24.952
469.29	25.049
469.64	25.222
469.99	25.929
470.34	25.461
470.68	25.951
471.03	25.832
471.38	24.536
471.73	25.490
472.08	25.712
472.43	24.966
472.78	24.743
473.13	25.782
473.48	25.277
473.83	24.595
474.17	25.000
474.52	25.144
474.87	24.970
475.22	25.137
475.57	24.845
475.92	25.288
476.27	24.680
476.61	25.289
476.96	24.484
477.31	25.798
477.66	25.056
478.01	25.435
478.36	25.272
478.70	26.373
479.05	25.824
479.40	25.384
479.75	25.443
480.10	25.192
480.45	25.000
480.79	25.982
481.14	25.205
481.49	24.729
481.84	25.820
482.19	25.257
482.53	25.803
482.88	24.773
483.23	25.192
483.58	25.991
483.92	24.589
484.27	24.749
484.62	25.101
484.97	24.959
485.31	24.566
485.66	23.616
486.01	23.826
486.36	23.752
486.70	23.730
487.05	24.369
487.40	24.405
487.75	24.254
488.09	24.289
488.44	24.966
488.79	25.290
489.13	25.521
489.48	25.737
489.83	25.426
490.17	24.719
490.52	25.081
490.87	25.081
491.22	25.645
491.56	25.190
491.91	25.335
492.26	25.620
492.60	25.720
492.95	25.430
493.30	25.501
493.64	25.196
493.99	25.072
494.34	26.505
494.68	25.524
495.03	25.061
495.37	25.074
495.72	25.795
496.07	25.366
496.41	25.283
496.76	24.873
497.11	26.083
497.45	25.489
497.80	25.984
498.14	25.385
498.49	25.648
498.84	26.347
499.18	26.205
499.53	25.794
499.87	25.730
500.22	25.668
500.56	26.273
500.91	25.301
501.26	25.161
501.60	25.971
501.95	26.443
502.29	25.569
502.64	25.627
502.98	26.344
503.33	24.400
503.67	25.253
504.02	26.246
504.36	25.977
504.71	25.354
505.06	25.969
505.40	26.041
505.75	26.237
506.09	25.494
506.44	25.257
506.78	26.020
507.13	25.646
507.47	24.961
507.82	25.588
508.16	25.092
508.51	26.338
508.85	25.903
509.19	26.131
509.54	26.166
509.88	26.214
510.23	25.874
510.57	26.082
510.92	24.893
511.26	26.296
511.61	25.853
511.95	25.425
512.30	25.388
512.64	26.544
512.98	25.379
513.33	26.301
513.67	25.185
514.02	26.659
514.36	27.200
514.70	26.282
515.05	26.322
515.39	26.151
515.74	26.647
516.08	26.898
516.42	26.914
516.77	26.741
517.11	26.944
517.46	26.930
517.80	26.639
518.14	25.964
518.49	26.803
518.83	25.820
519.17	24.924
519.52	25.400
519.86	26.050
520.20	26.914
520.55	26.266
520.89	27.227
521.23	25.839
521.58	27.192
521.92	27.308
522.26	27.521
522.61	26.429
522.95	26.954
523.29	27.001
523.64	26.874
523.98	27.479
524.32	26.095
524.66	27.913
525.01	26.558
525.35	27.609
525.69	26.599
526.04	25.992
526.38	26.848
526.72	25.899
527.06	25.292
527.41	27.111
527.75	25.469
528.09	26.379
528.43	27.549
528.78	26.931
529.12	26.258
529.46	25.211
529.80	26.979
530.15	26.799
530.49	26.128
530.83	25.992
531.17	25.991
531.51	28.112
531.86	25.969
532.20	26.374
532.54	28.046
532.88	26.146
533.22	26.411
533.57	25.426
533.91	25.392
534.25	26.107
534.59	25.657
534.93	25.299
535.27	25.127
535.62	25.470
535.96	25.766
536.30	26.451
536.64	26.189
536.98	25.993
537.32	26.671
537.66	27.279
538.01	27.203
538.35	26.768
538.69	26.099
539.03	24.470
539.37	26.245
539.71	26.858
540.05	25.798
540.39	26.177
540.73	26.360
541.07	26.450
541.42	26.613
541.76	26.153
542.10	26.084
542.44	25.712
542.78	24.501
543.12	25.137
543.46	26.008
543.80	26.509
544.14	24.299
544.48	26.316
544.82	26.042
545.16	25.410
545.50	25.434
545.84	26.416
546.18	26.809
546.52	24.946
546.86	25.306
547.20	26.967
547.54	24.311
547.88	26.562
548.22	25.115
548.56	25.528
548.90	26.482
549.24	25.551
549.58	26.023
549.92	24.875
550.26	26.593
550.60	27.063
550.94	26.214
551.28	27.202
551.62	27.308
551.96	26.466
552.30	26.901
552.64	25.106
552.98	25.598
553.32	26.320
553.66	25.689
554.00	26.569
554.34	26.219
554.68	25.959
555.02	26.637
555.36	26.328
555.69	26.007
556.03	25.339
556.37	26.192
556.71	26.570
557.05	26.547
557.39	25.576
557.73	27.286
558.07	26.471
558.41	27.182
558.75	26.500
559.08	26.556
559.42	25.873
559.76	26.741
560.10	25.229
560.44	26.284
560.78	26.084
561.12	25.882
561.45	25.861
561.79	26.261
562.13	26.260
562.47	25.324
562.81	26.441
563.15	25.811
563.48	25.672
563.82	26.767
564.16	25.696
564.50	25.743
564.84	25.435
565.17	25.218
565.51	26.366
565.85	26.200
566.19	24.668
566.52	26.072
566.86	26.028
567.20	25.841
567.54	25.061
567.88	26.011
568.21	25.735
568.55	24.076
568.89	24.589
569.23	24.892
569.56	24.256
569.90	23.955
570.24	23.595
570.57	23.745
570.91	24.294
571.25	23.578
571.59	23.388
571.92	22.904
572.26	23.279
572.60	23.597
572.93	23.251
573.27	22.853
573.61	23.091
573.95	23.157
574.28	22.140
574.62	22.629
574.96	22.962
575.29	22.792
575.63	22.104
575.97	22.472
576.30	22.828
576.64	22.490
576.98	22.831
577.31	22.561
577.65	22.592
577.98	22.189
578.32	21.543
578.66	21.449
578.99	22.602
579.33	21.984
579.67	22.634
580.00	22.430
580.34	22.985
580.67	22.255
581.01	22.646
581.35	22.416
581.68	22.043
582.02	21.986
582.35	22.080
582.69	22.166
583.02	22.452
583.36	22.924
583.70	22.949
584.03	23.436
584.37	23.320
584.70	22.610
585.04	22.642
585.37	22.924
585.71	22.266
586.04	23.021
586.38	21.899
586.72	22.582
587.05	23.281
587.39	23.791
587.72	23.647
588.06	22.696
588.39	23.184
588.73	23.443
589.06	23.353
589.40	23.609
589.73	23.585
590.07	23.943
590.40	24.110
590.73	24.753
591.07	24.088
591.40	23.865
591.74	24.434
592.07	24.490
592.41	24.028
592.74	23.377
593.08	23.123
593.41	23.526
593.75	23.225
594.08	23.035
594.41	22.926
594.75	23.321
595.08	22.966
595.42	23.408
595.75	23.582
596.09	23.729
596.42	23.522
596.75	24.378
597.09	24.237
597.42	24.481
597.75	24.416
598.09	23.721
598.42	23.601
598.76	23.767
599.09	23.958
599.42	23.153
599.76	23.138
600.09	23.643
600.42	23.541
600.76	22.883
601.09	22.901
601.42	23.149
601.76	23.343
602.09	23.804
602.42	23.926
602.76	23.642
603.09	23.339
603.42	23.746
603.76	23.226
604.09	22.519
604.42	23.942
604.76	24.344
605.09	23.766
605.42	24.018
605.75	23.730
606.09	23.312
606.42	23.478
606.75	23.636
607.09	23.912
607.42	23.350
607.75	23.091
608.08	23.226
608.42	23.801
608.75	23.711
609.08	24.564
609.41	24.264
609.75	24.446
610.08	24.114
610.41	23.478
610.74	24.086
611.07	24.083
611.41	25.065
611.74	24.414
612.07	23.608
612.40	24.398
612.73	24.463
613.07	24.184
613.40	24.781
613.73	23.559
614.06	24.318
614.39	23.632
614.72	24.426
615.06	23.631
615.39	23.799
615.72	23.412
616.05	24.916
616.38	22.678
616.71	24.832
617.05	25.015
617.38	24.639
617.71	23.899
618.04	24.889
618.37	25.410
618.70	25.479
619.03	25.903
619.36	24.891
619.69	25.474
620.03	26.004
620.36	24.750
620.69	26.124
621.02	25.306
621.35	27.054
621.68	26.446
622.01	25.500
622.34	26.417
622.67	25.473
623.00	25.498
623.33	25.381
623.66	24.832
623.99	24.357
624.32	26.084
624.65	24.812
624.99	25.207
625.32	24.033
625.65	26.316
625.98	26.027
626.31	25.769
626.64	25.043
626.97	26.614
627.30	26.182
627.63	26.343
627.96	26.056
628.29	26.179
628.62	28.220
628.95	26.954
629.28	26.310
629.61	26.221
629.94	27.273
630.26	25.889
630.59	28.200
630.92	25.333
631.25	26.359
631.58	27.313
631.91	26.206
632.24	27.294
632.57	27.727
632.90	25.267
633.23	27.529
633.56	27.078
633.89	27.004
634.22	30.000
634.55	28.463
