SpectraSuite Data File
++++++++++++++++++++++++++++++++++++
Date: Fri May 15 20:12:45 PDT 2015
User: schluterlab
Dark Spectrum Present: Yes
Reference Spectrum Present: Yes
Number of Sampled Component Spectra: 1
Spectrometers: USB2E3373
Integration Time (usec): 3000 (USB2E3373)
Spectra Averaged: 3 (USB2E3373)
Boxcar Smoothing: 0 (USB2E3373)
Correct for Electrical Dark: No (USB2E3373)
Strobe/Lamp Enabled: No (USB2E3373)
Correct for Detector Non-linearity: No (USB2E3373)
Correct for Stray Light: No (USB2E3373)
Number of Pixels in Processed Spectrum: 2048
>>>>>Begin Processed Spectral Data<<<<<
178.53	0.000
178.91	0.000
179.29	62.500
179.67	-300.000
180.04	28.571
180.42	175.000
180.80	700.000
181.18	33.333
181.56	250.000
181.94	300.000
182.31	-500.000
182.69	0.000
183.07	-200.000
183.45	140.000
183.83	116.667
184.20	27.273
184.58	77.778
184.96	-250.000
185.34	-133.333
185.72	-550.000
186.09	53.846
186.47	-700.000
186.85	166.667
187.23	144.444
187.61	-400.000
187.98	-100.000
188.36	144.444
188.74	-66.667
189.12	82.353
189.49	83.333
189.87	0.000
190.25	135.714
190.63	150.000
191.00	200.000
191.38	-21.053
191.76	650.000
192.14	-25.000
192.51	450.000
192.89	-77.778
193.27	0.000
193.65	-0.000
194.02	9.091
194.40	70.000
194.78	-125.000
195.15	-41.667
195.53	-75.000
195.91	50.000
196.29	0.000
196.66	107.692
197.04	28.571
197.42	-33.333
197.79	-333.333
198.17	-7.692
198.55	500.000
198.92	-166.667
199.30	-100.000
199.68	140.000
200.05	-100.000
200.43	0.000
200.81	233.333
201.18	66.667
201.56	1000.000
201.94	-50.000
202.31	-133.333
202.69	-200.000
203.07	75.000
203.44	300.000
203.82	0.000
204.19	42.857
204.57	-633.333
204.95	150.000
205.32	0.000
205.70	-42.857
206.08	-25.000
206.45	222.222
206.83	100.000
207.20	57.143
207.58	-400.000
207.96	-366.667
208.33	-70.000
208.71	-25.000
209.08	-133.333
209.46	200.000
209.84	20.000
210.21	-100.000
210.59	0.000
210.96	83.333
211.34	50.000
211.71	6.667
212.09	-42.857
212.46	-400.000
212.84	0.000
213.22	90.000
213.59	150.000
213.97	30.769
214.34	109.091
214.72	-33.333
215.09	275.000
215.47	38.462
215.84	18.182
216.22	33.333
216.59	12.500
216.97	400.000
217.34	-25.000
217.72	-160.000
218.09	25.000
218.47	112.500
218.84	-200.000
219.22	-33.333
219.59	-60.000
219.97	433.333
220.34	75.000
220.72	-100.000
221.09	-175.000
221.47	0.000
221.84	-350.000
222.22	-700.000
222.59	27.273
222.97	66.667
223.34	-133.333
223.72	21.429
224.09	9.524
224.46	21.429
224.84	300.000
225.21	-10.000
225.59	13.333
225.96	250.000
226.34	300.000
226.71	100.000
227.08	-83.333
227.46	50.000
227.83	-700.000
228.21	0.000
228.58	90.909
228.95	0.000
229.33	20.000
229.70	18.750
230.08	-112.500
230.45	28.571
230.82	171.429
231.20	-13.333
231.57	57.143
231.95	114.286
232.32	-50.000
232.69	100.000
233.07	400.000
233.44	-100.000
233.81	-20.000
234.19	88.889
234.56	5.882
234.93	150.000
235.31	50.000
235.68	-260.000
236.05	-30.769
236.43	-30.000
236.80	5.882
237.17	18.750
237.55	-50.000
237.92	-3.704
238.29	16.667
238.67	36.667
239.04	8.824
239.41	-24.390
239.79	-20.000
240.16	14.634
240.53	-13.158
240.91	-2.174
241.28	12.698
241.65	25.000
242.02	13.699
242.40	8.333
242.77	0.000
243.14	9.091
243.51	3.750
243.89	9.195
244.26	-1.149
244.63	5.952
245.00	9.278
245.38	9.278
245.75	-2.247
246.12	-3.448
246.49	15.702
246.87	6.731
247.24	10.924
247.61	-5.263
247.98	6.504
248.36	1.250
248.73	9.868
249.10	2.597
249.47	3.797
249.84	2.614
250.22	11.765
250.59	5.882
250.96	15.493
251.33	4.070
251.70	11.176
252.08	7.107
252.45	10.396
252.82	7.035
253.19	9.217
253.56	5.607
253.94	7.658
254.31	6.957
254.68	12.281
255.05	7.480
255.42	9.607
255.79	9.653
256.16	7.782
256.54	9.328
256.91	8.745
257.28	7.807
257.65	5.993
258.02	1.773
258.39	12.458
258.76	13.187
259.14	8.638
259.51	8.414
259.88	6.186
260.25	8.170
260.62	9.028
260.99	6.102
261.36	6.507
261.73	6.013
262.10	7.295
262.47	5.215
262.85	4.702
263.22	9.846
263.59	8.723
263.96	6.832
264.33	5.152
264.70	5.357
265.07	7.440
265.44	8.782
265.81	9.322
266.18	6.831
266.55	8.997
266.92	10.104
267.29	7.311
267.66	7.161
268.03	9.424
268.40	5.483
268.77	9.091
269.14	8.153
269.51	9.512
269.88	6.484
270.25	5.357
270.62	6.341
270.99	5.627
271.36	7.090
271.73	7.512
272.10	9.489
272.47	8.511
272.84	6.683
273.21	8.121
273.58	6.506
273.95	7.780
274.32	7.390
274.69	7.240
275.06	8.482
275.43	7.937
275.80	8.389
276.17	5.287
276.54	6.424
276.91	8.333
277.28	6.987
277.65	7.645
278.02	6.809
278.39	8.534
278.76	6.499
279.13	2.075
279.50	8.193
279.87	10.367
280.23	5.161
280.60	7.602
280.97	7.273
281.34	6.731
281.71	8.214
282.08	3.272
282.45	5.871
282.82	5.985
283.19	7.157
283.56	7.322
283.92	6.641
284.29	5.000
284.66	7.558
285.03	4.912
285.40	8.696
285.77	6.151
286.14	7.581
286.51	8.118
286.87	6.216
287.24	6.814
287.61	7.584
287.98	7.368
288.35	5.719
288.72	8.231
289.08	5.903
289.45	8.787
289.82	6.119
290.19	6.314
290.56	6.518
290.93	5.387
291.29	5.701
291.66	6.299
292.03	7.496
292.40	6.129
292.77	7.496
293.13	3.571
293.50	6.070
293.87	6.870
294.24	5.719
294.60	5.812
294.97	6.399
295.34	5.521
295.71	5.067
296.08	5.830
296.44	3.556
296.81	6.944
297.18	3.913
297.55	7.046
297.91	6.575
298.28	6.992
298.65	7.463
299.02	5.930
299.38	3.830
299.75	5.379
300.12	4.712
300.48	4.480
300.85	6.591
301.22	5.714
301.59	3.553
301.95	6.456
302.32	5.837
302.69	4.726
303.05	5.569
303.42	6.102
303.79	5.491
304.15	5.854
304.52	4.162
304.89	3.743
305.25	4.479
305.62	4.317
305.99	4.094
306.35	4.509
306.72	4.724
307.09	4.789
307.45	4.248
307.82	4.745
308.19	5.459
308.55	3.599
308.92	5.664
309.29	3.575
309.65	5.920
310.02	4.070
310.38	4.610
310.75	4.809
311.12	4.952
311.48	5.726
311.85	4.607
312.22	4.536
312.58	4.777
312.95	3.095
313.31	3.313
313.68	4.084
314.05	4.286
314.41	3.918
314.78	4.227
315.14	6.064
315.51	4.658
315.87	4.918
316.24	5.561
316.61	5.807
316.97	4.663
317.34	3.516
317.70	6.405
318.07	4.712
318.43	5.098
318.80	4.261
319.16	5.273
319.53	4.463
319.89	3.346
320.26	4.960
320.62	5.416
320.99	4.280
321.35	4.728
321.72	4.361
322.08	5.639
322.45	5.279
322.81	5.108
323.18	4.122
323.54	5.212
323.91	4.479
324.27	5.371
324.64	5.056
325.00	6.752
325.37	5.418
325.73	5.621
326.10	5.450
326.46	5.381
326.83	5.862
327.19	4.969
327.56	4.692
327.92	5.810
328.29	5.000
328.65	4.906
329.01	4.779
329.38	5.622
329.74	5.005
330.11	5.190
330.47	5.195
330.84	4.519
331.20	6.654
331.56	5.463
331.93	5.662
332.29	6.049
332.66	4.706
333.02	5.390
333.38	4.400
333.75	5.311
334.11	5.103
334.48	5.893
334.84	6.044
335.20	6.313
335.57	4.533
335.93	5.781
336.29	5.801
336.66	4.450
337.02	5.762
337.38	4.444
337.75	4.727
338.11	5.320
338.47	5.383
338.84	5.915
339.20	4.479
339.56	5.046
339.93	5.461
340.29	5.046
340.65	6.452
341.02	5.496
341.38	3.894
341.74	4.329
342.11	4.246
342.47	4.893
342.83	5.709
343.20	4.878
343.56	5.565
343.92	4.429
344.28	5.978
344.65	5.009
345.01	3.457
345.37	5.046
345.73	6.192
346.10	4.832
346.46	3.280
346.82	5.892
347.19	3.990
347.55	4.678
347.91	5.097
348.27	5.093
348.63	4.940
349.00	5.086
349.36	5.486
349.72	4.726
350.08	5.820
350.45	5.267
350.81	4.319
351.17	3.990
351.53	5.469
351.89	5.367
352.26	5.280
352.62	5.161
352.98	4.819
353.34	5.153
353.70	5.583
354.07	4.677
354.43	4.644
354.79	3.881
355.15	5.317
355.51	5.617
355.87	6.068
356.24	4.812
356.60	4.608
356.96	5.794
357.32	4.153
357.68	5.942
358.04	4.766
358.40	4.743
358.77	5.742
359.13	4.243
359.49	4.468
359.85	5.304
360.21	4.625
360.57	4.973
360.93	5.446
361.29	4.154
361.66	4.702
362.02	5.530
362.38	4.417
362.74	4.996
363.10	4.740
363.46	4.818
363.82	6.161
364.18	4.723
364.54	4.559
364.90	4.659
365.26	5.167
365.62	5.620
365.98	5.865
366.35	6.191
366.71	4.508
367.07	4.209
367.43	4.385
367.79	4.806
368.15	5.025
368.51	5.171
368.87	3.661
369.23	4.188
369.59	4.883
369.95	4.839
370.31	4.697
370.67	4.403
371.03	5.004
371.39	4.303
371.75	4.908
372.11	4.850
372.47	5.178
372.83	5.891
373.19	5.278
373.55	4.549
373.91	5.184
374.27	5.528
374.63	5.384
374.99	5.106
375.35	4.944
375.71	5.245
376.07	4.494
376.42	4.354
376.78	5.705
377.14	4.739
377.50	4.980
377.86	5.689
378.22	5.680
378.58	4.231
378.94	4.726
379.30	4.554
379.66	5.392
380.02	5.212
380.38	4.808
380.74	5.506
381.09	5.890
381.45	5.015
381.81	4.812
382.17	5.711
382.53	4.872
382.89	4.896
383.25	5.974
383.61	5.732
383.97	3.873
384.32	5.191
384.68	5.820
385.04	4.963
385.40	5.476
385.76	6.038
386.12	6.274
386.48	6.130
386.83	4.883
387.19	5.311
387.55	5.772
387.91	5.134
388.27	5.556
388.62	5.349
388.98	6.446
389.34	6.621
389.70	6.712
390.06	5.475
390.42	5.376
390.77	5.363
391.13	6.179
391.49	5.563
391.85	6.108
392.20	6.466
392.56	5.912
392.92	6.107
393.28	6.309
393.64	5.465
393.99	6.959
394.35	6.009
394.71	6.577
395.07	6.474
395.42	6.922
395.78	6.319
396.14	6.747
396.50	6.468
396.85	6.890
397.21	6.266
397.57	5.893
397.92	6.651
398.28	6.667
398.64	6.386
399.00	7.111
399.35	5.530
399.71	7.007
400.07	7.497
400.42	6.304
400.78	6.797
401.14	6.776
401.49	7.266
401.85	6.216
402.21	6.928
402.57	6.438
402.92	6.148
403.28	7.581
403.63	6.620
403.99	6.633
404.35	7.683
404.70	6.845
405.06	6.522
405.42	7.272
405.77	6.566
406.13	7.218
406.49	7.223
406.84	6.907
407.20	7.225
407.55	6.310
407.91	7.219
408.27	6.947
408.62	7.508
408.98	8.010
409.34	7.745
409.69	6.460
410.05	7.328
410.40	7.099
410.76	8.323
411.11	7.188
411.47	7.890
411.83	6.842
412.18	7.465
412.54	7.366
412.89	6.466
413.25	7.461
413.60	7.764
413.96	7.669
414.31	8.354
414.67	7.505
415.03	7.656
415.38	7.768
415.74	7.687
416.09	8.295
416.45	8.170
416.80	8.262
417.16	7.597
417.51	8.461
417.87	7.301
418.22	8.420
418.58	7.692
418.93	8.276
419.29	6.274
419.64	7.647
420.00	9.131
420.35	8.418
420.71	8.323
421.06	8.042
421.42	8.113
421.77	7.861
422.12	8.286
422.48	8.554
422.83	8.469
423.19	8.409
423.54	7.584
423.90	7.892
424.25	8.439
424.61	8.874
424.96	8.420
425.31	9.070
425.67	8.509
426.02	7.951
426.38	8.015
426.73	8.838
427.09	8.481
427.44	9.412
427.79	9.487
428.15	8.981
428.50	8.237
428.85	8.538
429.21	8.432
429.56	9.164
429.92	8.731
430.27	9.373
430.62	8.468
430.98	8.068
431.33	9.464
431.68	8.844
432.04	8.273
432.39	8.614
432.74	8.479
433.10	8.908
433.45	8.781
433.80	8.590
434.16	8.199
434.51	8.656
434.86	9.640
435.22	8.188
435.57	8.983
435.92	9.401
436.28	9.183
436.63	8.956
436.98	9.096
437.34	8.953
437.69	9.183
438.04	8.490
438.39	8.980
438.75	8.682
439.10	9.168
439.45	9.495
439.81	9.297
440.16	8.789
440.51	9.313
440.86	10.332
441.22	9.050
441.57	9.161
441.92	8.709
442.27	9.479
442.63	9.636
442.98	9.650
443.33	9.015
443.68	9.814
444.03	9.637
444.39	9.641
444.74	9.532
445.09	10.022
445.44	9.345
445.79	10.057
446.15	8.645
446.50	8.985
446.85	9.352
447.20	9.072
447.55	10.268
447.91	9.363
448.26	10.074
448.61	9.960
448.96	9.524
449.31	9.364
449.66	9.292
450.02	8.899
450.37	8.951
450.72	9.622
451.07	9.937
451.42	9.988
451.77	9.403
452.12	9.211
452.47	8.693
452.83	9.835
453.18	9.361
453.53	9.861
453.88	9.472
454.23	10.326
454.58	9.509
454.93	10.567
455.28	9.079
455.63	10.229
455.98	9.862
456.34	10.153
456.69	9.593
457.04	9.893
457.39	9.781
457.74	9.734
458.09	8.417
458.44	10.123
458.79	9.748
459.14	10.183
459.49	11.045
459.84	9.814
460.19	9.709
460.54	10.086
460.89	9.773
461.24	9.503
461.59	10.511
461.94	8.931
462.29	10.977
462.64	10.299
462.99	9.276
463.34	9.388
463.69	9.846
464.04	9.867
464.39	9.763
464.74	9.693
465.09	10.356
465.44	9.867
465.79	9.751
466.14	10.148
466.49	9.086
466.84	10.767
467.19	9.950
467.54	9.706
467.89	9.539
468.24	9.976
468.59	10.540
468.94	9.968
469.29	10.098
469.64	10.663
469.99	10.371
470.34	9.215
470.68	9.993
471.03	10.899
471.38	10.200
471.73	10.434
472.08	9.091
472.43	9.396
472.78	9.527
473.13	10.340
473.48	9.837
473.83	9.776
474.17	10.427
474.52	10.785
474.87	10.970
475.22	9.701
475.57	10.220
475.92	10.587
476.27	10.594
476.61	10.127
476.96	9.927
477.31	10.438
477.66	10.169
478.01	9.938
478.36	10.131
478.70	10.495
479.05	10.275
479.40	9.910
479.75	9.906
480.10	9.882
480.45	10.400
480.79	10.725
481.14	10.707
481.49	10.049
481.84	9.315
482.19	9.729
482.53	10.024
482.88	9.881
483.23	9.741
483.58	10.094
483.92	10.068
484.27	10.164
484.62	9.592
484.97	9.121
485.31	9.827
485.66	9.726
486.01	10.214
486.36	9.965
486.70	10.036
487.05	10.252
487.40	10.212
487.75	9.944
488.09	9.858
488.44	10.316
488.79	9.974
489.13	10.457
489.48	9.962
489.83	9.731
490.17	9.573
490.52	9.885
490.87	9.764
491.22	10.411
491.56	9.630
491.91	10.229
492.26	9.772
492.60	10.221
492.95	9.838
493.30	9.722
493.64	9.136
493.99	10.483
494.34	9.417
494.68	9.667
495.03	9.684
495.37	10.304
495.72	10.045
496.07	10.244
496.41	10.094
496.76	9.811
497.11	10.061
497.45	10.119
497.80	9.839
498.14	9.935
498.49	10.310
498.84	9.780
499.18	10.191
499.53	10.119
499.87	9.922
500.22	9.594
500.56	9.581
500.91	10.090
501.26	9.343
501.60	9.592
501.95	9.947
502.29	10.121
502.64	10.521
502.98	10.163
503.33	9.510
503.67	10.072
504.02	10.655
504.36	10.440
504.71	9.394
505.06	9.965
505.40	10.305
505.75	10.876
506.09	9.883
506.44	10.626
506.78	10.408
507.13	9.721
507.47	9.556
507.82	9.882
508.16	9.350
508.51	10.493
508.85	9.890
509.19	9.686
509.54	10.080
509.88	9.547
510.23	10.382
510.57	10.155
510.92	9.275
511.26	10.311
511.61	9.901
511.95	10.082
512.30	10.588
512.64	10.684
512.98	9.938
513.33	9.625
513.67	9.721
514.02	9.954
514.36	10.114
514.70	10.781
515.05	10.106
515.39	10.390
515.74	10.419
516.08	9.444
516.42	10.777
516.77	11.410
517.11	10.089
517.46	9.695
517.80	10.548
518.14	10.043
518.49	10.036
518.83	10.450
519.17	9.824
519.52	9.591
519.86	9.664
520.20	10.389
520.55	9.756
520.89	10.602
521.23	9.816
521.58	11.420
521.92	10.064
522.26	9.954
522.61	10.130
522.95	9.735
523.29	10.483
523.64	10.801
523.98	10.888
524.32	9.278
524.66	10.755
525.01	10.714
525.35	10.629
525.69	9.899
526.04	9.788
526.38	11.154
526.72	10.334
527.06	10.441
527.41	10.554
527.75	10.255
528.09	10.365
528.43	11.749
528.78	9.439
529.12	10.645
529.46	9.682
529.80	10.640
530.15	10.363
530.49	10.034
530.83	10.055
531.17	9.805
531.51	10.602
531.86	10.673
532.20	9.673
532.54	10.619
532.88	10.815
533.22	10.551
533.57	10.157
533.91	9.465
534.25	10.807
534.59	10.327
534.93	9.629
535.27	10.596
535.62	10.434
535.96	10.633
536.30	9.103
536.64	10.131
536.98	10.314
537.32	10.811
537.66	11.290
538.01	11.329
538.35	10.333
538.69	10.519
539.03	9.638
539.37	11.238
539.71	10.361
540.05	9.708
540.39	10.942
540.73	10.879
541.07	10.635
541.42	10.349
541.76	10.668
542.10	9.635
542.44	10.215
542.78	8.190
543.12	10.508
543.46	11.196
543.80	10.756
544.14	10.080
544.48	11.126
544.82	10.526
545.16	10.383
545.50	11.348
545.84	10.836
546.18	10.851
546.52	10.526
546.86	9.346
547.20	10.157
547.54	9.965
547.88	10.598
548.22	10.585
548.56	10.950
548.90	10.916
549.24	10.124
549.58	10.296
549.92	9.221
550.26	11.136
550.60	10.112
550.94	10.978
551.28	9.892
551.62	10.385
551.96	10.526
552.30	10.599
552.64	10.649
552.98	10.056
553.32	10.628
553.66	10.160
554.00	11.022
554.34	10.118
554.68	10.914
555.02	11.384
555.36	10.471
555.69	9.744
556.03	9.565
556.37	9.822
556.71	10.469
557.05	10.365
557.39	9.368
557.73	11.019
558.07	11.011
558.41	9.265
558.75	10.366
559.08	10.481
559.42	9.524
559.76	10.248
560.10	10.474
560.44	10.573
560.78	10.280
561.12	10.719
561.45	10.049
561.79	9.944
562.13	11.072
562.47	10.072
562.81	10.375
563.15	11.072
563.48	10.325
563.82	10.707
564.16	9.819
564.50	10.203
564.84	10.977
565.17	9.859
565.51	10.861
565.85	11.660
566.19	10.477
566.52	10.791
566.86	10.668
567.20	9.900
567.54	10.097
567.88	10.779
568.21	10.803
568.55	10.543
568.89	10.780
569.23	10.640
569.56	10.201
569.90	10.272
570.24	10.309
570.57	10.327
570.91	10.840
571.25	10.720
571.59	10.121
571.92	10.281
572.26	10.266
572.60	10.481
572.93	10.762
573.27	10.408
573.61	10.143
573.95	10.650
574.28	10.090
574.62	10.628
574.96	10.745
575.29	10.449
575.63	10.365
575.97	10.355
576.30	10.346
576.64	10.172
576.98	10.708
577.31	10.568
577.65	10.619
577.98	10.904
578.32	10.386
578.66	10.101
578.99	10.622
579.33	9.993
579.67	10.472
580.00	10.152
580.34	10.572
580.67	10.435
581.01	10.543
581.35	10.444
581.68	10.274
582.02	10.295
582.35	10.474
582.69	10.693
583.02	10.489
583.36	10.788
583.70	10.618
584.03	10.342
584.37	10.757
584.70	10.192
585.04	10.155
585.37	10.516
585.71	10.689
586.04	10.590
586.38	10.429
586.72	10.531
587.05	10.947
587.39	10.819
587.72	10.962
588.06	10.684
588.39	10.738
588.73	10.806
589.06	11.318
589.40	10.785
589.73	10.989
590.07	10.801
590.40	11.107
590.73	10.708
591.07	10.433
591.40	10.597
591.74	10.543
592.07	11.271
592.41	11.572
592.74	10.474
593.08	10.269
593.41	10.346
593.75	10.795
594.08	10.093
594.41	10.590
594.75	10.649
595.08	10.972
595.42	10.674
595.75	10.702
596.09	10.868
596.42	10.211
596.75	11.234
597.09	11.071
597.42	10.930
597.75	10.261
598.09	10.774
598.42	10.244
598.76	10.210
599.09	10.617
599.42	10.307
599.76	10.421
600.09	10.897
600.42	10.917
600.76	10.587
601.09	10.573
601.42	10.106
601.76	10.520
602.09	10.561
602.42	11.163
602.76	10.526
603.09	10.797
603.42	11.037
603.76	9.960
604.09	10.612
604.42	10.279
604.76	10.814
605.09	10.969
605.42	10.880
605.75	10.377
606.09	10.361
606.42	9.925
606.75	10.390
607.09	10.813
607.42	9.615
607.75	10.480
608.08	10.782
608.42	9.593
608.75	10.988
609.08	10.414
609.41	10.406
609.75	10.282
610.08	10.235
610.41	9.565
610.74	10.531
611.07	10.233
611.41	10.690
611.74	10.448
612.07	10.278
612.40	10.230
612.73	9.944
613.07	10.292
613.40	10.996
613.73	9.849
614.06	11.241
614.39	10.547
614.72	10.140
615.06	10.503
615.39	10.262
615.72	10.226
616.05	10.615
616.38	9.915
616.71	10.765
617.05	10.315
617.38	10.622
617.71	9.937
618.04	10.349
618.37	10.467
618.70	11.023
619.03	11.667
619.36	10.130
619.69	10.690
620.03	10.373
620.36	10.443
620.69	10.493
621.02	10.398
621.35	10.207
621.68	10.544
622.01	10.083
622.34	9.896
622.67	10.174
623.00	10.490
623.33	10.061
623.66	10.396
623.99	10.363
624.32	9.886
624.65	9.850
624.99	10.384
625.32	9.704
625.65	10.683
625.98	11.120
626.31	8.479
626.64	11.005
626.97	10.122
627.30	10.508
627.63	11.005
627.96	9.883
628.29	9.436
628.62	11.209
628.95	10.020
629.28	9.577
629.61	9.472
629.94	10.948
630.26	9.091
630.59	9.990
630.92	10.667
631.25	9.026
631.58	10.683
631.91	9.868
632.24	10.436
632.57	10.000
632.90	10.795
633.23	10.000
633.56	9.950
633.89	8.631
634.22	9.506
634.55	9.149
634.88	9.834
635.20	10.128
635.53	9.867
635.86	7.672
636.19	11.125
636.52	10.842
636.85	8.933
637.18	9.811
637.51	10.189
637.83	10.381
638.16	9.823
638.49	8.174
638.82	11.974
639.15	7.327
639.48	10.179
639.81	11.158
640.13	9.380
640.46	9.329
640.79	8.542
641.12	9.453
641.45	9.760
641.77	10.815
642.10	10.742
642.43	9.486
642.76	10.231
643.09	10.985
643.41	8.738
643.74	11.367
644.07	9.360
644.40	9.797
644.73	11.559
645.05	10.570
645.38	10.582
645.71	10.106
646.04	10.054
646.36	11.702
646.69	11.511
647.02	9.452
647.35	9.888
647.67	10.420
648.00	9.701
648.33	10.410
648.66	8.305
648.98	6.198
649.31	9.752
649.64	8.320
649.96	7.455
650.29	10.221
