SpectraSuite Data File
++++++++++++++++++++++++++++++++++++
Date: Fri May 15 17:28:10 PDT 2015
User: schluterlab
Dark Spectrum Present: Yes
Reference Spectrum Present: Yes
Number of Sampled Component Spectra: 1
Spectrometers: USB2E3373
Integration Time (usec): 3000 (USB2E3373)
Spectra Averaged: 3 (USB2E3373)
Boxcar Smoothing: 0 (USB2E3373)
Correct for Electrical Dark: No (USB2E3373)
Strobe/Lamp Enabled: No (USB2E3373)
Correct for Detector Non-linearity: No (USB2E3373)
Correct for Stray Light: No (USB2E3373)
Number of Pixels in Processed Spectrum: 2048
>>>>>Begin Processed Spectral Data<<<<<
178.53	0.000
178.91	0.000
179.29	25.000
179.67	0.000
180.04	-100.000
180.42	50.000
180.80	600.000
181.18	-33.333
181.56	700.000
181.94	200.000
182.31	400.000
182.69	-120.000
183.07	100.000
183.45	-140.000
183.83	133.333
184.20	18.182
184.58	77.778
184.96	25.000
185.34	-33.333
185.72	50.000
186.09	7.692
186.47	-200.000
186.85	150.000
187.23	100.000
187.61	200.000
187.98	-200.000
188.36	55.556
188.74	0.000
189.12	11.765
189.49	0.000
189.87	0.000
190.25	142.857
190.63	300.000
191.00	-266.667
191.38	63.158
191.76	350.000
192.14	-25.000
192.51	250.000
192.89	-33.333
193.27	-42.857
193.65	166.667
194.02	163.636
194.40	0.000
194.78	-125.000
195.15	-91.667
195.53	-50.000
195.91	275.000
196.29	75.000
196.66	53.846
197.04	42.857
197.42	-33.333
197.79	-533.333
198.17	-76.923
198.55	1700.000
198.92	-366.667
199.30	-400.000
199.68	40.000
200.05	-266.667
200.43	0.000
200.81	300.000
201.18	-66.667
201.56	-300.000
201.94	-300.000
202.31	-166.667
202.69	-20.000
203.07	200.000
203.44	1200.000
203.82	0.000
204.19	78.571
204.57	-300.000
204.95	75.000
205.32	60.000
205.70	128.571
206.08	0.000
206.45	244.444
206.83	100.000
207.20	-42.857
207.58	-0.000
207.96	-266.667
208.33	10.000
208.71	100.000
209.08	-133.333
209.46	-100.000
209.84	-140.000
210.21	200.000
210.59	42.857
210.96	50.000
211.34	-75.000
211.71	6.667
212.09	28.571
212.46	-1100.000
212.84	0.000
213.22	110.000
213.59	350.000
213.97	69.231
214.34	27.273
214.72	33.333
215.09	150.000
215.47	-30.769
215.84	-18.182
216.22	-66.667
216.59	37.500
216.97	750.000
217.34	-25.000
217.72	-120.000
218.09	-12.500
218.47	125.000
218.84	-200.000
219.22	22.222
219.59	0.000
219.97	333.333
220.34	-0.000
220.72	-57.143
221.09	200.000
221.47	200.000
221.84	-250.000
222.22	-300.000
222.59	100.000
222.97	100.000
223.34	-66.667
223.72	0.000
224.09	57.143
224.46	32.143
224.84	233.333
225.21	10.000
225.59	66.667
225.96	250.000
226.34	-25.000
226.71	0.000
227.08	-66.667
227.46	12.500
227.83	-300.000
228.21	11.111
228.58	27.273
228.95	50.000
229.33	-30.000
229.70	106.250
230.08	0.000
230.45	-57.143
230.82	57.143
231.20	100.000
231.57	128.571
231.95	-14.286
232.32	20.000
232.69	64.286
233.07	-66.667
233.44	220.000
233.81	10.000
234.19	155.556
234.56	94.118
234.93	-300.000
235.31	25.000
235.68	-160.000
236.05	46.154
236.43	10.000
236.80	94.118
237.17	53.125
237.55	55.000
237.92	59.259
238.29	36.111
238.67	63.333
239.04	55.882
239.41	14.634
239.79	43.333
240.16	68.293
240.53	36.842
240.91	56.522
241.28	52.381
241.65	46.429
242.02	43.836
242.40	40.000
242.77	35.593
243.14	46.970
243.51	56.250
243.89	55.172
244.26	50.575
244.63	44.048
245.00	53.608
245.38	45.361
245.75	33.708
246.12	43.103
246.49	38.843
246.87	50.000
247.24	45.378
247.61	36.842
247.98	45.528
248.36	43.750
248.73	41.447
249.10	38.961
249.47	43.038
249.84	43.137
250.22	51.176
250.59	50.980
250.96	39.906
251.33	44.186
251.70	52.941
252.08	46.193
252.45	41.089
252.82	48.241
253.19	49.309
253.56	49.533
253.94	45.946
254.31	47.826
254.68	50.877
255.05	46.457
255.42	48.472
255.79	44.788
256.16	47.082
256.54	47.015
256.91	41.065
257.28	46.097
257.65	47.566
258.02	46.454
258.39	49.158
258.76	47.619
259.14	47.176
259.51	42.718
259.88	43.643
260.25	46.405
260.62	48.264
260.99	42.373
261.36	46.918
261.73	45.570
262.10	47.112
262.47	45.399
262.85	47.335
263.22	43.385
263.59	47.352
263.96	51.863
264.33	45.455
264.70	43.452
265.07	46.131
265.44	48.725
265.81	42.938
266.18	46.721
266.55	45.501
266.92	46.891
267.29	47.520
267.66	47.059
268.03	47.382
268.40	48.303
268.77	51.070
269.14	47.002
269.51	44.216
269.88	46.135
270.25	45.408
270.62	42.927
270.99	42.967
271.36	44.988
271.73	44.366
272.10	44.282
272.47	46.336
272.84	45.050
273.21	41.763
273.58	47.952
273.95	43.249
274.32	40.878
274.69	42.081
275.06	44.196
275.43	44.218
275.80	45.916
276.17	44.138
276.54	43.041
276.91	45.833
277.28	46.725
277.65	45.041
278.02	44.255
278.39	45.514
278.76	46.751
279.13	41.701
279.50	42.857
279.87	43.844
280.23	40.645
280.60	43.860
280.97	42.828
281.34	41.731
281.71	46.612
282.08	43.149
282.45	39.922
282.82	40.927
283.19	40.619
283.56	44.509
283.92	41.366
284.29	39.615
284.66	43.023
285.03	43.811
285.40	41.966
285.77	39.192
286.14	39.892
286.51	40.590
286.87	39.488
287.24	41.068
287.61	40.035
287.98	41.754
288.35	39.341
288.72	37.478
289.08	38.368
289.45	39.192
289.82	38.287
290.19	36.348
290.56	39.623
290.93	38.215
291.29	33.898
291.66	36.220
292.03	34.769
292.40	39.355
292.77	35.088
293.13	33.766
293.50	34.143
293.87	35.573
294.24	33.385
294.60	34.873
294.97	32.440
295.34	33.896
295.71	35.171
296.08	31.540
296.44	31.579
296.81	31.944
297.18	32.754
297.55	32.114
297.91	31.918
298.28	32.718
298.65	31.615
299.02	31.536
299.38	29.822
299.75	30.621
300.12	33.115
300.48	31.225
300.85	30.545
301.22	30.130
301.59	30.263
301.95	31.266
302.32	32.166
302.69	28.358
303.05	28.094
303.42	30.262
303.79	28.037
304.15	29.630
304.52	29.608
304.89	28.421
305.25	28.571
305.62	28.005
305.99	28.889
306.35	28.555
306.72	29.246
307.09	28.392
307.45	30.195
307.82	28.819
308.19	29.384
308.55	27.154
308.92	28.867
309.29	27.263
309.65	27.879
310.02	29.153
310.38	27.333
310.75	30.492
311.12	27.018
311.48	28.102
311.85	28.168
312.22	27.426
312.58	27.919
312.95	26.574
313.31	27.743
313.68	28.377
314.05	28.061
314.41	27.629
314.78	27.629
315.14	29.394
315.51	28.778
315.87	28.791
316.24	29.828
316.61	29.626
316.97	30.060
317.34	28.125
317.70	27.820
318.07	27.788
318.43	29.608
318.80	29.356
319.16	29.395
319.53	28.965
319.89	28.445
320.26	29.251
320.62	30.592
320.99	28.914
321.35	28.674
321.72	30.322
322.08	28.902
322.45	28.934
322.81	29.273
323.18	28.950
323.54	30.212
323.91	30.088
324.27	30.469
324.64	31.554
325.00	30.566
325.37	30.946
325.73	29.284
326.10	31.153
326.46	32.825
326.83	31.584
327.19	31.386
327.56	30.582
327.92	32.570
328.29	31.161
328.65	31.981
329.01	29.871
329.38	32.074
329.74	30.217
330.11	32.159
330.47	31.354
330.84	31.923
331.20	33.175
331.56	30.370
331.93	31.781
332.29	32.172
332.66	30.769
333.02	31.599
333.38	29.331
333.75	31.044
334.11	30.618
334.48	32.185
334.84	32.509
335.20	31.290
335.57	30.462
335.93	31.798
336.29	32.228
336.66	30.336
337.02	30.297
337.38	30.741
337.75	31.545
338.11	31.921
338.47	31.661
338.84	31.331
339.20	31.261
339.56	32.569
339.93	30.618
340.29	31.651
340.65	31.810
341.02	32.004
341.38	30.442
341.74	30.565
342.11	29.636
342.47	30.516
342.83	29.758
343.20	30.575
343.56	31.739
343.92	30.381
344.28	31.085
344.65	30.138
345.01	30.856
345.37	29.605
345.73	31.883
346.10	30.630
346.46	30.278
346.82	30.933
347.19	30.507
347.55	30.744
347.91	31.634
348.27	30.962
348.63	31.687
349.00	31.009
349.36	31.089
349.72	30.929
350.08	31.066
350.45	30.886
350.81	30.316
351.17	30.619
351.53	31.265
351.89	30.223
352.26	31.040
352.62	31.290
352.98	30.602
353.34	30.113
353.70	31.553
354.07	30.000
354.43	31.225
354.79	31.544
355.15	30.952
355.51	31.408
355.87	31.553
356.24	30.261
356.60	30.154
356.96	31.508
357.32	31.629
357.68	30.102
358.04	30.695
358.40	30.627
358.77	31.499
359.13	30.264
359.49	30.123
359.85	30.967
360.21	30.941
360.57	30.069
360.93	31.543
361.29	31.042
361.66	32.445
362.02	32.424
362.38	31.912
362.74	31.416
363.10	32.280
363.46	32.246
363.82	32.156
364.18	31.808
364.54	32.132
364.90	31.111
365.26	31.514
365.62	32.701
365.98	32.038
366.35	32.192
366.71	33.112
367.07	33.237
367.43	31.344
367.79	31.802
368.15	32.520
368.51	33.066
368.87	31.945
369.23	30.542
369.59	32.362
369.95	32.185
370.31	32.659
370.67	31.866
371.03	31.292
371.39	32.531
371.75	33.407
372.11	32.168
372.47	32.840
372.83	32.647
373.19	32.882
373.55	32.274
373.91	32.757
374.27	33.593
374.63	33.381
374.99	33.475
375.35	33.565
375.71	32.378
376.07	32.654
376.42	34.150
376.78	33.557
377.14	33.582
377.50	34.130
377.86	35.408
378.22	33.567
378.58	34.295
378.94	33.081
379.30	34.623
379.66	35.110
380.02	33.906
380.38	34.814
380.74	35.129
381.09	35.706
381.45	34.924
381.81	35.287
382.17	34.898
382.53	35.041
382.89	36.472
383.25	36.030
383.61	36.220
383.97	36.190
384.32	36.773
384.68	36.347
385.04	36.581
385.40	36.901
385.76	37.673
386.12	37.322
386.48	38.761
386.83	36.271
387.19	37.546
387.55	37.704
387.91	37.897
388.27	37.912
388.62	38.641
388.98	37.999
389.34	37.851
389.70	39.279
390.06	37.697
390.42	38.212
390.77	38.653
391.13	38.146
391.49	39.651
391.85	39.116
392.20	38.041
392.56	39.288
392.92	39.930
393.28	39.800
393.64	39.820
393.99	41.191
394.35	40.734
394.71	39.655
395.07	39.032
395.42	39.466
395.78	40.261
396.14	39.786
396.50	40.774
396.85	40.502
397.21	39.975
397.57	40.000
397.92	40.923
398.28	40.690
398.64	40.120
399.00	41.027
399.35	38.995
399.71	40.609
400.07	40.387
400.42	41.065
400.78	41.090
401.14	40.472
401.49	40.798
401.85	40.585
402.21	40.904
402.57	41.812
402.92	41.719
403.28	41.729
403.63	41.740
403.99	40.816
404.35	41.724
404.70	41.012
405.06	40.834
405.42	40.833
405.77	40.790
406.13	41.676
406.49	41.622
406.84	42.482
407.20	41.902
407.55	41.661
407.91	41.310
408.27	42.702
408.62	42.831
408.98	42.267
409.34	42.317
409.69	41.602
410.05	41.379
410.40	42.160
410.76	43.727
411.11	42.625
411.47	43.130
411.83	43.063
412.18	41.892
412.54	42.385
412.89	41.133
413.25	43.141
413.60	42.671
413.96	41.227
414.31	42.866
414.67	41.693
415.03	43.409
415.38	43.407
415.74	42.997
416.09	44.154
416.45	43.147
416.80	44.415
417.16	43.715
417.51	43.704
417.87	43.286
418.22	42.940
418.58	44.548
418.93	44.890
419.29	41.997
419.64	44.783
420.00	44.962
420.35	44.358
420.71	44.714
421.06	44.383
421.42	44.171
421.77	44.335
422.12	45.289
422.48	45.046
422.83	45.592
423.19	45.260
423.54	45.091
423.90	46.408
424.25	45.293
424.61	45.655
424.96	45.528
425.31	46.505
425.67	45.364
426.02	46.349
426.38	48.028
426.73	46.610
427.09	46.329
427.44	46.353
427.79	46.671
428.15	46.359
428.50	46.941
428.85	46.744
429.21	46.576
429.56	47.655
429.92	46.841
430.27	47.419
430.62	47.465
430.98	47.771
431.33	47.581
431.68	47.828
432.04	47.401
432.39	47.176
432.74	46.663
433.10	48.621
433.45	47.551
433.80	49.216
434.16	49.141
434.51	48.065
434.86	48.722
435.22	48.514
435.57	48.596
435.92	47.964
436.28	47.883
436.63	48.431
436.98	47.161
437.34	48.639
437.69	49.076
438.04	48.205
438.39	48.748
438.75	50.698
439.10	49.349
439.45	50.274
439.81	49.174
440.16	50.059
440.51	49.791
440.86	51.118
441.22	49.434
441.57	49.890
441.92	49.895
442.27	50.111
442.63	51.071
442.98	51.177
443.33	49.861
443.68	50.133
444.03	49.578
444.39	50.074
444.74	51.059
445.09	51.837
445.44	51.111
445.79	51.986
446.15	50.000
446.50	50.028
446.85	50.319
447.20	51.147
447.55	51.228
447.91	50.987
448.26	52.020
448.61	51.238
448.96	51.176
449.31	50.751
449.66	50.523
450.02	50.998
450.37	51.215
450.72	51.546
451.07	51.456
451.42	49.563
451.77	51.718
452.12	50.179
452.47	50.419
452.83	51.001
453.18	50.221
453.53	51.327
453.88	51.973
454.23	50.830
454.58	51.385
454.93	51.224
455.28	50.730
455.63	50.837
455.98	52.916
456.34	51.660
456.69	51.779
457.04	51.670
457.39	50.547
457.74	51.572
458.09	50.029
458.44	50.848
458.79	50.644
459.14	51.487
459.49	51.343
459.84	51.325
460.19	50.546
460.54	51.345
460.89	51.705
461.24	51.180
461.59	50.713
461.94	50.063
462.29	51.448
462.64	51.960
462.99	51.794
463.34	51.391
463.69	51.287
464.04	52.179
464.39	51.183
464.74	50.491
465.09	51.466
465.44	52.626
465.79	51.361
466.14	50.798
466.49	51.409
466.84	52.112
467.19	50.939
467.54	51.596
467.89	50.979
468.24	50.243
468.59	51.302
468.94	50.222
469.29	50.492
469.64	50.854
469.99	51.787
470.34	50.307
470.68	51.976
471.03	51.097
471.38	51.141
471.73	50.980
472.08	49.932
472.43	51.074
472.78	51.199
473.13	52.721
473.48	51.205
473.83	50.249
474.17	51.619
474.52	52.010
474.87	51.939
475.22	51.617
475.57	50.819
475.92	52.496
476.27	51.863
476.61	52.431
476.96	50.363
477.31	50.189
477.66	50.899
478.01	50.870
478.36	50.490
478.70	52.094
479.05	52.363
479.40	50.980
479.75	51.408
480.10	51.459
480.45	50.250
480.79	51.964
481.14	51.127
481.49	50.739
481.84	51.400
482.19	50.468
482.53	51.703
482.88	50.549
483.23	51.008
483.58	50.802
483.92	51.162
484.27	49.362
484.62	50.336
484.97	50.456
485.31	51.517
485.66	52.364
486.01	53.408
486.36	53.747
486.70	52.757
487.05	52.111
487.40	51.732
487.75	51.831
488.09	49.135
488.44	48.968
488.79	49.458
489.13	49.279
489.48	49.979
489.83	50.000
490.17	50.382
490.52	49.792
490.87	48.450
491.22	51.194
491.56	50.617
491.91	50.048
492.26	50.705
492.60	50.144
492.95	51.058
493.30	49.634
493.64	51.081
493.99	50.483
494.34	48.447
494.68	50.762
495.03	50.268
495.37	50.294
495.72	50.480
496.07	50.390
496.41	50.000
496.76	49.701
497.11	50.629
497.45	49.021
497.80	50.050
498.14	49.776
498.49	49.670
498.84	49.551
499.18	50.653
499.53	49.454
499.87	49.611
500.22	50.000
500.56	49.773
500.91	49.950
501.26	49.333
501.60	50.320
501.95	50.218
502.29	49.540
502.64	50.193
502.98	50.222
503.33	49.087
503.67	49.831
504.02	50.293
504.36	49.827
504.71	50.253
505.06	49.673
505.40	49.949
505.75	50.361
506.09	49.265
506.44	51.540
506.78	50.204
507.13	50.517
507.47	48.982
507.82	50.588
508.16	50.238
508.51	50.000
508.85	50.497
509.19	50.080
509.54	49.705
509.88	49.730
510.23	49.704
510.57	50.401
510.92	48.507
511.26	49.318
511.61	49.835
511.95	49.808
512.30	50.554
512.64	48.692
512.98	49.916
513.33	50.811
513.67	49.403
514.02	50.229
514.36	50.171
514.70	50.758
515.05	50.411
515.39	49.764
515.74	50.838
516.08	50.090
516.42	50.707
516.77	49.561
517.11	51.157
517.46	50.090
517.80	51.013
518.14	49.173
518.49	48.377
518.83	51.519
519.17	49.121
519.52	49.556
519.86	50.720
520.20	50.061
520.55	49.218
520.89	49.624
521.23	48.765
521.58	49.338
521.92	51.987
522.26	50.488
522.61	49.156
522.95	51.523
523.29	50.254
523.64	50.508
523.98	50.810
524.32	50.515
524.66	50.832
525.01	50.584
525.35	49.708
525.69	50.168
526.04	50.926
526.38	51.427
526.72	48.659
527.06	50.130
527.41	50.660
527.75	50.536
528.09	49.236
528.43	51.857
528.78	51.089
529.12	50.516
529.46	50.812
529.80	49.842
530.15	51.023
530.49	50.842
530.83	51.300
531.17	49.966
531.51	51.300
531.86	49.898
532.20	50.452
532.54	50.034
532.88	49.966
533.22	50.806
533.57	50.852
533.91	51.893
534.25	50.911
534.59	52.470
534.93	50.598
535.27	50.381
535.62	51.005
535.96	51.533
536.30	48.945
536.64	51.413
536.98	50.105
537.32	51.920
537.66	52.104
538.01	51.329
538.35	50.693
538.69	49.201
539.03	50.444
539.37	50.471
539.71	51.261
540.05	50.916
540.39	49.723
540.73	51.953
541.07	51.450
541.42	51.882
541.76	51.686
542.10	51.067
542.44	51.981
542.78	50.654
543.12	51.236
543.46	51.182
543.80	51.423
544.14	50.067
544.48	51.099
544.82	51.401
545.16	52.049
545.50	50.467
545.84	51.912
546.18	51.986
546.52	51.766
546.86	50.252
547.20	51.645
547.54	50.247
547.88	52.242
548.22	51.808
548.56	51.121
548.90	50.606
549.24	50.964
549.58	50.917
549.92	49.893
550.26	50.256
550.60	50.409
550.94	50.709
551.28	52.241
551.62	50.308
551.96	50.677
552.30	53.143
552.64	50.917
552.98	50.703
553.32	50.785
553.66	51.234
554.00	52.263
554.34	51.329
554.68	51.254
555.02	49.628
555.36	51.309
555.69	51.062
556.03	51.106
556.37	50.961
556.71	51.047
557.05	50.932
557.39	49.814
557.73	51.799
558.07	52.338
558.41	51.685
558.75	50.818
559.08	50.433
559.42	50.317
559.76	52.042
560.10	50.306
560.44	49.590
560.78	51.469
561.12	51.693
561.45	52.424
561.79	51.331
562.13	52.874
562.47	51.871
562.81	51.657
563.15	51.622
563.48	51.980
563.82	52.025
564.16	52.228
564.50	51.284
564.84	51.473
565.17	52.314
565.51	53.757
565.85	53.429
566.19	52.454
566.52	53.217
566.86	53.085
567.20	52.553
567.54	53.041
567.88	54.306
568.21	55.430
568.55	53.913
568.89	55.236
569.23	55.031
569.56	55.254
569.90	56.516
570.24	54.001
570.57	54.945
570.91	56.361
571.25	55.278
571.59	54.874
571.92	53.896
572.26	54.680
572.60	54.140
572.93	53.687
573.27	53.793
573.61	55.191
573.95	54.833
574.28	54.529
574.62	54.488
574.96	54.425
575.29	53.862
575.63	53.045
575.97	53.456
576.30	53.894
576.64	54.040
576.98	55.109
577.31	55.493
577.65	55.872
577.98	55.410
578.32	55.454
578.66	54.030
578.99	54.516
579.33	53.960
579.67	52.889
580.00	53.899
580.34	54.378
580.67	54.303
581.01	54.707
581.35	54.780
581.68	55.796
582.02	56.065
582.35	55.840
582.69	55.025
583.02	54.646
583.36	54.696
583.70	54.569
584.03	55.324
584.37	55.308
584.70	53.929
585.04	54.171
585.37	54.742
585.71	55.641
586.04	55.572
586.38	54.948
586.72	55.265
587.05	55.690
587.39	56.472
587.72	56.944
588.06	55.439
588.39	54.429
588.73	54.823
589.06	55.773
589.40	54.787
589.73	55.130
590.07	55.060
590.40	54.915
590.73	55.601
591.07	55.301
591.40	54.586
591.74	54.208
592.07	55.983
592.41	55.035
592.74	55.834
593.08	55.292
593.41	55.848
593.75	55.316
594.08	54.823
594.41	55.022
594.75	55.191
595.08	56.300
595.42	55.061
595.75	55.614
596.09	55.160
596.42	55.312
596.75	54.885
597.09	54.214
597.42	54.562
597.75	55.886
598.09	54.097
598.42	52.843
598.76	55.727
599.09	54.928
599.42	55.172
599.76	55.229
600.09	56.033
600.42	55.610
600.76	55.386
601.09	54.580
601.42	54.289
601.76	54.228
602.09	55.446
602.42	55.013
602.76	56.197
603.09	55.482
603.42	57.483
603.76	56.371
604.09	55.488
604.42	55.922
604.76	56.253
605.09	55.484
605.42	55.214
605.75	56.524
606.09	54.098
606.42	55.088
606.75	55.411
607.09	55.033
607.42	55.605
607.75	55.595
608.08	54.897
608.42	53.038
608.75	55.036
609.08	55.456
609.41	54.772
609.75	54.839
610.08	55.417
610.41	55.845
610.74	54.851
611.07	55.814
611.41	55.112
611.74	55.224
612.07	54.550
612.40	53.884
612.73	56.328
613.07	53.600
613.40	55.088
613.73	54.281
614.06	54.869
614.39	54.822
614.72	54.566
615.06	54.972
615.39	55.786
615.72	54.952
616.05	55.419
616.38	54.074
616.71	54.128
617.05	56.393
617.38	55.751
617.71	54.591
618.04	55.619
618.37	55.485
618.70	54.191
619.03	55.833
619.36	53.907
619.69	56.331
620.03	54.785
620.36	54.506
620.69	55.318
621.02	53.440
621.35	56.017
621.68	54.592
622.01	54.833
622.34	54.190
622.67	54.811
623.00	54.211
623.33	55.030
623.66	54.301
623.99	54.766
624.32	54.677
624.65	53.684
624.99	55.079
625.32	55.042
625.65	54.360
625.98	53.747
626.31	53.699
626.64	53.120
626.97	53.927
627.30	55.079
627.63	53.899
627.96	54.088
628.29	53.099
628.62	53.589
628.95	52.906
629.28	54.234
629.61	53.938
629.94	54.154
630.26	53.162
630.59	55.983
630.92	54.974
631.25	50.667
631.58	52.203
631.91	53.399
632.24	54.128
632.57	55.682
632.90	52.076
633.23	51.412
633.56	53.778
633.89	55.364
634.22	53.457
