SpectraSuite Data File
++++++++++++++++++++++++++++++++++++
Date: Fri May 15 17:07:22 PDT 2015
User: schluterlab
Dark Spectrum Present: Yes
Reference Spectrum Present: Yes
Number of Sampled Component Spectra: 1
Spectrometers: USB2E3373
Integration Time (usec): 3000 (USB2E3373)
Spectra Averaged: 3 (USB2E3373)
Boxcar Smoothing: 0 (USB2E3373)
Correct for Electrical Dark: No (USB2E3373)
Strobe/Lamp Enabled: No (USB2E3373)
Correct for Detector Non-linearity: No (USB2E3373)
Correct for Stray Light: No (USB2E3373)
Number of Pixels in Processed Spectrum: 2048
>>>>>Begin Processed Spectral Data<<<<<
178.53	0.000
178.91	0.000
179.29	225.000
179.67	200.000
180.04	-57.143
180.42	275.000
180.80	100.000
181.18	-500.000
181.56	200.000
181.94	450.000
182.31	-600.000
182.69	80.000
183.07	-133.333
183.45	20.000
183.83	-0.000
184.20	118.182
184.58	22.222
184.96	75.000
185.34	100.000
185.72	-150.000
186.09	38.462
186.47	300.000
186.85	50.000
187.23	33.333
187.61	-0.000
187.98	200.000
188.36	44.444
188.74	-366.667
189.12	47.059
189.49	72.222
189.87	0.000
190.25	85.714
190.63	650.000
191.00	66.667
191.38	5.263
191.76	850.000
192.14	75.000
192.51	450.000
192.89	11.111
193.27	85.714
193.65	166.667
194.02	118.182
194.40	140.000
194.78	-25.000
195.15	58.333
195.53	-87.500
195.91	25.000
196.29	225.000
196.66	7.692
197.04	-28.571
197.42	88.889
197.79	-233.333
198.17	-53.846
198.55	300.000
198.92	0.000
199.30	500.000
199.68	80.000
200.05	0.000
200.43	0.000
200.81	233.333
201.18	300.000
201.56	800.000
201.94	50.000
202.31	-266.667
202.69	-60.000
203.07	-50.000
203.44	1300.000
203.82	0.000
204.19	107.143
204.57	-66.667
204.95	-62.500
205.32	90.000
205.70	242.857
206.08	275.000
206.45	255.556
206.83	135.714
207.20	85.714
207.58	-400.000
207.96	33.333
208.33	-10.000
208.71	525.000
209.08	-16.667
209.46	1000.000
209.84	240.000
210.21	-1200.000
210.59	171.429
210.96	216.667
211.34	300.000
211.71	53.333
212.09	57.143
212.46	500.000
212.84	0.000
213.22	70.000
213.59	900.000
213.97	53.846
214.34	81.818
214.72	233.333
215.09	250.000
215.47	76.923
215.84	36.364
216.22	333.333
216.59	137.500
216.97	550.000
217.34	-50.000
217.72	60.000
218.09	125.000
218.47	112.500
218.84	900.000
219.22	88.889
219.59	80.000
219.97	166.667
220.34	175.000
220.72	71.429
221.09	125.000
221.47	50.000
221.84	-200.000
222.22	-550.000
222.59	109.091
222.97	50.000
223.34	-166.667
223.72	114.286
224.09	33.333
224.46	17.857
224.84	166.667
225.21	-50.000
225.59	66.667
225.96	250.000
226.34	-175.000
226.71	100.000
227.08	83.333
227.46	37.500
227.83	400.000
228.21	-11.111
228.58	54.545
228.95	25.000
229.33	-20.000
229.70	37.500
230.08	-37.500
230.45	-28.571
230.82	57.143
231.20	13.333
231.57	14.286
231.95	114.286
232.32	30.000
232.69	78.571
233.07	333.333
233.44	260.000
233.81	100.000
234.19	77.778
234.56	76.471
234.93	-0.000
235.31	200.000
235.68	20.000
236.05	-23.077
236.43	55.000
236.80	82.353
237.17	68.750
237.55	85.000
237.92	25.926
238.29	41.667
238.67	40.000
239.04	38.235
239.41	26.829
239.79	23.333
240.16	53.659
240.53	15.789
240.91	23.913
241.28	38.095
241.65	39.286
242.02	38.356
242.40	38.333
242.77	55.932
243.14	39.394
243.51	27.500
243.89	31.034
244.26	27.586
244.63	42.857
245.00	30.928
245.38	32.990
245.75	32.584
246.12	27.586
246.49	38.017
246.87	34.615
247.24	31.933
247.61	27.193
247.98	27.642
248.36	31.250
248.73	28.289
249.10	25.974
249.47	37.342
249.84	28.758
250.22	25.294
250.59	28.758
250.96	29.108
251.33	29.651
251.70	31.765
252.08	27.411
252.45	31.683
252.82	37.186
253.19	33.641
253.56	24.766
253.94	28.378
254.31	30.000
254.68	35.088
255.05	32.677
255.42	29.694
255.79	35.907
256.16	29.572
256.54	27.985
256.91	26.236
257.28	28.996
257.65	29.213
258.02	23.404
258.39	31.313
258.76	33.700
259.14	33.223
259.51	28.155
259.88	27.148
260.25	31.373
260.62	31.944
260.99	27.119
261.36	27.740
261.73	27.532
262.10	26.140
262.47	28.834
262.85	27.900
263.22	27.385
263.59	29.595
263.96	29.814
264.33	29.091
264.70	27.976
265.07	27.381
265.44	32.295
265.81	31.073
266.18	27.322
266.55	30.334
266.92	30.570
267.29	29.243
267.66	29.412
268.03	30.366
268.40	25.065
268.77	30.214
269.14	28.058
269.51	28.792
269.88	28.678
270.25	27.041
270.62	24.634
270.99	26.598
271.36	25.917
271.73	31.455
272.10	27.981
272.47	27.660
272.84	27.475
273.21	29.698
273.58	28.916
273.95	30.664
274.32	27.945
274.69	23.529
275.06	30.804
275.43	29.025
275.80	26.711
276.17	29.425
276.54	25.910
276.91	27.851
277.28	26.638
277.65	28.719
278.02	26.170
278.39	26.039
278.76	26.625
279.13	23.859
279.50	27.941
279.87	27.214
280.23	26.022
280.60	28.850
280.97	26.263
281.34	26.538
281.71	28.337
282.08	28.834
282.45	25.832
282.82	27.027
283.19	27.853
283.56	25.819
283.92	26.376
284.29	25.192
284.66	24.225
285.03	25.147
285.40	25.520
285.77	23.902
286.14	24.910
286.51	26.753
286.87	24.497
287.24	25.967
287.61	23.810
287.98	28.596
288.35	25.823
288.72	24.518
289.08	23.958
289.45	25.659
289.82	25.350
290.19	22.014
290.56	25.557
290.93	24.579
291.29	20.647
291.66	25.197
292.03	21.531
292.40	23.548
292.77	23.445
293.13	20.617
293.50	22.155
293.87	22.901
294.24	22.875
294.60	22.206
294.97	20.387
295.34	22.086
295.71	21.162
296.08	22.123
296.44	18.634
296.81	20.278
297.18	21.304
297.55	21.951
297.91	20.137
298.28	22.691
298.65	19.810
299.02	20.350
299.38	18.057
299.75	20.414
300.12	18.979
300.48	18.445
300.85	18.631
301.22	19.610
301.59	19.737
301.95	22.025
302.32	21.141
302.69	19.030
303.05	18.812
303.42	18.555
303.79	20.210
304.15	18.877
304.52	17.360
304.89	18.830
305.25	19.976
305.62	17.503
305.99	17.895
306.35	18.728
306.72	18.335
307.09	18.814
307.45	18.485
307.82	17.940
308.19	18.583
308.55	17.993
308.92	18.083
309.29	16.425
309.65	18.192
310.02	18.262
310.38	18.551
310.75	18.579
311.12	18.084
311.48	18.558
311.85	16.335
312.22	16.772
312.58	17.197
312.95	17.396
313.31	16.563
313.68	17.487
314.05	16.531
314.41	19.278
314.78	17.732
315.14	19.836
315.51	18.841
315.87	17.008
316.24	18.605
316.61	17.323
316.97	19.048
317.34	16.992
317.70	18.069
318.07	18.462
318.43	19.706
318.80	18.845
319.16	19.727
319.53	18.993
319.89	19.094
320.26	19.737
320.62	19.157
320.99	17.745
321.35	20.349
321.72	19.315
322.08	18.832
322.45	19.086
322.81	20.236
323.18	19.136
323.54	18.726
323.91	18.695
324.27	20.508
324.64	20.787
325.00	21.077
325.37	20.478
325.73	18.767
326.10	21.617
326.46	21.076
326.83	20.122
327.19	21.796
327.56	21.894
327.92	21.303
328.29	21.339
328.65	22.547
329.01	21.232
329.38	22.765
329.74	21.152
330.11	23.170
330.47	21.892
330.84	21.731
331.20	24.905
331.56	21.574
331.93	22.740
332.29	24.565
332.66	22.805
333.02	23.048
333.38	21.723
333.75	23.168
334.11	22.113
334.48	23.663
334.84	24.267
335.20	22.598
335.57	21.850
335.93	24.119
336.29	23.665
336.66	22.797
337.02	22.862
337.38	24.259
337.75	23.000
338.11	23.715
338.47	24.726
338.84	24.122
339.20	24.040
339.56	24.771
339.93	23.277
340.29	25.505
340.65	24.552
341.02	23.227
341.38	23.628
341.74	24.293
342.11	22.964
342.47	24.199
342.83	22.491
343.20	23.955
343.56	24.435
343.92	24.358
344.28	23.911
344.65	22.539
345.01	23.163
345.37	23.213
345.73	24.519
346.10	24.072
346.46	24.138
346.82	22.668
347.19	23.192
347.55	23.726
347.91	23.786
348.27	23.848
348.63	24.361
349.00	23.462
349.36	24.605
349.72	24.461
350.08	24.262
350.45	24.262
350.81	23.671
351.17	24.756
351.53	23.755
351.89	24.277
352.26	23.440
352.62	24.355
352.98	23.775
353.34	23.027
353.70	24.595
354.07	23.468
354.43	24.099
354.79	24.277
355.15	25.159
355.51	25.000
355.87	23.867
356.24	23.491
356.60	24.899
356.96	25.397
357.32	24.361
357.68	24.550
358.04	25.202
358.40	24.759
358.77	25.279
359.13	25.861
359.49	24.422
359.85	24.337
360.21	24.482
360.57	25.172
360.93	25.113
361.29	24.169
361.66	25.940
362.02	25.758
362.38	25.209
362.74	25.738
363.10	25.658
363.46	25.797
363.82	26.446
364.18	26.568
364.54	24.632
364.90	26.237
365.26	24.891
365.62	27.372
365.98	25.147
366.35	27.167
366.71	27.347
367.07	26.560
367.43	25.881
367.79	25.371
368.15	26.274
368.51	25.492
368.87	25.915
369.23	25.921
369.59	27.041
369.95	26.686
370.31	26.734
370.67	26.716
371.03	26.960
371.39	26.258
371.75	27.106
372.11	26.320
372.47	27.293
372.83	28.531
373.19	26.605
373.55	27.798
373.91	27.574
374.27	27.569
374.63	27.710
374.99	27.376
375.35	26.741
375.71	28.182
376.07	28.020
376.42	27.075
376.78	28.591
377.14	28.165
377.50	27.888
377.86	29.050
378.22	29.419
378.58	29.359
378.94	28.922
379.30	29.070
379.66	29.969
380.02	28.204
380.38	28.545
380.74	29.084
381.09	28.957
381.45	28.991
381.81	29.735
382.17	28.934
382.53	30.481
382.89	29.692
383.25	29.807
383.61	30.305
383.97	29.778
384.32	30.957
384.68	30.031
385.04	29.167
385.40	29.434
385.76	31.698
386.12	31.565
386.48	32.312
386.83	31.198
387.19	30.769
387.55	30.928
387.91	30.501
388.27	31.868
388.62	32.410
388.98	30.325
389.34	32.417
389.70	32.567
390.06	32.033
390.42	31.218
390.77	32.701
391.13	31.841
391.49	31.953
391.85	32.229
392.20	32.643
392.56	32.359
392.92	32.355
393.28	31.958
393.64	31.892
393.99	33.166
394.35	32.511
394.71	33.908
395.07	32.558
395.42	32.726
395.78	32.508
396.14	32.598
396.50	33.101
396.85	33.226
397.21	33.709
397.57	32.915
397.92	33.313
398.28	33.506
398.64	32.410
399.00	34.029
399.35	32.449
399.71	32.740
400.07	33.978
400.42	33.476
400.78	34.231
401.14	34.059
401.49	34.008
401.85	33.333
402.21	34.036
402.57	34.062
402.92	31.619
403.28	34.649
403.63	35.057
403.99	33.801
404.35	34.478
404.70	34.107
405.06	34.489
405.42	34.493
405.77	33.236
406.13	33.236
406.49	33.097
406.84	34.719
407.20	35.160
407.55	34.256
407.91	34.559
408.27	34.799
408.62	34.462
408.98	34.750
409.34	34.696
409.69	34.819
410.05	34.298
410.40	34.568
410.76	34.318
411.11	34.250
411.47	34.714
411.83	34.087
412.18	35.779
412.54	34.082
412.89	33.436
413.25	36.221
413.60	34.783
413.96	32.883
414.31	34.207
414.67	34.573
415.03	35.286
415.38	34.661
415.74	36.221
416.09	35.336
416.45	35.449
416.80	34.699
417.16	36.395
417.51	36.309
417.87	36.180
418.22	35.816
418.58	35.251
418.93	35.047
419.29	34.635
419.64	36.293
420.00	36.839
420.35	35.045
420.71	37.120
421.06	36.157
421.42	37.139
421.77	35.838
422.12	35.982
422.48	35.950
422.83	35.963
423.19	35.892
423.54	36.802
423.90	37.397
424.25	36.739
424.61	37.148
424.96	36.295
425.31	37.262
425.67	37.031
426.02	37.986
426.38	37.570
426.73	38.317
427.09	38.418
427.44	39.000
427.79	38.480
428.15	37.379
428.50	38.462
428.85	36.978
429.21	38.144
429.56	38.652
429.92	37.185
430.27	37.494
430.62	36.696
430.98	36.996
431.33	38.170
431.68	37.363
432.04	38.569
432.39	36.509
432.74	36.861
433.10	38.218
433.45	38.351
433.80	38.479
434.16	37.175
434.51	38.925
434.86	38.269
435.22	37.633
435.57	39.488
435.92	38.383
436.28	37.448
436.63	37.821
436.98	37.022
437.34	38.536
437.69	38.163
438.04	38.234
438.39	38.424
438.75	39.223
439.10	38.993
439.45	38.892
439.81	38.165
440.16	38.895
440.51	39.224
440.86	40.967
441.22	38.179
441.57	39.514
441.92	39.927
442.27	39.856
442.63	39.615
442.98	39.288
443.33	38.564
443.68	39.469
444.03	39.593
444.39	38.760
444.74	40.357
445.09	40.089
445.44	39.430
445.79	40.433
446.15	39.427
446.50	39.268
446.85	39.479
447.20	39.520
447.55	39.621
447.91	38.522
448.26	40.239
448.61	39.954
448.96	41.193
449.31	39.480
449.66	39.895
450.02	39.989
450.37	39.478
450.72	39.691
451.07	40.127
451.42	39.825
451.77	40.446
452.12	39.773
452.47	39.730
452.83	39.635
453.18	40.417
453.53	40.582
453.88	40.437
454.23	40.012
454.58	39.987
454.93	40.142
455.28	39.238
455.63	40.236
455.98	40.649
456.34	39.144
456.69	40.978
457.04	40.769
457.39	40.887
457.74	40.206
458.09	39.023
458.44	39.965
458.79	39.160
459.14	40.046
459.49	40.299
459.84	40.553
460.19	39.806
460.54	40.220
460.89	40.341
461.24	40.373
461.59	40.439
461.94	40.881
462.29	41.496
462.64	41.462
462.99	39.675
463.34	40.334
463.69	39.833
464.04	39.407
464.39	39.964
464.74	39.448
465.09	40.799
465.44	40.104
465.79	40.986
466.14	39.852
466.49	39.275
466.84	40.809
467.19	39.549
467.54	40.549
467.89	40.493
468.24	40.328
468.59	40.889
468.94	40.381
469.29	39.475
469.64	40.670
469.99	40.925
470.34	39.795
470.68	41.014
471.03	40.906
471.38	41.155
471.73	40.266
472.08	40.434
472.43	41.342
472.78	40.850
473.13	41.905
473.48	40.065
473.83	41.034
474.17	40.544
474.52	40.651
474.87	41.030
475.22	40.329
475.57	40.711
475.92	41.690
476.27	40.861
476.61	42.130
476.96	40.045
477.31	41.590
477.66	40.730
478.01	40.539
478.36	41.176
478.70	41.001
479.05	41.209
479.40	41.600
479.75	40.511
480.10	40.553
480.45	41.150
480.79	41.641
481.14	40.984
481.49	40.049
481.84	40.734
482.19	39.289
482.53	40.959
482.88	40.573
483.23	40.019
483.58	40.613
483.92	40.513
484.27	40.018
484.62	41.372
484.97	39.718
485.31	40.210
485.66	38.474
486.01	38.578
486.36	38.074
486.70	38.036
487.05	38.017
487.40	38.883
487.75	39.268
488.09	38.782
488.44	39.546
488.79	40.344
489.13	40.865
489.48	41.300
489.83	40.135
490.17	40.629
490.52	41.709
490.87	41.046
491.22	41.452
491.56	41.556
491.91	41.252
492.26	41.711
492.60	40.259
492.95	42.597
493.30	41.280
493.64	42.043
493.99	41.063
494.34	40.825
494.68	41.857
495.03	41.314
495.37	41.217
495.72	41.848
496.07	41.610
496.41	41.132
496.76	40.028
497.11	40.009
497.45	41.862
497.80	40.868
498.14	41.282
498.49	41.747
498.84	41.367
499.18	42.068
499.53	41.915
499.87	40.905
500.22	42.186
500.56	42.360
500.91	41.717
501.26	40.633
501.60	41.712
501.95	42.358
502.29	42.131
502.64	41.747
502.98	41.441
503.33	40.538
503.67	40.867
504.02	41.887
504.36	41.860
504.71	41.566
505.06	41.319
505.40	42.081
505.75	41.237
506.09	41.561
506.44	43.121
506.78	42.704
507.13	42.503
507.47	41.305
507.82	42.468
508.16	41.891
508.51	42.183
508.85	42.125
509.19	42.203
509.54	41.769
509.88	42.071
510.23	43.303
510.57	43.025
510.92	41.471
511.26	43.808
511.61	43.894
511.95	42.740
512.30	43.459
512.64	42.849
512.98	42.841
513.33	43.593
513.67	43.604
514.02	44.108
514.36	44.114
514.70	44.231
515.05	45.828
515.39	43.684
515.74	45.269
516.08	44.411
516.42	44.523
516.77	44.236
517.11	44.807
517.46	44.225
517.80	45.411
518.14	44.029
518.49	45.192
518.83	44.654
519.17	43.602
519.52	45.056
519.86	44.958
520.20	44.714
520.55	44.465
520.89	45.232
521.23	45.408
521.58	46.183
521.92	45.256
522.26	44.112
522.61	46.039
522.95	47.682
523.29	45.172
523.64	46.506
523.98	46.533
524.32	44.845
524.66	45.583
525.01	46.104
525.35	46.468
525.69	45.993
526.04	45.569
526.38	46.304
526.72	45.716
527.06	44.942
527.41	46.702
527.75	46.247
528.09	45.449
528.43	46.995
528.78	46.337
529.12	46.452
529.46	45.679
529.80	45.598
530.15	47.591
530.49	46.330
530.83	47.674
531.17	46.743
531.51	46.580
531.86	46.431
532.20	46.068
532.54	45.473
532.88	47.433
533.22	45.632
533.57	46.789
533.91	45.888
534.25	46.615
534.59	44.836
534.93	45.312
535.27	45.495
535.62	45.820
535.96	45.466
536.30	46.240
536.64	46.795
536.98	46.202
537.32	47.368
537.66	47.546
538.01	46.573
538.35	46.533
538.69	46.738
539.03	45.728
539.37	47.241
539.71	46.285
540.05	46.300
540.39	46.537
540.73	47.490
541.07	47.099
541.42	46.909
541.76	47.075
542.10	46.456
542.44	46.074
542.78	45.561
543.12	47.115
543.46	47.010
543.80	46.634
544.14	45.928
544.48	46.835
544.82	45.455
545.16	46.175
545.50	45.794
545.84	48.088
546.18	47.163
546.52	47.513
546.86	45.866
547.20	47.568
547.54	46.714
547.88	46.671
548.22	46.154
548.56	45.119
548.90	45.822
549.24	45.730
549.58	46.827
549.92	45.533
550.26	48.059
550.60	47.658
550.94	47.797
551.28	47.682
551.62	48.308
551.96	47.669
552.30	47.368
552.64	46.827
552.98	47.539
553.32	47.076
553.66	46.444
554.00	46.934
554.34	48.523
554.68	47.714
555.02	48.065
555.36	47.120
555.69	46.447
556.03	47.395
556.37	46.833
556.71	48.014
557.05	47.949
557.39	47.732
557.73	47.676
558.07	49.095
558.41	48.315
558.75	49.260
559.08	49.645
559.42	48.730
559.76	49.079
560.10	47.706
560.44	47.952
560.78	46.853
561.12	48.660
561.45	48.559
561.79	48.880
562.13	48.119
562.47	47.842
562.81	48.055
563.15	47.884
563.48	48.656
563.82	46.946
564.16	48.538
564.50	46.149
564.84	48.260
565.17	45.741
565.51	48.292
565.85	47.942
566.19	47.878
566.52	47.788
566.86	48.201
567.20	46.887
567.54	47.263
567.88	47.510
568.21	47.059
568.55	45.489
568.89	46.920
569.23	45.498
569.56	45.447
569.90	44.539
570.24	44.659
570.57	45.164
570.91	45.382
571.25	43.473
571.59	43.912
571.92	42.637
572.26	43.780
572.60	43.194
572.93	43.960
573.27	43.511
573.61	43.884
573.95	43.501
574.28	42.956
574.62	42.512
574.96	42.234
575.29	42.504
575.63	41.487
575.97	42.288
576.30	43.239
576.64	42.437
576.98	43.012
577.31	42.615
577.65	43.142
577.98	42.540
578.32	41.773
578.66	41.994
578.99	41.741
579.33	41.394
579.67	41.559
580.00	42.354
580.34	43.085
580.67	42.631
581.01	42.531
581.35	42.743
581.68	42.157
582.02	41.696
582.35	41.746
582.69	42.715
583.02	41.700
583.36	43.175
583.70	43.094
584.03	44.231
584.37	44.269
584.70	43.736
585.04	42.617
585.37	42.580
585.71	42.829
586.04	42.486
586.38	42.705
586.72	44.017
587.05	43.876
587.39	43.780
587.72	44.833
588.06	43.842
588.39	43.008
588.73	43.834
589.06	44.879
589.40	44.625
589.73	45.235
590.07	45.959
590.40	45.279
590.73	46.705
591.07	46.056
591.40	45.325
591.74	46.425
592.07	46.382
592.41	46.908
592.74	44.723
593.08	44.638
593.41	44.942
593.75	43.867
594.08	43.872
594.41	44.541
594.75	45.305
595.08	46.084
595.42	45.123
595.75	45.926
596.09	45.700
596.42	45.804
596.75	46.048
597.09	46.879
597.42	46.206
597.75	47.045
598.09	45.994
598.42	45.352
598.76	45.131
599.09	44.712
599.42	44.714
599.76	44.432
600.09	44.532
600.42	44.731
600.76	44.205
601.09	44.733
601.42	44.458
601.76	45.296
602.09	46.081
602.42	47.683
602.76	45.798
603.09	45.889
603.42	47.032
603.76	45.444
604.09	44.714
604.42	45.728
604.76	47.085
605.09	46.618
605.42	46.998
605.75	46.103
606.09	46.115
606.42	46.289
606.75	45.628
607.09	46.374
607.42	46.035
607.75	45.826
608.08	45.867
608.42	46.003
608.75	47.373
609.08	48.281
609.41	47.208
609.75	48.639
610.08	46.480
610.41	46.135
610.74	47.099
611.07	48.630
611.41	47.898
611.74	47.921
612.07	46.842
612.40	47.265
612.73	47.740
613.07	48.538
613.40	47.757
613.73	48.461
614.06	48.024
614.39	47.659
614.72	47.227
615.06	48.212
615.39	46.288
615.72	47.363
616.05	48.547
616.38	46.724
616.71	47.584
617.05	48.610
617.38	49.654
617.71	48.994
618.04	49.524
618.37	48.991
618.70	49.043
619.03	50.764
619.36	50.145
619.69	51.251
620.03	50.840
620.36	49.928
620.69	49.536
621.02	50.994
621.35	52.199
621.68	52.041
622.01	50.167
622.34	52.354
622.67	50.789
623.00	50.766
623.33	51.677
623.66	49.663
623.99	50.076
624.32	50.266
624.65	48.872
624.99	51.543
625.32	50.190
625.65	51.375
625.98	52.055
626.31	51.704
626.64	52.946
626.97	52.269
627.30	51.226
627.63	52.253
627.96	52.022
628.29	51.896
628.62	54.474
628.95	53.106
629.28	55.242
629.61	53.141
629.94	52.688
630.26	54.150
630.59	54.006
630.92	53.641
631.25	51.385
631.58	56.057
631.91	54.825
632.24	55.161
632.57	54.205
632.90	54.567
633.23	55.765
633.56	56.549
633.89	57.707
634.22	57.037
634.55	57.306
