SpectraSuite Data File
++++++++++++++++++++++++++++++++++++
Date: Fri May 15 17:30:45 PDT 2015
User: schluterlab
Dark Spectrum Present: Yes
Reference Spectrum Present: Yes
Number of Sampled Component Spectra: 1
Spectrometers: USB2E3373
Integration Time (usec): 3000 (USB2E3373)
Spectra Averaged: 3 (USB2E3373)
Boxcar Smoothing: 0 (USB2E3373)
Correct for Electrical Dark: No (USB2E3373)
Strobe/Lamp Enabled: No (USB2E3373)
Correct for Detector Non-linearity: No (USB2E3373)
Correct for Stray Light: No (USB2E3373)
Number of Pixels in Processed Spectrum: 2048
>>>>>Begin Processed Spectral Data<<<<<
178.53	0.000
178.91	0.000
179.29	50.000
179.67	-600.000
180.04	-85.714
180.42	200.000
180.80	-300.000
181.18	-66.667
181.56	300.000
181.94	500.000
182.31	100.000
182.69	80.000
183.07	0.000
183.45	-60.000
183.83	83.333
184.20	0.000
184.58	-11.111
184.96	-250.000
185.34	100.000
185.72	-150.000
186.09	69.231
186.47	-100.000
186.85	266.667
187.23	66.667
187.61	-300.000
187.98	-233.333
188.36	55.556
188.74	-66.667
189.12	17.647
189.49	27.778
189.87	0.000
190.25	92.857
190.63	-50.000
191.00	-33.333
191.38	21.053
191.76	250.000
192.14	175.000
192.51	600.000
192.89	44.444
193.27	-71.429
193.65	-83.333
194.02	54.545
194.40	70.000
194.78	-50.000
195.15	-25.000
195.53	37.500
195.91	350.000
196.29	-75.000
196.66	115.385
197.04	142.857
197.42	-33.333
197.79	-333.333
198.17	7.692
198.55	200.000
198.92	-66.667
199.30	800.000
199.68	-40.000
200.05	-33.333
200.43	0.000
200.81	200.000
201.18	200.000
201.56	1300.000
201.94	-200.000
202.31	300.000
202.69	-160.000
203.07	75.000
203.44	100.000
203.82	0.000
204.19	0.000
204.57	0.000
204.95	137.500
205.32	60.000
205.70	85.714
206.08	50.000
206.45	288.889
206.83	50.000
207.20	-85.714
207.58	-400.000
207.96	100.000
208.33	-90.000
208.71	75.000
209.08	33.333
209.46	-500.000
209.84	60.000
210.21	-500.000
210.59	28.571
210.96	133.333
211.34	400.000
211.71	53.333
212.09	-114.286
212.46	-1200.000
212.84	0.000
213.22	80.000
213.59	200.000
213.97	84.615
214.34	81.818
214.72	-50.000
215.09	175.000
215.47	23.077
215.84	-27.273
216.22	-600.000
216.59	-12.500
216.97	400.000
217.34	0.000
217.72	-140.000
218.09	50.000
218.47	87.500
218.84	-1400.000
219.22	-11.111
219.59	-120.000
219.97	466.667
220.34	-50.000
220.72	0.000
221.09	-125.000
221.47	-350.000
221.84	-350.000
222.22	-150.000
222.59	27.273
222.97	83.333
223.34	66.667
223.72	-57.143
224.09	4.762
224.46	17.857
224.84	366.667
225.21	100.000
225.59	66.667
225.96	300.000
226.34	175.000
226.71	128.571
227.08	-50.000
227.46	-12.500
227.83	-250.000
228.21	133.333
228.58	72.727
228.95	37.500
229.33	90.000
229.70	56.250
230.08	-112.500
230.45	14.286
230.82	-42.857
231.20	26.667
231.57	28.571
231.95	128.571
232.32	-30.000
232.69	85.714
233.07	-333.333
233.44	20.000
233.81	-30.000
234.19	144.444
234.56	11.765
234.93	-50.000
235.31	75.000
235.68	-80.000
236.05	-53.846
236.43	-30.000
236.80	76.471
237.17	34.375
237.55	5.000
237.92	29.630
238.29	36.111
238.67	16.667
239.04	35.294
239.41	12.195
239.79	40.000
240.16	56.098
240.53	21.053
240.91	30.435
241.28	22.222
241.65	57.143
242.02	52.055
242.40	50.000
242.77	50.847
243.14	34.848
243.51	43.750
243.89	54.023
244.26	40.230
244.63	52.381
245.00	41.237
245.38	51.546
245.75	51.685
246.12	43.966
246.49	50.413
246.87	48.077
247.24	33.613
247.61	39.474
247.98	50.407
248.36	41.875
248.73	50.658
249.10	44.156
249.47	49.367
249.84	52.288
250.22	45.294
250.59	52.941
250.96	43.662
251.33	45.349
251.70	50.000
252.08	45.178
252.45	47.525
252.82	48.744
253.19	50.230
253.56	47.196
253.94	47.748
254.31	50.435
254.68	57.456
255.05	43.701
255.42	49.345
255.79	49.807
256.16	50.973
256.54	52.239
256.91	48.289
257.28	47.955
257.65	50.187
258.02	45.390
258.39	43.098
258.76	51.282
259.14	51.163
259.51	48.544
259.88	46.735
260.25	49.673
260.62	52.778
260.99	49.492
261.36	47.945
261.73	50.633
262.10	47.416
262.47	45.092
262.85	50.157
263.22	47.692
263.59	48.287
263.96	49.379
264.33	50.303
264.70	48.810
265.07	50.893
265.44	50.142
265.81	52.260
266.18	47.814
266.55	46.272
266.92	47.409
267.29	47.258
267.66	45.524
268.03	46.859
268.40	48.303
268.77	52.941
269.14	44.844
269.51	45.758
269.88	49.626
270.25	48.724
270.62	47.317
270.99	48.082
271.36	45.232
271.73	47.418
272.10	48.662
272.47	50.355
272.84	46.287
273.21	48.492
273.58	46.024
273.95	48.513
274.32	44.573
274.69	44.570
275.06	46.429
275.43	46.485
275.80	46.799
276.17	44.368
276.54	43.041
276.91	49.781
277.28	44.323
277.65	45.661
278.02	44.255
278.39	46.608
278.76	47.799
279.13	43.776
279.50	47.689
279.87	46.868
280.23	43.871
280.60	44.834
280.97	46.263
281.34	44.808
281.71	45.996
282.08	42.740
282.45	42.074
282.82	43.629
283.19	43.907
283.56	44.123
283.92	43.264
284.29	44.615
284.66	44.186
285.03	42.633
285.40	45.558
285.77	43.234
286.14	40.975
286.51	46.679
286.87	42.596
287.24	46.225
287.61	42.152
287.98	42.456
288.35	40.555
288.72	43.608
289.08	40.278
289.45	42.531
289.82	41.434
290.19	39.932
290.56	42.539
290.93	39.562
291.29	36.210
291.66	37.323
292.03	36.842
292.40	39.355
292.77	38.278
293.13	36.851
293.50	36.722
293.87	36.183
294.24	36.167
294.60	36.066
294.97	34.970
295.34	36.043
295.71	36.662
296.08	34.828
296.44	34.566
296.81	34.306
297.18	33.333
297.55	35.095
297.91	35.342
298.28	35.356
298.65	32.157
299.02	33.693
299.38	32.148
299.75	32.828
300.12	33.115
300.48	32.279
300.85	34.601
301.22	29.610
301.59	32.105
301.95	32.532
302.32	32.685
302.69	31.343
303.05	30.569
303.42	30.884
303.79	31.075
304.15	30.585
304.52	30.559
304.89	30.409
305.25	30.508
305.62	29.288
305.99	29.474
306.35	28.902
306.72	28.234
307.09	30.559
307.45	30.884
307.82	26.968
308.19	31.243
308.55	29.662
308.92	29.521
309.29	30.726
309.65	29.925
310.02	28.383
310.38	30.406
310.75	29.290
311.12	29.494
311.48	29.586
311.85	29.215
312.22	28.481
312.58	28.344
312.95	26.147
313.31	29.193
313.68	26.702
314.05	28.980
314.41	29.175
314.78	27.320
315.14	29.085
315.51	28.054
315.87	28.996
316.24	28.817
316.61	27.953
316.97	28.869
317.34	28.027
317.70	28.872
318.07	27.404
318.43	27.647
318.80	28.030
319.16	29.004
319.53	28.775
319.89	28.642
320.26	26.923
320.62	28.285
320.99	26.722
321.35	26.824
321.72	27.830
322.08	28.399
322.45	29.746
322.81	28.487
323.18	28.656
323.54	27.317
323.91	28.432
324.27	26.562
324.64	27.903
325.00	27.281
325.37	27.824
325.73	25.748
326.10	26.249
326.46	26.906
326.83	26.947
327.19	27.986
327.56	27.628
327.92	28.169
328.29	26.964
328.65	28.019
329.01	27.298
329.38	27.373
329.74	25.685
330.11	28.082
330.47	26.067
330.84	27.115
331.20	27.852
331.56	27.037
331.93	27.215
332.29	27.039
332.66	26.606
333.02	28.346
333.38	26.123
333.75	27.473
334.11	26.141
334.48	27.289
334.84	26.832
335.20	25.984
335.57	26.020
335.93	26.468
336.29	26.519
336.66	26.612
337.02	26.580
337.38	25.000
337.75	26.909
338.11	26.781
338.47	26.642
338.84	25.231
339.20	25.503
339.56	25.321
339.93	26.321
340.29	25.138
340.65	26.613
341.02	25.355
341.38	25.575
341.74	24.470
342.11	24.437
342.47	25.712
342.83	25.606
343.20	25.784
343.56	26.435
343.92	25.066
344.28	26.558
344.65	24.870
345.01	26.188
345.37	24.643
345.73	26.192
346.10	25.626
346.46	25.147
346.82	24.959
347.19	24.605
347.55	25.230
347.91	24.676
348.27	24.980
348.63	25.980
349.00	24.364
349.36	24.522
349.72	25.373
350.08	25.246
350.45	26.177
350.81	24.003
351.17	23.616
351.53	24.816
351.89	24.360
352.26	24.560
352.62	25.565
352.98	24.016
353.34	24.155
353.70	26.214
354.07	24.839
354.43	25.540
354.79	24.112
355.15	25.159
355.51	25.475
355.87	24.191
356.24	23.980
356.60	24.010
356.96	24.762
357.32	24.121
357.68	24.629
358.04	22.859
358.40	23.392
358.77	24.880
359.13	24.179
359.49	23.344
359.85	23.245
360.21	24.083
360.57	22.953
360.93	24.660
361.29	23.716
361.66	24.295
362.02	24.242
362.38	25.438
362.74	23.618
363.10	23.175
363.46	24.166
363.82	24.042
364.18	22.657
364.54	23.162
364.90	23.871
365.26	22.344
365.62	23.431
365.98	23.827
366.35	23.671
366.71	23.651
367.07	23.803
367.43	23.436
367.79	23.180
368.15	23.044
368.51	22.360
368.87	22.972
369.23	23.177
369.59	23.251
369.95	22.654
370.31	23.338
370.67	22.985
371.03	21.509
371.39	22.538
371.75	23.370
372.11	23.181
372.47	23.373
372.83	22.853
373.19	22.611
373.55	22.022
373.91	21.742
374.27	23.175
374.63	23.331
374.99	21.986
375.35	23.329
375.71	22.797
376.07	23.596
376.42	22.517
376.78	23.221
377.14	21.936
377.50	22.842
377.86	22.825
378.22	22.272
378.58	22.051
378.94	22.306
379.30	21.959
379.66	22.884
380.02	21.827
380.38	22.520
380.74	22.202
381.09	23.804
381.45	22.875
381.81	22.085
382.17	22.716
382.53	22.736
382.89	22.097
383.25	22.340
383.61	22.622
383.97	20.889
384.32	21.889
384.68	21.858
385.04	22.120
385.40	21.593
385.76	23.459
386.12	22.639
386.48	22.542
386.83	22.321
387.19	22.589
387.55	22.459
387.91	22.249
388.27	21.673
388.62	22.089
388.98	20.258
389.34	21.861
389.70	22.498
390.06	21.775
390.42	21.697
390.77	21.648
391.13	21.311
391.49	22.122
391.85	21.183
392.20	20.904
392.56	21.742
392.92	21.785
393.28	21.934
393.64	20.841
393.99	22.194
394.35	21.189
394.71	22.350
395.07	21.182
395.42	21.069
395.78	21.368
396.14	21.690
396.50	22.638
396.85	22.795
397.21	21.115
397.57	21.818
397.92	21.510
398.28	21.494
398.64	20.663
399.00	21.106
399.35	20.711
399.71	21.827
400.07	21.947
400.42	21.114
400.78	21.739
401.14	21.537
401.49	22.037
401.85	20.658
402.21	22.048
402.57	21.500
402.92	22.083
403.28	21.679
403.63	21.438
403.99	20.855
404.35	22.049
404.70	20.714
405.06	21.034
405.42	21.193
405.77	20.395
406.13	20.780
406.49	21.196
406.84	22.066
407.20	21.915
407.55	20.026
407.91	20.388
408.27	20.140
408.62	21.415
408.98	20.949
409.34	20.880
409.69	20.413
410.05	20.690
410.40	20.741
410.76	20.627
411.11	21.250
411.47	21.828
411.83	20.841
412.18	21.879
412.54	20.849
412.89	20.320
413.25	21.239
413.60	20.497
413.96	20.245
414.31	21.037
414.67	21.424
415.03	20.972
415.38	20.366
415.74	21.238
416.09	21.424
416.45	21.540
416.80	21.414
417.16	21.340
417.51	21.386
417.87	20.665
418.22	21.114
418.58	20.936
418.93	21.191
419.29	20.038
419.64	20.091
420.00	20.970
420.35	20.418
420.71	21.507
421.06	20.810
421.42	20.673
421.77	20.694
422.12	20.318
422.48	20.899
422.83	20.998
423.19	21.783
423.54	19.929
423.90	20.612
424.25	20.723
424.61	20.685
424.96	20.848
425.31	21.664
425.67	20.423
426.02	20.377
426.38	21.415
426.73	21.126
427.09	21.519
427.44	20.176
427.79	20.566
428.15	20.449
428.50	20.351
428.85	20.577
429.21	20.317
429.56	21.240
429.92	20.082
430.27	20.902
430.62	20.910
430.98	20.594
431.33	20.768
431.68	20.513
432.04	20.850
432.39	19.909
432.74	19.543
433.10	21.782
433.45	20.490
433.80	20.604
434.16	19.668
434.51	20.161
434.86	20.093
435.22	20.527
435.57	20.898
435.92	20.299
436.28	19.976
436.63	20.764
436.98	19.815
437.34	19.480
437.69	20.513
438.04	20.399
438.39	19.914
438.75	20.644
439.10	19.355
439.45	20.450
439.81	19.450
440.16	20.903
440.51	20.597
440.86	21.208
441.22	20.871
441.57	20.364
441.92	21.406
442.27	20.288
442.63	21.146
442.98	20.735
443.33	19.811
443.68	19.894
444.03	21.013
444.39	21.299
444.74	21.014
445.09	20.546
445.44	20.513
445.79	21.042
446.15	19.714
446.50	20.300
446.85	21.095
447.20	20.177
447.55	20.871
447.91	20.587
448.26	20.831
448.61	20.725
448.96	20.654
449.31	19.884
449.66	20.674
450.02	20.137
450.37	21.103
450.72	20.733
451.07	20.380
451.42	20.287
451.77	19.952
452.12	19.677
452.47	20.283
452.83	20.612
453.18	19.671
453.53	19.912
453.88	20.401
454.23	20.160
454.58	21.033
454.93	21.134
455.28	18.794
455.63	20.769
455.98	19.603
456.34	19.860
456.69	19.886
457.04	21.424
457.39	19.927
457.74	20.254
458.09	19.541
458.44	20.129
458.79	19.720
459.14	20.824
459.49	20.418
459.84	20.248
460.19	19.660
460.54	20.660
460.89	20.398
461.24	20.248
461.59	19.715
461.94	20.126
462.29	19.843
462.64	20.797
462.99	20.988
463.34	19.471
463.69	19.884
464.04	20.702
464.39	21.225
464.74	19.693
465.09	19.963
465.44	20.312
465.79	18.878
466.14	20.068
466.49	19.839
466.84	20.405
467.19	19.837
467.54	19.796
467.89	19.773
468.24	20.134
468.59	20.825
468.94	19.556
469.29	20.721
469.64	19.754
469.99	20.112
470.34	18.635
470.68	19.538
471.03	19.887
471.38	19.971
471.73	18.627
472.08	19.199
472.43	18.792
472.78	19.671
473.13	19.388
473.48	20.130
473.83	18.991
474.17	20.272
474.52	19.719
474.87	19.576
475.22	19.097
475.57	18.746
475.92	20.241
476.27	20.256
476.61	19.676
476.96	19.799
477.31	19.470
477.66	19.831
478.01	19.371
478.36	19.227
478.70	19.956
479.05	20.714
479.40	20.032
479.75	19.552
480.10	18.638
480.45	19.050
480.79	19.789
481.14	19.877
481.49	19.360
481.84	19.450
482.19	19.411
482.53	19.712
482.88	19.523
483.23	18.714
483.58	19.245
483.92	19.506
484.27	18.687
484.62	19.229
484.97	19.610
485.31	19.509
485.66	19.022
486.01	19.721
486.36	19.963
486.70	20.450
487.05	20.460
487.40	20.734
487.75	20.620
488.09	20.797
488.44	21.080
488.79	20.844
489.13	20.593
489.48	20.180
489.83	19.013
490.17	19.685
490.52	19.307
490.87	18.741
491.22	19.675
491.56	18.738
491.91	19.359
492.26	18.571
492.60	19.146
492.95	19.675
493.30	18.319
493.64	19.057
493.99	19.082
494.34	19.029
494.68	19.381
495.03	19.173
495.37	19.087
495.72	18.829
496.07	19.366
496.41	18.915
496.76	18.701
497.11	18.864
497.45	19.332
497.80	18.819
498.14	18.828
498.49	18.740
498.84	18.713
499.18	19.076
499.53	19.345
499.87	18.482
500.22	18.645
500.56	19.566
500.91	18.173
501.26	18.537
501.60	18.396
501.95	18.971
502.29	18.838
502.64	18.871
502.98	19.043
503.33	18.444
503.67	18.892
504.02	18.964
504.36	19.000
504.71	18.384
505.06	18.470
505.40	18.477
505.75	18.247
506.09	18.652
506.44	18.737
506.78	18.929
507.13	17.890
507.47	17.232
507.82	18.536
508.16	18.067
508.51	18.416
508.85	18.786
509.19	17.669
509.54	18.284
509.88	18.069
510.23	18.128
510.57	18.813
510.92	17.324
511.26	17.894
511.61	18.097
511.95	18.027
512.30	18.126
512.64	19.032
512.98	17.631
513.33	18.523
513.67	17.681
514.02	18.936
514.36	17.943
514.70	18.590
515.05	18.743
515.39	18.300
515.74	18.802
516.08	18.171
516.42	18.728
516.77	17.905
517.11	17.626
517.46	17.415
517.80	17.282
518.14	17.391
518.49	17.849
518.83	17.436
519.17	16.919
519.52	17.762
519.86	17.527
520.20	17.740
520.55	17.323
520.89	18.319
521.23	17.289
521.58	18.170
521.92	17.692
522.26	16.786
522.61	17.273
522.95	18.013
523.29	17.535
523.64	17.535
523.98	18.211
524.32	17.204
524.66	18.118
525.01	17.987
525.35	17.369
525.69	16.162
526.04	16.931
526.38	17.834
526.72	17.528
527.06	16.861
527.41	18.008
527.75	17.962
528.09	17.874
528.43	18.433
528.78	17.690
529.12	17.677
529.46	16.959
529.80	18.303
530.15	18.482
530.49	17.172
530.83	17.168
531.17	17.193
531.51	17.647
531.86	17.131
532.20	16.632
532.54	17.359
532.88	18.686
533.22	17.272
533.57	17.431
533.91	17.167
534.25	17.643
534.59	17.126
534.93	17.369
535.27	16.878
535.62	17.304
535.96	18.787
536.30	18.997
536.64	18.125
536.98	17.422
537.32	18.563
537.66	18.303
538.01	18.042
538.35	17.337
538.69	17.843
539.03	16.883
539.37	18.843
539.71	16.701
540.05	18.262
540.39	18.490
540.73	17.922
541.07	18.163
541.42	18.616
541.76	17.756
542.10	17.550
542.44	18.207
542.78	16.999
543.12	17.376
543.46	17.663
543.80	17.557
544.14	16.355
544.48	17.855
544.82	17.908
545.16	18.852
545.50	18.024
545.84	17.847
546.18	18.794
546.52	18.025
546.86	16.751
547.20	18.240
547.54	16.537
547.88	18.342
548.22	17.160
548.56	18.272
548.90	18.868
549.24	17.906
549.58	18.265
549.92	17.012
550.26	17.143
550.60	17.918
550.94	18.223
551.28	17.697
551.62	17.692
551.96	18.120
552.30	17.105
552.64	16.925
552.98	16.878
553.32	17.903
553.66	16.546
554.00	17.518
554.34	18.612
554.68	17.699
555.02	17.560
555.36	17.801
555.69	16.923
556.03	17.345
556.37	18.007
556.71	17.834
557.05	18.717
557.39	17.546
557.73	17.541
558.07	18.250
558.41	17.228
558.75	17.381
559.08	17.179
559.42	17.063
559.76	16.493
560.10	17.278
560.44	16.456
560.78	17.552
561.12	17.701
561.45	18.904
561.79	17.577
562.13	17.175
562.47	16.906
562.81	18.084
563.15	18.054
563.48	18.317
563.82	18.188
564.16	18.175
564.50	16.689
564.84	18.139
565.17	17.840
565.51	17.896
565.85	18.244
566.19	18.236
566.52	18.499
566.86	18.509
567.20	17.186
567.54	18.309
567.88	18.864
568.21	19.174
568.55	18.696
568.89	18.737
569.23	19.451
569.56	18.870
569.90	19.854
570.24	19.427
570.57	19.964
570.91	20.042
571.25	19.665
571.59	19.745
571.92	19.556
572.26	20.139
572.60	20.217
572.93	20.207
573.27	19.530
573.61	20.406
573.95	20.098
574.28	20.789
574.62	20.239
574.96	20.045
575.29	19.864
575.63	19.513
575.97	20.358
576.30	20.467
576.64	20.106
576.98	21.055
577.31	20.275
577.65	20.665
577.98	20.203
578.32	20.167
578.66	20.331
578.99	20.332
579.33	20.510
579.67	20.363
580.00	20.304
580.34	20.547
580.67	20.549
581.01	20.701
581.35	20.327
581.68	20.232
582.02	20.591
582.35	19.926
582.69	20.764
583.02	20.615
583.36	20.771
583.70	21.340
584.03	21.379
584.37	21.965
584.70	21.511
585.04	20.492
585.37	20.221
585.71	20.291
586.04	19.919
586.38	20.379
586.72	20.545
587.05	20.479
587.39	20.967
587.72	20.886
588.06	21.091
588.39	21.077
588.73	20.849
589.06	20.939
589.40	20.636
589.73	20.774
590.07	20.695
590.40	20.124
590.73	20.675
591.07	20.271
591.40	19.947
591.74	20.905
592.07	20.733
592.41	20.539
592.74	19.474
593.08	19.176
593.41	20.329
593.75	19.758
594.08	19.156
594.41	19.905
594.75	20.115
595.08	19.864
595.42	20.353
595.75	20.015
596.09	20.446
596.42	21.083
596.75	20.515
597.09	20.046
597.42	19.964
597.75	20.202
598.09	18.832
598.42	19.179
598.76	19.305
599.09	19.431
599.42	19.856
599.76	19.300
600.09	19.382
600.42	19.409
600.76	19.465
601.09	19.580
601.42	19.585
601.76	19.651
602.09	19.884
602.42	21.019
602.76	20.458
603.09	19.975
603.42	20.360
603.76	20.040
604.09	19.887
604.42	21.193
604.76	20.650
605.09	20.155
605.42	20.000
605.75	19.133
606.09	19.745
606.42	20.183
606.75	20.216
607.09	20.000
607.42	19.185
607.75	19.849
608.08	19.542
608.42	19.370
608.75	19.759
609.08	19.083
609.41	20.051
609.75	18.901
610.08	19.770
610.41	19.082
610.74	19.064
611.07	19.948
611.41	19.616
611.74	19.510
612.07	18.897
612.40	19.256
612.73	19.774
613.07	19.404
613.40	19.256
613.73	19.642
614.06	19.032
614.39	19.064
614.72	19.496
615.06	18.659
615.39	19.105
615.72	19.107
616.05	19.162
616.38	18.519
616.71	18.838
617.05	19.580
617.38	19.233
617.71	19.182
618.04	19.302
618.37	19.924
618.70	19.076
619.03	20.417
619.36	18.307
619.69	18.271
620.03	19.869
620.36	19.099
620.69	18.415
621.02	18.043
621.35	19.253
621.68	18.197
622.01	17.833
622.34	18.994
622.67	18.139
623.00	17.534
623.33	18.598
623.66	17.502
623.99	17.322
624.32	18.251
624.65	18.496
624.99	18.962
625.32	18.726
625.65	19.639
625.98	19.903
626.31	18.038
626.64	19.411
626.97	19.284
627.30	18.914
627.63	19.324
627.96	17.969
628.29	17.484
628.62	18.486
628.95	17.635
629.28	17.137
629.61	16.152
629.94	18.866
630.26	18.281
630.59	18.106
630.92	18.256
631.25	17.846
631.58	17.291
631.91	16.228
632.24	15.940
632.57	18.068
632.90	16.607
633.23	18.235
633.56	18.136
633.89	16.646
634.22	16.914
