SpectraSuite Data File
++++++++++++++++++++++++++++++++++++
Date: Fri May 15 17:13:51 PDT 2015
User: schluterlab
Dark Spectrum Present: Yes
Reference Spectrum Present: Yes
Number of Sampled Component Spectra: 1
Spectrometers: USB2E3373
Integration Time (usec): 3000 (USB2E3373)
Spectra Averaged: 3 (USB2E3373)
Boxcar Smoothing: 0 (USB2E3373)
Correct for Electrical Dark: No (USB2E3373)
Strobe/Lamp Enabled: No (USB2E3373)
Correct for Detector Non-linearity: No (USB2E3373)
Correct for Stray Light: No (USB2E3373)
Number of Pixels in Processed Spectrum: 2048
>>>>>Begin Processed Spectral Data<<<<<
178.53	0.000
178.91	0.000
179.29	112.500
179.67	200.000
180.04	-28.571
180.42	175.000
180.80	1200.000
181.18	-66.667
181.56	-400.000
181.94	50.000
182.31	400.000
182.69	120.000
183.07	400.000
183.45	-120.000
183.83	33.333
184.20	72.727
184.58	-66.667
184.96	-600.000
185.34	-433.333
185.72	200.000
186.09	7.692
186.47	0.000
186.85	166.667
187.23	66.667
187.61	300.000
187.98	0.000
188.36	122.222
188.74	33.333
189.12	82.353
189.49	77.778
189.87	0.000
190.25	85.714
190.63	50.000
191.00	-233.333
191.38	52.632
191.76	600.000
192.14	50.000
192.51	450.000
192.89	-11.111
193.27	128.571
193.65	-83.333
194.02	54.545
194.40	160.000
194.78	112.500
195.15	58.333
195.53	-87.500
195.91	-50.000
196.29	-225.000
196.66	123.077
197.04	-57.143
197.42	-66.667
197.79	-266.667
198.17	-53.846
198.55	1100.000
198.92	-333.333
199.30	1100.000
199.68	-40.000
200.05	133.333
200.43	0.000
200.81	133.333
201.18	333.333
201.56	400.000
201.94	150.000
202.31	-100.000
202.69	-120.000
203.07	125.000
203.44	900.000
203.82	0.000
204.19	100.000
204.57	-400.000
204.95	-0.000
205.32	50.000
205.70	-28.571
206.08	225.000
206.45	188.889
206.83	92.857
207.20	-42.857
207.58	-1000.000
207.96	-33.333
208.33	0.000
208.71	125.000
209.08	150.000
209.46	100.000
209.84	-60.000
210.21	400.000
210.59	128.571
210.96	33.333
211.34	-50.000
211.71	80.000
212.09	28.571
212.46	-1200.000
212.84	0.000
213.22	110.000
213.59	-250.000
213.97	76.923
214.34	54.545
214.72	83.333
215.09	300.000
215.47	46.154
215.84	-27.273
216.22	33.333
216.59	87.500
216.97	700.000
217.34	175.000
217.72	-60.000
218.09	-62.500
218.47	137.500
218.84	-1500.000
219.22	0.000
219.59	0.000
219.97	233.333
220.34	125.000
220.72	128.571
221.09	-25.000
221.47	700.000
221.84	-600.000
222.22	-450.000
222.59	100.000
222.97	66.667
223.34	100.000
223.72	92.857
224.09	14.286
224.46	46.429
224.84	400.000
225.21	200.000
225.59	60.000
225.96	-300.000
226.34	225.000
226.71	42.857
227.08	33.333
227.46	0.000
227.83	-400.000
228.21	66.667
228.58	63.636
228.95	37.500
229.33	110.000
229.70	18.750
230.08	-75.000
230.45	214.286
230.82	171.429
231.20	13.333
231.57	135.714
231.95	100.000
232.32	-10.000
232.69	42.857
233.07	300.000
233.44	80.000
233.81	80.000
234.19	133.333
234.56	70.588
234.93	250.000
235.31	200.000
235.68	160.000
236.05	76.923
236.43	80.000
236.80	82.353
237.17	43.750
237.55	105.000
237.92	37.037
238.29	41.667
238.67	76.667
239.04	55.882
239.41	34.146
239.79	120.000
240.16	75.610
240.53	63.158
240.91	63.043
241.28	50.794
241.65	66.071
242.02	57.534
242.40	73.333
242.77	74.576
243.14	62.121
243.51	66.250
243.89	82.759
244.26	72.414
244.63	70.238
245.00	65.979
245.38	74.227
245.75	67.416
246.12	57.759
246.49	72.727
246.87	76.923
247.24	64.706
247.61	63.158
247.98	62.602
248.36	60.625
248.73	63.816
249.10	59.091
249.47	63.291
249.84	70.588
250.22	67.647
250.59	58.824
250.96	64.319
251.33	68.605
251.70	72.941
252.08	69.543
252.45	64.851
252.82	65.829
253.19	73.733
253.56	61.682
253.94	68.018
254.31	71.739
254.68	72.807
255.05	63.386
255.42	66.376
255.79	65.251
256.16	62.257
256.54	64.552
256.91	64.259
257.28	63.941
257.65	67.416
258.02	64.894
258.39	64.646
258.76	66.300
259.14	65.781
259.51	65.372
259.88	65.292
260.25	65.359
260.62	72.222
260.99	62.034
261.36	65.411
261.73	70.570
262.10	65.350
262.47	67.485
262.85	68.339
263.22	61.538
263.59	63.240
263.96	68.323
264.33	67.273
264.70	66.667
265.07	69.345
265.44	63.739
265.81	68.927
266.18	60.656
266.55	63.239
266.92	66.062
267.29	66.841
267.66	64.962
268.03	64.398
268.40	65.535
268.77	68.984
269.14	63.789
269.51	62.725
269.88	62.344
270.25	63.010
270.62	61.220
270.99	62.404
271.36	62.592
271.73	63.615
272.10	63.747
272.47	63.830
272.84	66.584
273.21	62.413
273.58	63.855
273.95	61.785
274.32	62.818
274.69	58.824
275.06	65.848
275.43	63.946
275.80	61.589
276.17	65.057
276.54	59.315
276.91	65.570
277.28	64.629
277.65	63.017
278.02	61.489
278.39	62.582
278.76	61.845
279.13	60.373
279.50	62.395
279.87	62.203
280.23	62.151
280.60	58.674
280.97	65.859
281.34	61.923
281.71	63.860
282.08	59.714
282.45	57.339
282.82	59.073
283.19	60.735
283.56	57.418
283.92	60.152
284.29	59.231
284.66	57.752
285.03	58.939
285.40	58.979
285.77	56.942
286.14	58.303
286.51	60.332
286.87	57.587
287.24	59.853
287.61	58.201
287.98	57.719
288.35	56.326
288.72	57.968
289.08	55.208
289.45	55.712
289.82	52.273
290.19	53.925
290.56	53.173
290.93	55.724
291.29	49.307
291.66	53.386
292.03	51.356
292.40	50.161
292.77	51.356
293.13	48.214
293.50	49.317
293.87	47.786
294.24	47.450
294.60	49.180
294.97	46.726
295.34	49.847
295.71	47.541
296.08	46.936
296.44	46.799
296.81	46.250
297.18	46.232
297.55	46.748
297.91	45.205
298.28	45.515
298.65	42.062
299.02	43.396
299.38	43.365
299.75	45.379
300.12	42.016
300.48	41.765
300.85	41.825
301.22	41.429
301.59	41.447
301.95	42.658
302.32	43.709
302.69	44.154
303.05	40.965
303.42	41.968
303.79	40.421
304.15	40.860
304.52	41.141
304.89	40.234
305.25	40.799
305.62	38.856
305.99	39.064
306.35	40.462
306.72	40.495
307.09	40.137
307.45	40.528
307.82	39.468
308.19	41.231
308.55	39.368
308.92	41.503
309.29	38.994
309.65	38.751
310.02	39.274
310.38	39.627
310.75	40.765
311.12	38.644
311.48	37.752
311.85	38.010
312.22	37.658
312.58	39.809
312.95	36.713
313.31	38.199
313.68	37.906
314.05	36.531
314.41	39.278
314.78	37.526
315.14	38.746
315.51	37.992
315.87	37.910
316.24	38.423
316.61	38.583
316.97	35.516
317.34	37.891
317.70	37.476
318.07	35.962
318.43	38.529
318.80	36.837
319.16	37.598
319.53	38.651
319.89	37.303
320.26	36.235
320.62	36.810
320.99	35.177
321.35	37.616
321.72	37.279
322.08	37.664
322.45	38.071
322.81	38.605
323.18	37.390
323.54	37.355
323.91	35.540
324.27	36.914
324.64	37.640
325.00	36.861
325.37	37.466
325.73	34.361
326.10	36.149
326.46	36.323
326.83	35.346
327.19	37.228
327.56	36.056
327.92	36.796
328.29	36.429
328.65	36.415
329.01	35.202
329.38	37.051
329.74	34.466
330.11	34.662
330.47	36.085
330.84	35.385
331.20	36.502
331.56	35.093
331.93	36.986
332.29	36.022
332.66	34.842
333.02	34.851
333.38	34.647
333.75	36.813
334.11	34.378
334.48	35.267
334.84	35.531
335.20	35.133
335.57	33.726
335.93	34.779
336.29	33.702
336.66	34.787
337.02	33.550
337.38	34.630
337.75	34.909
338.11	33.724
338.47	34.124
338.84	33.457
339.20	34.095
339.56	33.853
339.93	34.020
340.29	34.954
340.65	34.050
341.02	33.777
341.38	33.009
341.74	32.951
342.11	32.756
342.47	33.541
342.83	34.602
343.20	32.927
343.56	34.348
343.92	33.570
344.28	33.134
344.65	32.642
345.01	31.374
345.37	33.389
345.73	33.640
346.10	34.081
346.46	33.221
346.82	31.097
347.19	32.336
347.55	33.250
347.91	33.252
348.27	32.336
348.63	33.049
349.00	32.814
349.36	32.336
349.72	32.753
350.08	32.295
350.45	33.041
350.81	32.392
351.17	30.945
351.53	32.408
351.89	31.214
352.26	30.560
352.62	32.500
352.98	31.004
353.34	32.367
353.70	34.223
354.07	32.500
354.43	31.865
354.79	32.535
355.15	32.540
355.51	32.674
355.87	31.715
356.24	31.240
356.60	31.205
356.96	31.825
357.32	31.070
357.68	31.744
358.04	31.826
358.40	31.913
358.77	32.057
359.13	30.584
359.49	30.508
359.85	31.591
360.21	31.340
360.57	30.834
360.93	31.014
361.29	29.532
361.66	30.094
362.02	31.288
362.38	31.759
362.74	31.794
363.10	31.603
363.46	31.134
363.82	31.029
364.18	30.701
364.54	29.191
364.90	30.681
365.26	30.859
365.62	31.168
365.98	31.525
366.35	30.736
366.71	31.486
367.07	29.390
367.43	29.044
367.79	30.883
368.15	30.366
368.51	31.027
368.87	30.294
369.23	29.458
369.59	30.758
369.95	30.572
370.31	31.214
370.67	30.224
371.03	29.201
371.39	29.978
371.75	30.696
372.11	30.314
372.47	29.808
372.83	30.873
373.19	29.672
373.55	30.397
373.91	28.870
374.27	30.404
374.63	29.792
374.99	29.574
375.35	29.526
375.71	29.510
376.07	29.424
376.42	30.272
376.78	30.201
377.14	28.707
377.50	30.544
377.86	30.455
378.22	29.611
378.58	29.872
378.94	29.364
379.30	29.382
379.66	29.404
380.02	29.246
380.38	28.241
380.74	29.144
381.09	29.571
381.45	29.358
381.81	30.598
382.17	29.442
382.53	29.856
382.89	28.939
383.25	29.620
383.61	29.085
383.97	29.079
384.32	29.081
384.68	28.916
385.04	29.105
385.40	27.567
385.76	30.000
386.12	29.495
386.48	29.502
386.83	28.789
387.19	28.999
387.55	30.615
387.91	29.401
388.27	29.121
388.62	30.208
388.98	29.282
389.34	29.294
389.70	29.770
390.06	29.201
390.42	28.433
390.77	28.385
391.13	28.752
391.49	28.202
391.85	29.500
392.20	29.002
392.56	28.735
392.92	29.066
393.28	28.656
393.64	29.189
393.99	30.533
394.35	28.590
394.71	29.374
395.07	28.913
395.42	29.144
395.78	28.925
396.14	29.319
396.50	29.486
396.85	28.847
397.21	29.010
397.57	29.028
397.92	28.580
398.28	28.793
398.64	28.373
399.00	29.289
399.35	28.894
399.71	28.604
400.07	29.141
400.42	28.641
400.78	28.414
401.14	28.554
401.49	28.946
401.85	28.215
402.21	28.253
402.57	29.375
402.92	28.356
403.28	29.135
403.63	28.310
403.99	28.380
404.35	28.670
404.70	28.214
405.06	27.850
405.42	28.527
405.77	28.239
406.13	28.580
406.49	27.946
406.84	28.362
407.20	28.838
407.55	28.010
407.91	28.342
408.27	27.980
408.62	29.169
408.98	28.466
409.34	28.872
409.69	27.907
410.05	27.032
410.40	28.889
410.76	29.192
411.11	28.000
411.47	28.337
411.83	28.060
412.18	27.928
412.54	27.840
412.89	27.586
413.25	27.978
413.60	28.696
413.96	27.730
414.31	27.683
414.67	27.453
415.03	27.963
415.38	27.872
415.74	28.730
416.09	29.327
416.45	27.819
416.80	27.429
417.16	29.420
417.51	28.448
417.87	27.640
418.22	27.785
418.58	29.097
418.93	27.586
419.29	26.825
419.64	27.609
420.00	29.660
420.35	28.000
420.71	28.979
421.06	26.888
421.42	27.704
421.77	27.457
422.12	27.242
422.48	28.154
422.83	28.422
423.19	28.555
423.54	27.219
423.90	27.680
424.25	28.243
424.61	27.723
424.96	27.875
425.31	27.730
425.67	29.401
426.02	28.210
426.38	27.677
426.73	28.450
427.09	27.848
427.44	27.412
427.79	27.814
428.15	28.034
428.50	27.317
428.85	27.580
429.21	27.674
429.56	28.248
429.92	27.940
430.27	27.419
430.62	27.548
430.98	27.548
431.33	27.971
431.68	27.263
432.04	28.116
432.39	26.754
432.74	26.639
433.10	28.678
433.45	26.762
433.80	26.988
434.16	27.036
434.51	27.043
434.86	28.513
435.22	28.211
435.57	28.010
435.92	27.904
436.28	27.191
436.63	26.925
436.98	26.304
437.34	26.921
437.69	28.265
438.04	27.350
438.39	26.878
438.75	27.990
439.10	27.957
439.45	27.815
439.81	27.706
440.16	27.435
440.51	27.284
440.86	27.734
441.22	26.471
441.57	27.263
441.92	27.964
442.27	28.049
442.63	28.426
442.98	27.513
443.33	27.379
443.68	27.215
444.03	27.670
444.39	27.054
444.74	28.205
445.09	27.728
445.44	27.749
445.79	28.417
446.15	27.037
446.50	26.733
446.85	28.002
447.20	27.320
447.55	27.958
447.91	26.960
448.26	27.661
448.61	27.173
448.96	26.793
449.31	26.936
449.66	28.107
450.02	27.153
450.37	27.267
450.72	26.861
451.07	27.532
451.42	26.467
451.77	26.582
452.12	27.033
452.47	27.109
452.83	26.266
453.18	26.882
453.53	27.623
453.88	27.140
454.23	26.859
454.58	27.708
454.93	26.869
455.28	26.222
455.63	27.092
455.98	26.999
456.34	27.650
456.69	26.811
457.04	27.032
457.39	26.974
457.74	26.663
458.09	26.957
458.44	27.443
458.79	26.387
459.14	27.002
459.49	26.985
459.84	26.509
460.19	27.063
460.54	26.406
460.89	26.932
461.24	27.019
461.59	27.375
461.94	25.975
462.29	27.443
462.64	27.375
462.99	26.811
463.34	26.217
463.69	26.641
464.04	26.211
464.39	26.440
464.74	25.951
465.09	26.949
465.44	26.370
465.79	26.587
466.14	27.138
466.49	26.624
466.84	27.424
467.19	27.847
467.54	26.309
467.89	26.721
468.24	26.703
468.59	27.556
468.94	25.841
469.29	26.754
469.64	25.906
469.99	27.050
470.34	25.392
470.68	27.666
471.03	26.893
471.38	27.033
471.73	25.770
472.08	25.373
472.43	25.101
472.78	25.497
473.13	26.395
473.48	25.407
473.83	25.654
474.17	25.842
474.52	25.399
474.87	25.939
475.22	25.320
475.57	26.087
475.92	26.001
476.27	26.019
476.61	25.868
476.96	25.878
477.31	25.960
477.66	25.843
478.01	25.828
478.36	26.416
478.70	26.971
479.05	26.374
479.40	26.974
479.75	25.652
480.10	25.294
480.45	26.050
480.79	26.788
481.14	26.691
481.49	25.764
481.84	25.531
482.19	25.585
482.53	26.379
482.88	26.205
483.23	26.104
483.58	26.274
483.92	24.685
484.27	26.026
484.62	26.221
484.97	25.954
485.31	25.470
485.66	25.631
486.01	26.458
486.36	27.207
486.70	27.910
487.05	27.876
487.40	27.482
487.75	27.549
488.09	27.689
488.44	27.751
488.79	27.344
489.13	27.965
489.48	26.379
489.83	25.605
490.17	25.483
490.52	24.942
490.87	24.850
491.22	25.740
491.56	24.810
491.91	25.000
492.26	25.134
492.60	25.192
492.95	25.627
493.30	24.377
493.64	25.491
493.99	25.797
494.34	24.854
494.68	24.857
495.03	25.012
495.37	25.466
495.72	24.987
496.07	26.146
496.41	24.811
496.76	25.749
497.11	24.546
497.45	25.776
497.80	25.631
498.14	24.242
498.49	24.276
498.84	24.351
499.18	25.050
499.53	24.901
499.87	25.195
500.22	25.025
500.56	25.063
500.91	24.548
501.26	24.073
501.60	24.348
501.95	24.794
502.29	24.552
502.64	25.145
502.98	24.864
503.33	24.496
503.67	24.916
504.02	24.633
504.36	25.037
504.71	24.798
505.06	24.258
505.40	24.112
505.75	24.021
506.09	24.480
506.44	25.205
506.78	24.235
507.13	24.716
507.47	24.073
507.82	24.359
508.16	24.353
508.51	23.505
508.85	24.176
509.19	23.789
509.54	25.094
509.88	24.002
510.23	24.798
510.57	24.105
510.92	23.721
511.26	23.568
511.61	24.367
511.95	24.493
512.30	24.279
512.64	24.485
512.98	24.031
513.33	24.510
513.67	23.593
514.02	24.657
514.36	23.543
514.70	24.242
515.05	24.383
515.39	24.262
515.74	24.132
516.08	23.431
516.42	23.616
516.77	23.406
517.11	23.442
517.46	23.639
517.80	23.659
518.14	23.148
518.49	23.317
518.83	23.086
519.17	21.831
519.52	22.676
519.86	22.869
520.20	23.329
520.55	22.201
520.89	23.463
521.23	22.799
521.58	23.722
521.92	22.500
522.26	22.316
522.61	23.247
522.95	23.377
523.29	22.300
523.64	23.443
523.98	23.072
524.32	22.036
524.66	22.727
525.01	22.792
525.35	22.813
525.69	22.828
526.04	22.685
526.38	24.254
526.72	21.714
527.06	22.244
527.41	22.493
527.75	22.654
528.09	22.658
528.43	24.375
528.78	22.772
529.12	23.419
529.46	22.222
529.80	23.433
530.15	23.102
530.49	22.424
530.83	23.598
531.17	22.700
531.51	22.845
531.86	22.502
532.20	22.825
532.54	23.281
532.88	22.793
533.22	22.984
533.57	23.657
533.91	22.389
534.25	23.633
534.59	23.220
534.93	22.719
535.27	21.954
535.62	22.942
535.96	22.896
536.30	23.483
536.64	23.294
536.98	22.648
537.32	23.257
537.66	22.931
538.01	23.706
538.35	22.538
538.69	23.236
539.03	22.420
539.37	22.678
539.71	23.517
540.05	23.897
540.39	23.961
540.73	24.059
541.07	24.309
541.42	23.454
541.76	23.262
542.10	22.780
542.44	23.350
542.78	21.335
543.12	22.940
543.46	23.713
543.80	23.248
544.14	22.296
544.48	22.652
544.82	23.718
545.16	23.839
545.50	23.364
545.84	23.938
546.18	23.191
546.52	23.504
546.86	23.508
547.20	23.891
547.54	21.979
547.88	22.962
548.22	23.471
548.56	23.549
548.90	25.539
549.24	22.590
549.58	23.695
549.92	23.946
550.26	23.663
550.60	23.717
550.94	23.600
551.28	23.261
551.62	23.077
551.96	23.008
552.30	21.711
552.64	22.496
552.98	24.121
553.32	22.825
553.66	22.714
554.00	23.431
554.34	24.520
554.68	22.271
555.02	22.470
555.36	22.812
555.69	22.930
556.03	22.341
556.37	22.776
556.71	22.744
557.05	22.595
557.39	22.305
557.73	23.463
558.07	22.624
558.41	22.665
558.75	22.837
559.08	22.143
559.42	22.540
559.76	23.058
560.10	23.471
560.44	21.519
560.78	23.427
561.12	22.567
561.45	23.120
561.79	24.020
562.13	23.918
562.47	22.590
562.81	23.343
563.15	22.355
563.48	23.762
563.82	23.747
564.16	23.886
564.50	22.973
564.84	23.427
565.17	23.340
565.51	23.770
565.85	24.486
566.19	24.005
566.52	23.995
566.86	24.293
567.20	24.595
567.54	24.209
567.88	24.839
568.21	24.661
568.55	24.783
568.89	25.719
569.23	26.192
569.56	25.744
569.90	26.594
570.24	24.786
570.57	26.073
570.91	27.466
571.25	26.044
571.59	26.440
571.92	26.015
572.26	25.966
572.60	26.884
572.93	27.204
573.27	26.646
573.61	26.700
573.95	27.034
574.28	26.589
574.62	26.748
574.96	27.125
575.29	26.779
575.63	26.406
575.97	26.972
576.30	27.045
576.64	26.278
576.98	27.079
577.31	26.886
577.65	27.683
577.98	27.346
578.32	26.528
578.66	27.187
578.99	27.094
579.33	26.730
579.67	26.697
580.00	26.759
580.34	27.313
580.67	27.151
581.01	27.305
581.35	26.938
581.68	27.514
582.02	27.106
582.35	27.168
582.69	27.892
583.02	27.046
583.36	28.105
583.70	28.323
584.03	28.635
584.37	28.063
584.70	28.242
585.04	27.513
585.37	27.371
585.71	27.203
586.04	26.929
586.38	26.941
586.72	27.030
587.05	27.874
587.39	27.285
587.72	27.720
588.06	27.899
588.39	27.086
588.73	27.320
589.06	27.495
589.40	27.204
589.73	27.273
590.07	27.002
590.40	27.206
590.73	27.801
591.07	26.506
591.40	26.670
591.74	26.471
592.07	27.041
592.41	27.341
592.74	25.767
593.08	24.974
593.41	25.865
593.75	26.366
594.08	25.609
594.41	26.456
594.75	26.527
595.08	26.372
595.42	26.389
595.75	26.962
596.09	27.482
596.42	26.953
596.75	26.465
597.09	26.150
597.42	25.790
597.75	25.790
598.09	25.668
598.42	26.760
598.76	25.354
599.09	25.280
599.42	26.033
599.76	26.147
600.09	26.244
600.42	25.625
600.76	25.334
601.09	25.840
601.42	26.439
601.76	27.074
602.09	26.980
602.42	27.043
602.76	26.358
603.09	26.786
603.42	27.048
603.76	25.202
604.09	26.569
604.42	27.327
604.76	26.613
605.09	26.371
605.42	26.050
605.75	25.613
606.09	25.902
606.42	26.439
606.75	26.061
607.09	27.297
607.42	25.166
607.75	26.021
608.08	25.472
608.42	25.720
608.75	26.458
609.08	25.959
609.41	25.939
609.75	26.815
610.08	25.662
610.41	25.459
610.74	25.402
611.07	26.202
611.41	26.051
611.74	26.546
612.07	26.124
612.40	26.641
612.73	26.102
613.07	24.972
613.40	25.711
613.73	25.182
614.06	25.209
614.39	25.776
614.72	25.490
615.06	26.648
615.39	25.819
615.72	25.834
616.05	25.475
616.38	25.014
616.71	26.544
617.05	25.263
617.38	25.896
617.71	25.535
618.04	26.540
618.37	26.040
618.70	26.205
619.03	25.347
619.36	24.240
619.69	25.701
620.03	26.150
620.36	25.250
620.69	24.268
621.02	24.465
621.35	24.066
621.68	24.660
622.01	23.667
622.34	23.783
622.67	24.763
623.00	23.890
623.33	24.314
623.66	24.533
623.99	24.584
624.32	24.259
624.65	23.383
624.99	24.304
625.32	24.716
625.65	24.823
625.98	24.577
626.31	24.439
626.64	24.350
626.97	24.258
627.30	23.730
627.63	25.390
627.96	23.720
628.29	22.387
628.62	22.026
628.95	22.345
629.28	22.883
629.61	23.928
629.94	23.363
630.26	22.530
630.59	23.621
630.92	23.179
631.25	21.949
631.58	21.366
631.91	21.272
632.24	21.101
632.57	23.750
632.90	21.471
633.23	20.941
633.56	20.907
633.89	20.838
