SpectraSuite Data File
++++++++++++++++++++++++++++++++++++
Date: Fri May 15 17:17:21 PDT 2015
User: schluterlab
Dark Spectrum Present: Yes
Reference Spectrum Present: Yes
Number of Sampled Component Spectra: 1
Spectrometers: USB2E3373
Integration Time (usec): 3000 (USB2E3373)
Spectra Averaged: 3 (USB2E3373)
Boxcar Smoothing: 0 (USB2E3373)
Correct for Electrical Dark: No (USB2E3373)
Strobe/Lamp Enabled: No (USB2E3373)
Correct for Detector Non-linearity: No (USB2E3373)
Correct for Stray Light: No (USB2E3373)
Number of Pixels in Processed Spectrum: 2048
>>>>>Begin Processed Spectral Data<<<<<
178.53	0.000
178.91	0.000
179.29	100.000
179.67	-250.000
180.04	14.286
180.42	200.000
180.80	700.000
181.18	133.333
181.56	-350.000
181.94	0.000
182.31	-600.000
182.69	100.000
183.07	233.333
183.45	60.000
183.83	-33.333
184.20	36.364
184.58	-22.222
184.96	-100.000
185.34	-166.667
185.72	200.000
186.09	7.692
186.47	200.000
186.85	33.333
187.23	-44.444
187.61	-200.000
187.98	33.333
188.36	77.778
188.74	0.000
189.12	41.176
189.49	138.889
189.87	0.000
190.25	57.143
190.63	700.000
191.00	200.000
191.38	15.789
191.76	400.000
192.14	-175.000
192.51	400.000
192.89	88.889
193.27	85.714
193.65	16.667
194.02	90.909
194.40	60.000
194.78	-12.500
195.15	8.333
195.53	-12.500
195.91	-250.000
196.29	100.000
196.66	15.385
197.04	-57.143
197.42	0.000
197.79	-233.333
198.17	-15.385
198.55	1200.000
198.92	-166.667
199.30	800.000
199.68	-20.000
200.05	300.000
200.43	0.000
200.81	166.667
201.18	133.333
201.56	1100.000
201.94	200.000
202.31	-533.333
202.69	-160.000
203.07	-200.000
203.44	1400.000
203.82	0.000
204.19	100.000
204.57	-266.667
204.95	-100.000
205.32	70.000
205.70	57.143
206.08	250.000
206.45	177.778
206.83	50.000
207.20	100.000
207.58	300.000
207.96	-200.000
208.33	-120.000
208.71	100.000
209.08	-33.333
209.46	-500.000
209.84	40.000
210.21	-800.000
210.59	128.571
210.96	-16.667
211.34	75.000
211.71	80.000
212.09	128.571
212.46	-200.000
212.84	0.000
213.22	60.000
213.59	150.000
213.97	130.769
214.34	145.455
214.72	133.333
215.09	-50.000
215.47	-15.385
215.84	36.364
216.22	-133.333
216.59	187.500
216.97	200.000
217.34	25.000
217.72	0.000
218.09	100.000
218.47	-37.500
218.84	100.000
219.22	-55.556
219.59	100.000
219.97	-200.000
220.34	175.000
220.72	42.857
221.09	200.000
221.47	300.000
221.84	150.000
222.22	-700.000
222.59	27.273
222.97	125.000
223.34	166.667
223.72	0.000
224.09	61.905
224.46	67.857
224.84	233.333
225.21	80.000
225.59	113.333
225.96	200.000
226.34	-50.000
226.71	28.571
227.08	100.000
227.46	187.500
227.83	-50.000
228.21	100.000
228.58	109.091
228.95	12.500
229.33	-30.000
229.70	31.250
230.08	100.000
230.45	200.000
230.82	214.286
231.20	26.667
231.57	107.143
231.95	71.429
232.32	-10.000
232.69	71.429
233.07	466.667
233.44	220.000
233.81	60.000
234.19	211.111
234.56	94.118
234.93	-350.000
235.31	325.000
235.68	-20.000
236.05	38.462
236.43	30.000
236.80	76.471
237.17	62.500
237.55	70.000
237.92	92.593
238.29	66.667
238.67	63.333
239.04	82.353
239.41	48.780
239.79	90.000
240.16	68.293
240.53	76.316
240.91	58.696
241.28	55.556
241.65	66.071
242.02	71.233
242.40	71.667
242.77	54.237
243.14	68.182
243.51	53.750
243.89	64.368
244.26	56.322
244.63	59.524
245.00	53.608
245.38	62.887
245.75	55.056
246.12	52.586
246.49	61.157
246.87	60.577
247.24	54.622
247.61	56.140
247.98	56.911
248.36	52.500
248.73	59.211
249.10	63.636
249.47	56.329
249.84	59.477
250.22	55.882
250.59	56.863
250.96	53.991
251.33	50.000
251.70	61.765
252.08	56.345
252.45	58.911
252.82	57.789
253.19	58.525
253.56	57.944
253.94	50.450
254.31	56.957
254.68	59.649
255.05	51.969
255.42	55.895
255.79	55.985
256.16	58.755
256.54	57.463
256.91	57.795
257.28	51.301
257.65	58.427
258.02	52.837
258.39	53.535
258.76	59.341
259.14	54.153
259.51	56.311
259.88	58.763
260.25	58.824
260.62	59.028
260.99	55.254
261.36	57.877
261.73	55.380
262.10	57.447
262.47	55.215
262.85	56.426
263.22	56.615
263.59	51.713
263.96	59.006
264.33	56.667
264.70	56.548
265.07	53.274
265.44	59.773
265.81	55.085
266.18	54.645
266.55	58.612
266.92	55.181
267.29	57.441
267.66	53.197
268.03	56.806
268.40	55.091
268.77	57.754
269.14	50.600
269.51	55.784
269.88	52.868
270.25	53.571
270.62	53.659
270.99	52.174
271.36	52.812
271.73	53.286
272.10	54.015
272.47	57.447
272.84	54.950
273.21	53.596
273.58	53.253
273.95	56.064
274.32	54.273
274.69	52.262
275.06	56.027
275.43	52.834
275.80	52.980
276.17	58.391
276.54	48.394
276.91	54.825
277.28	52.838
277.65	50.207
278.02	52.340
278.39	52.735
278.76	52.830
279.13	52.905
279.50	52.311
279.87	50.108
280.23	51.828
280.60	52.242
280.97	51.313
281.34	49.808
281.71	55.236
282.08	50.511
282.45	52.446
282.82	50.965
283.19	52.224
283.56	53.950
283.92	50.664
284.29	50.769
284.66	50.000
285.03	50.491
285.40	48.960
285.77	47.803
286.14	48.736
286.51	52.214
286.87	50.091
287.24	52.118
287.61	46.737
287.98	49.123
288.35	46.794
288.72	50.088
289.08	45.833
289.45	49.209
289.82	45.629
290.19	45.734
290.56	46.484
290.93	48.485
291.29	43.606
291.66	46.299
292.03	44.976
292.40	44.355
292.77	44.498
293.13	41.071
293.50	42.792
293.87	43.053
294.24	40.804
294.60	41.878
294.97	40.179
295.34	41.411
295.71	41.878
296.08	40.209
296.44	38.407
296.81	40.000
297.18	40.870
297.55	40.921
297.91	38.630
298.28	37.731
298.65	38.535
299.02	38.949
299.38	37.620
299.75	38.207
300.12	37.435
300.48	37.549
300.85	36.629
301.22	37.662
301.59	38.553
301.95	36.329
302.32	38.781
302.69	35.821
303.05	37.005
303.42	36.613
303.79	37.617
304.15	36.798
304.52	35.434
304.89	35.205
305.25	36.077
305.62	33.489
305.99	33.333
306.35	35.838
306.72	34.421
307.09	35.120
307.45	35.132
307.82	34.491
308.19	35.540
308.55	33.588
308.92	35.076
309.29	34.637
309.65	33.800
310.02	35.314
310.38	34.797
310.75	35.847
311.12	34.015
311.48	32.980
311.85	33.613
312.22	33.650
312.58	33.333
312.95	32.978
313.31	33.540
313.68	34.764
314.05	33.673
314.41	34.433
314.78	34.124
315.14	34.121
315.51	34.783
315.87	34.529
316.24	34.884
316.61	34.154
316.97	33.433
317.34	34.473
317.70	34.895
318.07	34.808
318.43	35.686
318.80	34.375
319.16	35.254
319.53	34.663
319.89	35.236
320.26	35.830
320.62	37.312
320.99	34.969
321.35	36.074
321.72	38.006
322.08	38.268
322.45	38.071
322.81	37.132
323.18	38.371
323.54	38.900
323.91	40.019
324.27	41.309
324.64	41.292
325.00	39.507
325.37	41.965
325.73	40.435
326.10	42.779
326.46	42.870
326.83	43.920
327.19	44.464
327.56	45.526
327.92	45.687
328.29	45.625
328.65	47.642
329.01	46.324
329.38	48.203
329.74	47.025
330.11	47.451
330.47	48.237
330.84	49.327
331.20	53.992
331.56	48.611
331.93	52.511
332.29	52.337
332.66	50.136
333.02	50.651
333.38	51.696
333.75	51.465
334.11	49.687
334.48	52.040
334.84	54.121
335.20	53.705
335.57	52.947
335.93	52.213
336.29	53.131
336.66	55.223
337.02	52.974
337.38	53.056
337.75	54.273
338.11	53.021
338.47	54.288
338.84	54.621
339.20	54.388
339.56	56.422
339.93	54.879
340.29	55.229
340.65	55.466
341.02	54.167
341.38	55.133
341.74	54.594
342.11	54.333
342.47	54.270
342.83	55.190
343.20	54.094
343.56	56.348
343.92	56.333
344.28	56.106
344.65	56.131
345.01	54.624
345.37	55.257
345.73	55.230
346.10	55.738
346.46	56.434
346.82	54.828
347.19	54.863
347.55	56.642
347.91	55.502
348.27	55.295
348.63	58.262
349.00	55.373
349.36	55.777
349.72	56.633
350.08	55.902
350.45	55.547
350.81	56.229
351.17	54.723
351.53	57.224
351.89	55.078
352.26	56.160
352.62	56.371
352.98	54.859
353.34	54.911
353.70	56.392
354.07	56.452
354.43	54.123
354.79	55.656
355.15	56.905
355.51	57.595
355.87	55.987
356.24	55.057
356.60	56.103
356.96	56.032
357.32	56.310
357.68	54.887
358.04	57.512
358.40	56.592
358.77	56.459
359.13	56.926
359.49	55.855
359.85	55.616
360.21	58.533
360.57	56.542
360.93	56.505
361.29	56.722
361.66	58.307
362.02	58.182
362.38	57.959
362.74	57.835
363.10	58.014
363.46	57.746
363.82	56.799
364.18	57.860
364.54	56.985
364.90	58.423
365.26	58.297
365.62	59.051
365.98	58.798
366.35	59.141
366.71	58.610
367.07	58.999
367.43	57.369
367.79	58.587
368.15	58.938
368.51	59.796
368.87	60.086
369.23	58.051
369.59	59.767
369.95	59.677
370.31	58.960
370.67	59.627
371.03	58.551
371.39	60.759
371.75	60.147
372.11	59.629
372.47	60.651
372.83	60.610
373.19	58.916
373.55	58.700
373.91	59.827
374.27	62.084
374.63	61.378
374.99	60.355
375.35	60.515
375.71	61.329
376.07	60.604
376.42	61.701
376.78	62.081
377.14	60.596
377.50	62.284
377.86	62.584
378.22	62.923
378.58	62.372
378.94	62.697
379.30	62.071
379.66	63.448
380.02	62.722
380.38	61.716
380.74	62.896
381.09	63.804
381.45	63.303
381.81	63.233
382.17	64.277
382.53	63.023
382.89	64.470
383.25	64.095
383.61	63.902
383.97	64.190
384.32	62.289
384.68	64.211
385.04	63.419
385.40	65.152
385.76	66.478
386.12	65.201
386.48	66.603
386.83	65.060
387.19	65.201
387.55	66.311
387.91	65.587
388.27	65.018
388.62	68.345
388.98	65.500
389.34	65.147
389.70	67.371
390.06	65.702
390.42	67.163
390.77	66.645
391.13	65.826
391.49	66.624
391.85	67.122
392.20	67.169
392.56	67.451
392.92	68.056
393.28	66.804
393.64	66.426
393.99	68.088
394.35	68.311
394.71	67.369
395.07	65.431
395.42	65.695
395.78	67.166
396.14	66.961
396.50	67.850
396.85	67.869
397.21	68.045
397.57	66.897
397.92	66.028
398.28	67.759
398.64	65.542
399.00	67.212
399.35	66.930
399.71	66.628
400.07	67.352
400.42	67.503
400.78	67.667
401.14	66.848
401.49	67.421
401.85	67.276
402.21	67.108
402.57	68.812
402.92	67.378
403.28	67.920
403.63	68.916
403.99	67.730
404.35	69.019
404.70	65.298
405.06	66.745
405.42	67.868
405.77	68.390
406.13	67.637
406.49	67.022
406.84	66.932
407.20	67.851
407.55	66.194
407.91	65.909
408.27	66.985
408.62	67.938
408.98	66.728
409.34	68.030
409.69	66.667
410.05	67.611
410.40	69.012
410.76	66.888
411.11	67.562
411.47	68.376
411.83	67.483
412.18	68.211
412.54	66.792
412.89	65.948
413.25	68.712
413.60	67.950
413.96	66.564
414.31	67.256
414.67	68.505
415.03	68.309
415.38	66.775
415.74	69.251
416.09	67.864
416.45	68.400
416.80	67.680
417.16	70.097
417.51	68.021
417.87	66.362
418.22	69.430
418.58	68.696
418.93	69.404
419.29	67.478
419.64	69.216
420.00	70.781
420.35	67.881
420.71	69.320
421.06	69.368
421.42	68.990
421.77	68.844
422.12	67.764
422.48	69.085
422.83	69.200
423.19	69.695
423.54	69.077
423.90	70.436
424.25	70.207
424.61	71.665
424.96	70.557
425.31	72.386
425.67	71.420
426.02	71.555
426.38	72.636
426.73	72.821
427.09	71.646
427.44	70.529
427.79	73.129
428.15	72.087
428.50	72.441
428.85	71.437
429.21	71.590
429.56	72.776
429.92	71.700
430.27	70.125
430.62	70.622
430.98	72.028
431.33	72.503
431.68	71.324
432.04	72.946
432.39	71.820
432.74	71.858
433.10	72.011
433.45	73.178
433.80	72.780
434.16	73.296
434.51	73.495
434.86	74.158
435.22	73.023
435.57	75.047
435.92	73.533
436.28	73.345
436.63	73.759
436.98	72.596
437.34	73.563
437.69	74.836
438.04	74.644
438.39	73.977
438.75	75.046
439.10	73.797
439.45	75.593
439.81	74.067
440.16	76.900
440.51	76.537
440.86	76.495
441.22	75.339
441.57	76.104
441.92	76.128
442.27	76.275
442.63	76.071
442.98	75.704
443.33	75.570
443.68	74.058
444.03	76.453
444.39	75.357
444.74	77.258
445.09	77.227
445.44	76.410
445.79	77.050
446.15	76.046
446.50	76.206
446.85	77.577
447.20	75.860
447.55	76.786
447.91	76.424
448.26	77.405
448.61	75.590
448.96	78.084
449.31	77.225
449.66	77.062
450.02	77.524
450.37	77.534
450.72	77.262
451.07	77.911
451.42	77.278
451.77	76.130
452.12	76.136
452.47	77.527
452.83	76.973
453.18	76.660
453.53	77.623
453.88	78.203
454.23	76.460
454.58	79.345
454.93	78.544
455.28	76.825
455.63	79.045
455.98	78.833
456.34	77.139
456.69	78.526
457.04	79.332
457.39	77.521
457.74	77.811
458.09	76.162
458.44	77.589
458.79	76.975
459.14	78.032
459.49	79.761
459.84	77.327
460.19	78.519
460.54	79.523
460.89	80.398
461.24	78.820
461.59	79.097
461.94	76.918
462.29	80.458
462.64	80.133
462.99	79.553
463.34	79.972
463.69	78.507
464.04	78.632
464.39	78.593
464.74	77.914
465.09	79.726
465.44	79.458
465.79	76.474
466.14	78.164
466.49	78.551
466.84	78.644
467.19	79.975
467.54	78.799
467.89	81.364
468.24	79.319
468.59	80.825
468.94	80.508
469.29	79.869
469.64	80.178
469.99	83.742
470.34	80.614
470.68	81.506
471.03	82.166
471.38	82.026
471.73	81.653
472.08	81.072
472.43	81.208
472.78	81.014
473.13	81.701
473.48	82.541
473.83	79.514
474.17	81.736
474.52	80.600
474.87	81.576
475.22	81.208
475.57	80.407
475.92	81.624
476.27	81.257
476.61	82.234
476.96	79.978
477.31	81.774
477.66	81.461
478.01	81.864
478.36	81.427
478.70	82.436
479.05	82.967
479.40	81.982
479.75	81.856
480.10	81.260
480.45	82.200
480.79	83.031
481.14	82.684
481.49	81.527
481.84	82.625
482.19	82.273
482.53	81.775
482.88	80.907
483.23	81.286
483.58	82.217
483.92	82.720
484.27	79.717
484.62	81.757
484.97	82.048
485.31	80.564
485.66	77.969
486.01	77.863
486.36	76.348
486.70	76.252
487.05	77.597
487.40	78.387
487.75	80.901
488.09	80.099
488.44	80.296
488.79	82.705
489.13	84.135
489.48	82.428
489.83	82.735
490.17	83.236
490.52	82.309
490.87	80.472
491.22	84.097
491.56	81.736
491.91	81.883
492.26	84.443
492.60	82.917
492.95	85.539
493.30	82.658
493.64	84.971
493.99	83.478
494.34	84.369
494.68	83.524
495.03	82.530
495.37	83.955
495.72	84.048
496.07	85.220
496.41	84.292
496.76	83.418
497.11	82.301
497.45	83.198
497.80	86.428
498.14	83.209
498.49	85.881
498.84	85.030
499.18	85.341
499.53	84.821
499.87	84.874
500.22	84.669
500.56	85.325
500.91	86.094
501.26	83.539
501.60	86.276
501.95	85.104
502.29	85.230
502.64	85.473
502.98	86.285
503.33	84.150
503.67	83.855
504.02	85.924
504.36	86.888
504.71	85.253
505.06	85.455
505.40	86.751
505.75	86.495
506.09	86.265
506.44	87.782
506.78	86.837
507.13	87.539
507.47	86.893
507.82	88.942
508.16	87.480
508.51	87.671
508.85	88.069
509.19	88.930
509.54	89.008
509.88	89.482
510.23	88.757
510.57	89.471
510.92	87.047
511.26	89.471
511.61	89.109
511.95	88.986
512.30	90.078
512.64	89.260
512.98	89.669
513.33	90.263
513.67	89.767
514.02	90.904
514.36	91.429
514.70	91.841
515.05	92.127
515.39	91.913
515.74	95.030
516.08	91.871
516.42	93.345
516.77	93.388
517.11	94.065
517.46	94.734
517.80	92.491
518.14	93.570
518.49	93.149
518.83	94.471
519.17	92.965
519.52	93.014
519.86	93.277
520.20	94.107
520.55	93.871
520.89	95.609
521.23	95.567
521.58	96.404
521.92	96.410
522.26	95.576
522.61	96.753
522.95	97.682
523.29	97.078
523.64	96.125
523.98	98.185
524.32	97.358
524.66	96.735
525.01	97.662
525.35	95.269
525.69	97.037
526.04	97.619
526.38	97.341
526.72	95.487
527.06	96.174
527.41	97.691
527.75	99.062
528.09	96.545
528.43	100.473
528.78	98.152
529.12	98.452
529.46	98.311
529.80	96.010
530.15	98.152
530.49	99.461
530.83	100.821
531.17	98.052
531.51	100.616
531.86	98.776
532.20	99.791
532.54	99.047
532.88	98.973
533.22	97.715
533.57	98.100
533.91	98.238
534.25	99.284
534.59	96.408
534.93	96.287
535.27	96.891
535.62	96.695
535.96	99.804
536.30	98.879
536.64	98.553
536.98	99.721
537.32	100.000
537.66	100.631
538.01	98.811
538.35	100.693
538.69	98.069
539.03	98.565
539.37	99.260
539.71	98.978
540.05	98.439
540.39	98.269
540.73	99.512
541.07	99.171
541.42	96.371
541.76	100.895
542.10	99.931
542.44	99.653
542.78	98.073
543.12	99.863
543.46	98.331
543.80	100.625
544.14	96.195
544.48	97.602
544.82	100.205
545.16	101.366
545.50	97.664
545.84	101.912
546.18	100.355
546.52	101.442
546.86	100.144
547.20	98.641
547.54	100.283
547.88	99.389
548.22	96.515
548.56	98.417
548.90	99.259
549.24	97.107
549.58	99.295
549.92	97.856
550.26	100.513
550.60	102.305
550.94	101.344
551.28	103.168
551.62	102.846
551.96	102.180
552.30	101.827
552.64	100.282
552.98	99.859
553.32	100.143
553.66	101.669
554.00	103.723
554.34	102.363
554.68	100.369
555.02	102.902
555.36	103.740
555.69	101.758
556.03	101.213
556.37	101.139
556.71	102.238
557.05	103.281
557.39	100.743
557.73	101.799
558.07	104.676
558.41	103.599
558.75	103.663
559.08	105.595
559.42	104.683
559.76	105.204
560.10	104.128
560.44	102.681
560.78	100.070
561.12	100.635
561.45	103.443
561.79	103.291
562.13	102.271
562.47	104.676
562.81	103.602
563.15	99.718
563.48	103.819
563.82	103.157
564.16	103.412
564.50	100.878
564.84	99.933
565.17	101.476
565.51	102.801
565.85	103.567
566.19	100.928
566.52	103.552
566.86	103.342
567.20	102.740
567.54	100.426
567.88	101.172
568.21	100.283
568.55	99.348
568.89	97.433
569.23	97.496
569.56	96.454
569.90	96.305
570.24	92.594
570.57	94.364
570.91	94.284
571.25	92.700
571.59	92.059
571.92	90.904
572.26	92.331
572.60	91.566
572.93	91.591
573.27	92.226
573.61	91.229
573.95	91.562
574.28	90.493
574.62	89.677
574.96	89.653
575.29	89.399
575.63	88.158
575.97	90.160
576.30	90.610
576.64	89.854
576.98	90.296
577.31	90.538
577.65	89.450
577.98	89.286
578.32	88.342
578.66	88.502
578.99	89.471
579.33	88.708
579.67	89.099
580.00	90.430
580.34	90.547
580.67	89.837
581.01	89.962
581.35	89.212
581.68	88.349
582.02	88.346
582.35	87.744
582.69	88.450
583.02	89.404
583.36	90.229
583.70	92.082
584.03	93.745
584.37	93.902
584.70	91.841
585.04	90.259
585.37	89.558
585.71	90.348
586.04	90.242
586.38	90.984
586.72	91.966
587.05	93.154
587.39	91.949
587.72	93.029
588.06	91.697
588.39	92.139
588.73	92.979
589.06	94.618
589.40	94.158
589.73	95.400
590.07	95.695
590.40	96.246
590.73	99.217
591.07	95.929
591.40	97.240
591.74	96.787
592.07	97.449
592.41	97.747
592.74	94.186
593.08	91.932
593.41	92.455
593.75	92.345
594.08	92.413
594.41	94.978
594.75	94.885
595.08	94.211
595.42	94.442
595.75	96.620
596.09	98.045
596.42	97.892
596.75	97.114
597.09	96.948
597.42	97.335
597.75	97.984
598.09	96.333
598.42	96.570
598.76	96.225
599.09	94.351
599.42	92.838
599.76	94.131
600.09	94.495
600.42	93.480
600.76	92.942
601.09	94.427
601.42	94.007
601.76	96.110
602.09	95.627
602.42	97.557
602.76	96.307
603.09	96.802
603.42	99.247
603.76	95.484
604.09	96.517
604.42	96.404
604.76	97.864
605.09	95.704
605.42	96.840
605.75	96.804
606.09	96.348
606.42	96.289
606.75	96.623
607.09	96.132
607.42	96.234
607.75	95.915
608.08	96.586
608.42	94.838
608.75	99.470
609.08	99.701
609.41	100.508
609.75	99.294
610.08	98.303
610.41	97.971
610.74	97.708
611.07	101.654
611.41	100.675
611.74	101.333
612.07	98.608
612.40	100.766
612.73	100.904
613.07	100.506
613.40	98.742
613.73	100.672
614.06	100.167
614.39	100.226
614.72	98.655
615.06	100.894
615.39	97.162
615.72	99.139
616.05	100.223
616.38	97.892
616.71	102.202
617.05	101.791
617.38	101.697
617.71	102.956
618.04	104.635
618.37	104.035
618.70	104.752
619.03	107.361
619.36	106.512
619.69	107.430
620.03	107.305
620.36	104.363
620.69	104.640
621.02	105.963
621.35	110.705
621.68	111.139
622.01	109.333
622.34	107.103
622.67	106.151
623.00	103.828
623.33	107.470
623.66	105.460
623.99	105.749
624.32	108.517
624.65	106.015
624.99	108.126
625.32	105.383
625.65	108.720
625.98	108.541
626.31	108.645
626.64	111.785
626.97	112.042
627.30	110.946
627.63	109.705
627.96	111.860
628.29	110.546
628.62	114.848
628.95	112.926
629.28	116.633
629.61	111.665
629.94	113.490
630.26	112.549
630.59	115.921
630.92	114.462
631.25	112.513
