SpectraSuite Data File
++++++++++++++++++++++++++++++++++++
Date: Fri May 15 17:14:14 PDT 2015
User: schluterlab
Dark Spectrum Present: Yes
Reference Spectrum Present: Yes
Number of Sampled Component Spectra: 1
Spectrometers: USB2E3373
Integration Time (usec): 3000 (USB2E3373)
Spectra Averaged: 3 (USB2E3373)
Boxcar Smoothing: 0 (USB2E3373)
Correct for Electrical Dark: No (USB2E3373)
Strobe/Lamp Enabled: No (USB2E3373)
Correct for Detector Non-linearity: No (USB2E3373)
Correct for Stray Light: No (USB2E3373)
Number of Pixels in Processed Spectrum: 2048
>>>>>Begin Processed Spectral Data<<<<<
178.53	0.000
178.91	0.000
179.29	-50.000
179.67	-200.000
180.04	-157.143
180.42	300.000
180.80	0.000
181.18	200.000
181.56	200.000
181.94	350.000
182.31	-500.000
182.69	140.000
183.07	333.333
183.45	-20.000
183.83	33.333
184.20	63.636
184.58	88.889
184.96	-25.000
185.34	-33.333
185.72	-500.000
186.09	38.462
186.47	-700.000
186.85	66.667
187.23	111.111
187.61	-1000.000
187.98	-33.333
188.36	77.778
188.74	-166.667
189.12	76.471
189.49	83.333
189.87	0.000
190.25	64.286
190.63	250.000
191.00	-200.000
191.38	15.789
191.76	350.000
192.14	-0.000
192.51	-100.000
192.89	11.111
193.27	-71.429
193.65	50.000
194.02	118.182
194.40	150.000
194.78	112.500
195.15	-33.333
195.53	-50.000
195.91	125.000
196.29	200.000
196.66	76.923
197.04	14.286
197.42	0.000
197.79	-500.000
198.17	-69.231
198.55	900.000
198.92	0.000
199.30	0.000
199.68	-20.000
200.05	-66.667
200.43	0.000
200.81	233.333
201.18	-33.333
201.56	400.000
201.94	200.000
202.31	-433.333
202.69	-20.000
203.07	50.000
203.44	900.000
203.82	0.000
204.19	121.429
204.57	-666.667
204.95	-25.000
205.32	120.000
205.70	42.857
206.08	125.000
206.45	122.222
206.83	107.143
207.20	14.286
207.58	500.000
207.96	-133.333
208.33	-60.000
208.71	100.000
209.08	-66.667
209.46	-500.000
209.84	-260.000
210.21	-600.000
210.59	28.571
210.96	83.333
211.34	-100.000
211.71	60.000
212.09	-100.000
212.46	100.000
212.84	0.000
213.22	130.000
213.59	250.000
213.97	76.923
214.34	27.273
214.72	-116.667
215.09	425.000
215.47	107.692
215.84	0.000
216.22	-300.000
216.59	137.500
216.97	-150.000
217.34	125.000
217.72	-140.000
218.09	75.000
218.47	175.000
218.84	900.000
219.22	-100.000
219.59	160.000
219.97	33.333
220.34	-0.000
220.72	214.286
221.09	175.000
221.47	300.000
221.84	-450.000
222.22	-400.000
222.59	136.364
222.97	75.000
223.34	-233.333
223.72	-21.429
224.09	28.571
224.46	10.714
224.84	133.333
225.21	40.000
225.59	73.333
225.96	250.000
226.34	-0.000
226.71	57.143
227.08	216.667
227.46	0.000
227.83	500.000
228.21	44.444
228.58	54.545
228.95	-37.500
229.33	60.000
229.70	-12.500
230.08	-62.500
230.45	-114.286
230.82	-42.857
231.20	46.667
231.57	21.429
231.95	28.571
232.32	-10.000
232.69	14.286
233.07	200.000
233.44	-60.000
233.81	-40.000
234.19	122.222
234.56	29.412
234.93	500.000
235.31	100.000
235.68	-100.000
236.05	-92.308
236.43	-45.000
236.80	5.882
237.17	21.875
237.55	0.000
237.92	3.704
238.29	0.000
238.67	30.000
239.04	11.765
239.41	-19.512
239.79	-30.000
240.16	31.707
240.53	-2.632
240.91	-6.522
241.28	-1.587
241.65	17.857
242.02	21.918
242.40	3.333
242.77	10.169
243.14	7.576
243.51	15.000
243.89	16.092
244.26	1.149
244.63	5.952
245.00	6.186
245.38	8.247
245.75	-3.371
246.12	-3.448
246.49	9.917
246.87	0.962
247.24	3.361
247.61	-6.140
247.98	-4.878
248.36	-0.625
248.73	3.947
249.10	1.299
249.47	6.329
249.84	2.614
250.22	4.118
250.59	3.922
250.96	10.798
251.33	-6.395
251.70	2.353
252.08	-0.508
252.45	7.426
252.82	2.513
253.19	3.687
253.56	1.402
253.94	5.856
254.31	5.217
254.68	3.509
255.05	1.181
255.42	2.183
255.79	2.703
256.16	4.280
256.54	7.836
256.91	4.183
257.28	1.115
257.65	1.124
258.02	3.901
258.39	3.030
258.76	1.832
259.14	1.993
259.51	4.207
259.88	1.718
260.25	3.268
260.62	5.208
260.99	1.695
261.36	0.000
261.73	2.532
262.10	3.647
262.47	2.761
262.85	0.627
263.22	-1.231
263.59	0.935
263.96	5.590
264.33	3.030
264.70	1.190
265.07	-1.190
265.44	2.833
265.81	4.237
266.18	4.098
266.55	1.542
266.92	4.145
267.29	2.089
267.66	3.581
268.03	5.236
268.40	1.044
268.77	5.615
269.14	3.357
269.51	3.085
269.88	0.998
270.25	1.786
270.62	-0.244
270.99	2.813
271.36	2.445
271.73	3.052
272.10	2.920
272.47	3.310
272.84	2.228
273.21	3.480
273.58	3.614
273.95	1.144
274.32	0.693
274.69	0.452
275.06	6.696
275.43	1.814
275.80	0.662
276.17	2.299
276.54	2.355
276.91	3.509
277.28	2.183
277.65	3.306
278.02	3.191
278.39	2.626
278.76	2.306
279.13	0.000
279.50	3.571
279.87	2.592
280.23	1.720
280.60	3.509
280.97	1.818
281.34	0.577
281.71	4.723
282.08	0.613
282.45	1.761
282.82	1.737
283.19	2.708
283.56	2.890
283.92	-0.380
284.29	-0.192
284.66	3.101
285.03	2.161
285.40	3.025
285.77	1.054
286.14	3.069
286.51	3.690
286.87	2.559
287.24	1.657
287.61	0.882
287.98	3.509
288.35	3.813
288.72	1.926
289.08	1.042
289.45	2.988
289.82	2.098
290.19	1.024
290.56	2.230
290.93	0.337
291.29	1.387
291.66	2.835
292.03	1.276
292.40	2.258
292.77	0.159
293.13	-1.136
293.50	0.455
293.87	4.580
294.24	3.864
294.60	3.875
294.97	3.869
295.34	0.767
295.71	2.981
296.08	2.691
296.44	-0.569
296.81	3.056
297.18	2.319
297.55	2.846
297.91	2.329
298.28	4.881
298.65	2.442
299.02	1.617
299.38	-1.368
299.75	2.345
300.12	2.356
300.48	2.108
300.85	2.535
301.22	3.117
301.59	1.842
301.95	1.772
302.32	2.594
302.69	1.741
303.05	1.856
303.42	1.245
303.79	3.037
304.15	1.912
304.52	0.476
304.89	1.988
305.25	1.453
305.62	1.167
305.99	-0.117
306.35	1.272
306.72	0.900
307.09	1.824
307.45	1.148
307.82	1.968
308.19	3.368
308.55	2.290
308.92	3.486
309.29	0.894
309.65	0.646
310.02	2.860
310.38	2.195
310.75	2.514
311.12	1.292
311.48	2.757
311.85	2.408
312.22	2.215
312.58	2.123
312.95	2.028
313.31	1.139
313.68	1.990
314.05	3.163
314.41	1.959
314.78	2.062
315.14	3.803
315.51	2.588
315.87	3.893
316.24	3.236
316.61	3.543
316.97	3.671
317.34	3.027
317.70	4.589
318.07	3.846
318.43	5.392
318.80	4.545
319.16	4.590
319.53	5.033
319.89	4.823
320.26	4.757
320.62	5.517
320.99	4.280
321.35	5.653
321.72	7.373
322.08	7.351
322.45	7.310
322.81	7.073
323.18	7.164
323.54	7.529
323.91	8.082
324.27	8.496
324.64	8.895
325.00	9.763
325.37	11.111
325.73	10.879
326.10	10.627
326.46	11.928
326.83	11.899
327.19	12.990
327.56	12.685
327.92	13.204
328.29	13.482
328.65	13.491
329.01	15.074
329.38	14.470
329.74	15.014
330.11	13.253
330.47	14.471
330.84	15.192
331.20	17.015
331.56	15.556
331.93	16.438
332.29	16.407
332.66	16.561
333.02	16.357
333.38	16.957
333.75	16.484
334.11	16.115
334.48	18.042
334.84	17.857
335.20	17.383
335.57	17.770
335.93	17.796
336.29	17.680
336.66	17.530
337.02	17.286
337.38	17.037
337.75	17.364
338.11	18.305
338.47	19.434
338.84	17.930
339.20	18.282
339.56	18.440
339.93	19.069
340.29	18.349
340.65	19.265
341.02	20.745
341.38	18.761
341.74	19.081
342.11	18.284
342.47	19.039
342.83	18.685
343.20	19.425
343.56	18.435
343.92	18.512
344.28	19.812
344.65	18.394
345.01	18.669
345.37	19.512
345.73	20.167
346.10	19.068
346.46	19.933
346.82	20.131
347.19	19.285
347.55	19.967
347.91	20.631
348.27	19.968
348.63	19.676
349.00	19.770
349.36	19.119
349.72	19.900
350.08	20.000
350.45	20.112
350.81	19.435
351.17	19.788
351.53	21.959
351.89	19.488
352.26	19.840
352.62	20.887
352.98	19.518
353.34	20.370
353.70	20.388
354.07	20.000
354.43	20.817
354.79	19.736
355.15	20.952
355.51	21.598
355.87	21.521
356.24	20.962
356.60	21.099
356.96	21.984
357.32	20.927
357.68	20.797
358.04	20.275
358.40	22.267
358.77	23.206
359.13	22.818
359.49	21.032
359.85	21.373
360.21	22.169
360.57	21.806
360.93	23.222
361.29	21.148
361.66	21.708
362.02	22.803
362.38	23.001
362.74	22.332
363.10	23.476
363.46	22.683
363.82	23.591
364.18	23.100
364.54	22.132
364.90	23.656
365.26	23.799
365.62	24.234
365.98	23.021
366.35	23.962
366.71	23.725
367.07	24.746
367.43	22.861
367.79	24.664
368.15	25.054
368.51	25.273
368.87	24.336
369.23	24.477
369.59	24.125
369.95	25.220
370.31	25.939
370.67	25.224
371.03	24.197
371.39	24.581
371.75	25.275
372.11	25.464
372.47	25.592
372.83	26.402
373.19	25.820
373.55	26.209
373.91	26.278
374.27	26.364
374.63	27.279
374.99	27.872
375.35	26.045
375.71	26.923
376.07	28.160
376.42	27.551
376.78	27.785
377.14	28.030
377.50	27.424
377.86	28.179
378.22	28.590
378.58	28.397
378.94	27.473
379.30	27.948
379.66	29.530
380.02	28.878
380.38	28.302
380.74	29.503
381.09	29.018
381.45	29.664
381.81	29.796
382.17	30.266
382.53	29.544
382.89	30.446
383.25	30.492
383.61	30.976
383.97	31.048
384.32	29.831
384.68	30.960
385.04	30.944
385.40	30.865
385.76	31.950
386.12	32.212
386.48	32.439
386.83	31.642
387.19	31.746
387.55	32.560
387.91	32.029
388.27	31.013
388.62	32.096
388.98	32.228
389.34	31.918
389.70	32.940
390.06	32.033
390.42	33.744
390.77	32.309
391.13	32.724
391.49	32.277
391.85	33.463
392.20	33.082
392.56	33.566
392.92	33.412
393.28	32.901
393.64	33.033
393.99	34.608
394.35	33.397
394.71	34.100
395.07	32.872
395.42	34.123
395.78	33.485
396.14	34.048
396.50	34.750
396.85	34.707
397.21	34.524
397.57	35.047
397.92	33.913
398.28	34.368
398.64	33.494
399.00	35.440
399.35	34.199
399.71	35.612
400.07	34.704
400.42	34.639
400.78	35.640
401.14	35.027
401.49	35.021
401.85	35.101
402.21	35.964
402.57	35.562
402.92	34.191
403.28	35.464
403.63	34.931
403.99	35.842
404.35	34.541
404.70	34.286
405.06	34.489
405.42	35.488
405.77	35.154
406.13	34.750
406.49	34.813
406.84	35.697
407.20	35.822
407.55	35.093
407.91	34.693
408.27	35.564
408.62	35.508
408.98	35.490
409.34	35.130
409.69	34.302
410.05	35.099
410.40	35.617
410.76	35.223
411.11	36.125
411.47	36.095
411.83	34.777
412.18	35.457
412.54	35.705
412.89	34.975
413.25	35.259
413.60	35.217
413.96	34.356
414.31	35.427
414.67	35.215
415.03	36.352
415.38	34.791
415.74	35.961
416.09	37.427
416.45	35.854
416.80	35.757
417.16	35.843
417.51	36.176
417.87	35.593
418.22	37.241
418.58	36.656
418.93	37.053
419.29	36.300
419.64	35.969
420.00	38.413
420.35	35.761
420.71	35.844
421.06	37.324
421.42	37.500
421.77	37.861
422.12	37.571
422.48	36.979
422.83	37.181
423.19	37.246
423.54	38.213
423.90	37.927
424.25	39.150
424.61	38.188
424.96	37.224
425.31	39.110
425.67	37.852
426.02	39.282
426.38	38.823
426.73	38.801
427.09	38.734
427.44	39.941
427.79	39.776
428.15	38.835
428.50	39.915
428.85	38.636
429.21	39.559
429.56	40.270
429.92	38.983
430.27	39.549
430.62	39.467
430.98	39.915
431.33	39.274
431.68	39.874
432.04	40.078
432.39	39.133
432.74	39.447
433.10	40.977
433.45	40.920
433.80	41.904
434.16	40.332
434.51	40.645
434.86	40.941
435.22	41.447
435.57	41.734
435.92	40.958
436.28	40.072
436.63	40.559
436.98	41.367
437.34	40.835
437.69	42.039
438.04	41.197
438.39	40.990
438.75	41.773
439.10	41.483
439.45	42.301
439.81	41.040
440.16	42.458
440.51	41.552
440.86	44.290
441.22	41.855
441.57	42.550
441.92	42.235
442.27	43.237
442.63	42.666
442.98	42.102
443.33	41.625
443.68	42.387
444.03	42.772
444.39	41.909
444.74	44.259
445.09	43.263
445.44	42.564
445.79	43.424
446.15	42.731
446.50	42.651
446.85	43.464
447.20	43.066
447.55	42.857
447.91	43.091
448.26	43.654
448.61	42.545
448.96	43.546
449.31	43.121
449.66	43.031
450.02	42.898
450.37	44.102
450.72	43.070
451.07	41.709
451.42	42.135
451.77	42.737
452.12	42.644
452.47	43.529
452.83	43.934
453.18	42.125
453.53	43.363
453.88	42.319
454.23	43.884
454.58	45.151
454.93	42.912
455.28	42.730
455.63	43.149
455.98	43.416
456.34	43.295
456.69	42.503
457.04	43.541
457.39	41.859
457.74	43.289
458.09	41.848
458.44	42.364
458.79	43.081
459.14	42.792
459.49	43.224
459.84	43.486
460.19	42.779
460.54	42.665
460.89	42.102
461.24	45.093
461.59	42.933
461.94	42.013
462.29	43.727
462.64	42.791
462.99	42.519
463.34	41.446
463.69	41.828
464.04	42.918
464.39	42.450
464.74	42.086
465.09	43.107
465.44	42.412
465.79	42.177
466.14	41.049
466.49	41.576
466.84	41.939
467.19	41.176
467.54	40.613
467.89	42.451
468.24	41.971
468.59	42.095
468.94	41.206
469.29	42.820
469.64	41.969
469.99	43.027
470.34	41.911
470.68	41.611
471.03	41.967
471.38	41.155
471.73	41.737
472.08	41.520
472.43	41.141
472.78	40.164
473.13	41.565
473.48	41.889
473.83	41.034
474.17	41.710
474.52	40.587
474.87	41.091
475.22	40.024
475.57	41.107
475.92	40.318
476.27	40.221
476.61	41.088
476.96	39.264
477.31	40.617
477.66	40.169
478.01	39.191
478.36	39.760
478.70	40.457
479.05	40.714
479.40	40.064
479.75	38.530
480.10	40.092
480.45	39.200
480.79	40.131
481.14	39.498
481.49	38.079
481.84	38.996
482.19	38.447
482.53	38.465
482.88	38.377
483.23	38.580
483.58	38.349
483.92	37.754
484.27	37.739
484.62	38.055
484.97	37.604
485.31	37.247
485.66	36.298
486.01	36.653
486.36	36.438
486.70	36.270
487.05	36.498
487.40	37.125
487.75	36.761
488.09	36.372
488.44	37.001
488.79	37.094
489.13	36.619
489.48	36.426
489.83	36.233
490.17	36.090
490.52	35.935
490.87	35.585
491.22	35.912
491.56	36.148
491.91	36.233
492.26	34.954
492.60	35.557
492.95	36.350
493.30	35.320
493.64	36.444
493.99	35.556
494.34	34.951
494.68	34.714
495.03	34.842
495.37	34.249
495.72	34.478
496.07	34.585
496.41	33.868
496.76	34.362
497.11	33.721
497.45	34.654
497.80	34.157
498.14	33.085
498.49	34.688
498.84	33.234
499.18	34.287
499.53	33.681
499.87	32.782
500.22	32.493
500.56	33.938
500.91	32.831
501.26	32.674
501.60	34.284
501.95	32.120
502.29	32.833
502.64	32.625
502.98	32.659
503.33	31.268
503.67	31.084
504.02	32.209
504.36	31.816
504.71	31.414
505.06	32.109
505.40	32.284
505.75	31.804
506.09	31.069
506.44	31.571
506.78	31.173
507.13	31.541
507.47	29.399
507.82	29.968
508.16	29.952
508.51	30.745
508.85	30.246
509.19	30.229
509.54	29.920
509.88	30.043
510.23	31.307
510.57	29.770
510.92	28.145
511.26	30.115
511.61	30.418
511.95	28.822
512.30	28.437
512.64	28.993
512.98	29.309
513.33	29.882
513.67	27.686
514.02	29.348
514.36	29.086
514.70	29.138
515.05	29.201
515.39	28.985
515.74	28.623
516.08	28.571
516.42	28.799
516.77	27.911
517.11	29.080
517.46	28.426
517.80	27.950
518.14	27.495
518.49	27.103
518.83	27.461
519.17	26.137
519.52	26.939
519.86	26.951
520.20	26.974
520.55	26.954
520.89	27.478
521.23	26.409
521.58	27.256
521.92	26.859
522.26	26.936
522.61	27.013
522.95	27.086
523.29	25.985
523.64	26.874
523.98	26.701
524.32	24.807
524.66	26.312
525.01	25.844
525.35	25.924
525.69	25.185
526.04	24.868
526.38	25.811
526.72	24.330
527.06	25.551
527.41	25.198
527.75	25.000
528.09	23.920
528.43	24.578
528.78	24.356
529.12	24.516
529.46	23.912
529.80	23.053
530.15	24.554
530.49	23.502
530.83	24.282
531.17	23.506
531.51	24.008
531.86	23.317
532.20	23.800
532.54	24.302
532.88	23.682
533.22	23.454
533.57	23.198
533.91	22.063
534.25	23.438
534.59	22.130
534.93	22.907
535.27	21.954
535.62	21.905
535.96	21.787
536.30	23.087
536.64	22.192
536.98	22.091
537.32	22.404
537.66	22.861
538.01	21.888
538.35	21.151
538.69	21.904
539.03	21.599
539.37	21.736
539.71	21.745
540.05	21.317
540.39	20.845
540.73	21.897
541.07	21.064
541.42	21.909
541.76	21.335
542.10	20.372
542.44	21.612
542.78	20.165
543.12	19.780
543.46	20.376
543.80	20.056
544.14	20.360
544.48	20.720
544.82	20.301
545.16	21.107
545.50	21.295
545.84	19.901
546.18	20.851
546.52	20.476
546.86	19.554
547.20	20.601
547.54	19.223
547.88	19.293
548.22	19.066
548.56	19.987
548.90	20.418
549.24	19.835
549.58	19.605
549.92	18.227
550.26	19.121
550.60	20.074
550.94	18.895
551.28	18.856
551.62	20.000
551.96	19.323
552.30	18.056
552.64	19.041
552.98	18.987
553.32	18.402
553.66	18.287
554.00	17.518
554.34	18.759
554.68	18.363
555.02	18.378
555.36	18.325
555.69	17.582
556.03	18.201
556.37	17.722
556.71	17.834
557.05	18.046
557.39	16.208
557.73	18.591
558.07	18.627
558.41	17.228
558.75	18.239
559.08	18.440
559.42	17.143
559.76	17.454
560.10	16.284
560.44	17.796
560.78	17.692
561.12	17.419
561.45	17.639
561.79	16.457
562.13	16.678
562.47	16.115
562.81	17.219
563.15	17.489
563.48	17.397
563.82	17.639
564.16	16.922
564.50	16.014
564.84	17.202
565.17	15.694
565.51	15.574
565.85	16.392
566.19	16.114
566.52	17.359
566.86	16.067
567.20	16.127
567.54	16.119
567.88	16.579
568.21	16.968
568.55	14.783
568.89	15.862
569.23	15.744
569.56	15.849
569.90	15.956
570.24	16.040
570.57	15.673
570.91	15.615
571.25	15.291
571.59	14.949
571.92	14.667
572.26	14.976
572.60	15.101
572.93	15.344
573.27	14.953
573.61	14.678
573.95	14.637
574.28	14.221
574.62	14.671
574.96	14.734
575.29	14.690
575.63	13.967
575.97	14.448
576.30	14.394
576.64	14.172
576.98	14.981
577.31	14.500
577.65	14.472
577.98	14.962
578.32	14.536
578.66	14.098
578.99	14.226
579.33	13.965
579.67	13.929
580.00	14.506
580.34	14.279
580.67	13.749
581.01	14.433
581.35	13.889
581.68	14.013
582.02	13.709
582.35	13.909
582.69	14.005
583.02	14.121
583.36	14.549
583.70	14.019
584.03	14.095
584.37	14.427
584.70	14.505
585.04	13.860
585.37	14.029
585.71	13.799
586.04	13.792
586.38	13.364
586.72	13.716
587.05	13.692
587.39	14.006
587.72	13.887
588.06	13.894
588.39	13.842
588.73	13.645
589.06	13.568
589.40	13.619
589.73	14.312
590.07	14.011
590.40	13.738
590.73	14.374
591.07	13.953
591.40	13.491
591.74	14.344
592.07	14.425
592.41	13.825
592.74	13.660
593.08	12.714
593.41	13.278
593.75	13.346
594.08	13.079
594.41	13.464
594.75	13.626
595.08	13.621
595.42	13.397
595.75	12.805
596.09	12.940
596.42	13.270
596.75	13.277
597.09	13.485
597.42	13.686
597.75	13.239
598.09	12.947
598.42	12.951
598.76	12.613
599.09	12.941
599.42	12.997
599.76	12.716
600.09	13.122
600.42	13.116
600.76	12.184
601.09	13.168
601.42	12.534
601.76	12.505
602.09	12.789
602.42	13.437
602.76	12.946
603.09	13.331
603.42	13.043
603.76	12.540
604.09	12.718
604.42	12.817
604.76	13.307
605.09	12.294
605.42	12.686
605.75	12.347
606.09	12.696
606.42	12.510
606.75	12.338
607.09	12.835
607.42	11.830
607.75	12.877
608.08	12.534
608.42	12.471
608.75	12.434
609.08	12.108
609.41	12.741
609.75	12.601
610.08	12.631
610.41	11.981
610.74	11.994
611.07	12.351
611.41	12.714
611.74	12.846
612.07	11.831
612.40	12.090
612.73	12.825
613.07	11.699
613.40	12.637
613.73	11.863
614.06	12.187
614.39	12.972
614.72	11.653
615.06	12.402
615.39	12.445
615.72	11.464
616.05	11.955
616.38	12.080
616.71	11.560
617.05	11.612
617.38	11.314
617.71	12.327
618.04	12.381
618.37	12.673
618.70	11.815
619.03	13.056
619.36	10.781
619.69	12.813
620.03	12.272
620.36	12.732
620.69	12.420
621.02	11.927
621.35	12.116
621.68	12.755
622.01	12.417
622.34	12.450
622.67	12.066
623.00	13.476
623.33	11.662
623.66	11.967
623.99	12.103
624.32	12.471
624.65	11.429
624.99	11.362
625.32	11.600
625.65	12.726
625.98	11.845
626.31	10.640
626.64	12.652
626.97	12.391
627.30	12.084
627.63	12.392
627.96	12.040
628.29	12.118
628.62	12.193
628.95	10.621
629.28	12.399
629.61	12.263
629.94	12.414
630.26	12.549
630.59	12.799
630.92	12.308
631.25	10.359
631.58	9.361
631.91	10.088
632.24	11.353
632.57	12.500
632.90	9.609
633.23	11.647
633.56	11.083
633.89	11.961
634.22	11.605
634.55	10.928
634.88	12.261
635.20	10.641
635.53	10.933
635.86	10.533
636.19	12.678
636.52	10.842
636.85	10.050
637.18	10.063
637.51	12.453
637.83	11.432
638.16	13.506
638.49	9.946
