SpectraSuite Data File
++++++++++++++++++++++++++++++++++++
Date: Fri May 15 20:03:24 PDT 2015
User: schluterlab
Dark Spectrum Present: Yes
Reference Spectrum Present: Yes
Number of Sampled Component Spectra: 1
Spectrometers: USB2E3373
Integration Time (usec): 3000 (USB2E3373)
Spectra Averaged: 3 (USB2E3373)
Boxcar Smoothing: 0 (USB2E3373)
Correct for Electrical Dark: No (USB2E3373)
Strobe/Lamp Enabled: No (USB2E3373)
Correct for Detector Non-linearity: No (USB2E3373)
Correct for Stray Light: No (USB2E3373)
Number of Pixels in Processed Spectrum: 2048
>>>>>Begin Processed Spectral Data<<<<<
178.53	0.000
178.91	0.000
179.29	150.000
179.67	-400.000
180.04	42.857
180.42	250.000
180.80	200.000
181.18	-33.333
181.56	200.000
181.94	-350.000
182.31	100.000
182.69	100.000
183.07	-233.333
183.45	40.000
183.83	100.000
184.20	-45.455
184.58	77.778
184.96	125.000
185.34	-33.333
185.72	500.000
186.09	92.308
186.47	300.000
186.85	100.000
187.23	-0.000
187.61	-500.000
187.98	66.667
188.36	0.000
188.74	166.667
189.12	70.588
189.49	55.556
189.87	0.000
190.25	50.000
190.63	50.000
191.00	-100.000
191.38	10.526
191.76	100.000
192.14	150.000
192.51	350.000
192.89	155.556
193.27	-142.857
193.65	116.667
194.02	72.727
194.40	-20.000
194.78	-100.000
195.15	83.333
195.53	-25.000
195.91	300.000
196.29	175.000
196.66	76.923
197.04	-28.571
197.42	-77.778
197.79	-733.333
198.17	-130.769
198.55	400.000
198.92	-66.667
199.30	-200.000
199.68	-40.000
200.05	-100.000
200.43	0.000
200.81	-33.333
201.18	66.667
201.56	500.000
201.94	100.000
202.31	-100.000
202.69	-40.000
203.07	75.000
203.44	300.000
203.82	0.000
204.19	71.429
204.57	-133.333
204.95	125.000
205.32	20.000
205.70	42.857
206.08	-150.000
206.45	144.444
206.83	64.286
207.20	-100.000
207.58	-700.000
207.96	66.667
208.33	-100.000
208.71	125.000
209.08	-266.667
209.46	400.000
209.84	-40.000
210.21	100.000
210.59	14.286
210.96	0.000
211.34	50.000
211.71	53.333
212.09	-128.571
212.46	-1600.000
212.84	0.000
213.22	80.000
213.59	350.000
213.97	23.077
214.34	54.545
214.72	-50.000
215.09	275.000
215.47	7.692
215.84	-27.273
216.22	-66.667
216.59	-25.000
216.97	300.000
217.34	-150.000
217.72	-220.000
218.09	37.500
218.47	87.500
218.84	-700.000
219.22	-88.889
219.59	-140.000
219.97	-0.000
220.34	100.000
220.72	28.571
221.09	-225.000
221.47	400.000
221.84	-450.000
222.22	-300.000
222.59	90.909
222.97	66.667
223.34	66.667
223.72	-14.286
224.09	28.571
224.46	46.429
224.84	200.000
225.21	50.000
225.59	33.333
225.96	-50.000
226.34	300.000
226.71	71.429
227.08	33.333
227.46	-62.500
227.83	-400.000
228.21	22.222
228.58	-18.182
228.95	125.000
229.33	40.000
229.70	25.000
230.08	-200.000
230.45	-128.571
230.82	100.000
231.20	-33.333
231.57	64.286
231.95	57.143
232.32	-100.000
232.69	78.571
233.07	200.000
233.44	-80.000
233.81	130.000
234.19	133.333
234.56	41.176
234.93	750.000
235.31	-100.000
235.68	-180.000
236.05	-53.846
236.43	0.000
236.80	29.412
237.17	12.500
237.55	5.000
237.92	-33.333
238.29	11.111
238.67	10.000
239.04	0.000
239.41	-17.073
239.79	13.333
240.16	21.951
240.53	18.421
240.91	21.739
241.28	20.635
241.65	23.214
242.02	23.288
242.40	26.667
242.77	13.559
243.14	22.727
243.51	7.500
243.89	20.690
244.26	9.195
244.63	23.810
245.00	9.278
245.38	17.526
245.75	-1.124
246.12	6.034
246.49	9.917
246.87	3.846
247.24	1.681
247.61	5.263
247.98	6.504
248.36	9.375
248.73	9.868
249.10	8.442
249.47	19.620
249.84	3.268
250.22	8.235
250.59	8.497
250.96	14.085
251.33	6.977
251.70	11.176
252.08	7.614
252.45	3.465
252.82	7.035
253.19	11.060
253.56	7.944
253.94	13.964
254.31	9.130
254.68	6.579
255.05	5.906
255.42	5.677
255.79	11.197
256.16	8.560
256.54	14.552
256.91	7.224
257.28	9.665
257.65	6.742
258.02	6.028
258.39	9.428
258.76	11.355
259.14	8.970
259.51	12.945
259.88	10.653
260.25	7.190
260.62	9.375
260.99	5.763
261.36	5.137
261.73	8.228
262.10	8.815
262.47	11.043
262.85	5.643
263.22	10.462
263.59	9.346
263.96	9.006
264.33	14.242
264.70	7.143
265.07	5.357
265.44	9.632
265.81	10.734
266.18	9.563
266.55	11.825
266.92	8.031
267.29	10.444
267.66	7.928
268.03	9.424
268.40	8.355
268.77	11.230
269.14	8.633
269.51	9.512
269.88	9.227
270.25	7.653
270.62	6.829
270.99	8.440
271.36	7.579
271.73	9.624
272.10	7.056
272.47	7.329
272.84	8.663
273.21	11.137
273.58	11.566
273.95	7.780
274.32	6.928
274.69	6.787
275.06	9.152
275.43	8.617
275.80	9.051
276.17	6.437
276.54	8.137
276.91	8.772
277.28	8.734
277.65	10.537
278.02	8.723
278.39	9.409
278.76	9.644
279.13	3.734
279.50	9.034
279.87	8.423
280.23	5.161
280.60	10.331
280.97	7.071
281.34	6.923
281.71	9.856
282.08	7.362
282.45	7.632
282.82	8.301
283.19	10.058
283.56	6.744
283.92	5.503
284.29	7.308
284.66	6.977
285.03	7.269
285.40	8.696
285.77	7.206
286.14	8.303
286.51	9.410
286.87	8.227
287.24	8.471
287.61	6.702
287.98	9.298
288.35	8.319
288.72	7.531
289.08	7.812
289.45	8.436
289.82	9.965
290.19	6.655
290.56	6.003
290.93	7.071
291.29	7.396
291.66	8.346
292.03	6.699
292.40	6.613
292.77	6.539
293.13	5.195
293.50	6.677
293.87	7.634
294.24	8.346
294.60	8.197
294.97	7.887
295.34	5.982
295.71	7.004
296.08	7.025
296.44	5.548
296.81	7.917
297.18	7.101
297.55	10.298
297.91	6.712
298.28	7.388
298.65	6.784
299.02	6.739
299.38	5.746
299.75	6.207
300.12	6.414
300.48	5.270
300.85	6.210
301.22	6.753
301.59	4.737
301.95	6.456
302.32	7.393
302.69	6.468
303.05	3.960
303.42	5.978
303.79	7.126
304.15	7.168
304.52	6.421
304.89	4.444
305.25	6.053
305.62	5.134
305.99	6.316
306.35	6.821
306.72	5.849
307.09	5.929
307.45	5.970
307.82	5.208
308.19	7.549
308.55	7.197
308.92	6.536
309.29	5.363
309.65	6.566
310.02	6.271
310.38	5.928
310.75	6.776
311.12	5.274
311.48	6.151
311.85	5.969
312.22	6.224
312.58	6.582
312.95	5.123
313.31	4.348
313.68	5.969
314.05	5.612
314.41	7.113
314.78	6.289
315.14	8.016
315.51	8.075
315.87	6.250
316.24	7.583
316.61	7.185
316.97	7.440
317.34	6.250
317.70	6.501
318.07	6.538
318.43	7.549
318.80	7.765
319.16	8.105
319.53	8.832
319.89	7.087
320.26	8.907
320.62	9.228
320.99	7.307
321.35	7.091
321.72	9.034
322.08	9.265
322.45	8.832
322.81	9.332
323.18	8.243
323.54	9.749
323.91	10.613
324.27	9.863
324.64	10.112
325.00	10.675
325.37	10.744
325.73	10.789
326.10	10.445
326.46	12.377
326.83	12.073
327.19	11.421
327.56	12.858
327.92	12.940
328.29	10.804
328.65	13.491
329.01	13.695
329.38	13.364
329.74	13.220
330.11	14.180
330.47	14.471
330.84	13.462
331.20	15.304
331.56	13.056
331.93	14.977
332.29	15.490
332.66	15.837
333.02	15.706
333.38	14.482
333.75	17.491
334.11	14.145
334.48	15.775
334.84	16.667
335.20	15.462
335.57	14.687
335.93	15.266
336.29	16.298
336.66	16.258
337.02	14.312
337.38	15.370
337.75	16.909
338.11	16.231
338.47	15.967
338.84	17.190
339.20	15.539
339.56	16.514
339.93	16.562
340.29	17.890
340.65	16.039
341.02	16.755
341.38	15.044
341.74	15.548
342.11	16.031
342.47	16.281
342.83	16.696
343.20	16.725
343.56	16.087
343.92	16.475
344.28	17.079
344.65	15.976
345.01	15.557
345.37	16.653
345.73	16.820
346.10	16.048
346.46	16.569
346.82	16.367
347.19	15.046
347.55	17.043
347.91	16.505
348.27	17.704
348.63	17.291
349.00	17.145
349.36	16.708
349.72	17.828
350.08	16.885
350.45	17.398
350.81	15.947
351.17	16.857
351.53	17.061
351.89	15.772
352.26	16.640
352.62	17.258
352.98	16.145
353.34	15.459
353.70	18.123
354.07	15.968
354.43	17.214
354.79	16.185
355.15	17.302
355.51	17.801
355.87	17.233
356.24	17.781
356.60	16.572
356.96	18.889
357.32	17.173
357.68	16.419
358.04	16.559
358.40	17.042
358.77	16.986
359.13	16.173
359.49	16.795
359.85	18.565
360.21	17.145
360.57	16.526
360.93	17.852
361.29	17.145
361.66	17.241
362.02	17.955
362.38	18.279
362.74	17.260
363.10	18.585
363.46	17.643
363.82	19.083
364.18	17.712
364.54	18.897
364.90	17.849
365.26	19.068
365.62	18.248
365.98	17.742
366.35	18.864
366.71	18.773
367.07	18.070
367.43	18.907
367.79	19.081
368.15	18.880
368.51	18.718
368.87	16.870
369.23	17.545
369.59	18.732
369.95	19.575
370.31	19.798
370.67	18.806
371.03	17.924
371.39	18.527
371.75	18.168
372.11	18.117
372.47	18.861
372.83	18.524
373.19	19.615
373.55	17.617
373.91	19.078
374.27	18.852
374.63	20.316
374.99	18.652
375.35	19.916
375.71	19.301
376.07	19.522
376.42	20.544
376.78	19.128
377.14	19.499
377.50	20.053
377.86	19.813
378.22	19.145
378.58	19.872
378.94	19.975
379.30	20.150
379.66	20.502
380.02	19.988
380.38	20.329
380.74	19.689
381.09	20.613
381.45	19.450
381.81	19.494
382.17	21.193
382.53	19.363
382.89	19.837
383.25	21.033
383.61	20.671
383.97	20.571
384.32	19.762
384.68	20.310
385.04	20.711
385.40	19.975
385.76	20.629
386.12	21.539
386.48	22.095
386.83	20.609
387.19	21.978
387.55	21.518
387.91	21.394
388.27	21.001
388.62	20.831
388.98	21.179
389.34	22.236
389.70	21.442
390.06	20.076
390.42	21.179
390.77	20.863
391.13	20.807
391.49	21.863
391.85	21.378
392.20	20.967
392.56	20.852
392.92	21.374
393.28	20.755
393.64	21.321
393.99	22.571
394.35	22.138
394.71	21.328
395.07	21.370
395.42	21.736
395.78	22.020
396.14	21.753
396.50	21.877
396.85	21.185
397.21	21.679
397.57	21.129
397.92	21.450
398.28	21.322
398.64	21.145
399.00	22.235
399.35	20.316
399.71	20.678
400.07	22.551
400.42	21.603
400.78	22.413
401.14	21.416
401.49	21.739
401.85	21.328
402.21	21.386
402.57	21.188
402.92	20.828
403.28	21.554
403.63	22.005
403.99	20.536
404.35	21.299
404.70	21.250
405.06	20.447
405.42	20.510
405.77	20.105
406.13	20.256
406.49	20.663
406.84	21.149
407.20	20.650
407.55	19.317
407.91	20.521
408.27	20.586
408.62	21.600
408.98	21.134
409.34	20.446
409.69	20.026
410.05	20.074
410.40	20.556
410.76	21.291
411.11	20.938
411.47	20.776
411.83	20.716
412.18	20.978
412.54	20.662
412.89	19.704
413.25	20.758
413.60	19.938
413.96	20.307
414.31	20.793
414.67	19.371
415.03	20.573
415.38	20.627
415.74	20.977
416.09	20.379
416.45	21.269
416.80	20.952
417.16	21.340
417.51	20.853
417.87	22.229
418.22	21.438
418.58	20.803
418.93	22.006
419.29	20.359
419.64	21.322
420.00	22.040
420.35	21.075
420.71	21.446
421.06	21.486
421.42	21.575
421.77	21.272
422.12	21.226
422.48	21.224
422.83	21.636
423.19	22.122
423.54	21.282
423.90	21.731
424.25	22.388
424.61	22.277
424.96	21.777
425.31	23.224
425.67	22.418
426.02	22.556
426.38	23.669
426.73	23.002
427.09	23.544
427.44	23.235
427.79	23.159
428.15	23.240
428.50	23.743
428.85	22.789
429.21	23.373
429.56	23.720
429.92	23.883
430.27	23.409
430.62	22.844
430.98	23.248
431.33	23.554
431.68	22.711
432.04	24.092
432.39	24.073
432.74	23.632
433.10	24.943
433.45	24.373
433.80	23.854
434.16	23.934
434.51	24.462
434.86	25.145
435.22	24.117
435.57	24.579
435.92	25.689
436.28	24.091
436.63	24.130
436.98	23.812
437.34	24.985
437.69	24.270
438.04	24.900
438.39	24.557
438.75	24.529
439.10	24.278
439.45	25.259
439.81	24.771
440.16	25.416
440.51	25.970
440.86	26.344
441.22	26.357
441.57	25.497
441.92	25.656
442.27	25.998
442.63	26.767
442.98	25.503
443.33	25.710
443.68	25.040
444.03	25.931
444.39	26.168
444.74	26.812
445.09	26.726
445.44	26.211
445.79	27.540
446.15	26.597
446.50	26.068
446.85	26.780
447.20	26.382
447.55	27.511
447.91	27.637
448.26	27.604
448.61	26.828
448.96	26.563
449.31	26.647
449.66	26.887
450.02	26.754
450.37	27.327
450.72	26.747
451.07	27.975
451.42	27.403
451.77	26.703
452.12	26.435
452.47	27.044
452.83	27.326
453.18	26.882
453.53	27.370
453.88	28.051
454.23	27.167
454.58	27.582
454.93	28.415
455.28	26.413
455.63	28.084
455.98	27.420
456.34	28.225
456.69	27.764
457.04	27.221
457.39	27.400
457.74	26.663
458.09	27.016
458.44	27.033
458.79	27.563
459.14	28.432
459.49	28.537
459.84	28.088
460.19	28.034
460.54	27.934
460.89	28.409
461.24	28.447
461.59	28.207
461.94	26.918
462.29	28.709
462.64	29.169
462.99	29.452
463.34	28.234
463.69	27.992
464.04	28.208
464.39	27.956
464.74	27.423
465.09	28.197
465.44	28.563
465.79	28.005
466.14	28.506
466.49	28.580
466.84	28.911
467.19	28.598
467.54	28.799
467.89	28.364
468.24	28.406
468.59	29.587
468.94	29.079
469.29	29.508
469.64	29.597
469.99	29.923
470.34	28.601
470.68	29.828
471.03	29.936
471.38	30.456
471.73	30.112
472.08	28.290
472.43	29.463
472.78	28.924
473.13	29.660
473.48	29.186
473.83	29.328
474.17	30.505
474.52	29.547
474.87	29.636
475.22	29.957
475.57	29.249
475.92	29.896
476.27	30.093
476.61	30.382
476.96	29.671
477.31	30.178
477.66	31.236
478.01	29.702
478.36	29.739
478.70	29.744
479.05	30.604
479.40	30.684
479.75	29.771
480.10	30.056
480.45	30.000
480.79	30.514
481.14	30.943
481.49	30.345
481.84	30.936
482.19	30.402
482.53	29.592
482.88	30.406
483.23	30.854
483.58	30.425
483.92	29.961
484.27	30.401
484.62	30.838
484.97	29.602
485.31	29.877
485.66	29.070
486.01	28.462
486.36	28.576
486.70	29.207
487.05	29.975
487.40	29.835
487.75	29.859
488.09	30.099
488.44	30.536
488.79	31.266
489.13	30.889
489.48	30.355
489.83	30.762
490.17	30.742
490.52	31.039
490.87	31.282
491.22	32.139
491.56	31.452
491.91	30.880
492.26	31.794
492.60	31.334
492.95	32.071
493.30	31.265
493.64	31.139
493.99	30.966
494.34	30.097
494.68	30.762
495.03	30.803
495.37	31.403
495.72	32.307
496.07	31.659
496.41	30.896
496.76	31.046
497.11	31.020
497.45	31.360
497.80	31.837
498.14	31.297
498.49	31.386
498.84	31.387
499.18	32.129
499.53	31.944
499.87	30.934
500.22	31.306
500.56	32.022
500.91	31.325
501.26	31.686
501.60	31.530
501.95	32.557
502.29	31.913
502.64	33.156
502.98	32.758
503.33	30.980
503.67	33.012
504.02	32.649
504.36	32.311
504.71	32.677
505.06	32.562
505.40	33.553
505.75	33.505
506.09	32.590
506.44	33.522
506.78	32.653
507.13	33.195
507.47	33.316
507.82	33.173
508.16	33.228
508.51	33.421
508.85	34.014
509.19	32.624
509.54	34.155
509.88	34.035
510.23	33.782
510.57	34.099
510.92	32.516
511.26	34.315
511.61	34.763
511.95	33.973
512.30	34.756
512.64	34.446
512.98	34.531
513.33	35.814
513.67	34.736
514.02	34.268
514.36	35.029
514.70	36.072
515.05	36.016
515.39	35.360
515.74	36.527
516.08	36.282
516.42	36.337
516.77	37.390
517.11	36.558
517.46	36.266
517.80	36.234
518.14	36.252
518.49	36.118
518.83	36.209
519.17	36.689
519.52	35.820
519.86	37.155
520.20	36.695
520.55	36.836
520.89	37.327
521.23	36.605
521.58	38.233
521.92	37.821
522.26	37.476
522.61	38.312
522.95	39.536
523.29	38.501
523.64	38.374
523.98	38.561
524.32	37.436
524.66	38.860
525.01	39.675
525.35	38.626
525.69	38.249
526.04	38.095
526.38	39.818
526.72	38.129
527.06	38.651
527.41	37.995
527.75	37.668
528.09	39.203
528.43	39.703
528.78	38.548
529.12	37.742
529.46	38.791
529.80	39.139
530.15	40.264
530.49	38.721
530.83	38.919
531.17	39.490
531.51	40.082
531.86	39.361
532.20	38.761
532.54	39.551
532.88	39.151
533.22	39.113
533.57	38.598
533.91	39.099
534.25	39.323
534.59	37.973
534.93	38.137
535.27	38.325
535.62	39.987
535.96	40.509
536.30	39.908
536.64	39.628
536.98	39.791
537.32	38.834
537.66	40.393
538.01	40.420
538.35	39.667
538.69	39.414
539.03	38.688
539.37	39.031
539.71	38.718
540.05	39.579
540.39	39.474
540.73	40.237
541.07	39.019
541.42	40.524
541.76	40.606
542.10	39.504
542.44	38.707
542.78	38.472
543.12	39.080
543.46	40.821
543.80	41.152
544.14	38.184
544.48	40.640
544.82	39.986
545.16	40.301
545.50	38.919
545.84	40.227
546.18	40.567
546.52	40.087
546.86	40.043
547.20	40.057
547.54	39.223
547.88	40.149
548.22	39.776
548.56	40.435
548.90	40.499
549.24	39.945
549.58	40.480
549.92	40.529
550.26	40.220
550.60	41.190
550.94	41.524
551.28	40.185
551.62	41.385
551.96	40.376
552.30	40.278
552.64	38.928
552.98	40.928
553.32	40.728
553.66	40.276
554.00	41.533
554.34	41.950
554.68	40.192
555.02	40.997
555.36	40.389
555.69	40.806
556.03	41.185
556.37	40.427
556.71	41.877
557.05	40.492
557.39	39.331
557.73	39.955
558.07	41.855
558.41	41.271
558.75	40.608
559.08	41.686
559.42	42.619
559.76	42.034
560.10	41.437
560.44	40.804
560.78	41.189
561.12	40.197
561.45	41.883
561.79	42.367
562.13	41.661
562.47	41.655
562.81	41.354
563.15	40.550
563.48	41.655
563.82	42.485
564.16	40.390
564.50	41.014
564.84	41.165
565.17	39.973
565.51	41.667
565.85	41.495
566.19	41.379
566.52	41.354
566.86	42.159
567.20	40.037
567.54	40.876
567.88	41.183
568.21	41.063
568.55	39.620
568.89	39.220
569.23	41.069
569.56	38.398
569.90	38.652
570.24	37.998
570.57	38.509
570.91	37.957
571.25	37.948
571.59	37.465
571.92	36.030
572.26	37.349
572.60	36.496
572.93	37.527
573.27	36.959
573.61	37.112
573.95	37.111
574.28	36.520
574.62	36.435
574.96	36.250
575.29	36.547
575.63	35.450
575.97	36.514
576.30	36.267
576.64	36.344
576.98	36.577
577.31	36.643
577.65	36.330
577.98	36.179
578.32	35.725
578.66	36.235
578.99	35.751
579.33	36.223
579.67	36.134
580.00	36.658
580.34	37.015
580.67	36.029
581.01	36.936
581.35	35.810
581.68	35.603
582.02	36.208
582.35	35.747
582.69	36.171
583.02	36.360
583.36	36.764
583.70	37.513
584.03	38.115
584.37	38.453
584.70	37.747
585.04	36.580
585.37	36.413
585.71	37.201
586.04	37.015
586.38	36.570
586.72	37.245
587.05	37.897
587.39	38.049
587.72	37.835
588.06	37.642
588.39	37.397
588.73	37.729
589.06	38.813
589.40	37.850
589.73	39.029
590.07	38.708
590.40	39.358
590.73	39.209
591.07	39.652
591.40	38.023
591.74	39.638
592.07	39.657
592.41	39.399
592.74	38.471
593.08	37.862
593.41	38.386
593.75	38.011
594.08	37.521
594.41	38.574
594.75	38.130
595.08	37.647
595.42	38.903
595.75	39.166
596.09	39.758
596.42	40.389
596.75	40.098
597.09	40.091
597.42	39.295
597.75	40.632
598.09	39.339
598.42	39.982
598.76	39.382
599.09	38.181
599.42	38.083
599.76	38.412
600.09	38.198
600.42	37.604
600.76	38.224
601.09	38.244
601.42	37.564
601.76	38.984
602.09	38.861
602.42	39.553
602.76	39.092
603.09	39.369
603.42	39.716
603.76	39.395
604.09	39.611
604.42	38.790
604.76	39.608
605.09	39.442
605.42	40.271
605.75	39.405
606.09	39.108
606.42	38.407
606.75	38.874
607.09	39.824
607.42	39.876
607.75	38.721
608.08	38.679
608.42	38.968
608.75	40.193
609.08	40.309
609.41	41.015
609.75	40.020
610.08	39.990
610.41	39.372
610.74	39.883
611.07	41.085
611.41	40.426
611.74	40.832
612.07	39.882
612.40	40.317
612.73	40.395
613.07	39.989
613.40	39.661
613.73	40.683
614.06	39.789
614.39	40.778
614.72	40.280
615.06	40.503
615.39	39.738
615.72	39.935
616.05	41.006
616.38	39.145
616.71	40.061
617.05	41.322
617.38	40.352
617.71	40.755
618.04	41.714
618.37	41.110
618.70	42.178
619.03	40.903
619.36	40.883
619.69	42.532
620.03	43.243
620.36	43.133
620.69	42.184
621.02	41.131
621.35	44.232
621.68	43.707
622.01	43.000
622.34	42.458
622.67	42.508
623.00	42.573
623.33	41.311
623.66	42.857
623.99	40.998
624.32	44.563
624.65	40.752
624.99	42.438
625.32	41.698
625.65	44.540
625.98	43.030
626.31	41.895
626.64	44.801
626.97	45.026
627.30	43.520
627.63	43.761
627.96	43.306
628.29	43.663
628.62	45.231
628.95	45.090
629.28	45.363
629.61	44.367
629.94	45.161
630.26	45.455
630.59	46.722
630.92	46.359
631.25	42.974
631.58	46.806
631.91	45.614
632.24	47.248
632.57	46.250
632.90	45.314
633.23	45.765
633.56	47.355
633.89	47.102
634.22	48.025
634.55	47.395
634.88	46.105
635.20	47.436
635.53	47.600
635.86	45.124
636.19	46.701
636.52	46.939
636.85	45.533
637.18	44.906
637.51	46.415
637.83	47.569
638.16	49.659
