SpectraSuite Data File
++++++++++++++++++++++++++++++++++++
Date: Fri May 15 17:05:10 PDT 2015
User: schluterlab
Dark Spectrum Present: Yes
Reference Spectrum Present: Yes
Number of Sampled Component Spectra: 1
Spectrometers: USB2E3373
Integration Time (usec): 3000 (USB2E3373)
Spectra Averaged: 3 (USB2E3373)
Boxcar Smoothing: 0 (USB2E3373)
Correct for Electrical Dark: No (USB2E3373)
Strobe/Lamp Enabled: No (USB2E3373)
Correct for Detector Non-linearity: No (USB2E3373)
Correct for Stray Light: No (USB2E3373)
Number of Pixels in Processed Spectrum: 2048
>>>>>Begin Processed Spectral Data<<<<<
178.53	0.000
178.91	0.000
179.29	150.000
179.67	-50.000
180.04	-171.429
180.42	50.000
180.80	900.000
181.18	-300.000
181.56	-50.000
181.94	150.000
182.31	-100.000
182.69	80.000
183.07	-33.333
183.45	-80.000
183.83	-200.000
184.20	0.000
184.58	55.556
184.96	-225.000
185.34	-133.333
185.72	-300.000
186.09	38.462
186.47	600.000
186.85	16.667
187.23	55.556
187.61	-200.000
187.98	-233.333
188.36	44.444
188.74	-33.333
189.12	94.118
189.49	44.444
189.87	0.000
190.25	42.857
190.63	300.000
191.00	200.000
191.38	26.316
191.76	800.000
192.14	-325.000
192.51	500.000
192.89	33.333
193.27	-14.286
193.65	16.667
194.02	81.818
194.40	-20.000
194.78	-100.000
195.15	8.333
195.53	-12.500
195.91	-75.000
196.29	-75.000
196.66	-30.769
197.04	-57.143
197.42	22.222
197.79	-33.333
198.17	-46.154
198.55	1100.000
198.92	0.000
199.30	1500.000
199.68	0.000
200.05	133.333
200.43	0.000
200.81	266.667
201.18	100.000
201.56	300.000
201.94	-50.000
202.31	-300.000
202.69	0.000
203.07	50.000
203.44	1500.000
203.82	0.000
204.19	107.143
204.57	100.000
204.95	-12.500
205.32	-10.000
205.70	128.571
206.08	125.000
206.45	222.222
206.83	78.571
207.20	-14.286
207.58	-700.000
207.96	333.333
208.33	0.000
208.71	225.000
209.08	33.333
209.46	-900.000
209.84	-120.000
210.21	-100.000
210.59	114.286
210.96	116.667
211.34	225.000
211.71	93.333
212.09	-57.143
212.46	-900.000
212.84	0.000
213.22	110.000
213.59	700.000
213.97	92.308
214.34	100.000
214.72	50.000
215.09	225.000
215.47	-7.692
215.84	36.364
216.22	0.000
216.59	100.000
216.97	650.000
217.34	125.000
217.72	120.000
218.09	112.500
218.47	12.500
218.84	800.000
219.22	-22.222
219.59	-100.000
219.97	-100.000
220.34	125.000
220.72	128.571
221.09	100.000
221.47	150.000
221.84	-200.000
222.22	-550.000
222.59	109.091
222.97	58.333
223.34	33.333
223.72	28.571
224.09	33.333
224.46	42.857
224.84	100.000
225.21	160.000
225.59	80.000
225.96	50.000
226.34	-75.000
226.71	114.286
227.08	50.000
227.46	-12.500
227.83	-150.000
228.21	111.111
228.58	54.545
228.95	50.000
229.33	-30.000
229.70	75.000
230.08	-100.000
230.45	-57.143
230.82	171.429
231.20	-20.000
231.57	50.000
231.95	157.143
232.32	0.000
232.69	71.429
233.07	400.000
233.44	140.000
233.81	30.000
234.19	88.889
234.56	-23.529
234.93	350.000
235.31	175.000
235.68	-120.000
236.05	-7.692
236.43	-25.000
236.80	29.412
237.17	50.000
237.55	55.000
237.92	11.111
238.29	58.333
238.67	6.667
239.04	44.118
239.41	4.878
239.79	16.667
240.16	34.146
240.53	28.947
240.91	10.870
241.28	14.286
241.65	19.643
242.02	43.836
242.40	16.667
242.77	16.949
243.14	1.515
243.51	21.250
243.89	18.391
244.26	16.092
244.63	10.714
245.00	18.557
245.38	24.742
245.75	14.607
246.12	17.241
246.49	21.488
246.87	12.500
247.24	13.445
247.61	13.158
247.98	21.138
248.36	21.875
248.73	18.421
249.10	20.130
249.47	21.519
249.84	18.954
250.22	17.647
250.59	19.608
250.96	19.718
251.33	18.605
251.70	21.765
252.08	26.396
252.45	18.812
252.82	18.593
253.19	10.138
253.56	15.888
253.94	19.820
254.31	20.435
254.68	21.930
255.05	14.173
255.42	20.524
255.79	20.463
256.16	17.510
256.54	21.269
256.91	17.490
257.28	16.729
257.65	16.479
258.02	14.894
258.39	18.182
258.76	18.681
259.14	18.605
259.51	17.799
259.88	19.244
260.25	16.340
260.62	20.486
260.99	16.949
261.36	16.096
261.73	16.139
262.10	18.845
262.47	17.178
262.85	15.987
263.22	15.077
263.59	14.330
263.96	19.565
264.33	16.667
264.70	17.560
265.07	19.048
265.44	17.564
265.81	19.209
266.18	17.486
266.55	18.252
266.92	18.394
267.29	19.060
267.66	14.834
268.03	16.492
268.40	13.838
268.77	21.658
269.14	17.746
269.51	16.452
269.88	15.212
270.25	15.816
270.62	18.293
270.99	16.368
271.36	16.381
271.73	17.136
272.10	17.032
272.47	15.839
272.84	16.337
273.21	16.241
273.58	14.699
273.95	16.705
274.32	12.240
274.69	13.575
275.06	17.634
275.43	16.553
275.80	15.453
276.17	16.552
276.54	14.989
276.91	15.570
277.28	14.192
277.65	16.322
278.02	16.596
278.39	17.287
278.76	15.514
279.13	14.938
279.50	16.597
279.87	17.495
280.23	15.269
280.60	19.493
280.97	15.354
281.34	14.231
281.71	18.480
282.08	13.497
282.45	13.894
282.82	15.444
283.19	15.474
283.56	16.570
283.92	14.042
284.29	14.038
284.66	11.822
285.03	14.145
285.40	13.800
285.77	13.181
286.14	14.440
286.51	13.653
286.87	14.808
287.24	13.628
287.61	13.757
287.98	14.035
288.35	13.345
288.72	16.112
289.08	13.021
289.45	16.344
289.82	13.811
290.19	13.140
290.56	12.693
290.93	12.458
291.29	13.405
291.66	14.016
292.03	13.078
292.40	14.677
292.77	12.759
293.13	11.526
293.50	11.836
293.87	12.519
294.24	12.365
294.60	14.605
294.97	14.435
295.34	12.423
295.71	12.519
296.08	13.154
296.44	9.246
296.81	11.389
297.18	12.029
297.55	12.737
297.91	12.466
298.28	12.797
298.65	10.855
299.02	10.647
299.38	10.123
299.75	10.759
300.12	10.340
300.48	9.486
300.85	12.041
301.22	11.429
301.59	10.921
301.95	12.911
302.32	12.322
302.69	9.950
303.05	9.035
303.42	11.083
303.79	11.332
304.15	12.425
304.52	9.512
304.89	10.994
305.25	10.048
305.62	9.335
305.99	10.058
306.35	10.751
306.72	8.549
307.09	11.859
307.45	11.251
307.82	9.606
308.19	10.453
308.55	9.815
308.92	11.547
309.29	9.721
309.65	9.257
310.02	10.671
310.38	10.428
310.75	9.727
311.12	10.980
311.48	9.650
311.85	10.471
312.22	8.966
312.58	9.342
312.95	9.498
313.31	9.420
313.68	8.796
314.05	9.694
314.41	10.000
314.78	8.866
315.14	10.894
315.51	10.455
315.87	10.348
316.24	11.021
316.61	10.630
316.97	10.417
317.34	10.254
317.70	10.707
318.07	9.808
318.43	10.000
318.80	10.322
319.16	11.328
319.53	11.016
319.89	10.728
320.26	10.425
320.62	11.133
320.99	8.977
321.35	10.791
321.72	11.215
322.08	10.675
322.45	10.964
322.81	10.609
323.18	10.991
323.54	9.556
323.91	10.127
324.27	11.523
324.64	10.674
325.00	11.861
325.37	12.029
325.73	10.335
326.10	11.081
326.46	12.377
326.83	12.161
327.19	10.898
327.56	10.860
327.92	12.236
328.29	10.893
328.65	11.604
329.01	11.121
329.38	11.521
329.74	11.143
330.11	11.677
330.47	10.668
330.84	10.769
331.20	12.357
331.56	11.481
331.93	10.685
332.29	11.641
332.66	11.403
333.02	11.710
333.38	10.266
333.75	12.271
334.11	10.654
334.48	11.605
334.84	11.996
335.20	11.436
335.57	11.786
335.93	11.111
336.29	10.405
336.66	11.353
337.02	9.944
337.38	10.926
337.75	10.818
338.11	11.452
338.47	11.131
338.84	11.368
339.20	10.786
339.56	12.752
339.93	11.012
340.29	12.202
340.65	11.918
341.02	10.993
341.38	10.531
341.74	11.042
342.11	9.619
342.47	11.210
342.83	11.332
343.20	11.237
343.56	11.130
343.92	11.957
344.28	12.212
344.65	10.190
345.01	10.804
345.37	10.765
345.73	12.050
346.10	11.993
346.46	10.849
346.82	10.311
347.19	9.726
347.55	10.693
347.91	10.599
348.27	10.428
348.63	11.158
349.00	9.926
349.36	9.975
349.72	11.360
350.08	11.639
350.45	10.136
350.81	9.967
351.17	9.853
351.53	10.939
351.89	10.652
352.26	10.720
352.62	9.355
352.98	11.004
353.34	9.742
353.70	11.084
354.07	9.839
354.43	9.287
354.79	9.083
355.15	11.587
355.51	11.155
355.87	10.518
356.24	8.238
356.60	9.943
356.96	11.111
357.32	10.064
357.68	9.304
358.04	10.339
358.40	9.566
358.77	11.483
359.13	9.367
359.49	9.784
359.85	9.282
360.21	9.410
360.57	9.946
360.93	10.136
361.29	9.592
361.66	10.893
362.02	10.379
362.38	9.520
362.74	9.992
363.10	10.158
363.46	9.266
363.82	10.443
364.18	9.668
364.54	8.676
364.90	10.394
365.26	9.753
365.62	11.314
365.98	9.971
366.35	10.852
366.71	9.978
367.07	9.579
367.43	9.202
367.79	10.318
368.15	9.763
368.51	10.124
368.87	10.122
369.23	9.819
369.59	10.131
369.95	10.924
370.31	9.754
370.67	9.403
371.03	9.709
371.39	9.336
371.75	10.256
372.11	10.485
372.47	10.281
372.83	9.936
373.19	9.843
373.55	9.531
373.91	10.007
374.27	9.851
374.63	10.912
374.99	9.716
375.35	9.540
375.71	10.000
376.07	10.042
376.42	9.388
376.78	9.597
377.14	10.291
377.50	9.960
377.86	9.572
378.22	9.764
378.58	9.808
378.94	9.074
379.30	9.357
379.66	9.592
380.02	9.994
380.38	9.373
380.74	9.695
381.09	9.816
381.45	9.419
381.81	9.192
382.17	9.264
382.53	9.931
382.89	9.981
383.25	9.645
383.61	10.671
383.97	8.381
384.32	9.694
384.68	9.659
385.04	8.701
385.40	8.774
385.76	10.252
386.12	9.444
386.48	9.898
386.83	8.751
387.19	10.073
387.55	8.971
387.91	9.841
388.27	9.524
388.62	9.188
388.98	9.699
389.34	8.994
389.70	10.006
390.06	9.629
390.42	9.715
390.77	9.483
391.13	8.638
391.49	10.091
391.85	9.292
392.20	9.416
392.56	9.091
392.92	10.159
393.28	9.670
393.64	9.550
393.99	9.906
394.35	8.982
394.71	9.834
395.07	9.177
395.42	9.897
395.78	9.707
396.14	10.404
396.50	9.639
396.85	9.659
397.21	9.336
397.57	9.718
397.92	9.826
398.28	10.000
398.64	9.518
399.00	10.214
399.35	8.916
399.71	9.190
400.07	9.311
400.42	10.710
400.78	10.165
401.14	10.284
401.49	10.125
401.85	9.689
402.21	10.542
402.57	9.000
402.92	9.975
403.28	10.714
403.63	9.899
403.99	11.161
404.35	9.057
404.70	9.762
405.06	9.283
405.42	10.068
405.77	9.413
406.13	9.953
406.49	9.710
406.84	8.863
407.20	9.994
407.55	8.757
407.91	9.893
408.27	9.943
408.62	10.400
408.98	9.735
409.34	9.975
409.69	9.044
410.05	10.160
410.40	10.309
410.76	9.590
411.11	10.062
411.47	8.744
411.83	9.918
412.18	9.653
412.54	9.675
412.89	9.421
413.25	10.108
413.60	10.248
413.96	9.325
414.31	9.695
414.67	9.622
415.03	9.521
415.38	9.399
415.74	10.293
416.09	9.928
416.45	9.993
416.80	9.914
417.16	10.014
417.51	10.127
417.87	9.844
418.22	10.557
418.58	9.164
418.93	10.533
419.29	8.899
419.64	9.851
420.00	11.146
420.35	9.910
420.71	10.510
421.06	9.638
421.42	10.036
421.77	10.347
422.12	9.308
422.48	10.070
422.83	10.035
423.19	10.045
423.54	9.406
423.90	9.658
424.25	10.218
424.61	10.159
424.96	10.105
425.31	10.341
425.67	11.033
426.02	11.131
426.38	9.330
426.73	10.169
427.09	10.316
427.44	10.824
427.79	10.725
428.15	10.498
428.50	9.994
428.85	9.091
429.21	11.149
429.56	10.296
429.92	10.786
430.27	10.727
430.62	9.252
430.98	9.820
431.33	11.251
431.68	9.681
432.04	10.900
432.39	10.782
432.74	9.681
433.10	12.069
433.45	10.693
433.80	10.215
434.16	10.139
434.51	10.323
434.86	10.511
435.22	9.871
435.57	10.543
435.92	10.479
436.28	9.839
436.63	11.067
436.98	10.371
437.34	10.042
437.69	10.018
438.04	10.085
438.39	10.141
438.75	10.018
439.10	10.583
439.45	11.564
439.81	10.765
440.16	10.867
440.51	11.522
440.86	11.782
441.22	10.747
441.57	11.038
441.92	11.542
442.27	11.364
442.63	11.456
442.98	11.258
443.33	10.740
443.68	10.663
444.03	11.128
444.39	10.674
444.74	11.204
445.09	11.303
445.44	10.655
445.79	11.604
446.15	11.289
446.50	10.593
446.85	11.530
447.20	10.428
447.55	11.998
447.91	11.224
448.26	11.497
448.61	11.111
448.96	11.245
449.31	10.231
449.66	11.150
450.02	11.010
450.37	11.203
450.72	11.340
451.07	11.139
451.42	10.924
451.77	10.488
452.12	10.885
452.47	11.011
452.83	11.779
453.18	11.069
453.53	11.884
453.88	11.718
454.23	11.494
454.58	11.209
454.93	11.856
455.28	10.476
455.63	11.283
455.98	12.147
456.34	11.558
456.69	12.071
457.04	11.846
457.39	11.665
457.74	11.669
458.09	11.065
458.44	10.415
458.79	11.429
459.14	12.357
459.49	11.701
459.84	12.126
460.19	11.833
460.54	11.919
460.89	11.420
461.24	10.807
461.59	12.233
461.94	10.755
462.29	12.304
462.64	12.027
462.99	11.916
463.34	11.266
463.69	11.519
464.04	11.441
464.39	12.250
464.74	11.288
465.09	12.102
465.44	12.291
465.79	11.224
466.14	11.973
466.49	11.041
466.84	12.731
467.19	12.015
467.54	11.750
467.89	11.497
468.24	12.105
468.59	12.190
468.94	11.746
469.29	12.525
469.64	12.509
469.99	12.193
470.34	11.195
470.68	12.155
471.03	12.102
471.38	11.198
471.73	12.675
472.08	11.872
472.43	11.946
472.78	11.035
473.13	12.585
473.48	11.987
473.83	11.644
474.17	12.370
474.52	11.295
474.87	12.727
475.22	11.775
475.57	12.253
475.92	12.178
476.27	12.398
476.61	12.211
476.96	11.322
477.31	12.493
477.66	12.247
478.01	12.184
478.36	11.983
478.70	12.452
479.05	13.077
479.40	12.401
479.75	12.409
480.10	12.033
480.45	12.350
480.79	12.638
481.14	12.551
481.49	12.020
481.84	11.776
482.19	11.693
482.53	12.422
482.88	12.363
483.23	11.804
483.58	12.500
483.92	12.585
484.27	11.851
484.62	11.295
484.97	11.982
485.31	11.994
485.66	11.284
486.01	11.314
486.36	10.950
486.70	11.009
487.05	10.922
487.40	11.298
487.75	11.380
488.09	11.341
488.44	11.486
488.79	11.842
489.13	12.660
489.48	12.398
489.83	12.332
490.17	11.596
490.52	12.656
490.87	12.448
491.22	12.369
491.56	11.907
491.91	12.380
492.26	12.737
492.60	12.428
492.95	12.494
493.30	12.750
493.64	12.574
493.99	13.237
494.34	12.670
494.68	11.952
495.03	11.825
495.37	12.218
495.72	12.620
496.07	13.366
496.41	12.830
496.76	12.713
497.11	12.296
497.45	12.840
497.80	12.664
498.14	12.121
498.49	12.849
498.84	12.475
499.18	12.851
499.53	12.847
499.87	12.549
500.22	11.771
500.56	12.557
500.91	12.751
501.26	12.259
501.60	12.248
501.95	12.518
502.29	12.930
502.64	12.886
502.98	12.926
503.33	12.392
503.67	12.434
504.02	13.001
504.36	12.716
504.71	12.727
505.06	12.733
505.40	13.147
505.75	12.887
506.09	13.229
506.44	12.731
506.78	13.520
507.13	12.875
507.47	12.428
507.82	12.874
508.16	12.203
508.51	13.326
508.85	13.344
509.19	11.815
509.54	12.976
509.88	12.082
510.23	12.910
510.57	12.827
510.92	12.047
511.26	12.602
511.61	13.421
511.95	12.603
512.30	12.971
512.64	13.133
512.98	12.633
513.33	13.430
513.67	12.962
514.02	13.844
514.36	13.771
514.70	13.636
515.05	13.278
515.39	14.109
515.74	13.713
516.08	13.389
516.42	13.722
516.77	14.336
517.11	13.650
517.46	13.285
517.80	13.468
518.14	12.982
518.49	12.560
518.83	13.609
519.17	12.856
519.52	13.795
519.86	12.605
520.20	13.548
520.55	13.946
520.89	14.429
521.23	13.110
521.58	14.006
521.92	13.974
522.26	14.574
522.61	14.416
522.95	13.775
523.29	13.342
523.64	14.612
523.98	14.323
524.32	13.531
524.66	14.277
525.01	14.026
525.35	14.712
525.69	13.401
526.04	13.426
526.38	15.045
526.72	13.865
527.06	13.684
527.41	14.446
527.75	13.539
528.09	14.419
528.43	14.517
528.78	13.531
529.12	13.871
529.46	13.385
529.80	15.073
530.15	13.597
530.49	13.670
530.83	13.953
531.17	13.902
531.51	13.611
531.86	13.664
532.20	13.709
532.54	14.636
532.88	14.716
533.22	14.315
533.57	14.220
533.91	13.185
534.25	14.062
534.59	13.727
534.93	13.468
535.27	13.071
535.62	13.351
535.96	13.699
536.30	13.127
536.64	13.646
536.98	12.613
537.32	14.225
537.66	14.236
538.01	13.846
538.35	13.523
538.69	14.048
539.03	13.602
539.37	13.997
539.71	13.020
540.05	13.714
540.39	13.296
540.73	14.365
541.07	14.088
541.42	14.651
541.76	14.591
542.10	14.384
542.44	14.524
542.78	13.214
543.12	13.118
543.46	14.743
543.80	13.740
544.14	13.284
544.48	14.590
544.82	13.465
545.16	14.822
545.50	14.820
545.84	15.156
546.18	14.043
546.52	13.915
546.86	13.372
547.20	14.735
547.54	13.922
547.88	14.674
548.22	14.201
548.56	13.061
548.90	14.084
549.24	13.774
549.58	13.752
549.92	13.081
550.26	14.066
550.60	13.978
550.94	13.518
551.28	14.683
551.62	14.846
551.96	14.361
552.30	14.474
552.64	13.329
552.98	13.924
553.32	13.909
553.66	13.933
554.00	14.015
554.34	14.623
554.68	13.717
555.02	15.179
555.36	13.687
555.69	14.139
556.03	13.348
556.37	13.452
556.71	13.863
557.05	13.945
557.39	13.829
557.73	14.693
558.07	14.630
558.41	13.706
558.75	14.575
559.08	14.184
559.42	13.889
559.76	13.931
560.10	13.838
560.44	13.999
560.78	15.175
561.12	14.175
561.45	14.547
561.79	13.025
562.13	13.343
562.47	13.957
562.81	13.833
563.15	14.175
563.48	14.639
563.82	14.482
564.16	13.301
564.50	13.581
564.84	14.257
565.17	13.481
565.51	14.891
565.85	14.609
566.19	13.926
566.52	14.410
566.86	14.717
567.20	12.765
567.54	14.234
567.88	13.240
568.21	12.896
568.55	13.098
568.89	13.604
569.23	12.807
569.56	12.215
569.90	12.952
570.24	12.765
570.57	12.291
570.91	12.443
571.25	11.805
571.59	12.208
571.92	12.356
572.26	11.957
572.60	12.124
572.93	12.143
573.27	11.661
573.61	11.844
573.95	11.715
574.28	11.653
574.62	11.442
574.96	12.117
575.29	11.736
575.63	11.246
575.97	11.602
576.30	11.864
576.64	11.974
576.98	12.201
577.31	11.452
577.65	11.972
577.98	11.877
578.32	11.449
578.66	11.369
578.99	11.558
579.33	11.641
579.67	11.834
580.00	11.418
580.34	11.716
580.67	12.141
581.01	11.623
581.35	11.606
581.68	11.395
582.02	11.158
582.35	11.161
582.69	11.531
583.02	11.408
583.36	11.923
583.70	12.279
584.03	12.149
584.37	12.084
584.70	11.896
585.04	11.554
585.37	11.769
585.71	11.972
586.04	11.750
586.38	11.283
586.72	12.253
587.05	12.016
587.39	12.133
587.72	12.192
588.06	11.957
588.39	12.105
588.73	12.271
589.06	12.296
589.40	12.651
589.73	12.377
590.07	12.462
590.40	12.693
590.73	12.232
591.07	13.147
591.40	12.912
591.74	13.258
592.07	13.358
592.41	13.339
592.74	12.505
593.08	12.469
593.41	12.586
593.75	12.659
594.08	11.878
594.41	12.991
594.75	12.481
595.08	12.032
595.42	12.440
595.75	13.256
596.09	12.940
596.42	12.774
596.75	13.144
597.09	12.574
597.42	12.466
597.75	12.552
598.09	12.675
598.42	13.222
598.76	12.999
599.09	13.662
599.42	12.922
599.76	12.641
600.09	12.745
600.42	12.851
600.76	11.961
601.09	12.557
601.42	13.004
601.76	12.505
602.09	12.459
602.42	13.690
602.76	12.861
603.09	13.206
603.42	13.294
603.76	12.581
604.09	12.232
604.42	13.240
604.76	13.307
605.09	13.300
605.42	13.905
605.75	12.522
606.09	12.017
606.42	13.053
606.75	12.381
607.09	13.187
607.42	12.494
607.75	13.099
608.08	12.713
608.42	13.020
608.75	13.060
609.08	12.855
609.41	12.893
609.75	13.508
610.08	13.530
610.41	13.092
610.74	12.433
611.07	13.023
611.41	13.389
611.74	13.326
612.07	12.580
612.40	13.348
612.73	12.881
613.07	13.273
613.40	13.403
613.73	12.703
614.06	14.023
614.39	13.311
614.72	13.501
615.06	13.520
615.39	13.319
615.72	12.702
616.05	13.687
616.38	12.023
616.71	12.477
617.05	13.527
617.38	14.268
617.71	13.396
618.04	13.460
618.37	14.880
618.70	14.521
619.03	14.583
619.36	13.314
619.69	13.874
620.03	15.121
620.36	13.662
620.69	13.847
621.02	13.609
621.35	14.606
621.68	13.946
622.01	15.500
622.34	14.366
622.67	15.457
623.00	15.620
623.33	13.491
623.66	13.837
623.99	13.616
624.32	14.677
624.65	13.233
624.99	15.199
625.32	13.647
625.65	14.847
625.98	14.746
626.31	13.549
626.64	15.165
626.97	15.358
627.30	15.849
627.63	15.165
627.96	14.735
628.29	14.801
628.62	15.241
628.95	14.028
629.28	15.524
629.61	15.354
629.94	16.325
630.26	14.032
630.59	16.129
630.92	14.974
631.25	14.974
631.58	15.308
631.91	14.912
632.24	15.596
632.57	15.909
632.90	15.896
633.23	16.118
633.56	15.491
633.89	15.413
634.22	16.790
634.55	15.248
634.88	16.731
635.20	14.231
635.53	16.000
635.86	14.824
636.19	16.041
636.52	15.689
636.85	16.501
637.18	15.849
637.51	17.233
637.83	15.900
