SpectraSuite Data File
++++++++++++++++++++++++++++++++++++
Date: Fri May 15 20:14:52 PDT 2015
User: schluterlab
Dark Spectrum Present: Yes
Reference Spectrum Present: Yes
Number of Sampled Component Spectra: 1
Spectrometers: USB2E3373
Integration Time (usec): 3000 (USB2E3373)
Spectra Averaged: 3 (USB2E3373)
Boxcar Smoothing: 0 (USB2E3373)
Correct for Electrical Dark: No (USB2E3373)
Strobe/Lamp Enabled: No (USB2E3373)
Correct for Detector Non-linearity: No (USB2E3373)
Correct for Stray Light: No (USB2E3373)
Number of Pixels in Processed Spectrum: 2048
>>>>>Begin Processed Spectral Data<<<<<
178.53	0.000
178.91	0.000
179.29	62.500
179.67	-50.000
180.04	42.857
180.42	75.000
180.80	-600.000
181.18	33.333
181.56	500.000
181.94	-250.000
182.31	800.000
182.69	-120.000
183.07	-133.333
183.45	-20.000
183.83	116.667
184.20	-18.182
184.58	133.333
184.96	100.000
185.34	66.667
185.72	0.000
186.09	84.615
186.47	-500.000
186.85	-0.000
187.23	77.778
187.61	600.000
187.98	-266.667
188.36	66.667
188.74	-33.333
189.12	0.000
189.49	50.000
189.87	0.000
190.25	64.286
190.63	300.000
191.00	-100.000
191.38	47.368
191.76	400.000
192.14	75.000
192.51	-50.000
192.89	66.667
193.27	-57.143
193.65	216.667
194.02	127.273
194.40	100.000
194.78	12.500
195.15	-25.000
195.53	37.500
195.91	-50.000
196.29	-275.000
196.66	100.000
197.04	-14.286
197.42	-66.667
197.79	-333.333
198.17	15.385
198.55	800.000
198.92	-166.667
199.30	300.000
199.68	0.000
200.05	-100.000
200.43	0.000
200.81	-100.000
201.18	-66.667
201.56	-100.000
201.94	-200.000
202.31	-233.333
202.69	-200.000
203.07	175.000
203.44	700.000
203.82	0.000
204.19	-42.857
204.57	-400.000
204.95	112.500
205.32	60.000
205.70	-142.857
206.08	-100.000
206.45	166.667
206.83	128.571
207.20	-214.286
207.58	-100.000
207.96	-133.333
208.33	-20.000
208.71	-100.000
209.08	-200.000
209.46	-400.000
209.84	-40.000
210.21	300.000
210.59	42.857
210.96	83.333
211.34	75.000
211.71	46.667
212.09	-100.000
212.46	-1200.000
212.84	0.000
213.22	130.000
213.59	-150.000
213.97	46.154
214.34	81.818
214.72	-100.000
215.09	-0.000
215.47	-15.385
215.84	-72.727
216.22	0.000
216.59	125.000
216.97	300.000
217.34	-150.000
217.72	20.000
218.09	12.500
218.47	100.000
218.84	100.000
219.22	55.556
219.59	80.000
219.97	66.667
220.34	325.000
220.72	-42.857
221.09	-50.000
221.47	450.000
221.84	-400.000
222.22	-550.000
222.59	-9.091
222.97	58.333
223.34	133.333
223.72	0.000
224.09	38.095
224.46	32.143
224.84	166.667
225.21	0.000
225.59	40.000
225.96	100.000
226.34	225.000
226.71	85.714
227.08	-33.333
227.46	-37.500
227.83	-500.000
228.21	0.000
228.58	154.545
228.95	-50.000
229.33	10.000
229.70	81.250
230.08	-12.500
230.45	-14.286
230.82	0.000
231.20	0.000
231.57	107.143
231.95	128.571
232.32	10.000
232.69	114.286
233.07	-133.333
233.44	60.000
233.81	20.000
234.19	-11.111
234.56	5.882
234.93	100.000
235.31	-75.000
235.68	-240.000
236.05	46.154
236.43	20.000
236.80	23.529
237.17	46.875
237.55	50.000
237.92	29.630
238.29	22.222
238.67	43.333
239.04	35.294
239.41	0.000
239.79	33.333
240.16	43.902
240.53	31.579
240.91	10.870
241.28	39.683
241.65	41.071
242.02	42.466
242.40	53.333
242.77	59.322
243.14	25.758
243.51	42.500
243.89	48.276
244.26	32.184
244.63	40.476
245.00	36.082
245.38	53.608
245.75	39.326
246.12	33.621
246.49	44.628
246.87	41.346
247.24	30.252
247.61	38.596
247.98	31.707
248.36	40.625
248.73	35.526
249.10	48.701
249.47	50.000
249.84	34.641
250.22	37.647
250.59	41.830
250.96	42.723
251.33	43.605
251.70	46.471
252.08	44.162
252.45	38.614
252.82	45.226
253.19	46.083
253.56	45.794
253.94	45.045
254.31	46.957
254.68	40.351
255.05	41.732
255.42	42.358
255.79	44.015
256.16	43.191
256.54	44.030
256.91	39.163
257.28	41.636
257.65	44.569
258.02	44.681
258.39	42.424
258.76	48.718
259.14	41.528
259.51	41.100
259.88	45.361
260.25	42.157
260.62	46.181
260.99	40.339
261.36	42.123
261.73	42.089
262.10	43.161
262.47	44.479
262.85	42.633
263.22	44.308
263.59	43.302
263.96	48.447
264.33	43.333
264.70	45.238
265.07	43.750
265.44	46.459
265.81	45.763
266.18	41.803
266.55	46.787
266.92	47.409
267.29	43.081
267.66	42.711
268.03	44.764
268.40	44.125
268.77	45.722
269.14	45.084
269.51	42.674
269.88	39.152
270.25	40.306
270.62	40.000
270.99	41.432
271.36	41.320
271.73	43.897
272.10	45.499
272.47	45.626
272.84	44.554
273.21	46.404
273.58	45.542
273.95	43.478
274.32	44.573
274.69	41.629
275.06	48.661
275.43	41.497
275.80	41.943
276.17	43.218
276.54	41.542
276.91	43.202
277.28	41.048
277.65	41.116
278.02	42.128
278.39	42.888
278.76	41.719
279.13	37.137
279.50	43.067
279.87	42.333
280.23	41.290
280.60	41.715
280.97	43.636
281.34	38.846
281.71	43.121
282.08	40.695
282.45	40.509
282.82	39.961
283.19	42.553
283.56	41.233
283.92	41.556
284.29	38.654
284.66	39.341
285.03	39.096
285.40	40.643
285.77	36.380
286.14	39.531
286.51	41.697
286.87	37.660
287.24	38.306
287.61	40.035
287.98	39.298
288.35	38.128
288.72	39.930
289.08	38.889
289.45	39.016
289.82	35.490
290.19	36.177
290.56	37.564
290.93	37.879
291.29	34.823
291.66	37.165
292.03	36.523
292.40	35.968
292.77	35.726
293.13	31.818
293.50	34.598
293.87	34.198
294.24	34.312
294.60	34.277
294.97	33.780
295.34	33.589
295.71	34.128
296.08	32.138
296.44	31.294
296.81	31.250
297.18	31.304
297.55	34.282
297.91	32.329
298.28	32.850
298.65	31.886
299.02	30.728
299.38	31.053
299.75	28.828
300.12	29.581
300.48	31.489
300.85	30.165
301.22	30.649
301.59	30.000
301.95	30.380
302.32	31.388
302.69	29.975
303.05	31.064
303.42	30.635
303.79	29.322
304.15	31.302
304.52	29.608
304.89	29.942
305.25	29.903
305.62	30.922
305.99	28.187
306.35	29.711
306.72	29.134
307.09	28.962
307.45	30.310
307.82	29.977
308.19	30.314
308.55	29.989
308.92	31.808
309.29	29.274
309.65	30.032
310.02	30.363
310.38	29.748
310.75	30.601
311.12	31.109
311.48	30.223
311.85	30.995
312.22	30.274
312.58	30.892
312.95	29.776
313.31	30.745
313.68	30.995
314.05	30.714
314.41	31.443
314.78	31.237
315.14	32.785
315.51	32.091
315.87	33.299
316.24	32.154
316.61	32.382
316.97	32.440
317.34	31.445
317.70	31.262
318.07	32.500
318.43	32.941
318.80	32.386
319.16	35.156
319.53	32.479
319.89	34.350
320.26	34.717
320.62	36.209
320.99	35.491
321.35	34.532
321.72	34.372
322.08	34.642
322.45	35.736
322.81	35.953
323.18	37.782
323.54	37.645
323.91	36.417
324.27	37.695
324.64	38.202
325.00	40.146
325.37	40.129
325.73	40.163
326.10	39.328
326.46	41.973
326.83	42.695
327.19	41.500
327.56	43.267
327.92	44.014
328.29	43.393
328.65	42.642
329.01	44.393
329.38	45.438
329.74	44.948
330.11	45.505
330.47	45.826
330.84	45.481
331.20	47.148
331.56	45.370
331.93	46.210
332.29	46.746
332.66	46.606
333.02	46.097
333.38	46.379
333.75	46.245
334.11	44.315
334.48	48.141
334.84	46.612
335.20	47.667
335.57	45.694
335.93	46.161
336.29	47.698
336.66	48.138
337.02	46.561
337.38	47.315
337.75	46.455
338.11	46.799
338.47	47.993
338.84	47.874
339.20	47.349
339.56	47.339
339.93	46.016
340.29	47.248
340.65	46.774
341.02	45.656
341.38	46.283
341.74	46.025
342.11	46.880
342.47	46.797
342.83	46.194
343.20	46.690
343.56	47.043
343.92	46.147
344.28	46.712
344.65	46.287
345.01	44.166
345.37	46.089
345.73	45.774
346.10	47.023
346.46	46.005
346.82	45.090
347.19	45.636
347.55	46.617
347.91	47.735
348.27	46.322
348.63	46.337
349.00	45.529
349.36	46.052
349.72	46.932
350.08	47.131
350.45	44.852
350.81	46.595
351.17	44.870
351.53	45.959
351.89	45.582
352.26	45.280
352.62	46.210
352.98	44.337
353.34	45.572
353.70	46.117
354.07	45.565
354.43	45.637
354.79	45.912
355.15	47.460
355.51	45.095
355.87	45.712
356.24	45.024
356.60	44.947
356.96	46.508
357.32	45.607
357.68	45.739
358.04	45.234
358.40	45.177
358.77	46.970
359.13	44.836
359.49	45.686
359.85	44.774
360.21	46.172
360.57	44.759
360.93	45.386
361.29	44.411
361.66	47.257
362.02	45.909
362.38	46.535
362.74	47.086
363.10	46.877
363.46	45.515
363.82	46.657
364.18	45.387
364.54	45.662
364.90	46.523
365.26	45.560
365.62	46.204
365.98	45.821
366.35	47.196
366.71	46.637
367.07	46.807
367.43	46.801
367.79	45.583
368.15	46.949
368.51	46.905
368.87	47.595
369.23	46.570
369.59	46.939
369.95	48.607
370.31	47.038
370.67	45.970
371.03	47.423
371.39	46.827
371.75	47.473
372.11	47.076
372.47	48.817
372.83	47.410
373.19	46.790
373.55	47.653
373.91	47.444
374.27	49.327
374.63	48.528
374.99	47.092
375.35	49.234
375.71	48.951
376.07	49.298
376.42	48.367
376.78	50.000
377.14	48.341
377.50	50.531
377.86	49.398
378.22	49.713
378.58	48.013
378.94	48.330
379.30	49.407
379.66	49.592
380.02	49.050
380.38	49.665
380.74	49.192
381.09	50.307
381.45	49.786
381.81	50.339
382.17	49.619
382.53	51.405
382.89	50.282
383.25	51.773
383.61	51.890
383.97	50.794
384.32	50.969
384.68	51.641
385.04	49.755
385.40	50.404
385.76	53.145
386.12	53.040
386.48	52.746
386.83	52.315
387.19	52.137
387.55	51.694
387.91	51.834
388.27	51.587
388.62	53.556
388.98	50.767
389.34	53.092
389.70	53.201
390.06	51.038
390.42	52.591
390.77	52.453
391.13	51.828
391.49	53.169
391.85	53.801
392.20	53.107
392.56	52.956
392.92	52.613
393.28	52.594
393.64	52.072
393.99	53.229
394.35	52.815
394.71	53.768
395.07	52.986
395.42	53.066
395.78	52.573
396.14	53.405
396.50	54.978
396.85	52.930
397.21	52.632
397.57	52.665
397.92	52.726
398.28	53.391
398.64	51.566
399.00	53.330
399.35	52.314
399.71	52.269
400.07	55.018
400.42	53.121
400.78	53.521
401.14	53.539
401.49	53.722
401.85	53.565
402.21	53.193
402.57	54.813
402.92	52.258
403.28	53.446
403.63	54.729
403.99	53.635
404.35	53.217
404.70	52.083
405.06	53.173
405.42	51.896
405.77	52.760
406.13	53.085
406.49	52.220
406.84	53.178
407.20	53.703
407.55	53.187
407.91	52.874
408.27	52.709
408.62	52.431
408.98	52.865
409.34	53.408
409.69	53.165
410.05	53.017
410.40	53.580
410.76	53.378
411.11	53.500
411.47	54.372
411.83	53.107
412.18	53.797
412.54	52.996
412.89	52.463
413.25	52.768
413.60	52.547
413.96	52.147
414.31	53.598
414.67	52.277
415.03	52.064
415.38	53.329
415.74	53.094
416.09	52.972
416.45	53.005
416.80	52.941
417.16	54.144
417.51	54.164
417.87	52.738
418.22	53.692
418.58	52.575
418.93	54.044
419.29	52.881
419.64	53.921
420.00	54.786
420.35	53.373
420.71	53.949
421.06	53.775
421.42	54.087
421.77	53.931
422.12	53.859
422.48	53.979
422.83	53.132
423.19	53.950
423.54	54.203
423.90	53.710
424.25	54.420
424.61	55.508
424.96	53.717
425.31	56.210
425.67	55.047
426.02	54.535
426.38	56.669
426.73	55.811
427.09	56.203
427.44	54.765
427.79	55.569
428.15	55.218
428.50	55.118
428.85	53.317
429.21	54.612
429.56	56.442
429.92	55.265
430.27	55.238
430.62	55.044
430.98	54.777
431.33	55.205
431.68	54.893
432.04	55.785
432.39	55.048
432.74	55.502
433.10	57.644
433.45	56.452
433.80	56.587
434.16	56.898
434.51	56.828
434.86	56.852
435.22	56.310
435.57	56.519
435.92	56.946
436.28	55.397
436.63	56.189
436.98	56.141
437.34	56.261
437.69	55.993
438.04	55.442
438.39	56.323
438.75	57.984
439.10	56.027
439.45	57.760
439.81	56.881
440.16	57.720
440.51	57.433
440.86	59.698
441.22	56.787
441.57	58.830
441.92	58.604
442.27	57.262
442.63	57.388
442.98	57.898
443.33	57.318
443.68	58.355
444.03	58.371
444.39	57.206
444.74	58.919
445.09	58.575
445.44	58.519
445.79	60.340
446.15	57.269
446.50	56.184
446.85	59.139
447.20	57.456
447.55	59.096
447.91	59.052
448.26	58.338
448.61	58.837
448.96	59.610
449.31	58.266
449.66	59.001
450.02	58.642
450.37	59.751
450.72	59.278
451.07	58.734
451.42	57.491
451.77	58.770
452.12	58.134
452.47	59.305
452.83	59.953
453.18	58.507
453.53	58.913
453.88	59.866
454.23	58.943
454.58	60.768
454.93	60.116
455.28	60.000
455.63	58.586
455.98	58.930
456.34	58.301
456.69	59.657
457.04	59.735
457.39	59.538
457.74	58.646
458.09	58.152
458.44	59.860
458.79	59.664
459.14	60.183
459.49	59.881
459.84	58.827
460.19	60.376
460.54	58.863
460.89	60.511
461.24	60.559
461.59	59.501
461.94	59.245
462.29	62.304
462.64	59.734
462.99	61.205
463.34	60.848
463.69	59.459
464.04	59.988
464.39	59.430
464.74	59.755
465.09	60.636
465.44	60.762
465.79	59.921
466.14	59.578
466.49	59.344
466.84	60.262
467.19	60.638
467.54	59.451
467.89	59.886
468.24	59.854
468.59	61.143
468.94	60.698
469.29	60.525
469.64	59.604
469.99	62.228
470.34	60.068
470.68	62.416
471.03	60.368
471.38	62.553
471.73	61.695
472.08	59.294
472.43	60.738
472.78	60.521
473.13	61.156
473.48	59.479
473.83	60.399
474.17	62.306
474.52	60.370
474.87	60.848
475.22	60.647
475.57	60.926
475.92	61.602
476.27	60.536
476.61	61.806
476.96	59.732
477.31	60.141
477.66	61.236
478.01	60.584
478.36	59.858
478.70	62.262
479.05	61.868
479.40	60.731
479.75	58.707
480.10	60.369
480.45	60.950
480.79	61.480
481.14	62.295
481.49	61.182
481.84	61.921
482.19	60.477
482.53	61.055
482.88	59.809
483.23	60.365
483.58	59.811
483.92	60.842
484.27	60.164
484.62	59.839
484.97	60.282
485.31	59.140
485.66	59.108
486.01	57.985
486.36	57.753
486.70	58.234
487.05	58.700
487.40	58.945
487.75	58.000
488.09	57.973
488.44	58.769
488.79	59.208
489.13	60.697
489.48	60.111
489.83	60.448
490.17	60.360
490.52	61.155
490.87	60.296
491.22	61.175
491.56	60.531
491.91	60.516
492.26	61.789
492.60	59.645
492.95	62.764
493.30	60.332
493.64	62.033
493.99	62.174
494.34	62.136
494.68	61.190
495.03	60.779
495.37	62.905
495.72	61.282
496.07	62.098
496.41	61.085
496.76	62.552
497.11	59.898
497.45	61.527
497.80	62.210
498.14	60.457
498.49	62.367
498.84	61.128
499.18	61.345
499.53	62.450
499.87	61.187
500.22	61.177
500.56	62.582
500.91	60.743
501.26	61.641
501.60	62.322
501.95	62.057
502.29	61.695
502.64	61.680
502.98	62.161
503.33	61.287
503.67	61.205
504.02	60.557
504.36	62.642
504.71	61.364
505.06	61.651
505.40	62.995
505.75	62.887
506.09	60.720
506.44	63.347
506.78	61.888
507.13	63.030
507.47	62.193
507.82	62.714
508.16	61.754
508.51	62.172
508.85	62.428
509.19	61.629
509.54	61.984
509.88	62.891
510.23	62.937
510.57	63.121
510.92	61.354
511.26	62.848
511.61	64.191
511.95	61.973
512.30	62.860
512.64	63.662
512.98	62.942
513.33	63.346
513.67	63.331
514.02	64.703
514.36	65.886
514.70	64.977
515.05	65.805
515.39	64.345
515.74	65.150
516.08	65.392
516.42	64.488
516.77	65.009
517.11	65.757
517.46	64.093
517.80	64.899
518.14	64.972
518.49	64.483
518.83	66.221
519.17	63.190
519.52	63.884
519.86	65.066
520.20	64.520
520.55	64.916
520.89	64.743
521.23	66.054
521.58	67.256
521.92	65.897
522.26	66.493
522.61	66.364
522.95	66.490
523.29	66.201
523.64	66.391
523.98	67.077
524.32	65.786
524.66	66.389
525.01	65.519
525.35	65.716
525.69	67.475
526.04	66.733
526.38	67.639
526.72	65.206
527.06	65.175
527.41	66.623
527.75	66.622
528.09	65.980
528.43	67.252
528.78	67.195
529.12	66.581
529.46	65.367
529.80	64.345
530.15	67.261
530.49	66.263
530.83	66.689
531.17	65.480
531.51	66.758
531.86	66.145
532.20	66.667
532.54	65.895
532.88	66.598
533.22	65.927
533.57	65.400
533.91	67.298
534.25	66.602
534.59	65.747
534.93	65.387
535.27	64.277
535.62	65.651
535.96	65.558
536.30	65.172
536.64	67.471
536.98	65.993
537.32	68.706
537.66	68.093
538.01	66.294
538.35	66.574
538.69	64.581
539.03	63.773
539.37	66.420
539.71	65.985
540.05	66.531
540.39	66.620
540.73	66.039
541.07	66.851
541.42	66.263
541.76	66.827
542.10	65.795
542.44	67.477
542.78	63.868
543.12	64.835
543.46	65.994
543.80	66.759
544.14	63.952
544.48	65.823
544.82	66.781
545.16	67.828
545.50	63.952
545.84	66.714
546.18	66.454
546.52	65.177
546.86	66.930
547.20	66.881
547.54	64.382
547.88	66.916
548.22	64.563
548.56	65.237
548.90	65.094
549.24	62.879
549.58	66.220
549.92	65.833
550.26	65.641
550.60	67.138
550.94	66.243
551.28	67.465
551.62	67.846
551.96	66.767
552.30	66.374
552.64	65.515
552.98	66.667
553.32	65.407
553.66	67.199
554.00	68.613
554.34	69.276
554.68	66.150
555.02	66.592
555.36	65.744
555.69	66.740
556.03	65.810
556.37	66.548
556.71	67.653
557.05	66.592
557.39	67.361
557.73	66.342
558.07	67.345
558.41	67.611
558.75	69.758
559.08	69.110
559.42	67.540
559.76	67.814
560.10	66.820
560.44	67.312
560.78	65.664
561.12	68.336
561.45	67.604
561.79	68.277
562.13	66.785
562.47	66.619
562.81	67.075
563.15	66.291
563.48	66.973
563.82	66.781
564.16	67.409
564.50	65.270
564.84	66.801
565.17	66.130
565.51	68.716
565.85	67.078
566.19	67.971
566.52	66.890
566.86	66.452
567.20	65.193
567.54	67.214
567.88	66.491
568.21	66.007
568.55	65.543
568.89	64.887
569.23	63.987
569.56	63.441
569.90	64.555
570.24	62.449
570.57	62.473
570.91	63.541
571.25	62.052
571.59	60.137
571.92	60.119
572.26	60.447
572.60	60.310
572.93	60.496
573.27	60.627
573.61	60.084
573.95	60.022
574.28	60.064
574.62	59.700
574.96	59.112
575.29	59.970
575.63	58.849
575.97	59.203
576.30	59.292
576.64	58.728
576.98	60.129
577.31	59.990
577.65	59.794
577.98	59.489
578.32	58.582
578.66	57.855
578.99	58.751
579.33	59.006
579.67	58.769
580.00	59.316
580.34	59.030
580.67	59.199
581.01	59.798
581.35	58.958
581.68	58.847
582.02	58.671
582.35	58.979
582.69	58.921
583.02	58.470
583.36	59.286
583.70	59.917
584.03	60.384
584.37	60.757
584.70	60.275
585.04	59.171
585.37	58.600
585.71	59.195
586.04	59.581
586.38	59.563
586.72	60.230
587.05	60.572
587.39	60.917
587.72	60.908
588.06	59.618
588.39	60.695
588.73	60.440
589.06	61.807
589.40	61.078
589.73	61.519
590.07	62.085
590.40	62.423
590.73	63.138
591.07	62.765
591.40	63.134
591.74	63.258
592.07	63.126
592.41	63.472
592.74	61.450
593.08	61.264
593.41	61.285
593.75	61.269
594.08	60.179
594.41	61.354
594.75	61.298
595.08	61.824
595.42	62.900
595.75	61.960
596.09	61.259
596.42	62.257
596.75	62.611
597.09	62.460
597.42	62.918
597.75	63.399
598.09	62.517
598.42	62.635
598.76	62.076
599.09	61.939
599.42	61.425
599.76	60.609
600.09	60.445
600.42	60.879
600.76	61.107
601.09	61.298
601.42	60.635
601.76	61.294
602.09	62.748
602.42	63.058
602.76	62.479
603.09	63.829
603.42	64.381
603.76	61.734
604.09	62.090
604.42	63.536
604.76	63.062
605.09	62.751
605.42	61.986
605.75	62.347
606.09	62.335
606.42	61.885
606.75	62.121
607.09	62.286
607.42	62.517
607.75	62.700
608.08	61.770
608.42	61.307
608.75	63.711
609.08	63.976
609.41	63.401
609.75	63.558
610.08	64.553
610.41	62.802
610.74	63.920
611.07	64.910
611.41	64.089
611.74	64.979
612.07	63.223
612.40	64.442
612.73	65.763
613.07	63.723
613.40	64.333
613.73	64.298
614.06	63.996
614.39	64.354
614.72	64.986
615.06	65.028
615.39	64.301
615.72	63.832
616.05	63.966
616.38	62.564
616.71	64.771
617.05	65.040
617.38	65.493
617.71	65.723
618.04	67.111
618.37	66.961
618.70	65.281
619.03	67.153
619.36	67.511
619.69	68.992
620.03	68.079
620.36	68.312
620.69	67.024
621.02	68.807
621.35	68.797
621.68	71.429
622.01	68.833
622.34	68.715
622.67	67.271
623.00	68.147
623.33	68.598
623.66	67.091
623.99	66.566
624.32	68.289
624.65	66.767
624.99	67.871
625.32	67.703
625.65	69.207
625.98	68.896
626.31	69.077
626.64	70.364
626.97	69.197
627.30	69.177
627.63	70.971
627.96	69.093
628.29	70.583
628.62	72.370
628.95	72.144
629.28	71.673
629.61	71.087
629.94	71.457
630.26	71.838
630.59	73.985
630.92	73.128
631.25	71.795
631.58	74.670
631.91	73.904
632.24	76.032
632.57	73.750
632.90	73.903
633.23	74.706
633.56	77.330
633.89	75.832
