SpectraSuite Data File
++++++++++++++++++++++++++++++++++++
Date: Fri May 15 17:08:57 PDT 2015
User: schluterlab
Dark Spectrum Present: Yes
Reference Spectrum Present: Yes
Number of Sampled Component Spectra: 1
Spectrometers: USB2E3373
Integration Time (usec): 3000 (USB2E3373)
Spectra Averaged: 3 (USB2E3373)
Boxcar Smoothing: 0 (USB2E3373)
Correct for Electrical Dark: No (USB2E3373)
Strobe/Lamp Enabled: No (USB2E3373)
Correct for Detector Non-linearity: No (USB2E3373)
Correct for Stray Light: No (USB2E3373)
Number of Pixels in Processed Spectrum: 2048
>>>>>Begin Processed Spectral Data<<<<<
178.53	0.000
178.91	0.000
179.29	225.000
179.67	-100.000
180.04	-57.143
180.42	375.000
180.80	300.000
181.18	-366.667
181.56	-450.000
181.94	150.000
182.31	-400.000
182.69	200.000
183.07	33.333
183.45	60.000
183.83	-0.000
184.20	9.091
184.58	88.889
184.96	-150.000
185.34	166.667
185.72	-50.000
186.09	7.692
186.47	800.000
186.85	-50.000
187.23	-0.000
187.61	-1300.000
187.98	200.000
188.36	111.111
188.74	166.667
189.12	117.647
189.49	83.333
189.87	0.000
190.25	85.714
190.63	450.000
191.00	-100.000
191.38	115.789
191.76	200.000
192.14	-425.000
192.51	700.000
192.89	77.778
193.27	14.286
193.65	-100.000
194.02	72.727
194.40	120.000
194.78	62.500
195.15	41.667
195.53	75.000
195.91	50.000
196.29	175.000
196.66	46.154
197.04	28.571
197.42	155.556
197.79	-233.333
198.17	15.385
198.55	600.000
198.92	0.000
199.30	-300.000
199.68	220.000
200.05	166.667
200.43	0.000
200.81	266.667
201.18	300.000
201.56	1000.000
201.94	500.000
202.31	-133.333
202.69	-80.000
203.07	-150.000
203.44	1400.000
203.82	0.000
204.19	121.429
204.57	-166.667
204.95	-62.500
205.32	0.000
205.70	157.143
206.08	125.000
206.45	211.111
206.83	128.571
207.20	157.143
207.58	200.000
207.96	-133.333
208.33	-10.000
208.71	175.000
209.08	-100.000
209.46	800.000
209.84	60.000
210.21	700.000
210.59	228.571
210.96	16.667
211.34	0.000
211.71	140.000
212.09	-14.286
212.46	-700.000
212.84	0.000
213.22	160.000
213.59	350.000
213.97	53.846
214.34	127.273
214.72	133.333
215.09	175.000
215.47	53.846
215.84	81.818
216.22	-233.333
216.59	212.500
216.97	550.000
217.34	175.000
217.72	-80.000
218.09	50.000
218.47	62.500
218.84	600.000
219.22	255.556
219.59	200.000
219.97	-200.000
220.34	-125.000
220.72	185.714
221.09	125.000
221.47	550.000
221.84	50.000
222.22	-450.000
222.59	63.636
222.97	58.333
223.34	400.000
223.72	78.571
224.09	9.524
224.46	39.286
224.84	500.000
225.21	160.000
225.59	40.000
225.96	-50.000
226.34	-100.000
226.71	-14.286
227.08	66.667
227.46	112.500
227.83	350.000
228.21	144.444
228.58	63.636
228.95	75.000
229.33	-60.000
229.70	6.250
230.08	-25.000
230.45	71.429
230.82	0.000
231.20	13.333
231.57	92.857
231.95	185.714
232.32	50.000
232.69	107.143
233.07	-100.000
233.44	200.000
233.81	100.000
234.19	22.222
234.56	82.353
234.93	-500.000
235.31	200.000
235.68	-100.000
236.05	38.462
236.43	15.000
236.80	82.353
237.17	65.625
237.55	80.000
237.92	29.630
238.29	47.222
238.67	60.000
239.04	35.294
239.41	21.951
239.79	36.667
240.16	63.415
240.53	15.789
240.91	50.000
241.28	44.444
241.65	53.571
242.02	47.945
242.40	48.333
242.77	45.763
243.14	37.879
243.51	37.500
243.89	44.828
244.26	32.184
244.63	46.429
245.00	38.144
245.38	29.897
245.75	21.348
246.12	27.586
246.49	29.752
246.87	43.269
247.24	31.933
247.61	24.561
247.98	42.276
248.36	26.250
248.73	32.895
249.10	31.169
249.47	32.911
249.84	37.255
250.22	39.412
250.59	38.562
250.96	35.211
251.33	25.000
251.70	40.000
252.08	30.964
252.45	33.168
252.82	31.156
253.19	32.258
253.56	26.636
253.94	36.486
254.31	30.870
254.68	32.895
255.05	25.197
255.42	30.568
255.79	32.432
256.16	31.518
256.54	29.851
256.91	34.221
257.28	25.651
257.65	32.210
258.02	30.496
258.39	30.640
258.76	29.304
259.14	37.542
259.51	30.744
259.88	27.148
260.25	33.987
260.62	35.417
260.99	29.831
261.36	29.452
261.73	29.114
262.10	30.091
262.47	29.448
262.85	31.034
263.22	32.308
263.59	32.399
263.96	35.404
264.33	30.000
264.70	28.869
265.07	31.845
265.44	33.711
265.81	29.944
266.18	31.148
266.55	31.877
266.92	32.642
267.29	31.070
267.66	30.435
268.03	32.461
268.40	26.632
268.77	33.155
269.14	26.859
269.51	33.676
269.88	27.182
270.25	28.827
270.62	29.268
270.99	26.854
271.36	31.051
271.73	27.230
272.10	29.684
272.47	30.496
272.84	30.941
273.21	30.626
273.58	31.325
273.95	29.748
274.32	27.021
274.69	29.186
275.06	30.804
275.43	26.304
275.80	29.801
276.17	28.736
276.54	28.480
276.91	32.018
277.28	27.948
277.65	25.620
278.02	28.936
278.39	29.322
278.76	28.092
279.13	25.104
279.50	30.252
279.87	28.510
280.23	28.172
280.60	27.875
280.97	30.505
281.34	27.115
281.71	29.979
282.08	26.380
282.45	27.789
282.82	25.483
283.19	27.853
283.56	27.553
283.92	28.083
284.29	25.769
284.66	29.264
285.03	24.165
285.40	28.544
285.77	24.780
286.14	26.534
286.51	29.336
286.87	25.960
287.24	25.967
287.61	25.220
287.98	28.772
288.35	25.650
288.72	28.021
289.08	26.042
289.45	26.538
289.82	24.825
290.19	24.232
290.56	22.642
290.93	23.906
291.29	24.807
291.66	24.724
292.03	22.648
292.40	22.742
292.77	22.807
293.13	17.857
293.50	21.700
293.87	22.595
294.24	21.947
294.60	22.802
294.97	23.065
295.34	20.859
295.71	22.653
296.08	21.226
296.44	20.910
296.81	20.556
297.18	21.304
297.55	20.867
297.91	19.589
298.28	21.240
298.65	20.081
299.02	20.620
299.38	18.741
299.75	17.931
300.12	20.681
300.48	19.763
300.85	19.518
301.22	19.091
301.59	19.474
301.95	20.253
302.32	19.974
302.69	19.652
303.05	17.946
303.42	19.427
303.79	18.692
304.15	20.191
304.52	18.549
304.89	17.778
305.25	17.918
305.62	18.670
305.99	18.129
306.35	18.035
306.72	18.448
307.09	18.130
307.45	18.255
307.82	18.519
308.19	18.931
308.55	16.467
308.92	18.083
309.29	18.212
309.65	16.900
310.02	17.492
310.38	18.002
310.75	18.579
311.12	17.115
311.48	17.073
311.85	18.220
312.22	18.565
312.58	19.214
312.95	16.862
313.31	17.495
313.68	17.906
314.05	17.551
314.41	17.938
314.78	17.629
315.14	19.938
315.51	18.116
315.87	17.725
316.24	20.526
316.61	19.390
316.97	18.056
317.34	19.141
317.70	20.268
318.07	19.327
318.43	19.020
318.80	19.318
319.16	19.531
319.53	20.323
319.89	19.783
320.26	20.040
320.62	20.963
320.99	20.146
321.35	21.686
321.72	21.599
322.08	22.256
322.45	21.218
322.81	21.709
323.18	22.179
323.54	22.876
323.91	22.980
324.27	23.926
324.64	24.813
325.00	23.631
325.37	25.712
325.73	24.841
326.10	24.977
326.46	27.623
326.83	26.422
327.19	26.765
327.56	27.541
327.92	27.817
328.29	26.964
328.65	28.585
329.01	29.136
329.38	28.940
329.74	29.367
330.11	30.306
330.47	30.056
330.84	29.712
331.20	31.749
331.56	29.074
331.93	30.502
332.29	31.439
332.66	29.955
333.02	31.320
333.38	29.606
333.75	34.249
334.11	31.603
334.48	33.817
334.84	32.143
335.20	31.290
335.57	31.732
335.93	32.972
336.29	33.794
336.66	34.242
337.02	32.156
337.38	32.685
337.75	33.182
338.11	35.077
338.47	34.307
338.84	35.120
339.20	34.369
339.56	35.413
339.93	34.109
340.29	34.220
340.65	34.677
341.02	35.284
341.38	34.425
341.74	35.159
342.11	33.362
342.47	34.520
342.83	34.948
343.20	34.582
343.56	34.957
343.92	34.632
344.28	34.842
344.65	33.938
345.01	35.350
345.37	35.156
345.73	36.569
346.10	37.015
346.46	35.576
346.82	34.861
347.19	33.500
347.55	36.174
347.91	35.841
348.27	34.923
348.63	35.690
349.00	33.306
349.36	35.910
349.72	35.904
350.08	36.148
350.45	37.111
350.81	36.379
351.17	34.121
351.53	35.673
351.89	35.012
352.26	34.560
352.62	35.161
352.98	34.699
353.34	35.507
353.70	36.489
354.07	36.532
354.43	35.068
354.79	36.499
355.15	36.746
355.51	35.364
355.87	37.217
356.24	35.889
356.60	35.408
356.96	35.556
357.32	35.543
357.68	34.558
358.04	35.703
358.40	35.611
358.77	37.241
359.13	37.070
359.49	36.672
359.85	36.895
360.21	37.480
360.57	36.037
360.93	37.670
361.29	36.254
361.66	38.088
362.02	37.045
362.38	37.167
362.74	38.304
363.10	37.698
363.46	38.102
363.82	38.993
364.18	37.491
364.54	36.985
364.90	38.781
365.26	37.846
365.62	38.686
365.98	38.563
366.35	38.456
366.71	39.098
367.07	38.679
367.43	38.965
367.79	39.293
368.15	38.693
368.51	38.019
368.87	38.981
369.23	38.484
369.59	38.994
369.95	39.370
370.31	39.812
370.67	39.701
371.03	39.283
371.39	40.700
371.75	39.927
372.11	40.228
372.47	39.941
372.83	41.448
373.19	39.230
373.55	39.278
373.91	39.669
374.27	40.609
374.63	41.062
374.99	41.489
375.35	40.599
375.71	41.608
376.07	40.660
376.42	41.905
376.78	42.215
377.14	41.165
377.50	41.434
377.86	42.570
378.22	42.183
378.58	41.603
378.94	42.407
379.30	42.109
379.66	42.508
380.02	42.060
380.38	42.362
380.74	43.268
381.09	43.129
381.45	43.853
381.81	42.443
382.17	42.386
382.53	43.785
382.89	44.507
383.25	44.368
383.61	45.122
383.97	44.508
384.32	44.278
384.68	44.706
385.04	43.811
385.40	43.622
385.76	46.352
386.12	45.537
386.48	46.232
386.83	46.100
387.19	46.337
387.55	44.981
387.91	45.966
388.27	46.276
388.62	47.137
388.98	44.506
389.34	46.034
389.70	46.116
390.06	45.752
390.42	46.114
390.77	47.678
391.13	46.721
391.49	47.413
391.85	47.238
392.20	46.328
392.56	47.743
392.92	46.917
393.28	46.816
393.64	47.808
393.99	47.524
394.35	48.008
394.71	48.148
395.07	47.077
395.42	47.480
395.78	48.404
396.14	48.108
396.50	48.637
396.85	48.616
397.21	47.744
397.57	47.900
397.92	47.753
398.28	48.678
398.64	47.530
399.00	48.646
399.35	48.138
399.71	48.306
400.07	49.335
400.42	48.164
400.78	48.990
401.14	49.123
401.49	49.672
401.85	48.934
402.21	48.133
402.57	49.437
402.92	47.992
403.28	49.436
403.63	48.739
403.99	49.043
404.35	49.219
404.70	48.512
405.06	48.472
405.42	49.720
405.77	49.041
406.13	49.360
406.49	50.799
406.84	50.122
407.20	50.090
407.55	48.744
407.91	49.332
408.27	49.841
408.62	49.415
408.98	48.737
409.34	50.062
409.69	50.388
410.05	48.522
410.40	50.000
410.76	51.146
411.11	51.250
411.47	49.441
411.83	49.906
412.18	50.450
412.54	49.813
412.89	49.631
413.25	51.444
413.60	50.000
413.96	49.755
414.31	50.427
414.67	50.289
415.03	50.200
415.38	50.196
415.74	51.792
416.09	50.425
416.45	51.182
416.80	50.430
417.16	51.450
417.51	51.566
417.87	51.173
418.22	52.785
418.58	52.977
418.93	52.539
419.29	51.024
419.64	52.430
420.00	52.456
420.35	50.567
420.71	52.126
421.06	52.548
421.42	53.005
421.77	52.601
422.12	51.476
422.48	52.247
422.83	52.610
423.19	51.524
423.54	53.086
423.90	52.768
424.25	53.617
424.61	54.223
424.96	52.787
425.31	55.113
425.67	53.169
426.02	54.299
426.38	54.477
426.73	54.843
427.09	54.937
427.44	54.824
427.79	55.038
428.15	54.976
428.50	55.482
428.85	55.037
429.21	54.726
429.56	55.040
429.92	54.956
430.27	54.486
430.62	54.940
430.98	55.892
431.33	55.310
431.68	56.044
432.04	55.282
432.39	55.448
432.74	55.081
433.10	56.782
433.45	55.914
433.80	56.645
434.16	55.346
434.51	56.882
434.86	56.911
435.22	55.973
435.57	58.391
435.92	57.126
436.28	57.126
436.63	57.387
436.98	57.010
437.34	57.290
437.69	57.305
438.04	57.892
438.39	57.666
438.75	59.320
439.10	56.876
439.45	58.491
439.81	56.942
440.16	58.373
440.51	58.448
440.86	58.912
441.22	58.032
441.57	57.837
441.92	57.293
442.27	57.262
442.63	58.672
442.98	58.702
443.33	58.264
443.68	58.674
444.03	58.917
444.39	58.633
444.74	59.365
445.09	57.684
445.44	59.430
445.79	60.289
446.15	58.370
446.50	59.235
446.85	58.980
447.20	58.707
447.55	60.435
447.91	59.165
448.26	59.704
448.61	59.298
448.96	59.897
449.31	59.075
449.66	58.246
450.02	58.813
450.37	58.980
450.72	59.908
451.07	60.633
451.42	58.677
451.77	59.253
452.12	57.835
452.47	58.210
452.83	59.658
453.18	59.077
453.53	60.809
453.88	59.563
454.23	59.127
454.58	58.879
454.93	59.923
455.28	57.651
455.63	59.206
455.98	60.553
456.34	59.515
456.69	58.259
457.04	59.987
457.39	59.235
457.74	58.888
458.09	58.564
458.44	59.099
458.79	58.039
459.14	59.554
459.49	58.806
459.84	58.883
460.19	58.799
460.54	58.680
460.89	59.716
461.24	59.503
461.59	59.026
461.94	58.302
462.29	59.107
462.64	59.468
462.99	60.122
463.34	58.971
463.69	58.816
464.04	57.869
464.39	60.643
464.74	57.914
465.09	60.012
465.44	59.723
465.79	58.844
466.14	59.920
466.49	58.367
466.84	58.180
467.19	58.698
467.54	59.195
467.89	59.255
468.24	59.246
468.59	58.921
468.94	58.032
469.29	57.443
469.64	57.895
469.99	60.897
470.34	57.679
470.68	61.298
471.03	58.953
471.38	60.699
471.73	59.244
472.08	58.141
472.43	58.792
472.78	57.779
473.13	59.116
473.48	58.567
473.83	57.534
474.17	58.420
474.52	58.137
474.87	58.242
475.22	58.084
475.57	59.063
475.92	58.310
476.27	57.509
476.61	58.681
476.96	56.944
477.31	58.031
477.66	56.742
478.01	58.001
478.36	57.353
478.70	58.999
479.05	58.681
479.40	57.234
479.75	56.986
480.10	57.757
480.45	57.850
480.79	57.855
481.14	57.992
481.49	56.650
481.84	57.674
482.19	56.782
482.53	58.897
482.88	56.611
483.23	58.061
483.58	57.453
483.92	57.260
484.27	55.697
484.62	55.849
484.97	56.882
485.31	56.900
485.66	56.314
486.01	57.160
486.36	56.301
486.70	56.306
487.05	55.595
487.40	56.618
487.75	56.310
488.09	55.501
488.44	55.605
488.79	55.996
489.13	56.811
489.48	56.947
489.83	55.695
490.17	55.236
490.52	56.166
490.87	55.946
491.22	56.160
491.56	55.882
491.91	55.019
492.26	56.928
492.60	55.470
492.95	57.501
493.30	55.447
493.64	56.778
493.99	55.990
494.34	55.874
494.68	56.286
495.03	56.253
495.37	56.133
495.72	55.780
496.07	56.829
496.41	56.934
496.76	56.840
497.11	55.380
497.45	56.181
497.80	57.518
498.14	54.893
498.49	55.663
498.84	55.988
499.18	55.422
499.53	56.498
499.87	55.788
500.22	56.182
500.56	55.774
500.91	55.823
501.26	55.264
501.60	55.534
501.95	56.429
502.29	55.981
502.64	56.226
502.98	57.129
503.33	54.899
503.67	55.036
504.02	56.647
504.36	55.764
504.71	55.253
505.06	55.108
505.40	54.975
505.75	57.216
506.09	55.651
506.44	56.828
506.78	55.408
507.13	56.463
507.47	55.405
507.82	55.342
508.16	55.626
508.51	55.561
508.85	56.201
509.19	55.136
509.54	55.550
509.88	55.502
510.23	55.675
510.57	56.066
510.92	54.211
511.26	55.265
511.61	56.986
511.95	55.507
512.30	55.931
512.64	55.092
512.98	55.531
513.33	55.624
513.67	55.202
514.02	56.178
514.36	56.343
514.70	55.711
515.05	57.227
515.39	55.254
515.74	56.886
516.08	57.501
516.42	56.537
516.77	57.109
517.11	57.033
517.46	56.373
517.80	55.423
518.14	56.032
518.49	54.507
518.83	56.379
519.17	56.277
519.52	54.944
519.86	54.502
520.20	55.043
520.55	55.285
520.89	56.274
521.23	55.668
521.58	56.088
521.92	55.321
522.26	56.799
522.61	56.948
522.95	57.815
523.29	55.527
523.64	56.226
523.98	56.967
524.32	55.348
524.66	56.914
525.01	56.364
525.35	55.282
525.69	57.104
526.04	55.026
526.38	56.420
526.72	55.199
527.06	55.837
527.41	55.871
527.75	56.032
528.09	56.013
528.43	56.853
528.78	56.370
529.12	55.806
529.46	56.465
529.80	55.478
530.15	56.502
530.49	56.364
530.83	56.498
531.17	55.473
531.51	56.498
531.86	55.472
532.20	55.324
532.54	56.773
532.88	55.715
533.22	55.780
533.57	55.570
533.91	56.201
534.25	56.250
534.59	55.420
534.93	55.632
535.27	54.695
535.62	54.699
535.96	56.099
536.30	55.013
536.64	56.720
536.98	55.819
537.32	56.543
537.66	54.698
538.01	56.364
538.35	55.548
538.69	56.325
539.03	55.707
539.37	55.989
539.71	54.942
540.05	55.669
540.39	54.917
540.73	56.485
541.07	56.768
541.42	54.973
541.76	55.953
542.10	56.779
542.44	56.915
542.78	54.783
543.12	55.426
543.46	55.702
543.80	55.448
544.14	55.007
544.48	54.430
544.82	56.596
545.16	56.626
545.50	56.075
545.84	56.728
546.18	56.454
546.52	56.957
546.86	55.500
547.20	56.223
547.54	54.488
547.88	56.793
548.22	55.161
548.56	55.211
548.90	57.008
549.24	55.096
549.58	55.430
549.92	54.825
550.26	55.897
550.60	56.431
550.94	56.609
551.28	56.182
551.62	58.000
551.96	56.917
552.30	56.067
552.64	56.135
552.98	56.048
553.32	56.134
553.66	55.733
554.00	56.642
554.34	57.238
554.68	56.047
555.02	57.440
555.36	56.470
555.69	55.751
556.03	55.103
556.37	55.231
556.71	56.606
557.05	56.674
557.39	56.803
557.73	58.021
558.07	57.466
558.41	57.274
558.75	57.366
559.08	56.580
559.42	56.984
559.76	58.367
560.10	57.416
560.44	56.813
560.78	56.503
561.12	57.052
561.45	57.273
561.79	56.022
562.13	58.197
562.47	56.619
562.81	56.412
563.15	57.898
563.48	57.921
563.82	57.447
564.16	57.103
564.50	55.811
564.84	56.693
565.17	55.600
565.51	58.470
565.85	58.505
566.19	57.162
566.52	57.842
566.86	57.841
567.20	57.410
567.54	57.968
567.88	57.469
568.21	58.880
568.55	57.500
568.89	58.214
569.23	58.402
569.56	56.436
569.90	58.871
570.24	56.122
570.57	56.873
570.91	57.442
571.25	56.791
571.59	55.559
571.92	55.111
572.26	55.888
572.60	55.721
572.93	55.977
573.27	56.082
573.61	56.116
573.95	56.281
574.28	56.753
574.62	54.666
574.96	55.547
575.29	55.931
575.63	55.481
575.97	55.137
576.30	55.384
576.64	55.179
576.98	56.448
577.31	56.574
577.65	56.651
577.98	56.150
578.32	55.746
578.66	55.040
578.99	55.218
579.33	54.934
579.67	54.504
580.00	55.949
580.34	56.368
580.67	55.218
581.01	56.388
581.35	56.158
581.68	56.800
582.02	56.414
582.35	55.970
582.69	56.623
583.02	55.800
583.36	55.997
583.70	56.049
584.03	56.686
584.37	57.228
584.70	56.676
585.04	55.440
585.37	56.806
585.71	56.776
586.04	56.531
586.38	56.495
586.72	57.331
587.05	58.001
587.39	57.730
587.72	58.639
588.06	58.013
588.39	57.619
588.73	57.631
589.06	58.350
589.40	57.760
589.73	58.415
590.07	58.988
590.40	58.978
590.73	59.679
591.07	58.015
591.40	59.038
591.74	59.774
592.07	60.111
592.41	59.187
592.74	58.542
593.08	57.527
593.41	58.913
593.75	58.783
594.08	58.359
594.41	58.224
594.75	58.473
595.08	59.402
595.42	59.404
595.75	59.594
596.09	59.226
596.42	59.653
596.75	59.503
597.09	58.405
597.42	59.259
597.75	59.780
598.09	58.126
598.42	57.852
598.76	58.988
599.09	59.095
599.42	58.772
599.76	58.578
600.09	59.125
600.42	59.363
600.76	58.618
601.09	58.740
601.42	58.598
601.76	59.587
602.09	59.695
602.42	59.899
602.76	60.272
603.09	60.174
603.42	61.371
603.76	59.879
604.09	59.660
604.42	60.956
604.76	60.525
605.09	60.283
605.42	60.000
605.75	59.063
606.09	60.297
606.42	58.465
606.75	59.524
607.09	58.813
607.42	59.548
607.75	60.036
608.08	60.288
608.42	60.302
608.75	60.723
609.08	61.335
609.41	60.254
609.75	60.433
610.08	61.508
610.41	59.662
610.74	60.215
611.07	60.155
611.41	60.457
611.74	61.087
612.07	61.242
612.40	61.433
612.73	61.582
613.07	59.505
613.40	60.449
613.73	61.444
614.06	60.545
614.39	60.857
614.72	60.728
615.06	60.391
615.39	59.389
615.72	60.657
616.05	61.285
616.38	59.829
616.71	60.612
617.05	61.519
617.38	60.591
617.71	61.950
618.04	62.857
618.37	62.421
618.70	62.046
619.03	62.569
619.36	61.143
619.69	63.760
620.03	63.039
620.36	62.876
620.69	63.383
621.02	61.927
621.35	63.402
621.68	64.286
622.01	63.417
622.34	64.405
622.67	62.224
623.00	60.873
623.33	63.491
623.66	62.827
623.99	61.346
624.32	63.194
624.65	62.707
624.99	63.807
625.32	63.078
625.65	63.629
625.98	64.948
626.31	63.591
626.64	63.865
626.97	63.438
627.30	64.799
627.63	62.738
627.96	65.678
628.29	62.720
628.62	64.110
628.95	62.926
629.28	65.524
629.61	66.002
629.94	63.930
630.26	65.909
630.59	65.036
630.92	64.000
631.25	64.103
631.58	67.511
631.91	65.022
632.24	65.596
632.57	64.773
632.90	67.141
633.23	66.941
633.56	65.743
633.89	64.982
