SpectraSuite Data File
++++++++++++++++++++++++++++++++++++
Date: Fri May 15 17:17:35 PDT 2015
User: schluterlab
Dark Spectrum Present: Yes
Reference Spectrum Present: Yes
Number of Sampled Component Spectra: 1
Spectrometers: USB2E3373
Integration Time (usec): 3000 (USB2E3373)
Spectra Averaged: 3 (USB2E3373)
Boxcar Smoothing: 0 (USB2E3373)
Correct for Electrical Dark: No (USB2E3373)
Strobe/Lamp Enabled: No (USB2E3373)
Correct for Detector Non-linearity: No (USB2E3373)
Correct for Stray Light: No (USB2E3373)
Number of Pixels in Processed Spectrum: 2048
>>>>>Begin Processed Spectral Data<<<<<
178.53	0.000
178.91	0.000
179.29	112.500
179.67	350.000
180.04	-200.000
180.42	375.000
180.80	500.000
181.18	-400.000
181.56	250.000
181.94	450.000
182.31	400.000
182.69	260.000
183.07	-166.667
183.45	140.000
183.83	66.667
184.20	136.364
184.58	33.333
184.96	-125.000
185.34	-100.000
185.72	200.000
186.09	30.769
186.47	300.000
186.85	-116.667
187.23	-55.556
187.61	-800.000
187.98	66.667
188.36	133.333
188.74	-66.667
189.12	76.471
189.49	94.444
189.87	0.000
190.25	107.143
190.63	50.000
191.00	-233.333
191.38	10.526
191.76	750.000
192.14	-200.000
192.51	200.000
192.89	111.111
193.27	28.571
193.65	116.667
194.02	100.000
194.40	50.000
194.78	-112.500
195.15	0.000
195.53	37.500
195.91	325.000
196.29	25.000
196.66	30.769
197.04	-0.000
197.42	-33.333
197.79	-233.333
198.17	0.000
198.55	800.000
198.92	33.333
199.30	1300.000
199.68	-160.000
200.05	66.667
200.43	0.000
200.81	233.333
201.18	400.000
201.56	-700.000
201.94	50.000
202.31	-233.333
202.69	-100.000
203.07	-50.000
203.44	1300.000
203.82	0.000
204.19	142.857
204.57	-166.667
204.95	-100.000
205.32	110.000
205.70	157.143
206.08	100.000
206.45	222.222
206.83	121.429
207.20	0.000
207.58	700.000
207.96	-266.667
208.33	-40.000
208.71	75.000
209.08	-133.333
209.46	-200.000
209.84	100.000
210.21	-200.000
210.59	100.000
210.96	100.000
211.34	0.000
211.71	66.667
212.09	14.286
212.46	-1100.000
212.84	0.000
213.22	110.000
213.59	-50.000
213.97	84.615
214.34	136.364
214.72	116.667
215.09	125.000
215.47	-15.385
215.84	45.455
216.22	66.667
216.59	75.000
216.97	50.000
217.34	100.000
217.72	-60.000
218.09	137.500
218.47	50.000
218.84	100.000
219.22	22.222
219.59	40.000
219.97	166.667
220.34	-75.000
220.72	85.714
221.09	75.000
221.47	250.000
221.84	-150.000
222.22	-100.000
222.59	27.273
222.97	100.000
223.34	0.000
223.72	35.714
224.09	9.524
224.46	39.286
224.84	66.667
225.21	80.000
225.59	60.000
225.96	-200.000
226.34	450.000
226.71	57.143
227.08	83.333
227.46	112.500
227.83	50.000
228.21	-22.222
228.58	18.182
228.95	-25.000
229.33	-10.000
229.70	56.250
230.08	0.000
230.45	-42.857
230.82	242.857
231.20	40.000
231.57	100.000
231.95	128.571
232.32	70.000
232.69	7.143
233.07	366.667
233.44	-20.000
233.81	-10.000
234.19	-22.222
234.56	35.294
234.93	-200.000
235.31	200.000
235.68	-180.000
236.05	-15.385
236.43	-40.000
236.80	17.647
237.17	34.375
237.55	10.000
237.92	11.111
238.29	33.333
238.67	16.667
239.04	11.765
239.41	-7.317
239.79	3.333
240.16	29.268
240.53	18.421
240.91	6.522
241.28	25.397
241.65	30.357
242.02	17.808
242.40	1.667
242.77	6.780
243.14	-7.576
243.51	6.250
243.89	13.793
244.26	4.598
244.63	14.286
245.00	8.247
245.38	19.588
245.75	-15.730
246.12	3.448
246.49	9.917
246.87	5.769
247.24	1.681
247.61	1.754
247.98	-0.813
248.36	6.250
248.73	1.974
249.10	-1.299
249.47	6.329
249.84	-4.575
250.22	0.588
250.59	0.000
250.96	6.103
251.33	-1.163
251.70	1.765
252.08	-0.508
252.45	6.931
252.82	4.523
253.19	2.304
253.56	-4.673
253.94	4.054
254.31	6.522
254.68	3.947
255.05	-2.756
255.42	-0.873
255.79	2.703
256.16	0.389
256.54	3.358
256.91	1.141
257.28	1.115
257.65	-1.124
258.02	0.355
258.39	5.387
258.76	2.930
259.14	3.987
259.51	4.531
259.88	-0.687
260.25	0.980
260.62	3.472
260.99	0.000
261.36	-1.712
261.73	-2.215
262.10	4.863
262.47	2.147
262.85	1.254
263.22	-0.615
263.59	3.738
263.96	4.658
264.33	0.909
264.70	1.190
265.07	-0.595
265.44	4.249
265.81	0.847
266.18	0.546
266.55	3.856
266.92	1.036
267.29	2.611
267.66	2.302
268.03	-0.262
268.40	-2.089
268.77	3.209
269.14	2.158
269.51	2.828
269.88	1.496
270.25	2.041
270.62	-0.244
270.99	-0.767
271.36	0.244
271.73	3.286
272.10	-0.243
272.47	1.418
272.84	1.238
273.21	3.248
273.58	2.169
273.95	2.288
274.32	1.155
274.69	0.000
275.06	0.223
275.43	0.454
275.80	2.208
276.17	-0.230
276.54	2.570
276.91	-0.439
277.28	-0.437
277.65	2.273
278.02	1.277
278.39	0.438
278.76	1.468
279.13	-0.207
279.50	2.101
279.87	3.024
280.23	0.860
280.60	2.924
280.97	1.010
281.34	-0.962
281.71	1.643
282.08	0.613
282.45	-0.196
282.82	1.158
283.19	0.387
283.56	1.541
283.92	-1.518
284.29	-0.577
284.66	1.163
285.03	-0.196
285.40	0.378
285.77	-0.176
286.14	1.625
286.51	2.952
286.87	2.194
287.24	-0.184
287.61	-0.705
287.98	1.228
288.35	0.520
288.72	0.175
289.08	1.562
289.45	1.406
289.82	1.573
290.19	0.171
290.56	0.515
290.93	1.010
291.29	1.695
291.66	3.150
292.03	0.159
292.40	0.645
292.77	1.754
293.13	-0.812
293.50	0.607
293.87	1.527
294.24	1.236
294.60	0.298
294.97	1.935
295.34	-0.613
295.71	1.043
296.08	1.644
296.44	0.569
296.81	2.083
297.18	0.435
297.55	1.626
297.91	1.370
298.28	1.187
298.65	2.849
299.02	-0.135
299.38	-1.368
299.75	0.138
300.12	-0.131
300.48	0.132
300.85	0.507
301.22	-0.909
301.59	-2.237
301.95	0.886
302.32	1.297
302.69	0.995
303.05	0.743
303.42	0.623
303.79	0.701
304.15	1.553
304.52	0.832
304.89	0.468
305.25	1.332
305.62	0.117
305.99	0.117
306.35	-0.925
306.72	0.000
307.09	0.570
307.45	0.918
307.82	0.463
308.19	0.348
308.55	0.000
308.92	1.634
309.29	-0.223
309.65	0.753
310.02	1.210
310.38	0.659
310.75	1.749
311.12	-0.431
311.48	0.848
311.85	1.466
312.22	-0.422
312.58	0.849
312.95	0.213
313.31	1.035
313.68	1.047
314.05	0.204
314.41	1.031
314.78	0.103
315.14	0.411
315.51	1.553
315.87	0.000
316.24	1.618
316.61	2.461
316.97	1.687
317.34	1.660
317.70	2.103
318.07	1.346
318.43	1.569
318.80	0.284
319.16	1.465
319.53	1.804
319.89	1.181
320.26	1.518
320.62	2.508
320.99	2.088
321.35	2.569
321.72	3.219
322.08	1.813
322.45	2.437
322.81	3.438
323.18	3.631
323.54	3.764
323.91	3.700
324.27	3.516
324.64	5.056
325.00	6.569
325.37	6.612
325.73	6.074
326.10	6.630
326.46	7.444
326.83	7.962
327.19	7.934
327.56	9.209
327.92	10.299
328.29	10.714
328.65	11.226
329.01	12.224
329.38	12.811
329.74	13.031
330.11	13.438
330.47	15.213
330.84	14.327
331.20	17.776
331.56	15.463
331.93	18.082
332.29	18.515
332.66	18.552
333.02	18.773
333.38	19.065
333.75	21.337
334.11	19.875
334.48	20.762
334.84	21.795
335.20	21.775
335.57	22.484
335.93	22.313
336.29	23.112
336.66	21.526
337.02	22.677
337.38	23.519
337.75	24.636
338.11	23.625
338.47	24.270
338.84	24.214
339.20	24.223
339.56	23.578
339.93	25.873
340.29	25.413
340.65	24.910
341.02	24.734
341.38	25.133
341.74	23.763
342.11	24.263
342.47	24.911
342.83	25.433
343.20	24.042
343.56	25.130
343.92	25.775
344.28	25.192
344.65	24.698
345.01	26.448
345.37	25.568
345.73	26.192
346.10	25.712
346.46	26.241
346.82	25.041
347.19	24.938
347.55	25.815
347.91	25.809
348.27	24.656
348.63	25.639
349.00	25.595
349.36	26.600
349.72	27.197
350.08	25.574
350.45	26.097
350.81	25.166
351.17	24.349
351.53	26.531
351.89	25.268
352.26	25.680
352.62	25.968
352.98	26.747
353.34	24.718
353.70	25.890
354.07	25.484
354.43	26.181
354.79	25.434
355.15	26.984
355.51	26.187
355.87	25.405
356.24	25.449
356.60	25.627
356.96	26.190
357.32	25.479
357.68	25.801
358.04	26.171
358.40	25.080
358.77	27.193
359.13	27.062
359.49	26.502
359.85	25.585
360.21	26.954
360.57	25.555
360.93	26.475
361.29	25.453
361.66	27.038
362.02	27.273
362.38	26.961
362.74	26.722
363.10	27.991
363.46	25.723
363.82	28.249
364.18	26.716
364.54	27.059
364.90	26.738
365.26	26.565
365.62	27.737
365.98	27.273
366.35	28.114
366.71	26.903
367.07	28.157
367.43	27.103
367.79	27.774
368.15	26.849
368.51	27.895
368.87	27.710
369.23	27.942
369.59	28.134
369.95	28.666
370.31	28.685
370.67	28.209
371.03	27.035
371.39	27.571
371.75	28.425
372.11	28.245
372.47	29.068
372.83	28.389
373.19	29.030
373.55	28.375
373.91	29.374
374.27	29.128
374.63	29.576
374.99	27.730
375.35	29.318
375.71	30.140
376.07	29.213
376.42	29.524
376.78	29.732
377.14	28.978
377.50	29.482
377.86	29.987
378.22	30.121
378.58	29.872
378.94	30.687
379.30	29.944
379.66	31.223
380.02	29.001
380.38	29.154
380.74	29.563
381.09	30.859
381.45	30.581
381.81	31.092
382.17	30.838
382.53	30.418
382.89	30.822
383.25	31.425
383.61	31.707
383.97	31.365
384.32	31.707
384.68	30.774
385.04	31.863
385.40	31.238
385.76	32.704
386.12	32.471
386.48	32.695
386.83	32.403
387.19	32.234
387.55	31.995
387.91	32.885
388.27	32.845
388.62	32.536
388.98	31.553
389.34	32.355
389.70	33.561
390.06	31.970
390.42	32.448
390.77	32.897
391.13	31.526
391.49	32.665
391.85	32.619
392.20	31.576
392.56	32.422
392.92	33.001
393.28	32.665
393.64	32.913
393.99	33.103
394.35	32.385
394.71	33.142
395.07	32.055
395.42	32.301
395.78	33.029
396.14	33.480
396.50	34.242
396.85	33.162
397.21	34.085
397.57	33.229
397.92	32.774
398.28	33.966
398.64	31.928
399.00	33.973
399.35	31.941
399.71	31.821
400.07	32.104
400.42	32.313
400.78	32.578
401.14	32.486
401.49	32.758
401.85	31.749
402.21	32.349
402.57	32.688
402.92	32.434
403.28	31.579
403.63	31.778
403.99	32.207
404.35	33.292
404.70	31.726
405.06	31.022
405.42	32.256
405.77	30.796
406.13	31.257
406.49	32.031
406.84	32.457
407.20	32.450
407.55	31.487
407.91	31.684
408.27	31.485
408.62	32.246
408.98	31.793
409.34	32.094
409.69	31.331
410.05	31.650
410.40	31.235
410.76	31.665
411.11	31.063
411.47	30.966
411.83	31.952
412.18	32.239
412.54	30.899
412.89	31.219
413.25	32.070
413.60	31.491
413.96	30.798
414.31	31.037
414.67	31.302
415.03	31.691
415.38	31.593
415.74	31.336
416.09	32.724
416.45	32.478
416.80	31.659
417.16	32.113
417.51	32.045
417.87	31.030
418.22	31.865
418.58	31.438
418.93	32.790
419.29	30.730
419.64	32.145
420.00	32.053
420.35	30.925
420.71	33.050
421.06	31.860
421.42	32.993
421.77	31.676
422.12	32.009
422.48	32.106
422.83	32.309
423.19	32.167
423.54	32.275
423.90	32.097
424.25	32.032
424.61	33.721
424.96	32.346
425.31	33.044
425.67	32.864
426.02	33.628
426.38	34.502
426.73	33.959
427.09	35.063
427.44	33.529
427.79	33.707
428.15	33.617
428.50	34.101
428.85	33.477
429.21	33.786
429.56	35.040
429.92	34.617
430.27	33.835
430.62	33.612
430.98	33.493
431.33	34.227
431.68	33.909
432.04	34.489
432.39	34.227
432.74	33.854
433.10	35.000
433.45	34.229
433.80	35.055
434.16	34.737
434.51	34.409
434.86	33.624
435.22	35.614
435.57	33.936
435.92	34.311
436.28	34.884
436.63	35.482
436.98	33.778
437.34	34.906
437.69	35.182
438.04	34.587
438.39	34.453
438.75	36.066
439.10	35.654
439.45	35.301
439.81	36.208
440.16	35.392
440.51	35.522
440.86	37.039
441.22	36.369
441.57	36.258
441.92	36.726
442.27	36.142
442.63	37.634
442.98	35.841
443.33	36.060
443.68	35.544
444.03	36.910
444.39	37.236
444.74	37.458
445.09	36.247
445.44	37.094
445.79	36.823
446.15	37.280
446.50	36.439
446.85	36.823
447.20	36.496
447.55	37.667
447.91	36.548
448.26	35.913
448.61	36.730
448.96	37.177
449.31	36.705
449.66	37.340
450.02	36.281
450.37	37.641
450.72	37.056
451.07	37.278
451.42	36.330
451.77	37.131
452.12	36.483
452.47	35.544
452.83	37.102
453.18	37.255
453.53	36.410
453.88	37.219
454.23	37.615
454.58	37.720
454.93	37.436
455.28	36.698
455.63	37.384
455.98	38.184
456.34	37.420
456.69	36.849
457.04	37.681
457.39	36.938
457.74	37.485
458.09	36.198
458.44	36.688
458.79	37.647
459.14	37.815
459.49	37.851
459.84	37.281
460.19	38.107
460.54	38.264
460.89	37.273
461.24	38.261
461.59	37.886
461.94	36.604
462.29	38.118
462.64	37.342
462.99	37.982
463.34	36.996
463.69	37.066
464.04	36.743
464.39	37.720
464.74	36.503
465.09	37.867
465.44	37.565
465.79	35.941
466.14	38.027
466.49	36.343
466.84	37.002
467.19	37.046
467.54	37.101
467.89	37.271
468.24	37.530
468.59	37.778
468.94	36.317
469.29	38.623
469.64	37.526
469.99	37.141
470.34	36.109
470.68	36.689
471.03	37.650
471.38	37.375
471.73	36.695
472.08	37.178
472.43	37.718
472.78	36.806
473.13	38.435
473.48	37.590
473.83	36.675
474.17	37.176
474.52	36.631
474.87	38.545
475.22	37.096
475.57	36.985
475.92	37.521
476.27	37.776
476.61	37.211
476.96	36.029
477.31	37.966
477.66	37.921
478.01	37.282
478.36	37.255
478.70	37.847
479.05	37.418
479.40	37.626
479.75	36.392
480.10	36.969
480.45	37.100
480.79	38.570
481.14	37.346
481.49	36.207
481.84	37.355
482.19	37.371
482.53	37.026
482.88	37.136
483.23	36.948
483.58	37.783
483.92	36.447
484.27	36.281
484.62	36.710
484.97	36.484
485.31	36.669
485.66	37.238
486.01	37.615
486.36	36.722
486.70	36.252
487.05	36.431
487.40	36.117
487.75	35.887
488.09	35.136
488.44	35.970
488.79	35.936
489.13	36.619
489.48	36.469
489.83	36.592
490.17	35.551
490.52	36.305
490.87	35.909
491.22	36.963
491.56	36.243
491.91	35.899
492.26	37.093
492.60	37.140
492.95	36.744
493.30	36.883
493.64	36.493
493.99	37.150
494.34	35.825
494.68	36.524
495.03	35.231
495.37	36.506
495.72	37.304
496.07	37.463
496.41	36.651
496.76	36.205
497.11	35.678
497.45	36.420
497.80	38.396
498.14	36.513
498.49	36.160
498.84	35.579
499.18	37.651
499.53	36.409
499.87	35.846
500.22	34.965
500.56	36.006
500.91	35.191
501.26	36.777
501.60	36.940
501.95	36.390
502.29	35.400
502.64	36.390
502.98	36.458
503.33	35.687
503.67	36.096
504.02	36.217
504.36	36.813
504.71	35.505
505.06	35.481
505.40	35.838
505.75	36.031
506.09	35.631
506.44	36.704
506.78	36.173
507.13	36.298
507.47	35.405
507.82	35.684
508.16	36.609
508.51	35.729
508.85	35.950
509.19	35.391
509.54	35.764
509.88	36.516
510.23	35.234
510.57	35.703
510.92	34.328
511.26	36.225
511.61	36.139
511.95	35.781
512.30	35.865
512.64	36.171
512.98	36.272
513.33	35.534
513.67	35.418
514.02	37.243
514.36	36.286
514.70	37.063
515.05	37.544
515.39	35.065
515.74	37.006
516.08	37.298
516.42	36.690
516.77	36.747
517.11	35.549
517.46	35.248
517.80	35.638
518.14	35.456
518.49	35.517
518.83	35.541
519.17	34.991
519.52	36.057
519.86	35.234
520.20	34.690
520.55	36.398
520.89	35.947
521.23	37.049
521.58	35.521
521.92	36.218
522.26	37.085
522.61	35.714
522.95	35.563
523.29	35.642
523.64	35.324
523.98	36.034
524.32	35.825
524.66	36.364
525.01	35.974
525.35	36.099
525.69	35.219
526.04	34.458
526.38	35.992
526.72	34.598
527.06	35.149
527.41	36.609
527.75	35.523
528.09	34.551
528.43	36.394
528.78	35.380
529.12	35.097
529.46	35.413
529.80	35.149
530.15	36.700
530.49	34.613
530.83	36.252
531.17	35.460
531.51	35.021
531.86	34.738
532.20	34.308
532.54	34.990
532.88	35.318
533.22	35.148
533.57	34.862
533.91	34.399
534.25	34.896
534.59	34.573
534.93	34.298
535.27	35.025
535.62	34.089
535.96	34.703
536.30	35.752
536.64	36.802
536.98	35.749
537.32	36.131
537.66	36.255
538.01	35.105
538.35	36.546
538.69	35.486
539.03	35.680
539.37	35.330
539.71	35.106
540.05	34.759
540.39	34.695
540.73	35.565
541.07	34.876
541.42	35.282
541.76	35.306
542.10	35.444
542.44	35.789
542.78	34.136
543.12	34.547
543.46	35.327
543.80	35.739
544.14	33.445
544.48	34.177
544.82	35.065
545.16	35.656
545.50	34.646
545.84	34.773
546.18	35.603
546.52	34.751
546.86	34.508
547.20	35.265
547.54	34.064
547.88	34.307
548.22	33.859
548.56	34.433
548.90	34.097
549.24	33.402
549.58	34.838
549.92	33.667
550.26	34.652
550.60	35.316
550.94	34.727
551.28	35.471
551.62	35.462
551.96	35.865
552.30	34.576
552.64	34.203
552.98	34.318
553.32	33.809
553.66	34.253
554.00	35.255
554.34	33.826
554.68	33.702
555.02	35.193
555.36	34.106
555.69	33.333
556.03	35.118
556.37	34.021
556.71	34.729
557.05	34.899
557.39	34.647
557.73	34.183
558.07	33.560
558.41	35.375
558.75	34.606
559.08	34.279
559.42	35.397
559.76	34.508
560.10	34.557
560.44	34.698
560.78	34.336
561.12	34.697
561.45	35.488
561.79	34.384
562.13	34.989
562.47	34.676
562.81	34.510
563.15	34.485
563.48	34.158
563.82	34.798
564.16	34.401
564.50	34.257
564.84	34.873
565.17	34.004
565.51	35.861
565.85	33.813
566.19	33.820
566.52	34.853
566.86	35.154
567.20	34.807
567.54	33.637
567.88	34.739
568.21	35.011
568.55	35.163
568.89	34.600
569.23	34.280
569.56	34.632
569.90	34.633
570.24	33.383
570.57	34.436
570.91	34.054
571.25	33.542
571.59	33.136
571.92	33.333
572.26	32.911
572.60	32.806
572.93	33.354
573.27	32.853
573.61	33.532
573.95	33.834
574.28	33.157
574.62	32.749
574.96	32.934
575.29	32.332
575.63	32.055
575.97	32.638
576.30	32.893
576.64	32.954
576.98	33.436
577.31	33.276
577.65	33.670
577.98	33.474
578.32	32.680
578.66	32.581
578.99	32.148
579.33	32.725
579.67	31.996
580.00	32.557
580.34	33.234
580.67	32.789
581.01	32.685
581.35	32.924
581.68	32.887
582.02	33.107
582.35	32.201
582.69	33.268
583.02	32.472
583.36	32.576
583.70	33.437
584.03	32.944
584.37	33.682
584.70	33.104
585.04	32.668
585.37	32.875
585.71	33.128
586.04	32.829
586.38	32.862
586.72	33.286
587.05	33.160
587.39	33.100
587.72	33.953
588.06	33.241
588.39	33.068
588.73	32.814
589.06	33.725
589.40	33.045
589.73	34.100
590.07	33.912
590.40	33.785
590.73	34.185
591.07	33.673
591.40	34.105
591.74	34.570
592.07	35.019
592.41	33.922
592.74	33.572
593.08	32.728
593.41	33.048
593.75	33.039
594.08	33.299
594.41	33.079
594.75	33.321
595.08	33.787
595.42	32.720
595.75	33.534
596.09	33.346
596.42	33.196
596.75	34.192
597.09	34.123
597.42	33.740
597.75	34.219
598.09	34.178
598.42	32.717
598.76	33.162
599.09	33.213
599.42	32.588
599.76	33.220
600.09	33.786
600.42	33.207
600.76	33.098
601.09	32.939
601.42	33.412
601.76	33.029
602.09	32.756
602.42	33.656
602.76	33.701
603.09	33.887
603.42	33.946
603.76	32.460
604.09	32.847
604.42	33.587
604.76	33.333
605.09	32.952
605.42	33.093
605.75	33.056
606.09	32.611
606.42	32.902
606.75	33.203
607.09	33.626
607.42	32.875
607.75	33.526
608.08	32.435
608.42	32.618
608.75	33.542
609.08	33.582
609.41	33.503
609.75	33.669
610.08	34.299
610.41	33.188
610.74	33.301
611.07	33.695
611.41	34.146
611.74	33.955
612.07	33.994
612.40	34.409
612.73	34.576
613.07	33.858
613.40	34.136
613.73	32.513
614.06	33.890
614.39	33.897
614.72	34.006
615.06	32.961
615.39	33.952
615.72	33.638
616.05	33.464
616.38	31.909
616.71	34.373
617.05	33.539
617.38	34.255
617.71	34.969
618.04	35.683
618.37	34.174
618.70	33.861
619.03	34.722
619.36	34.009
619.69	34.875
620.03	35.427
620.36	33.619
620.69	35.046
621.02	33.945
621.35	34.191
621.68	35.714
622.01	34.917
622.34	34.796
622.67	35.016
623.00	35.299
623.33	35.213
623.66	33.209
623.99	34.342
624.32	34.829
624.65	33.233
624.99	33.484
625.32	33.889
625.65	35.978
625.98	35.133
626.31	33.998
626.64	35.095
626.97	35.166
627.30	35.114
627.63	35.962
627.96	35.580
628.29	35.430
628.62	34.907
628.95	34.770
629.28	36.190
629.61	34.995
629.94	36.168
630.26	34.783
630.59	35.900
630.92	34.872
631.25	35.590
631.58	34.581
631.91	36.184
632.24	36.583
632.57	35.341
632.90	33.452
633.23	35.765
633.56	35.013
633.89	35.758
634.22	36.667
634.55	35.705
634.88	35.632
635.20	35.513
635.53	35.467
635.86	35.371
636.19	38.292
636.52	36.097
636.85	34.243
637.18	34.591
637.51	34.843
637.83	34.823
638.16	38.608
