SpectraSuite Data File
++++++++++++++++++++++++++++++++++++
Date: Fri May 15 17:17:51 PDT 2015
User: schluterlab
Dark Spectrum Present: Yes
Reference Spectrum Present: Yes
Number of Sampled Component Spectra: 1
Spectrometers: USB2E3373
Integration Time (usec): 3000 (USB2E3373)
Spectra Averaged: 3 (USB2E3373)
Boxcar Smoothing: 0 (USB2E3373)
Correct for Electrical Dark: No (USB2E3373)
Strobe/Lamp Enabled: No (USB2E3373)
Correct for Detector Non-linearity: No (USB2E3373)
Correct for Stray Light: No (USB2E3373)
Number of Pixels in Processed Spectrum: 2048
>>>>>Begin Processed Spectral Data<<<<<
178.53	0.000
178.91	0.000
179.29	162.500
179.67	-50.000
180.04	-0.000
180.42	100.000
180.80	200.000
181.18	-66.667
181.56	-450.000
181.94	350.000
182.31	-700.000
182.69	-60.000
183.07	133.333
183.45	140.000
183.83	66.667
184.20	45.455
184.58	-44.444
184.96	-100.000
185.34	-533.333
185.72	0.000
186.09	61.538
186.47	-300.000
186.85	-116.667
187.23	133.333
187.61	200.000
187.98	-66.667
188.36	33.333
188.74	133.333
189.12	47.059
189.49	72.222
189.87	0.000
190.25	100.000
190.63	650.000
191.00	300.000
191.38	63.158
191.76	600.000
192.14	-100.000
192.51	850.000
192.89	77.778
193.27	85.714
193.65	16.667
194.02	190.909
194.40	130.000
194.78	-150.000
195.15	58.333
195.53	12.500
195.91	225.000
196.29	-75.000
196.66	92.308
197.04	14.286
197.42	-88.889
197.79	100.000
198.17	-30.769
198.55	700.000
198.92	166.667
199.30	800.000
199.68	80.000
200.05	166.667
200.43	0.000
200.81	233.333
201.18	166.667
201.56	400.000
201.94	100.000
202.31	-100.000
202.69	-20.000
203.07	-25.000
203.44	400.000
203.82	0.000
204.19	92.857
204.57	-200.000
204.95	-37.500
205.32	220.000
205.70	271.429
206.08	-25.000
206.45	344.444
206.83	121.429
207.20	85.714
207.58	-700.000
207.96	-66.667
208.33	30.000
208.71	0.000
209.08	-183.333
209.46	200.000
209.84	100.000
210.21	0.000
210.59	114.286
210.96	83.333
211.34	150.000
211.71	106.667
212.09	71.429
212.46	-500.000
212.84	0.000
213.22	100.000
213.59	550.000
213.97	130.769
214.34	90.909
214.72	50.000
215.09	150.000
215.47	76.923
215.84	190.909
216.22	-133.333
216.59	75.000
216.97	400.000
217.34	150.000
217.72	-220.000
218.09	225.000
218.47	-0.000
218.84	-100.000
219.22	111.111
219.59	60.000
219.97	333.333
220.34	75.000
220.72	200.000
221.09	75.000
221.47	550.000
221.84	-450.000
222.22	-100.000
222.59	54.545
222.97	108.333
223.34	-166.667
223.72	-14.286
224.09	57.143
224.46	28.571
224.84	33.333
225.21	110.000
225.59	120.000
225.96	250.000
226.34	100.000
226.71	0.000
227.08	16.667
227.46	112.500
227.83	-300.000
228.21	100.000
228.58	154.545
228.95	75.000
229.33	-60.000
229.70	106.250
230.08	112.500
230.45	28.571
230.82	200.000
231.20	60.000
231.57	78.571
231.95	128.571
232.32	10.000
232.69	114.286
233.07	166.667
233.44	180.000
233.81	-30.000
234.19	44.444
234.56	52.941
234.93	150.000
235.31	200.000
235.68	-180.000
236.05	7.692
236.43	25.000
236.80	-5.882
237.17	18.750
237.55	5.000
237.92	18.519
238.29	16.667
238.67	20.000
239.04	20.588
239.41	-12.195
239.79	-6.667
240.16	41.463
240.53	-5.263
240.91	8.696
241.28	15.873
241.65	25.000
242.02	16.438
242.40	15.000
242.77	11.864
243.14	9.091
243.51	17.500
243.89	24.138
244.26	8.046
244.63	19.048
245.00	20.619
245.38	22.680
245.75	11.236
246.12	10.345
246.49	15.702
246.87	12.500
247.24	5.042
247.61	8.772
247.98	8.943
248.36	10.625
248.73	12.500
249.10	12.987
249.47	10.759
249.84	2.614
250.22	10.588
250.59	9.150
250.96	19.718
251.33	10.465
251.70	8.235
252.08	14.213
252.45	17.822
252.82	14.573
253.19	11.982
253.56	9.346
253.94	10.360
254.31	11.304
254.68	14.912
255.05	8.661
255.42	13.537
255.79	11.969
256.16	7.782
256.54	15.299
256.91	7.985
257.28	11.524
257.65	10.112
258.02	12.057
258.39	14.141
258.76	12.454
259.14	9.302
259.51	11.003
259.88	9.966
260.25	9.477
260.62	13.889
260.99	9.831
261.36	10.274
261.73	10.127
262.10	9.119
262.47	9.509
262.85	8.150
263.22	10.769
263.59	7.165
263.96	11.180
264.33	10.909
264.70	10.714
265.07	8.929
265.44	15.581
265.81	9.322
266.18	10.656
266.55	13.368
266.92	11.917
267.29	11.749
267.66	10.230
268.03	12.042
268.40	9.138
268.77	8.824
269.14	11.751
269.51	8.740
269.88	9.726
270.25	9.184
270.62	8.780
270.99	7.673
271.36	7.824
271.73	12.676
272.10	9.732
272.47	12.530
272.84	8.663
273.21	12.065
273.58	11.807
273.95	10.984
274.32	12.009
274.69	7.919
275.06	9.598
275.43	10.204
275.80	7.726
276.17	9.195
276.54	10.707
276.91	10.965
277.28	11.135
277.65	10.744
278.02	11.702
278.39	11.160
278.76	8.805
279.13	5.602
279.50	9.874
279.87	12.311
280.23	10.323
280.60	10.721
280.97	12.929
281.34	7.692
281.71	10.472
282.08	8.180
282.45	10.176
282.82	8.108
283.19	9.478
283.56	12.139
283.92	6.831
284.29	8.846
284.66	9.496
285.03	10.020
285.40	10.397
285.77	7.557
286.14	10.289
286.51	11.439
286.87	9.506
287.24	8.656
287.61	6.878
287.98	10.175
288.35	8.146
288.72	9.457
289.08	7.118
289.45	10.896
289.82	8.741
290.19	7.509
290.56	8.062
290.93	7.744
291.29	8.166
291.66	10.394
292.03	7.974
292.40	9.516
292.77	7.815
293.13	5.844
293.50	8.346
293.87	7.939
294.24	8.192
294.60	7.601
294.97	7.887
295.34	9.049
295.71	8.197
296.08	7.324
296.44	4.694
296.81	6.944
297.18	6.812
297.55	7.588
297.91	7.260
298.28	8.047
298.65	7.191
299.02	6.739
299.38	4.788
299.75	6.207
300.12	7.984
300.48	6.192
300.85	7.478
301.22	7.013
301.59	5.921
301.95	7.722
302.32	9.857
302.69	5.597
303.05	6.559
303.42	6.725
303.79	8.645
304.15	6.452
304.52	5.351
304.89	7.602
305.25	6.295
305.62	5.251
305.99	4.678
306.35	6.474
306.72	5.512
307.09	6.157
307.45	6.774
307.82	6.481
308.19	5.343
308.55	6.216
308.92	6.754
309.29	5.251
309.65	6.351
310.02	6.051
310.38	5.818
310.75	6.667
311.12	6.781
311.48	5.832
311.85	5.654
312.22	5.696
312.58	6.582
312.95	5.656
313.31	4.865
313.68	6.597
314.05	5.714
314.41	6.701
314.78	6.289
315.14	7.811
315.51	6.625
315.87	6.762
316.24	7.786
316.61	7.185
316.97	7.738
317.34	6.641
317.70	7.361
318.07	7.788
318.43	7.745
318.80	7.197
319.16	7.031
319.53	9.307
319.89	8.465
320.26	9.717
320.62	10.331
320.99	9.499
321.35	10.072
321.72	12.253
322.08	11.480
322.45	11.777
322.81	11.395
323.18	10.991
323.54	11.873
323.91	12.366
324.27	13.770
324.64	15.075
325.00	14.599
325.37	17.906
325.73	15.684
326.10	19.164
326.46	18.296
326.83	19.510
327.19	19.180
327.56	20.938
327.92	22.095
328.29	22.054
328.65	23.585
329.01	23.346
329.38	24.977
329.74	24.835
330.11	25.765
330.47	26.160
330.84	28.173
331.20	29.183
331.56	28.241
331.93	29.863
332.29	29.881
332.66	29.683
333.02	31.320
333.38	30.797
333.75	32.418
334.11	31.782
334.48	33.545
334.84	33.516
335.20	34.401
335.57	33.092
335.93	35.050
336.29	35.175
336.66	34.787
337.02	33.643
337.38	35.556
337.75	35.636
338.11	37.692
338.47	36.405
338.84	37.985
339.20	37.843
339.56	37.064
339.93	37.780
340.29	36.972
340.65	37.545
341.02	36.702
341.38	37.168
341.74	35.689
342.11	36.742
342.47	37.989
342.83	39.014
343.20	38.589
343.56	38.087
343.92	37.998
344.28	38.941
344.65	38.515
345.01	38.462
345.37	36.838
345.73	38.745
346.10	39.085
346.46	39.108
346.82	38.625
347.19	35.578
347.55	37.678
347.91	39.806
348.27	37.591
348.63	39.012
349.00	39.048
349.36	38.570
349.72	40.796
350.08	39.180
350.45	38.468
350.81	39.867
351.17	37.052
351.53	38.286
351.89	38.811
352.26	38.640
352.62	39.758
352.98	38.715
353.34	38.245
353.70	39.482
354.07	38.468
354.43	39.151
354.79	39.472
355.15	40.079
355.51	40.744
355.87	39.563
356.24	38.254
356.60	39.612
356.96	39.127
357.32	40.335
357.68	39.171
358.04	39.661
358.40	40.595
358.77	41.547
359.13	40.032
359.49	39.676
359.85	40.874
360.21	41.547
360.57	40.627
360.93	41.906
361.29	39.502
361.66	40.204
362.02	41.667
362.38	41.584
362.74	41.030
363.10	42.363
363.46	42.105
363.82	43.651
364.18	41.033
364.54	42.059
364.90	42.509
365.26	40.902
365.62	43.942
365.98	43.255
366.35	44.210
366.71	43.237
367.07	43.179
367.43	43.566
367.79	43.463
368.15	44.149
368.51	43.773
368.87	43.719
369.23	43.971
369.59	44.023
369.95	43.988
370.31	44.870
370.67	44.851
371.03	43.167
371.39	43.180
371.75	45.128
372.11	45.364
372.47	44.305
372.83	45.280
373.19	45.863
373.55	45.848
373.91	44.564
374.27	46.137
374.63	47.810
374.99	45.603
375.35	47.981
375.71	46.643
376.07	46.770
376.42	47.143
376.78	47.651
377.14	47.326
377.50	48.074
377.86	47.657
378.22	48.181
378.58	47.372
378.94	48.141
379.30	48.035
379.66	49.467
380.02	47.578
380.38	48.509
380.74	48.953
381.09	50.982
381.45	50.031
381.81	48.859
382.17	50.063
382.53	49.469
382.89	50.910
383.25	52.334
383.61	52.195
383.97	52.000
384.32	51.532
384.68	50.898
385.04	50.980
385.40	51.711
385.76	53.459
386.12	53.299
386.48	53.768
386.83	53.456
387.19	53.236
387.55	55.458
387.91	53.790
388.27	53.541
388.62	54.311
388.98	53.959
389.34	54.154
389.70	54.133
390.06	52.675
390.42	54.793
390.77	54.480
391.13	53.972
391.49	54.592
391.85	56.595
392.20	55.367
392.56	56.071
392.92	56.958
393.28	55.955
393.64	55.796
393.99	55.737
394.35	55.028
394.71	56.769
395.07	54.117
395.42	55.131
395.78	55.961
396.14	56.053
396.50	56.627
396.85	58.081
397.21	56.454
397.57	57.304
397.92	56.501
398.28	57.299
398.64	55.904
399.00	57.449
399.35	56.095
399.71	55.830
400.07	56.892
400.42	56.487
400.78	57.195
401.14	55.777
401.49	56.581
401.85	56.977
402.21	55.964
402.57	56.062
402.92	56.148
403.28	57.519
403.63	57.188
403.99	55.995
404.35	57.214
404.70	55.357
405.06	56.228
405.42	57.862
405.77	55.956
406.13	56.228
406.49	55.121
406.84	57.396
407.20	56.954
407.55	56.343
407.91	56.818
408.27	56.788
408.62	56.308
408.98	58.102
409.34	55.886
409.69	56.202
410.05	54.988
410.40	55.741
410.76	56.755
411.11	57.000
411.47	56.542
411.83	56.874
412.18	57.593
412.54	55.243
412.89	55.542
413.25	57.702
413.60	57.267
413.96	56.196
414.31	58.537
414.67	56.190
415.03	57.523
415.38	56.919
415.74	59.153
416.09	57.805
416.45	57.326
416.80	58.493
417.16	58.080
417.51	58.095
417.87	57.236
418.22	59.521
418.58	57.793
418.93	59.122
419.29	56.786
419.64	58.328
420.00	60.831
420.35	57.731
420.71	59.052
421.06	59.362
421.42	60.036
421.77	59.422
422.12	60.045
422.48	58.311
422.83	58.643
423.19	59.650
423.54	59.024
423.90	60.424
424.25	59.874
424.61	60.465
424.96	59.640
425.31	61.005
425.67	59.859
426.02	60.130
426.38	60.363
426.73	60.230
427.09	61.203
427.44	61.471
427.79	60.401
428.15	61.833
428.50	60.933
428.85	61.179
429.21	62.083
429.56	62.534
429.92	61.582
430.27	60.602
430.62	61.997
430.98	62.686
431.33	61.199
431.68	61.277
432.04	61.822
432.39	61.837
432.74	61.575
433.10	63.448
433.45	61.888
433.80	63.030
434.16	62.548
434.51	63.495
434.86	63.531
435.22	62.872
435.57	64.192
435.92	64.192
436.28	62.850
436.63	62.464
436.98	63.152
437.34	63.823
437.69	64.222
438.04	64.103
438.39	62.676
438.75	64.906
439.10	65.874
439.45	65.003
439.81	63.364
440.16	66.211
440.51	64.896
440.86	67.372
441.22	63.462
441.57	67.274
441.92	65.110
442.27	65.687
442.63	65.846
442.98	66.801
443.33	64.830
443.68	66.737
444.03	66.468
444.39	65.224
444.74	68.227
445.09	66.982
445.44	66.496
445.79	67.612
446.15	66.520
446.50	64.448
446.85	67.163
447.20	67.466
447.55	67.188
447.91	66.441
448.26	65.965
448.61	67.703
448.96	66.724
449.31	66.821
449.66	66.667
450.02	67.085
450.37	66.805
450.72	66.781
451.07	67.468
451.42	67.416
451.77	66.546
452.12	66.687
452.47	67.032
452.83	67.020
453.18	67.046
453.53	67.762
453.88	68.427
454.23	67.302
454.58	67.884
454.93	67.912
455.28	66.095
455.63	67.080
455.98	68.671
456.34	66.603
456.69	67.471
457.04	68.620
457.39	67.679
457.74	68.561
458.09	66.686
458.44	69.456
458.79	67.227
459.14	68.879
459.49	68.239
459.84	68.302
460.19	68.143
460.54	69.621
460.89	68.864
461.24	68.261
461.59	68.112
461.94	66.918
462.29	67.973
462.64	68.837
462.99	68.111
463.34	68.011
463.69	66.860
464.04	69.613
464.39	67.859
464.74	67.301
465.09	69.432
465.44	68.552
465.79	67.687
466.14	69.954
466.49	68.603
466.84	69.304
467.19	67.897
467.54	67.880
467.89	68.162
468.24	68.370
468.59	68.254
468.94	68.254
469.29	69.574
469.64	67.327
469.99	70.077
470.34	66.894
470.68	70.395
471.03	69.710
471.38	68.902
471.73	68.768
472.08	68.657
472.43	70.000
472.78	68.540
473.13	70.068
473.48	69.055
473.83	67.870
474.17	69.883
474.52	68.156
474.87	68.970
475.22	67.907
475.57	68.944
475.92	69.830
476.27	69.150
476.61	70.602
476.96	67.931
477.31	69.227
477.66	69.045
478.01	69.792
478.36	68.627
478.70	70.310
479.05	69.505
479.40	69.369
479.75	68.300
480.10	68.510
480.45	70.350
480.79	70.242
481.14	70.645
481.49	69.064
481.84	70.125
482.19	68.709
482.53	68.201
482.88	69.117
483.23	68.570
483.58	68.349
483.92	69.119
484.27	69.462
484.62	68.265
484.97	68.242
485.31	69.364
485.66	71.279
486.01	71.086
486.36	70.756
486.70	69.243
487.05	68.416
487.40	68.718
487.75	68.986
488.09	67.954
488.44	67.503
488.79	67.202
489.13	68.990
489.48	68.491
489.83	68.789
490.17	67.820
490.52	68.176
490.87	68.487
491.22	69.007
491.56	67.979
491.91	67.734
492.26	69.810
492.60	67.994
492.95	69.208
493.30	67.269
493.64	69.499
493.99	68.454
494.34	69.078
494.68	69.000
495.03	69.635
495.37	69.333
495.72	68.299
496.07	70.976
496.41	68.019
496.76	69.369
497.11	67.443
497.45	68.162
497.80	69.173
498.14	66.965
498.49	68.614
498.84	68.762
499.18	69.829
499.53	69.494
499.87	69.066
500.22	68.645
500.56	69.642
500.91	68.273
501.26	69.105
501.60	68.273
501.95	69.141
502.29	69.346
502.64	69.836
502.98	69.808
503.33	68.732
503.67	68.530
504.02	68.182
504.36	69.668
504.71	68.586
505.06	68.244
505.40	69.289
505.75	70.876
506.09	68.373
506.44	71.458
506.78	69.694
507.13	70.786
507.47	68.251
507.82	69.231
508.16	69.519
508.51	71.616
508.85	70.801
509.19	69.718
509.54	69.223
509.88	68.716
510.23	70.360
510.57	69.428
510.92	67.804
511.26	69.995
511.61	70.132
511.95	69.315
512.30	69.180
512.64	69.282
512.98	69.399
513.33	70.397
513.67	70.495
514.02	70.709
514.36	71.086
514.70	71.911
515.05	72.620
515.39	71.606
515.74	72.635
516.08	71.429
516.42	71.731
516.77	71.504
517.11	71.395
517.46	70.856
517.80	70.858
518.14	71.341
518.49	70.252
518.83	71.385
519.17	68.830
519.52	70.160
519.86	71.549
520.20	71.385
520.55	70.919
520.89	71.957
521.23	71.628
521.58	71.861
521.92	71.410
522.26	72.023
522.61	72.338
522.95	73.113
523.29	72.046
523.64	71.220
523.98	70.966
524.32	72.101
524.66	71.959
525.01	71.169
525.35	72.197
525.69	72.525
526.04	70.899
526.38	73.281
526.72	71.288
527.06	71.336
527.41	72.361
527.75	71.984
528.09	71.429
528.43	71.911
528.78	73.267
529.12	72.129
529.46	71.930
529.80	70.614
530.15	71.551
530.49	72.121
530.83	73.324
531.17	71.860
531.51	72.640
531.86	72.604
532.20	73.347
532.54	73.043
532.88	72.758
533.22	73.387
533.57	72.936
533.91	72.781
534.25	73.438
534.59	73.380
534.93	71.743
535.27	72.525
535.62	73.558
535.96	72.864
536.30	71.966
536.64	73.467
536.98	70.662
537.32	73.969
537.66	72.861
538.01	73.636
538.35	73.509
538.69	72.503
539.03	71.839
539.37	72.544
539.71	72.120
540.05	72.777
540.39	72.507
540.73	74.338
541.07	72.445
541.42	71.976
541.76	74.467
542.10	74.260
542.44	73.523
542.78	71.989
543.12	72.184
543.46	72.392
543.80	73.976
544.14	71.429
544.48	72.618
544.82	74.163
545.16	73.702
545.50	72.163
545.84	74.221
546.18	73.688
546.52	73.468
546.86	72.969
547.20	72.818
547.54	72.933
547.88	73.234
548.22	71.663
548.56	71.570
548.90	72.642
549.24	72.107
549.58	72.285
549.92	73.695
550.26	73.480
550.60	73.309
550.94	72.591
551.28	74.111
551.62	74.923
551.96	72.406
552.30	73.319
552.64	72.285
552.98	73.136
553.32	72.040
553.66	72.061
554.00	73.577
554.34	73.634
554.68	72.640
555.02	73.438
555.36	73.224
555.69	73.846
556.03	72.448
556.37	73.950
556.71	72.274
557.05	73.527
557.39	72.268
557.73	73.088
558.07	75.038
558.41	75.038
558.75	73.344
559.08	72.419
559.42	74.127
559.76	74.860
560.10	74.771
560.44	73.939
560.78	73.217
561.12	74.542
561.45	74.209
561.79	74.230
562.13	73.811
562.47	72.518
562.81	72.767
563.15	71.862
563.48	74.328
563.82	75.017
564.16	73.747
564.50	72.230
564.84	73.829
565.17	72.636
565.51	74.795
565.85	74.829
566.19	74.602
566.52	76.273
566.86	74.422
567.20	74.782
567.54	75.122
567.88	76.216
568.21	75.000
568.55	76.033
568.89	75.924
569.23	76.023
569.56	76.095
569.90	76.573
570.24	74.581
570.57	75.782
570.91	76.577
571.25	75.238
571.59	75.335
571.92	73.333
572.26	74.547
572.60	74.171
572.93	73.392
573.27	73.856
573.61	74.344
573.95	75.068
574.28	74.497
574.62	74.091
574.96	74.346
575.29	73.776
575.63	71.832
575.97	72.432
576.30	72.955
576.64	73.245
576.98	74.440
577.31	74.932
577.65	75.367
577.98	74.789
578.32	74.828
578.66	72.770
578.99	72.625
579.33	74.044
579.67	73.051
580.00	74.380
580.34	73.731
580.67	72.923
581.01	74.544
581.35	75.043
581.68	74.788
582.02	74.913
582.35	74.188
582.69	74.951
583.02	74.172
583.36	73.953
583.70	74.221
584.03	75.007
584.37	75.325
584.70	74.396
585.04	74.456
585.37	74.103
585.71	74.549
586.04	74.861
586.38	73.620
586.72	75.897
587.05	77.008
587.39	75.035
587.72	76.627
588.06	74.702
588.39	75.021
588.73	74.237
589.06	75.440
589.40	74.698
589.73	75.465
590.07	75.755
590.40	75.155
590.73	76.442
591.07	75.488
591.40	75.557
591.74	75.204
592.07	75.046
592.41	75.707
592.74	75.826
593.08	74.083
593.41	75.420
593.75	75.074
594.08	74.803
594.41	75.000
594.75	75.229
595.08	75.142
595.42	75.340
595.75	75.066
596.09	75.450
596.42	74.370
596.75	74.378
597.09	75.353
597.42	76.287
597.75	75.263
598.09	73.699
598.42	74.458
598.76	75.332
599.09	74.800
599.42	73.551
599.76	74.643
600.09	74.321
600.42	74.109
600.76	73.403
601.09	75.420
601.42	74.266
601.76	74.712
602.09	74.629
602.42	75.695
602.76	74.576
603.09	75.374
603.42	77.634
603.76	75.887
604.09	74.808
604.42	75.381
604.76	76.190
605.09	76.325
605.42	74.131
605.75	75.175
606.09	74.820
606.42	73.436
606.75	75.498
607.09	73.846
607.42	73.726
607.75	73.179
608.08	73.630
608.42	73.138
608.75	75.373
609.08	75.685
609.41	75.076
609.75	74.446
610.08	75.337
610.41	74.106
610.74	74.403
611.07	75.452
611.41	75.610
611.74	76.599
612.07	75.214
612.40	74.617
612.73	76.215
613.07	74.353
613.40	75.109
613.73	76.609
614.06	74.346
614.39	74.901
614.72	73.221
615.06	74.134
615.39	73.144
615.72	74.381
616.05	75.419
616.38	74.302
616.71	76.147
617.05	76.096
617.38	75.613
617.71	74.969
618.04	75.873
618.37	76.230
618.70	75.116
619.03	75.486
619.36	74.747
619.69	77.331
620.03	76.333
620.36	75.751
620.69	74.732
621.02	75.688
621.35	75.436
621.68	74.745
622.01	77.583
622.34	74.381
622.67	75.473
623.00	74.349
623.33	76.753
623.66	75.692
623.99	76.324
624.32	76.502
624.65	74.286
624.99	75.997
625.32	75.284
625.65	75.255
625.98	75.262
626.31	74.979
626.64	76.516
626.97	77.225
627.30	75.482
627.63	75.997
627.96	76.011
628.29	73.913
628.62	77.089
628.95	74.749
629.28	76.008
629.61	76.271
629.94	76.344
630.26	74.012
630.59	75.858
630.92	75.282
631.25	71.795
631.58	75.220
631.91	74.890
632.24	77.867
632.57	76.364
632.90	73.784
633.23	75.412
633.56	75.693
633.89	78.175
634.22	79.259
634.55	76.239
634.88	77.011
635.20	75.897
635.53	76.933
635.86	75.163
636.19	76.326
636.52	76.786
636.85	74.566
637.18	75.849
