SpectraSuite Data File
++++++++++++++++++++++++++++++++++++
Date: Fri May 15 20:03:09 PDT 2015
User: schluterlab
Dark Spectrum Present: Yes
Reference Spectrum Present: Yes
Number of Sampled Component Spectra: 1
Spectrometers: USB2E3373
Integration Time (usec): 3000 (USB2E3373)
Spectra Averaged: 3 (USB2E3373)
Boxcar Smoothing: 0 (USB2E3373)
Correct for Electrical Dark: No (USB2E3373)
Strobe/Lamp Enabled: No (USB2E3373)
Correct for Detector Non-linearity: No (USB2E3373)
Correct for Stray Light: No (USB2E3373)
Number of Pixels in Processed Spectrum: 2048
>>>>>Begin Processed Spectral Data<<<<<
178.53	0.000
178.91	0.000
179.29	62.500
179.67	-200.000
180.04	85.714
180.42	0.000
180.80	600.000
181.18	-200.000
181.56	-50.000
181.94	0.000
182.31	400.000
182.69	80.000
183.07	-66.667
183.45	120.000
183.83	16.667
184.20	9.091
184.58	-0.000
184.96	-75.000
185.34	-166.667
185.72	-150.000
186.09	115.385
186.47	-400.000
186.85	-0.000
187.23	55.556
187.61	-500.000
187.98	-366.667
188.36	111.111
188.74	66.667
189.12	-5.882
189.49	11.111
189.87	0.000
190.25	92.857
190.63	750.000
191.00	-166.667
191.38	31.579
191.76	550.000
192.14	-75.000
192.51	50.000
192.89	-100.000
193.27	-71.429
193.65	133.333
194.02	90.909
194.40	40.000
194.78	-212.500
195.15	16.667
195.53	-112.500
195.91	350.000
196.29	0.000
196.66	100.000
197.04	85.714
197.42	0.000
197.79	-100.000
198.17	-169.231
198.55	1000.000
198.92	166.667
199.30	600.000
199.68	-120.000
200.05	-166.667
200.43	0.000
200.81	100.000
201.18	66.667
201.56	800.000
201.94	-50.000
202.31	-233.333
202.69	-220.000
203.07	450.000
203.44	500.000
203.82	0.000
204.19	-57.143
204.57	-433.333
204.95	175.000
205.32	-50.000
205.70	171.429
206.08	0.000
206.45	155.556
206.83	14.286
207.20	57.143
207.58	-0.000
207.96	-66.667
208.33	-110.000
208.71	75.000
209.08	-66.667
209.46	-200.000
209.84	-40.000
210.21	-900.000
210.59	28.571
210.96	50.000
211.34	-125.000
211.71	53.333
212.09	-71.429
212.46	-1000.000
212.84	0.000
213.22	60.000
213.59	100.000
213.97	46.154
214.34	-18.182
214.72	-83.333
215.09	300.000
215.47	-15.385
215.84	-118.182
216.22	33.333
216.59	62.500
216.97	-100.000
217.34	225.000
217.72	-260.000
218.09	62.500
218.47	87.500
218.84	-400.000
219.22	33.333
219.59	-40.000
219.97	200.000
220.34	225.000
220.72	28.571
221.09	-275.000
221.47	50.000
221.84	200.000
222.22	-250.000
222.59	127.273
222.97	91.667
223.34	233.333
223.72	71.429
224.09	-38.095
224.46	14.286
224.84	366.667
225.21	90.000
225.59	-6.667
225.96	-250.000
226.34	275.000
226.71	-57.143
227.08	83.333
227.46	50.000
227.83	-450.000
228.21	11.111
228.58	81.818
228.95	37.500
229.33	10.000
229.70	6.250
230.08	-137.500
230.45	-128.571
230.82	57.143
231.20	6.667
231.57	78.571
231.95	71.429
232.32	-110.000
232.69	14.286
233.07	-200.000
233.44	160.000
233.81	-20.000
234.19	22.222
234.56	41.176
234.93	300.000
235.31	75.000
235.68	-140.000
236.05	-61.538
236.43	-45.000
236.80	11.765
237.17	37.500
237.55	10.000
237.92	-11.111
238.29	2.778
238.67	-13.333
239.04	8.824
239.41	-26.829
239.79	-6.667
240.16	7.317
240.53	-5.263
240.91	8.696
241.28	7.937
241.65	8.929
242.02	23.288
242.40	-5.000
242.77	11.864
243.14	7.576
243.51	11.250
243.89	19.540
244.26	0.000
244.63	3.571
245.00	11.340
245.38	9.278
245.75	3.371
246.12	6.897
246.49	7.438
246.87	18.269
247.24	10.084
247.61	4.386
247.98	2.439
248.36	11.250
248.73	9.868
249.10	5.195
249.47	12.025
249.84	16.340
250.22	15.294
250.59	5.229
250.96	15.023
251.33	-0.581
251.70	11.765
252.08	12.690
252.45	9.901
252.82	12.563
253.19	13.364
253.56	8.411
253.94	14.865
254.31	11.304
254.68	12.281
255.05	13.386
255.42	10.917
255.79	12.355
256.16	9.728
256.54	14.925
256.91	11.407
257.28	10.409
257.65	8.240
258.02	11.702
258.39	9.764
258.76	8.791
259.14	9.302
259.51	13.269
259.88	6.529
260.25	11.765
260.62	13.542
260.99	9.153
261.36	7.877
261.73	13.608
262.10	9.726
262.47	10.429
262.85	9.091
263.22	11.692
263.59	8.411
263.96	18.323
264.33	9.091
264.70	8.929
265.07	7.738
265.44	10.482
265.81	7.627
266.18	10.929
266.55	12.596
266.92	9.326
267.29	8.616
267.66	11.765
268.03	12.827
268.40	10.705
268.77	12.834
269.14	10.552
269.51	13.882
269.88	11.721
270.25	5.612
270.62	9.268
270.99	10.230
271.36	8.068
271.73	14.554
272.10	8.029
272.47	11.348
272.84	11.634
273.21	10.673
273.58	12.530
273.95	10.755
274.32	10.624
274.69	9.955
275.06	10.938
275.43	10.431
275.80	11.700
276.17	8.276
276.54	9.422
276.91	10.526
277.28	9.825
277.65	12.190
278.02	9.574
278.39	10.722
278.76	11.321
279.13	6.639
279.50	10.714
279.87	10.583
280.23	7.742
280.60	10.136
280.97	11.919
281.34	9.423
281.71	12.526
282.08	10.225
282.45	10.176
282.82	7.529
283.19	11.992
283.56	10.405
283.92	6.641
284.29	9.423
284.66	7.946
285.03	7.662
285.40	8.507
285.77	9.315
286.14	8.664
286.51	11.255
286.87	8.958
287.24	11.418
287.61	11.111
287.98	12.807
288.35	9.359
288.72	9.107
289.08	11.458
289.45	9.315
289.82	8.916
290.19	7.679
290.56	8.748
290.93	9.428
291.29	8.012
291.66	9.449
292.03	8.134
292.40	10.484
292.77	9.888
293.13	7.468
293.50	7.284
293.87	9.618
294.24	8.964
294.60	10.134
294.97	8.780
295.34	7.055
295.71	9.985
296.08	8.520
296.44	8.677
296.81	8.056
297.18	6.812
297.55	9.485
297.91	7.945
298.28	9.631
298.65	8.005
299.02	7.143
299.38	6.293
299.75	7.310
300.12	7.984
300.48	6.588
300.85	7.478
301.22	6.753
301.59	8.158
301.95	10.253
302.32	9.468
302.69	6.965
303.05	5.817
303.42	7.970
303.79	7.710
304.15	8.244
304.52	6.183
304.89	6.433
305.25	7.627
305.62	7.001
305.99	7.018
306.35	7.052
306.72	6.974
307.09	7.640
307.45	6.315
307.82	6.366
308.19	8.595
308.55	7.088
308.92	7.843
309.29	6.034
309.65	5.705
310.02	7.371
310.38	7.245
310.75	6.885
311.12	6.459
311.48	7.105
311.85	7.120
312.22	6.224
312.58	6.900
312.95	6.724
313.31	7.039
313.68	6.702
314.05	7.143
314.41	7.320
314.78	6.701
315.14	7.708
315.51	7.660
315.87	6.557
316.24	8.190
316.61	7.972
316.97	6.448
317.34	7.031
317.70	6.501
318.07	7.596
318.43	7.059
318.80	7.292
319.16	7.227
319.53	7.123
319.89	6.594
320.26	6.984
320.62	6.921
320.99	6.367
321.35	7.503
321.72	6.957
322.08	8.258
322.45	6.701
322.81	6.582
323.18	6.379
323.54	6.371
323.91	5.550
324.27	7.422
324.64	7.397
325.00	8.394
325.37	7.622
325.73	6.074
326.10	6.267
326.46	6.906
326.83	7.262
327.19	6.713
327.56	7.037
327.92	7.570
328.29	6.964
328.65	6.415
329.01	6.342
329.38	6.636
329.74	5.571
330.11	7.322
330.47	6.772
330.84	6.058
331.20	7.890
331.56	6.389
331.93	7.123
332.29	7.974
332.66	7.602
333.02	6.784
333.38	6.599
333.75	7.418
334.11	5.819
334.48	7.344
334.84	6.868
335.20	7.594
335.57	6.890
335.93	5.962
336.29	7.182
336.66	6.358
337.02	4.833
337.38	6.019
337.75	6.000
338.11	7.214
338.47	6.752
338.84	7.301
339.20	6.581
339.56	7.156
339.93	7.252
340.29	6.330
340.65	6.720
341.02	6.738
341.38	6.018
341.74	6.272
342.11	5.806
342.47	6.139
342.83	6.142
343.20	6.969
343.56	6.783
343.92	6.909
344.28	7.259
344.65	6.218
345.01	6.482
345.37	6.392
345.73	7.197
346.10	6.730
346.46	6.897
346.82	7.283
347.19	5.569
347.55	6.600
347.91	6.634
348.27	6.306
348.63	6.814
349.00	6.645
349.36	6.484
349.72	6.219
350.08	6.230
350.45	6.943
350.81	6.977
351.17	5.619
351.53	7.265
351.89	6.524
352.26	6.560
352.62	7.097
352.98	7.470
353.34	6.683
353.70	6.472
354.07	6.452
354.43	7.126
354.79	6.193
355.15	7.540
355.51	6.013
355.87	6.472
356.24	6.199
356.60	6.144
356.96	6.984
357.32	6.949
357.68	7.428
358.04	5.816
358.40	5.868
358.77	7.416
359.13	5.925
359.49	6.703
359.85	6.942
360.21	5.502
360.57	7.039
360.93	7.035
361.29	5.891
361.66	6.740
362.02	6.742
362.38	7.768
362.74	5.980
363.10	7.223
363.46	6.597
363.82	7.663
364.18	6.790
364.54	6.618
364.90	6.237
365.26	6.259
365.62	7.372
365.98	6.818
366.35	6.992
366.71	7.095
367.07	6.749
367.43	6.686
367.79	6.784
368.15	7.753
368.51	7.210
368.87	5.887
369.23	6.570
369.59	6.341
369.95	7.185
370.31	7.225
370.67	6.567
371.03	6.423
371.39	6.346
371.75	6.667
372.11	7.275
372.47	6.879
372.83	6.955
373.19	7.204
373.55	6.498
373.91	7.271
374.27	7.300
374.63	7.251
374.99	6.809
375.35	6.825
375.71	7.622
376.07	7.303
376.42	7.211
376.78	7.315
377.14	6.770
377.50	6.906
377.86	7.363
378.22	7.211
378.58	7.308
378.94	6.931
379.30	7.548
379.66	7.649
380.02	6.560
380.38	7.060
380.74	7.481
381.09	7.607
381.45	6.850
381.81	7.650
382.17	7.424
382.53	7.058
382.89	7.533
383.25	8.463
383.61	8.110
383.97	7.111
384.32	8.005
384.68	8.111
385.04	6.924
385.40	6.721
385.76	8.302
386.12	8.150
386.48	8.685
386.83	8.053
387.19	8.425
387.55	8.720
387.91	7.946
388.27	7.998
388.62	8.433
388.98	8.165
389.34	8.307
389.70	8.266
390.06	7.615
390.42	7.837
390.77	8.568
391.13	8.701
391.49	8.603
391.85	8.447
392.20	8.726
392.56	8.646
392.92	9.336
393.28	9.257
393.64	8.769
393.99	9.718
394.35	7.780
394.71	8.365
395.07	8.422
395.42	8.743
395.78	8.404
396.14	9.332
396.50	8.497
396.85	10.238
397.21	8.960
397.57	9.028
397.92	8.987
398.28	9.138
398.64	8.554
399.00	9.594
399.35	8.691
399.71	10.167
400.07	8.646
400.42	10.037
400.78	10.227
401.14	9.558
401.49	9.708
401.85	10.055
402.21	10.000
402.57	10.563
402.92	9.787
403.28	10.025
403.63	9.773
403.99	9.311
404.35	10.618
404.70	9.702
405.06	9.871
405.42	8.888
405.77	9.006
406.13	9.895
406.49	10.184
406.84	9.841
407.20	9.994
407.55	9.401
407.91	10.094
408.27	9.050
408.62	10.585
408.98	10.105
409.34	9.418
409.69	9.238
410.05	9.914
410.40	9.815
410.76	9.952
411.11	9.875
411.47	10.256
411.83	9.730
412.18	9.073
412.54	10.487
412.89	9.852
413.25	10.289
413.60	9.130
413.96	9.018
414.31	10.732
414.67	9.686
415.03	9.987
415.38	10.770
415.74	11.466
416.09	10.320
416.45	9.791
416.80	10.509
417.16	10.221
417.51	10.326
417.87	9.648
418.22	10.039
418.58	9.766
418.93	10.721
419.29	9.667
419.64	10.693
420.00	10.453
420.35	10.567
420.71	10.693
421.06	10.068
421.42	10.577
421.77	11.098
422.12	10.159
422.48	10.287
422.83	10.209
423.19	10.384
423.54	9.877
423.90	9.423
424.25	10.677
424.61	9.670
424.96	10.685
425.31	10.919
425.67	10.035
426.02	11.190
426.38	10.895
426.73	9.988
427.09	11.203
427.44	11.471
427.79	10.253
428.15	11.044
428.50	10.660
428.85	9.951
429.21	10.413
429.56	10.728
429.92	11.351
430.27	10.677
430.62	10.037
430.98	10.510
431.33	11.672
431.68	10.832
432.04	10.173
432.39	11.010
432.74	9.922
433.10	11.264
433.45	10.812
433.80	10.505
434.16	10.305
434.51	10.484
434.86	10.859
435.22	11.049
435.57	11.291
435.92	11.198
436.28	10.793
436.63	10.268
436.98	10.429
437.34	9.135
437.69	10.555
438.04	10.826
438.39	10.263
438.75	11.050
439.10	10.640
439.45	10.712
439.81	10.520
440.16	10.392
440.51	10.925
440.86	11.480
441.22	10.803
441.57	11.203
441.92	11.385
442.27	11.197
442.63	11.670
442.98	11.028
443.33	11.130
443.68	10.610
444.03	11.028
444.39	10.821
444.74	10.535
445.09	11.359
445.44	10.541
445.79	11.398
446.15	11.123
446.50	10.649
446.85	10.627
447.20	10.480
447.55	11.328
447.91	10.716
448.26	10.871
448.61	11.226
448.96	10.843
449.31	10.116
449.66	11.092
450.02	10.667
450.37	10.907
450.72	10.653
451.07	11.392
451.42	10.861
451.77	10.609
452.12	10.227
452.47	10.238
452.83	10.424
453.18	10.753
453.53	11.315
453.88	10.808
454.23	10.572
454.58	11.713
454.93	10.889
455.28	9.460
455.63	10.415
455.98	11.425
456.34	11.175
456.69	11.055
457.04	11.531
457.39	10.510
457.74	10.520
458.09	9.947
458.44	10.532
458.79	10.812
459.14	10.526
459.49	10.746
459.84	11.506
460.19	10.012
460.54	11.430
460.89	11.193
461.24	10.870
461.59	10.986
461.94	10.566
462.29	11.641
462.64	10.498
462.99	11.239
463.34	9.666
463.69	9.974
464.04	11.501
464.39	10.855
464.74	10.184
465.09	11.603
465.44	11.598
465.79	10.261
466.14	10.775
466.49	10.753
466.84	10.470
467.19	11.640
467.54	10.920
467.89	10.929
468.24	10.523
468.59	10.921
468.94	10.095
469.29	11.607
469.64	11.620
469.99	11.983
470.34	10.512
470.68	10.738
471.03	12.031
471.38	11.698
471.73	11.625
472.08	11.194
472.43	10.805
472.78	11.103
473.13	11.156
473.48	10.814
473.83	10.897
474.17	11.399
474.52	10.721
474.87	11.273
475.22	11.287
475.57	11.124
475.92	11.190
476.27	11.234
476.61	12.037
476.96	11.322
477.31	11.628
477.66	10.112
478.01	10.780
478.36	10.948
478.70	11.854
479.05	11.648
479.40	11.288
479.75	11.679
480.10	11.162
480.45	10.600
480.79	11.531
481.14	11.270
481.49	10.936
481.84	10.666
482.19	10.992
482.53	11.271
482.88	10.979
483.23	11.660
483.58	11.792
483.92	10.552
484.27	11.167
484.62	11.385
484.97	10.323
485.31	11.236
485.66	10.344
486.01	10.607
486.36	10.499
486.70	10.685
487.05	10.721
487.40	10.548
487.75	10.479
488.09	10.785
488.44	10.935
488.79	10.908
489.13	11.859
489.48	11.458
489.83	10.762
490.17	11.281
490.52	11.455
490.87	11.661
491.22	11.605
491.56	10.863
491.91	11.711
492.26	11.813
492.60	10.509
492.95	12.150
493.30	11.920
493.64	11.198
493.99	11.739
494.34	10.680
494.68	11.048
495.03	10.900
495.37	11.874
495.72	11.257
496.07	11.756
496.41	11.651
496.76	11.147
497.11	11.039
497.45	11.981
497.80	12.059
498.14	11.177
498.49	11.884
498.84	11.427
499.18	11.295
499.53	11.706
499.87	11.527
500.22	11.622
500.56	11.246
500.91	11.446
501.26	10.924
501.60	12.150
501.95	12.082
502.29	11.574
502.64	12.355
502.98	10.952
503.33	11.191
503.67	11.807
504.02	12.023
504.36	11.826
504.71	11.313
505.06	11.475
505.40	11.574
505.75	11.907
506.09	11.657
506.44	11.807
506.78	11.990
507.13	11.582
507.47	11.332
507.82	11.218
508.16	12.044
508.51	12.434
508.85	11.931
509.19	11.176
509.54	12.332
509.88	11.165
510.23	11.996
510.57	12.827
510.92	10.981
511.26	11.184
511.61	11.661
511.95	12.712
512.30	12.694
512.64	12.131
512.98	12.409
513.33	12.367
513.67	12.109
514.02	12.700
514.36	12.743
514.70	13.811
515.05	12.750
515.39	11.924
515.74	13.174
516.08	12.313
516.42	13.192
516.77	13.400
517.11	12.344
517.46	12.448
517.80	13.111
518.14	11.941
518.49	12.620
518.83	12.576
519.17	12.129
519.52	12.848
519.86	12.965
520.20	12.029
520.55	11.820
520.89	13.676
521.23	13.680
521.58	13.375
521.92	13.269
522.26	13.077
522.61	13.896
522.95	13.377
523.29	12.961
523.64	13.977
523.98	13.351
524.32	12.822
524.66	13.572
525.01	13.831
525.35	13.999
525.69	12.121
526.04	12.831
526.38	13.554
526.72	13.146
527.06	12.970
527.41	13.588
527.75	13.204
528.09	12.957
528.43	14.450
528.78	12.937
529.12	14.129
529.46	12.606
529.80	14.060
530.15	13.333
530.49	13.131
530.83	14.090
531.17	12.693
531.51	13.611
531.86	14.072
532.20	13.431
532.54	13.615
532.88	13.552
533.22	13.441
533.57	13.893
533.91	12.728
534.25	14.128
534.59	13.021
534.93	13.153
535.27	12.754
535.62	12.832
535.96	13.829
536.30	13.720
536.64	13.853
536.98	12.404
537.32	14.438
537.66	14.025
538.01	14.056
538.35	13.245
538.69	13.449
539.03	12.782
539.37	13.863
539.71	13.906
540.05	13.103
540.39	13.920
540.73	13.459
541.07	14.019
541.42	14.382
541.76	13.971
542.10	13.971
542.44	13.204
542.78	13.283
543.12	12.843
543.46	14.465
543.80	14.504
544.14	12.684
544.48	13.524
544.82	12.850
545.16	14.071
545.50	14.419
545.84	14.518
546.18	14.610
546.52	13.915
546.86	13.444
547.20	14.163
547.54	12.367
547.88	13.723
548.22	13.346
548.56	13.654
548.90	15.027
549.24	13.636
549.58	14.386
549.92	13.939
550.26	12.381
550.60	13.532
550.94	14.339
551.28	13.524
551.62	12.692
551.96	14.060
552.30	13.743
552.64	13.611
552.98	13.713
553.32	13.909
553.66	13.280
554.00	14.672
554.34	13.589
554.68	13.791
555.02	14.137
555.36	13.613
555.69	13.700
556.03	12.634
556.37	13.452
556.71	13.502
557.05	14.169
557.39	13.086
557.73	13.793
558.07	13.348
558.41	14.548
558.75	13.952
559.08	13.633
559.42	13.651
559.76	13.931
560.10	13.150
560.44	13.775
560.78	14.056
561.12	14.034
561.45	13.282
561.79	14.356
562.13	13.982
562.47	13.165
562.81	14.049
563.15	14.669
563.48	13.861
563.82	13.864
564.16	12.883
564.50	13.311
564.84	14.324
565.17	13.749
565.51	15.027
565.85	13.717
566.19	14.523
566.52	13.070
566.86	14.524
567.20	13.699
567.54	12.105
567.88	14.001
568.21	14.367
568.55	12.989
568.89	13.450
569.23	13.337
569.56	12.916
569.90	13.276
570.24	13.026
570.57	13.018
570.91	12.896
571.25	12.825
571.59	12.644
571.92	12.356
572.26	12.409
572.60	12.620
572.93	12.896
573.27	12.414
573.61	12.739
573.95	12.862
574.28	12.182
574.62	12.077
574.96	12.266
575.29	12.267
575.63	12.102
575.97	12.686
576.30	12.004
576.64	11.894
576.98	12.432
577.31	12.583
577.65	12.362
577.98	12.363
578.32	11.929
578.66	12.121
578.99	11.909
579.33	12.441
579.67	12.112
580.00	12.329
580.34	11.940
580.67	12.018
581.01	12.416
581.35	11.972
581.68	11.986
582.02	11.929
582.35	12.071
582.69	12.057
583.02	12.284
583.36	12.302
583.70	12.669
584.03	12.538
584.37	12.846
584.70	12.363
585.04	12.254
585.37	12.408
585.71	11.923
586.04	12.229
586.38	12.243
586.72	12.683
587.05	12.449
587.39	12.497
587.72	12.657
588.06	12.870
588.39	12.304
588.73	12.668
589.06	12.524
589.40	13.031
589.73	12.851
590.07	12.915
590.40	13.158
590.73	13.468
591.07	13.656
591.40	13.179
591.74	12.851
592.07	13.961
592.41	13.295
592.74	13.102
593.08	12.365
593.41	12.718
593.75	12.267
594.08	12.564
594.41	12.882
594.75	12.595
595.08	12.902
595.42	11.999
595.75	12.955
596.09	12.627
596.42	12.815
596.75	13.099
597.09	12.802
597.42	13.595
597.75	12.643
598.09	13.173
598.42	12.906
598.76	11.969
599.09	12.700
599.42	12.884
599.76	13.130
600.09	12.934
600.42	13.116
600.76	12.741
601.09	12.557
601.42	12.808
601.76	12.942
602.09	13.036
602.42	13.564
602.76	13.243
603.09	13.206
603.42	13.754
603.76	12.863
604.09	12.758
604.42	12.521
604.76	13.529
605.09	13.757
605.42	13.409
605.75	13.222
606.09	12.866
606.42	13.136
606.75	13.030
607.09	13.407
607.42	12.362
607.75	12.700
608.08	12.579
608.42	12.974
608.75	13.735
609.08	13.652
609.41	13.503
609.75	12.903
610.08	13.679
610.41	11.884
610.74	13.116
611.07	13.437
611.41	13.700
611.74	14.392
612.07	12.420
612.40	13.457
612.73	13.785
613.07	13.048
613.40	14.223
613.73	13.206
614.06	13.411
614.39	13.198
614.72	13.669
615.06	13.408
615.39	13.100
615.72	12.648
616.05	14.302
616.38	13.162
616.71	13.089
617.05	14.206
617.38	14.393
617.71	13.522
618.04	13.524
618.37	14.502
618.70	14.059
619.03	14.306
619.36	13.893
619.69	14.860
620.03	15.267
620.36	14.878
620.69	14.061
621.02	14.908
621.35	14.606
621.68	13.350
622.01	15.167
622.34	14.765
622.67	15.142
623.00	15.391
623.33	14.405
623.66	13.837
623.99	15.053
624.32	15.133
624.65	12.857
624.99	15.576
625.32	13.116
625.65	14.061
625.98	15.068
626.31	14.131
626.64	14.991
626.97	14.747
627.30	15.674
627.63	15.251
627.96	14.465
628.29	15.171
628.62	16.421
628.95	15.631
629.28	15.020
629.61	14.656
629.94	16.129
630.26	14.032
630.59	16.857
630.92	16.000
631.25	14.564
631.58	16.630
631.91	14.474
632.24	14.679
632.57	15.682
632.90	13.523
633.23	15.882
633.56	14.987
633.89	14.673
634.22	17.531
634.55	15.756
634.88	15.070
635.20	16.410
635.53	17.867
635.86	15.605
636.19	17.335
636.52	16.199
636.85	13.648
637.18	16.101
637.51	14.088
637.83	15.506
638.16	17.053
638.49	14.850
638.82	16.316
639.15	16.825
639.48	17.056
639.81	17.015
640.13	16.739
640.46	15.598
640.79	14.875
641.12	16.248
641.45	15.916
641.77	18.222
642.10	18.009
642.43	16.881
642.76	15.017
