SpectraSuite Data File
++++++++++++++++++++++++++++++++++++
Date: Fri May 15 17:19:18 PDT 2015
User: schluterlab
Dark Spectrum Present: Yes
Reference Spectrum Present: Yes
Number of Sampled Component Spectra: 1
Spectrometers: USB2E3373
Integration Time (usec): 3000 (USB2E3373)
Spectra Averaged: 3 (USB2E3373)
Boxcar Smoothing: 0 (USB2E3373)
Correct for Electrical Dark: No (USB2E3373)
Strobe/Lamp Enabled: No (USB2E3373)
Correct for Detector Non-linearity: No (USB2E3373)
Correct for Stray Light: No (USB2E3373)
Number of Pixels in Processed Spectrum: 2048
>>>>>Begin Processed Spectral Data<<<<<
178.53	0.000
178.91	0.000
179.29	212.500
179.67	50.000
180.04	-71.429
180.42	0.000
180.80	500.000
181.18	-33.333
181.56	150.000
181.94	350.000
182.31	-500.000
182.69	0.000
183.07	66.667
183.45	-60.000
183.83	33.333
184.20	54.545
184.58	22.222
184.96	-250.000
185.34	-233.333
185.72	-350.000
186.09	61.538
186.47	200.000
186.85	-133.333
187.23	-100.000
187.61	-600.000
187.98	200.000
188.36	111.111
188.74	-300.000
189.12	35.294
189.49	61.111
189.87	0.000
190.25	85.714
190.63	750.000
191.00	66.667
191.38	42.105
191.76	250.000
192.14	-100.000
192.51	0.000
192.89	-11.111
193.27	28.571
193.65	16.667
194.02	63.636
194.40	50.000
194.78	0.000
195.15	25.000
195.53	25.000
195.91	-275.000
196.29	100.000
196.66	-61.538
197.04	57.143
197.42	111.111
197.79	-100.000
198.17	15.385
198.55	300.000
198.92	-100.000
199.30	500.000
199.68	-80.000
200.05	133.333
200.43	0.000
200.81	66.667
201.18	100.000
201.56	-300.000
201.94	-300.000
202.31	-100.000
202.69	-20.000
203.07	25.000
203.44	800.000
203.82	0.000
204.19	85.714
204.57	-233.333
204.95	50.000
205.32	100.000
205.70	171.429
206.08	125.000
206.45	300.000
206.83	128.571
207.20	-42.857
207.58	-300.000
207.96	366.667
208.33	-20.000
208.71	175.000
209.08	-33.333
209.46	700.000
209.84	260.000
210.21	-600.000
210.59	228.571
210.96	166.667
211.34	75.000
211.71	93.333
212.09	85.714
212.46	-800.000
212.84	0.000
213.22	160.000
213.59	100.000
213.97	15.385
214.34	136.364
214.72	-16.667
215.09	50.000
215.47	38.462
215.84	45.455
216.22	-33.333
216.59	25.000
216.97	850.000
217.34	50.000
217.72	-80.000
218.09	125.000
218.47	-50.000
218.84	300.000
219.22	77.778
219.59	20.000
219.97	133.333
220.34	100.000
220.72	200.000
221.09	25.000
221.47	500.000
221.84	100.000
222.22	-450.000
222.59	72.727
222.97	41.667
223.34	166.667
223.72	21.429
224.09	9.524
224.46	60.714
224.84	33.333
225.21	-10.000
225.59	140.000
225.96	-100.000
226.34	200.000
226.71	-28.571
227.08	16.667
227.46	100.000
227.83	300.000
228.21	0.000
228.58	127.273
228.95	162.500
229.33	40.000
229.70	50.000
230.08	25.000
230.45	100.000
230.82	71.429
231.20	60.000
231.57	121.429
231.95	42.857
232.32	70.000
232.69	128.571
233.07	66.667
233.44	-120.000
233.81	70.000
234.19	144.444
234.56	11.765
234.93	-0.000
235.31	175.000
235.68	-300.000
236.05	115.385
236.43	25.000
236.80	64.706
237.17	56.250
237.55	25.000
237.92	40.741
238.29	30.556
238.67	30.000
239.04	14.706
239.41	21.951
239.79	20.000
240.16	39.024
240.53	28.947
240.91	13.043
241.28	36.508
241.65	41.071
242.02	34.247
242.40	13.333
242.77	27.119
243.14	21.212
243.51	23.750
243.89	24.138
244.26	14.943
244.63	26.190
245.00	23.711
245.38	30.928
245.75	14.607
246.12	17.241
246.49	28.099
246.87	25.962
247.24	23.529
247.61	17.544
247.98	26.016
248.36	28.125
248.73	27.632
249.10	24.026
249.47	23.418
249.84	23.529
250.22	23.529
250.59	21.569
250.96	25.352
251.33	18.605
251.70	24.706
252.08	24.873
252.45	19.802
252.82	23.618
253.19	22.581
253.56	15.888
253.94	23.874
254.31	25.652
254.68	25.877
255.05	21.654
255.42	21.834
255.79	22.780
256.16	21.012
256.54	22.015
256.91	21.293
257.28	20.074
257.65	21.723
258.02	17.730
258.39	23.232
258.76	20.147
259.14	21.927
259.51	21.683
259.88	20.275
260.25	22.876
260.62	27.431
260.99	17.288
261.36	22.260
261.73	25.000
262.10	23.404
262.47	18.712
262.85	17.241
263.22	23.692
263.59	23.364
263.96	26.087
264.33	19.697
264.70	21.131
265.07	19.643
265.44	24.079
265.81	23.164
266.18	23.497
266.55	23.136
266.92	19.689
267.29	23.238
267.66	22.251
268.03	21.728
268.40	20.104
268.77	25.936
269.14	21.823
269.51	22.108
269.88	17.456
270.25	20.663
270.62	22.195
270.99	19.182
271.36	21.027
271.73	22.535
272.10	21.655
272.47	19.149
272.84	20.792
273.21	22.042
273.58	22.651
273.95	19.222
274.32	20.554
274.69	20.362
275.06	23.661
275.43	19.955
275.80	22.296
276.17	22.069
276.54	20.985
276.91	20.833
277.28	21.179
277.65	21.488
278.02	20.000
278.39	20.569
278.76	20.126
279.13	17.220
279.50	22.059
279.87	19.654
280.23	20.645
280.60	21.442
280.97	21.212
281.34	17.885
281.71	21.355
282.08	18.200
282.45	20.744
282.82	19.112
283.19	20.503
283.56	19.653
283.92	22.011
284.29	17.885
284.66	20.155
285.03	18.664
285.40	20.038
285.77	20.211
286.14	19.314
286.51	18.819
286.87	18.099
287.24	20.074
287.61	19.577
287.98	20.000
288.35	17.851
288.72	20.490
289.08	17.882
289.45	19.859
289.82	20.979
290.19	17.406
290.56	18.353
290.93	17.340
291.29	18.182
291.66	18.268
292.03	16.906
292.40	18.065
292.77	15.470
293.13	14.123
293.50	15.781
293.87	17.099
294.24	16.692
294.60	16.095
294.97	16.815
295.34	15.951
295.71	15.648
296.08	15.396
296.44	14.794
296.81	15.556
297.18	16.667
297.55	18.293
297.91	14.384
298.28	15.831
298.65	13.840
299.02	15.094
299.38	14.227
299.75	14.207
300.12	14.136
300.48	15.415
300.85	15.463
301.22	15.844
301.59	14.737
301.95	15.443
302.32	16.213
302.69	14.552
303.05	15.470
303.42	15.068
303.79	14.369
304.15	15.532
304.52	12.604
304.89	12.982
305.25	14.528
305.62	13.069
305.99	12.865
306.35	14.566
306.72	13.273
307.09	15.165
307.45	15.270
307.82	13.426
308.19	15.215
308.55	12.868
308.92	14.597
309.29	13.520
309.65	14.639
310.02	13.751
310.38	15.148
310.75	14.973
311.12	14.962
311.48	13.256
311.85	14.450
312.22	13.608
312.58	14.968
312.95	13.447
313.31	14.493
313.68	15.393
314.05	13.571
314.41	14.536
314.78	14.742
315.14	16.650
315.51	16.770
315.87	15.369
316.24	17.391
316.61	17.323
316.97	16.567
317.34	15.723
317.70	16.061
318.07	16.731
318.43	16.961
318.80	16.856
319.16	19.141
319.53	17.569
319.89	19.291
320.26	17.611
320.62	18.455
320.99	18.685
321.35	20.555
321.72	20.353
322.08	20.242
322.45	20.305
322.81	21.218
323.18	21.197
323.54	21.815
323.91	20.935
324.27	23.633
324.64	23.408
325.00	24.361
325.37	25.161
325.73	24.479
326.10	24.432
326.46	26.906
326.83	26.334
327.19	26.678
327.56	26.933
327.92	27.817
328.29	28.125
328.65	29.623
329.01	29.871
329.38	30.691
329.74	31.728
330.11	30.677
330.47	30.798
330.84	30.865
331.20	34.886
331.56	30.926
331.93	33.333
332.29	33.089
332.66	33.484
333.02	34.201
333.38	33.731
333.75	35.623
334.11	33.214
334.48	35.177
334.84	35.073
335.20	36.322
335.57	35.811
335.93	36.314
336.29	37.569
336.66	36.785
337.02	37.082
337.38	36.296
337.75	37.636
338.11	37.511
338.47	38.686
338.84	38.540
339.20	37.203
339.56	38.165
339.93	38.765
340.29	38.349
340.65	38.978
341.02	37.855
341.38	37.611
341.74	37.456
342.11	37.002
342.47	38.790
342.83	38.668
343.20	37.631
343.56	40.609
343.92	39.238
344.28	39.880
344.65	39.206
345.01	37.857
345.37	38.856
345.73	39.163
346.10	38.740
346.46	39.024
346.82	38.462
347.19	38.487
347.55	39.432
347.91	37.702
348.27	38.399
348.63	38.756
349.00	38.884
349.36	39.318
349.72	39.801
350.08	39.098
350.45	39.106
350.81	39.369
351.17	39.169
351.53	39.510
351.89	39.389
352.26	37.840
352.62	39.677
352.98	40.241
353.34	37.359
353.70	40.777
354.07	39.355
354.43	39.712
354.79	39.554
355.15	41.587
355.51	41.297
355.87	40.534
356.24	38.581
356.60	39.612
356.96	40.873
357.32	39.696
357.68	40.344
358.04	40.145
358.40	40.354
358.77	41.786
359.13	39.952
359.49	40.447
359.85	40.016
360.21	41.627
360.57	39.327
360.93	41.074
361.29	40.030
361.66	41.536
362.02	41.742
362.38	41.889
362.74	41.787
363.10	42.739
363.46	41.438
363.82	42.224
364.18	41.402
364.54	41.397
364.90	42.079
365.26	40.320
365.62	42.701
365.98	43.548
366.35	43.846
366.71	43.459
367.07	42.816
367.43	41.840
367.79	43.746
368.15	43.934
368.51	42.025
368.87	43.073
369.23	42.166
369.59	44.388
369.95	44.355
370.31	44.147
370.67	43.134
371.03	43.017
371.39	43.399
371.75	44.835
372.11	44.437
372.47	44.822
372.83	44.855
373.19	43.438
373.55	44.621
373.91	43.844
374.27	46.208
374.63	45.298
374.99	43.546
375.35	44.290
375.71	46.084
376.07	45.787
376.42	46.463
376.78	46.107
377.14	46.242
377.50	46.282
377.86	46.452
378.22	46.905
378.58	47.115
378.94	47.007
379.30	47.099
379.66	48.025
380.02	46.842
380.38	46.379
380.74	47.098
381.09	49.509
381.45	47.890
381.81	48.304
382.17	48.731
382.53	48.657
382.89	50.722
383.25	49.782
383.61	50.427
383.97	49.016
384.32	49.343
384.68	49.598
385.04	49.081
385.40	48.227
385.76	51.195
386.12	51.035
386.48	52.107
386.83	50.666
387.19	51.160
387.55	52.133
387.91	51.222
388.27	52.381
388.62	53.304
388.98	51.258
389.34	51.655
389.70	52.393
390.06	52.045
390.42	52.073
390.77	52.191
391.13	53.405
391.49	54.334
391.85	53.931
392.20	52.417
392.56	53.719
392.92	52.907
393.28	53.597
393.64	52.132
393.99	54.295
394.35	53.763
394.71	53.640
395.07	53.488
395.42	52.277
395.78	54.658
396.14	54.351
396.50	54.153
396.85	54.411
397.21	54.010
397.57	52.665
397.92	53.206
398.28	54.885
398.64	53.373
399.00	54.402
399.35	52.540
399.71	53.475
400.07	54.655
400.42	54.468
400.78	53.889
401.14	53.539
401.49	53.782
401.85	53.382
402.21	54.639
402.57	54.312
402.92	53.513
403.28	53.697
403.63	53.783
403.99	54.401
404.35	54.903
404.70	52.857
405.06	54.524
405.42	54.382
405.77	54.096
406.13	53.376
406.49	53.937
406.84	55.440
407.20	54.545
407.55	53.896
407.91	54.144
408.27	54.748
408.62	53.477
408.98	54.159
409.34	54.585
409.69	53.101
410.05	53.387
410.40	54.938
410.76	54.403
411.11	54.562
411.47	54.635
411.83	54.488
412.18	55.405
412.54	53.620
412.89	53.818
413.25	53.610
413.60	55.217
413.96	53.865
414.31	54.146
414.67	53.945
415.03	54.261
415.38	53.264
415.74	54.788
416.09	54.605
416.45	55.233
416.80	54.329
417.16	55.939
417.51	54.430
417.87	54.694
418.22	54.858
418.58	56.990
418.93	56.489
419.29	54.738
419.64	54.504
420.00	57.494
420.35	55.284
420.71	55.468
421.06	54.880
421.42	55.889
421.77	56.301
422.12	55.789
422.48	55.766
422.83	56.206
423.19	55.926
423.54	56.437
423.90	56.419
424.25	55.970
424.61	56.181
424.96	57.027
425.31	57.655
425.67	57.453
426.02	58.363
426.38	56.919
426.73	58.111
427.09	58.797
427.44	58.471
427.79	58.044
428.15	57.646
428.50	58.328
428.85	56.880
429.21	58.517
429.56	59.137
429.92	57.730
430.27	58.296
430.62	58.756
430.98	58.015
431.33	58.465
431.68	57.143
432.04	58.636
432.39	58.642
432.74	56.464
433.10	59.195
433.45	60.454
433.80	59.199
434.16	59.945
434.51	59.140
434.86	60.453
435.22	60.236
435.57	61.135
435.92	61.497
436.28	59.750
436.63	60.525
436.98	58.806
437.34	60.799
437.69	61.538
438.04	60.171
438.39	59.255
438.75	62.113
439.10	60.385
439.45	61.412
439.81	60.306
440.16	62.589
440.51	61.015
440.86	63.263
441.22	62.217
441.57	62.748
441.92	62.015
442.27	63.248
442.63	62.259
442.98	62.435
443.33	60.935
443.68	61.432
444.03	61.202
444.39	62.617
444.74	64.716
445.09	63.307
445.44	63.020
445.79	64.105
446.15	62.610
446.50	62.119
446.85	64.081
447.20	62.930
447.55	63.281
447.91	63.565
448.26	63.404
448.61	64.709
448.96	64.716
449.31	64.798
449.66	63.589
450.02	63.948
450.37	63.723
450.72	63.860
451.07	64.304
451.42	63.920
451.77	63.713
452.12	64.055
452.47	64.971
452.83	65.135
453.18	64.516
453.53	64.981
453.88	64.845
454.23	64.905
454.58	65.869
454.93	64.304
455.28	63.937
455.63	64.538
455.98	65.424
456.34	65.390
456.69	65.248
457.04	65.343
457.39	65.492
457.74	64.631
458.09	64.332
458.44	65.009
458.79	64.874
459.14	64.073
459.49	64.060
459.84	65.087
460.19	66.626
460.54	66.565
460.89	66.420
461.24	65.776
461.59	65.024
461.94	65.723
462.29	66.345
462.64	67.043
462.99	68.043
463.34	65.716
463.69	66.538
464.04	67.252
464.39	65.312
464.74	65.890
465.09	66.376
465.44	66.128
465.79	64.966
466.14	66.249
466.49	65.670
466.84	66.151
467.19	66.145
467.54	65.006
467.89	66.709
468.24	66.119
468.59	66.476
468.94	65.524
469.29	65.574
469.64	66.986
469.99	68.115
470.34	67.167
470.68	70.172
471.03	68.577
471.38	68.402
471.73	68.067
472.08	66.689
472.43	67.987
472.78	67.375
473.13	67.891
473.48	67.622
473.83	67.248
474.17	67.487
474.52	67.900
474.87	66.606
475.22	67.907
475.57	67.081
475.92	68.623
476.27	68.277
476.61	67.245
476.96	67.485
477.31	68.253
477.66	68.090
478.01	68.725
478.36	67.538
478.70	66.939
479.05	68.626
479.40	68.468
479.75	67.153
480.10	67.588
480.45	68.350
480.79	68.681
481.14	69.211
481.49	67.291
481.84	68.485
482.19	67.774
482.53	68.058
482.88	67.733
483.23	68.666
483.58	67.217
483.92	67.473
484.27	67.274
484.62	67.817
484.97	67.662
485.31	67.738
485.66	66.335
486.01	66.038
486.36	65.982
486.70	65.333
487.05	66.071
487.40	66.675
487.75	66.704
488.09	66.595
488.44	66.781
488.79	67.165
489.13	68.029
489.48	68.405
489.83	67.758
490.17	67.640
490.52	68.406
490.87	66.913
491.22	69.580
491.56	67.789
491.91	67.925
492.26	69.665
492.60	67.274
492.95	69.700
493.30	67.807
493.64	68.811
493.99	68.261
494.34	67.767
494.68	69.143
495.03	68.127
495.37	69.087
495.72	69.561
496.07	68.683
496.41	68.632
496.76	69.000
497.11	68.980
497.45	68.878
497.80	70.232
498.14	69.051
498.49	69.375
498.84	69.910
499.18	69.026
499.53	69.147
499.87	68.920
500.22	68.843
500.56	68.785
500.91	69.880
501.26	69.204
501.60	69.405
501.95	69.820
502.29	68.620
502.64	69.450
502.98	69.364
503.33	68.348
503.67	68.723
504.02	70.528
504.36	70.015
504.71	68.788
505.06	69.250
505.40	69.188
505.75	70.567
506.09	69.083
506.44	70.483
506.78	70.918
507.13	69.183
507.47	69.817
507.82	69.231
508.16	70.206
508.51	70.462
508.85	69.963
509.19	70.250
509.54	70.724
509.88	69.202
510.23	70.845
510.57	70.764
510.92	69.403
511.26	70.813
511.61	72.222
511.95	71.616
512.30	70.843
512.64	70.061
512.98	71.477
513.33	70.957
513.67	69.756
514.02	72.597
514.36	73.143
514.70	71.678
515.05	72.385
515.39	72.727
515.74	74.371
516.08	72.744
516.42	72.674
516.77	71.913
517.11	74.006
517.46	71.933
517.80	72.288
518.14	71.280
518.49	71.815
518.83	72.783
519.17	72.771
519.52	72.291
519.86	72.509
520.20	72.114
520.55	72.108
520.89	72.271
521.23	71.691
521.58	73.186
521.92	74.295
522.26	74.040
522.61	74.026
522.95	75.364
523.29	73.571
523.64	74.206
523.98	74.141
524.32	74.807
524.66	73.175
525.01	73.636
525.35	74.789
525.69	74.411
526.04	73.545
526.38	74.514
526.72	71.942
527.06	73.671
527.41	74.208
527.75	73.324
528.09	73.821
528.43	74.949
528.78	74.719
529.12	74.710
529.46	72.969
529.80	73.148
530.15	75.248
530.49	74.815
530.83	76.471
531.17	75.151
531.51	75.103
531.86	73.215
532.20	73.765
532.54	73.587
532.88	74.538
533.22	72.715
533.57	73.657
533.91	72.977
534.25	73.763
534.59	72.739
534.93	73.254
535.27	72.970
535.62	73.688
535.96	73.386
536.30	74.077
536.64	75.121
536.98	73.589
537.32	74.680
537.66	76.928
538.01	73.986
538.35	74.619
538.69	72.237
539.03	74.163
539.37	73.553
539.71	72.870
540.05	75.424
540.39	74.030
540.73	73.849
541.07	73.964
541.42	73.051
541.76	73.847
542.10	73.365
542.44	74.566
542.78	73.090
543.12	74.519
543.46	73.992
543.80	74.879
544.14	72.363
544.48	72.418
544.82	72.932
545.16	74.044
545.50	72.897
545.84	75.779
546.18	74.681
546.52	74.333
546.86	74.838
547.20	74.034
547.54	73.286
547.88	73.234
548.22	74.162
548.56	71.900
548.90	72.978
549.24	72.934
549.58	73.061
549.92	72.695
550.26	73.333
550.60	74.647
550.94	74.832
551.28	74.961
551.62	75.000
551.96	74.887
552.30	74.635
552.64	74.048
552.98	73.488
553.32	73.894
553.66	74.528
554.00	74.453
554.34	76.366
554.68	73.009
555.02	74.926
555.36	75.542
555.69	73.407
556.03	74.019
556.37	74.021
556.71	74.801
557.05	76.137
557.39	73.606
557.73	73.688
558.07	74.962
558.41	77.259
558.75	74.825
559.08	74.862
559.42	74.921
559.76	75.981
560.10	75.076
560.44	74.609
560.78	74.056
561.12	74.683
561.45	75.123
561.79	75.490
562.13	74.521
562.47	74.029
562.81	74.928
563.15	74.189
563.48	74.611
563.82	76.458
564.16	75.627
564.50	73.041
564.84	74.096
565.17	74.313
565.51	75.956
565.85	75.583
566.19	75.398
566.52	75.000
566.86	74.807
567.20	75.467
567.54	75.122
567.88	75.864
568.21	73.982
568.55	73.913
568.89	73.511
569.23	72.942
569.56	73.380
569.90	73.285
570.24	71.157
570.57	72.509
570.91	72.569
571.25	70.996
571.59	71.006
571.92	68.889
572.26	70.924
572.60	69.953
572.93	70.505
573.27	70.815
573.61	70.615
573.95	71.327
574.28	69.889
574.62	69.108
574.96	69.584
575.29	69.258
575.63	67.841
575.97	68.989
576.30	69.244
576.64	68.954
576.98	70.759
577.31	70.804
577.65	69.977
577.98	70.287
578.32	69.030
578.66	68.902
578.99	68.694
579.33	68.399
579.67	67.954
580.00	69.468
580.34	69.403
580.67	68.595
581.01	69.452
581.35	68.626
581.68	69.652
582.02	69.260
582.35	69.081
582.69	69.244
583.02	68.682
583.36	69.742
583.70	69.990
584.03	71.059
584.37	70.807
584.70	70.055
585.04	68.990
585.37	69.165
585.71	69.464
586.04	70.096
586.38	68.952
586.72	70.588
587.05	70.826
587.39	71.233
587.72	71.323
588.06	69.997
588.39	69.610
588.73	70.238
589.06	71.820
589.40	71.103
589.73	72.107
590.07	71.639
590.40	71.981
590.73	73.064
591.07	71.416
591.40	73.419
591.74	72.896
592.07	73.701
592.41	72.924
592.74	72.322
593.08	69.542
593.41	70.708
593.75	71.279
594.08	70.031
594.41	71.798
594.75	70.802
595.08	70.866
595.42	70.445
595.75	71.611
596.09	72.088
596.42	72.261
596.75	72.602
597.09	71.481
597.42	72.132
597.75	73.935
598.09	71.842
598.42	72.022
598.76	71.557
599.09	70.793
599.42	70.027
599.76	70.090
600.09	70.928
600.42	70.660
600.76	70.617
601.09	71.565
601.42	69.879
601.76	71.179
602.09	71.865
602.42	73.083
602.76	71.392
603.09	72.051
603.42	72.993
603.76	71.089
604.09	70.919
604.42	71.277
604.76	73.342
605.09	73.080
605.42	72.280
605.75	72.504
606.09	71.762
606.42	71.059
606.75	70.736
607.09	70.989
607.42	70.758
607.75	70.071
608.08	70.530
608.42	70.672
608.75	72.675
609.08	73.543
609.41	72.589
609.75	72.077
610.08	72.841
610.41	71.546
610.74	72.647
611.07	73.488
611.41	73.067
611.74	73.827
612.07	71.949
612.40	73.578
612.73	73.955
613.07	71.710
613.40	71.444
613.73	72.300
614.06	72.343
614.39	74.112
614.72	72.549
615.06	72.849
615.39	71.998
615.72	71.152
616.05	72.291
616.38	71.111
616.71	74.251
617.05	73.317
617.38	73.790
617.71	73.962
618.04	74.159
618.37	74.338
618.70	74.323
619.03	76.458
619.36	75.687
619.69	77.407
620.03	75.383
620.36	74.535
620.69	74.875
621.02	76.758
621.35	78.008
621.68	77.976
622.01	77.083
622.34	76.137
622.67	75.552
623.00	73.354
623.33	75.381
623.66	75.841
623.99	73.676
624.32	75.741
624.65	74.737
624.99	75.997
625.32	75.284
625.65	75.570
625.98	77.035
626.31	76.808
626.64	77.730
626.97	77.574
627.30	77.583
627.63	77.556
627.96	77.987
628.29	77.428
628.62	79.154
628.95	76.253
629.28	79.435
629.61	77.767
629.94	80.938
630.26	79.743
630.59	78.668
630.92	78.769
631.25	77.641
631.58	81.498
631.91	79.167
632.24	79.472
632.57	79.205
632.90	79.953
633.23	78.118
633.56	83.375
633.89	79.531
634.22	80.494
