SpectraSuite Data File
++++++++++++++++++++++++++++++++++++
Date: Fri May 15 20:00:22 PDT 2015
User: schluterlab
Dark Spectrum Present: Yes
Reference Spectrum Present: Yes
Number of Sampled Component Spectra: 1
Spectrometers: USB2E3373
Integration Time (usec): 3000 (USB2E3373)
Spectra Averaged: 3 (USB2E3373)
Boxcar Smoothing: 0 (USB2E3373)
Correct for Electrical Dark: No (USB2E3373)
Strobe/Lamp Enabled: No (USB2E3373)
Correct for Detector Non-linearity: No (USB2E3373)
Correct for Stray Light: No (USB2E3373)
Number of Pixels in Processed Spectrum: 2048
>>>>>Begin Processed Spectral Data<<<<<
178.53	0.000
178.91	0.000
179.29	112.500
179.67	-100.000
180.04	57.143
180.42	175.000
180.80	100.000
181.18	-100.000
181.56	650.000
181.94	250.000
182.31	300.000
182.69	0.000
183.07	100.000
183.45	140.000
183.83	16.667
184.20	63.636
184.58	100.000
184.96	-75.000
185.34	-133.333
185.72	-150.000
186.09	69.231
186.47	-100.000
186.85	83.333
187.23	111.111
187.61	-200.000
187.98	0.000
188.36	55.556
188.74	100.000
189.12	5.882
189.49	111.111
189.87	0.000
190.25	42.857
190.63	700.000
191.00	133.333
191.38	52.632
191.76	350.000
192.14	-200.000
192.51	300.000
192.89	11.111
193.27	-57.143
193.65	-0.000
194.02	100.000
194.40	40.000
194.78	-75.000
195.15	133.333
195.53	37.500
195.91	175.000
196.29	75.000
196.66	84.615
197.04	71.429
197.42	66.667
197.79	-133.333
198.17	-92.308
198.55	400.000
198.92	-100.000
199.30	1000.000
199.68	20.000
200.05	100.000
200.43	0.000
200.81	166.667
201.18	-66.667
201.56	300.000
201.94	100.000
202.31	-166.667
202.69	-240.000
203.07	-75.000
203.44	-200.000
203.82	0.000
204.19	85.714
204.57	-466.667
204.95	-150.000
205.32	90.000
205.70	185.714
206.08	350.000
206.45	188.889
206.83	121.429
207.20	-57.143
207.58	100.000
207.96	-266.667
208.33	-110.000
208.71	0.000
209.08	-33.333
209.46	-500.000
209.84	-20.000
210.21	-600.000
210.59	0.000
210.96	100.000
211.34	-25.000
211.71	46.667
212.09	42.857
212.46	-600.000
212.84	0.000
213.22	100.000
213.59	200.000
213.97	15.385
214.34	54.545
214.72	-16.667
215.09	275.000
215.47	7.692
215.84	63.636
216.22	-333.333
216.59	50.000
216.97	400.000
217.34	125.000
217.72	-80.000
218.09	62.500
218.47	37.500
218.84	-500.000
219.22	-22.222
219.59	-60.000
219.97	-66.667
220.34	100.000
220.72	157.143
221.09	-275.000
221.47	300.000
221.84	-450.000
222.22	-200.000
222.59	100.000
222.97	58.333
223.34	-233.333
223.72	28.571
224.09	19.048
224.46	14.286
224.84	-100.000
225.21	0.000
225.59	60.000
225.96	50.000
226.34	475.000
226.71	0.000
227.08	16.667
227.46	12.500
227.83	-100.000
228.21	-22.222
228.58	100.000
228.95	-12.500
229.33	90.000
229.70	-18.750
230.08	-125.000
230.45	-42.857
230.82	214.286
231.20	-33.333
231.57	0.000
231.95	71.429
232.32	-80.000
232.69	28.571
233.07	233.333
233.44	-20.000
233.81	10.000
234.19	100.000
234.56	17.647
234.93	250.000
235.31	-75.000
235.68	-180.000
236.05	-38.462
236.43	5.000
236.80	64.706
237.17	43.750
237.55	5.000
237.92	-11.111
238.29	25.000
238.67	30.000
239.04	35.294
239.41	4.878
239.79	0.000
240.16	17.073
240.53	10.526
240.91	6.522
241.28	17.460
241.65	26.786
242.02	20.548
242.40	35.000
242.77	23.729
243.14	13.636
243.51	21.250
243.89	22.989
244.26	12.644
244.63	20.238
245.00	16.495
245.38	17.526
245.75	5.618
246.12	8.621
246.49	19.835
246.87	17.308
247.24	11.765
247.61	4.386
247.98	17.886
248.36	13.125
248.73	14.474
249.10	12.987
249.47	12.658
249.84	16.340
250.22	7.059
250.59	15.686
250.96	19.718
251.33	9.302
251.70	13.529
252.08	13.706
252.45	16.337
252.82	12.563
253.19	12.903
253.56	14.953
253.94	11.261
254.31	15.217
254.68	14.912
255.05	16.535
255.42	17.904
255.79	11.969
256.16	12.451
256.54	16.045
256.91	11.787
257.28	13.011
257.65	13.109
258.02	15.957
258.39	14.141
258.76	15.385
259.14	14.950
259.51	14.239
259.88	14.089
260.25	10.458
260.62	15.972
260.99	12.542
261.36	13.356
261.73	14.557
262.10	13.982
262.47	12.883
262.85	16.614
263.22	15.385
263.59	16.199
263.96	13.354
264.33	10.606
264.70	16.071
265.07	16.667
265.44	15.581
265.81	14.972
266.18	12.568
266.55	14.653
266.92	16.321
267.29	15.666
267.66	14.066
268.03	12.304
268.40	11.749
268.77	17.647
269.14	15.108
269.51	13.368
269.88	13.466
270.25	14.031
270.62	12.195
270.99	14.578
271.36	11.002
271.73	13.380
272.10	13.382
272.47	14.894
272.84	11.881
273.21	15.777
273.58	14.217
273.95	14.874
274.32	12.240
274.69	12.443
275.06	14.955
275.43	12.698
275.80	14.349
276.17	14.023
276.54	13.490
276.91	14.254
277.28	12.882
277.65	13.223
278.02	11.489
278.39	12.473
278.76	14.885
279.13	9.751
279.50	13.655
279.87	12.743
280.23	13.763
280.60	13.840
280.97	13.939
281.34	13.462
281.71	14.579
282.08	10.634
282.45	13.112
282.82	14.479
283.19	15.474
283.56	13.680
283.92	11.765
284.29	11.154
284.66	11.047
285.03	11.395
285.40	13.989
285.77	11.599
286.14	11.552
286.51	13.284
286.87	13.346
287.24	12.339
287.61	12.169
287.98	14.561
288.35	11.958
288.72	13.310
289.08	11.979
289.45	13.533
289.82	12.762
290.19	10.239
290.56	11.835
290.93	11.616
291.29	10.478
291.66	13.701
292.03	12.759
292.40	10.323
292.77	12.919
293.13	9.740
293.50	10.470
293.87	12.214
294.24	12.210
294.60	11.475
294.97	10.417
295.34	10.429
295.71	11.773
296.08	10.015
296.44	7.966
296.81	9.306
297.18	8.986
297.55	12.195
297.91	10.000
298.28	12.005
298.65	9.905
299.02	10.108
299.38	8.071
299.75	8.966
300.12	8.901
300.48	9.750
300.85	9.632
301.22	8.571
301.59	8.421
301.95	11.899
302.32	10.506
302.69	10.199
303.05	8.663
303.42	11.208
303.79	9.463
304.15	9.797
304.52	8.205
304.89	6.667
305.25	8.475
305.62	9.802
305.99	8.655
306.35	8.208
306.72	8.661
307.09	9.464
307.45	8.840
307.82	8.681
308.19	10.569
308.55	7.852
308.92	10.131
309.29	9.497
309.65	7.643
310.02	9.901
310.38	9.330
310.75	9.617
311.12	9.580
311.48	9.544
311.85	9.110
312.22	8.650
312.58	8.386
312.95	9.285
313.31	7.764
313.68	8.482
314.05	8.878
314.41	11.753
314.78	9.485
315.14	10.277
315.51	10.041
315.87	10.451
316.24	11.122
316.61	10.039
316.97	11.310
317.34	11.035
317.70	11.568
318.07	11.635
318.43	11.569
318.80	11.174
319.16	11.719
319.53	13.390
319.89	12.106
320.26	13.259
320.62	12.839
320.99	12.735
321.35	13.155
321.72	14.226
322.08	15.206
322.45	15.635
322.81	15.029
323.18	17.664
323.54	15.637
323.91	15.677
324.27	17.773
324.64	19.757
325.00	17.974
325.37	21.579
325.73	20.580
326.10	22.252
326.46	22.870
326.83	22.747
327.19	22.755
327.56	23.892
327.92	25.440
328.29	27.321
328.65	27.736
329.01	27.022
329.38	27.373
329.74	28.801
330.11	29.101
330.47	29.963
330.84	31.538
331.20	32.605
331.56	30.833
331.93	31.781
332.29	34.739
332.66	32.851
333.02	33.922
333.38	33.272
333.75	34.615
334.11	34.109
334.48	35.721
334.84	36.813
335.20	35.956
335.57	35.449
335.93	37.489
336.29	38.398
336.66	37.511
337.02	37.175
337.38	36.204
337.75	37.273
338.11	38.954
338.47	38.321
338.84	38.078
339.20	37.569
339.56	37.339
339.93	39.123
340.29	38.716
340.65	38.799
341.02	38.830
341.38	38.053
341.74	38.781
342.11	38.302
342.47	39.413
342.83	37.803
343.20	38.937
343.56	40.174
343.92	39.327
344.28	39.539
344.65	40.069
345.01	39.239
345.37	39.529
345.73	39.331
346.10	39.344
346.46	39.277
346.82	38.625
347.19	39.152
347.55	39.515
347.91	39.482
348.27	38.319
348.63	40.119
349.00	40.197
349.36	38.238
349.72	40.050
350.08	40.164
350.45	40.543
350.81	40.698
351.17	39.414
351.53	40.245
351.89	37.820
352.26	37.520
352.62	41.371
352.98	38.313
353.34	39.130
353.70	39.644
354.07	38.387
354.43	38.751
354.79	40.132
355.15	41.349
355.51	41.060
355.87	39.806
356.24	39.152
356.60	39.046
356.96	41.984
357.32	39.776
357.68	40.031
358.04	40.630
358.40	41.318
358.77	41.148
359.13	40.112
359.49	39.676
359.85	40.094
360.21	40.590
360.57	38.409
360.93	40.772
361.29	40.408
361.66	40.125
362.02	42.348
362.38	41.660
362.74	41.862
363.10	40.858
363.46	40.697
363.82	41.097
364.18	41.107
364.54	40.809
364.90	41.075
365.26	41.121
365.62	42.409
365.98	41.716
366.35	41.952
366.71	43.089
367.07	40.348
367.43	41.912
367.79	43.110
368.15	40.919
368.51	41.733
368.87	41.421
369.23	40.939
369.59	43.659
369.95	43.182
370.31	42.269
370.67	43.433
371.03	41.748
371.39	42.597
371.75	41.978
372.11	41.369
372.47	42.012
372.83	43.293
373.19	43.153
373.55	41.733
373.91	42.981
374.27	43.657
374.63	42.929
374.99	43.121
375.35	43.245
375.71	44.126
376.07	43.610
376.42	44.830
376.78	43.423
377.14	43.873
377.50	44.090
377.86	44.444
378.22	44.863
378.58	45.321
378.94	44.549
379.30	44.666
379.66	45.266
380.02	44.574
380.38	45.040
380.74	45.721
381.09	46.810
381.45	45.015
381.81	44.664
382.17	45.368
382.53	44.472
382.89	45.700
383.25	46.857
383.61	46.585
383.97	46.857
384.32	46.154
384.68	45.635
385.04	45.282
385.40	45.862
385.76	47.736
386.12	45.990
386.48	48.212
386.83	45.910
387.19	46.703
387.55	47.051
387.91	46.333
388.27	47.070
388.62	47.074
388.98	47.698
389.34	47.658
389.70	46.675
390.06	45.878
390.42	46.179
390.77	47.547
391.13	46.343
391.49	46.895
391.85	46.654
392.20	47.144
392.56	46.853
392.92	46.858
393.28	48.526
393.64	46.907
393.99	49.028
394.35	46.237
394.71	47.893
395.07	47.203
395.42	45.416
395.78	47.036
396.14	46.280
396.50	47.432
396.85	46.233
397.21	45.865
397.57	47.210
397.92	47.513
398.28	47.126
398.64	46.205
399.00	46.896
399.35	45.767
399.71	46.123
400.07	47.823
400.42	47.124
400.78	46.724
401.14	46.158
401.49	46.397
401.85	46.801
402.21	45.964
402.57	47.125
402.92	45.295
403.28	47.243
403.63	47.037
403.99	46.110
404.35	45.721
404.70	44.762
405.06	45.652
405.42	46.116
405.77	45.322
406.13	46.217
406.49	46.004
406.84	45.171
407.20	46.117
407.55	44.816
407.91	45.789
408.27	44.933
408.62	45.538
408.98	45.102
409.34	47.026
409.69	44.767
410.05	44.335
410.40	45.864
410.76	45.476
411.11	45.688
411.47	45.431
411.83	45.449
412.18	46.139
412.54	44.881
412.89	43.719
413.25	44.886
413.60	44.224
413.96	45.031
414.31	46.707
414.67	45.350
415.03	45.007
415.38	45.104
415.74	45.537
416.09	45.460
416.45	45.375
416.80	45.208
417.16	46.409
417.51	45.570
417.87	44.394
418.22	46.114
418.58	45.485
418.93	46.708
419.29	44.366
419.64	45.885
420.00	46.285
420.35	45.433
420.71	46.598
421.06	46.409
421.42	47.175
421.77	47.341
422.12	46.198
422.48	47.320
422.83	47.390
423.19	47.517
423.54	45.620
423.90	46.466
424.25	47.359
424.61	47.001
424.96	47.213
425.31	48.585
425.67	48.415
426.02	48.174
426.38	48.904
426.73	49.153
427.09	48.924
427.44	48.529
427.79	48.674
428.15	48.968
428.50	49.303
428.85	48.157
429.21	49.915
429.56	50.620
429.92	49.409
430.27	49.223
430.62	49.347
430.98	49.575
431.33	50.210
431.68	50.131
432.04	50.475
432.39	49.344
432.74	49.669
433.10	50.172
433.45	50.119
433.80	50.203
434.16	50.360
434.51	50.376
434.86	50.232
435.22	50.645
435.57	51.216
435.92	50.778
436.28	49.553
436.63	51.169
436.98	50.463
437.34	51.845
437.69	51.759
438.04	50.598
438.39	51.191
438.75	52.580
439.10	51.217
439.45	52.343
439.81	50.887
440.16	52.791
440.51	51.761
440.86	53.897
441.22	52.093
441.57	52.373
441.92	52.728
442.27	53.381
442.63	53.801
442.98	52.211
443.33	53.088
443.68	52.520
444.03	52.906
444.39	52.681
444.74	54.738
445.09	55.011
445.44	54.302
445.79	54.203
446.15	52.313
446.50	52.524
446.85	53.135
447.20	52.972
447.55	53.292
447.91	52.171
448.26	54.297
448.61	53.195
448.96	53.930
449.31	53.295
449.66	54.007
450.02	54.535
450.37	54.001
450.72	52.978
451.07	53.608
451.42	53.121
451.77	52.743
452.12	52.691
452.47	54.089
452.83	53.946
453.18	53.004
453.53	53.729
453.88	52.945
454.23	53.473
454.58	55.605
454.93	54.188
455.28	52.825
455.63	53.317
455.98	54.059
456.34	53.959
456.69	54.257
457.04	54.946
457.39	53.159
457.74	53.204
458.09	52.266
458.44	54.418
458.79	54.846
459.14	55.034
459.49	54.030
459.84	54.146
460.19	54.612
460.54	54.584
460.89	55.511
461.24	54.783
461.59	53.800
461.94	53.522
462.29	53.860
462.64	54.485
462.99	54.232
463.34	52.712
463.69	54.762
464.04	54.903
464.39	53.123
464.74	54.479
465.09	54.148
465.44	55.395
465.79	53.345
466.14	54.846
466.49	54.457
466.84	55.027
467.19	54.568
467.54	52.874
467.89	53.001
468.24	54.015
468.59	54.349
468.94	53.968
469.29	53.770
469.64	53.930
469.99	56.342
470.34	52.901
470.68	54.810
471.03	54.282
471.38	54.494
471.73	53.992
472.08	53.053
472.43	53.423
472.78	52.502
473.13	53.673
473.48	54.072
473.83	53.923
474.17	54.404
474.52	53.287
474.87	53.455
475.22	53.935
475.57	53.981
475.92	55.239
476.27	54.831
476.61	53.530
476.96	53.151
477.31	54.786
477.66	52.640
478.01	53.678
478.36	53.813
478.70	54.976
479.05	54.176
479.40	53.418
479.75	53.233
480.10	53.200
480.45	54.150
480.79	55.086
481.14	54.969
481.49	54.335
481.84	55.164
482.19	53.040
482.53	54.005
482.88	54.033
483.23	53.071
483.58	53.019
483.92	53.001
484.27	53.555
484.62	53.877
484.97	54.022
485.31	55.275
485.66	56.717
486.01	58.888
486.36	57.887
486.70	57.622
487.05	56.667
487.40	55.584
487.75	55.155
488.09	53.616
488.44	52.751
488.79	52.858
489.13	52.524
489.48	52.971
489.83	52.242
490.17	52.899
490.52	53.580
490.87	52.476
491.22	54.489
491.56	53.178
491.91	52.629
492.26	53.038
492.60	52.015
492.95	53.763
493.30	52.125
493.64	53.242
493.99	52.657
494.34	53.350
494.68	52.810
495.03	53.041
495.37	52.797
495.72	52.953
496.07	52.878
496.41	53.349
496.76	53.432
497.11	52.958
497.45	53.556
497.80	54.390
498.14	51.714
498.49	51.752
498.84	51.647
499.18	52.008
499.53	53.125
499.87	51.897
500.22	52.918
500.56	52.748
500.91	52.259
501.26	52.150
501.60	52.878
501.95	52.499
502.29	52.639
502.64	51.303
502.98	53.182
503.33	52.065
503.67	52.723
504.02	52.981
504.36	52.944
504.71	52.323
505.06	51.485
505.40	52.030
505.75	52.784
506.09	52.103
506.44	53.491
506.78	52.704
507.13	51.861
507.47	50.339
507.82	51.282
508.16	51.453
508.51	51.836
508.85	52.957
509.19	51.570
509.54	52.440
509.88	50.809
510.23	51.963
510.57	51.309
510.92	50.693
511.26	51.991
511.61	51.760
511.95	51.726
512.30	51.718
512.64	51.308
512.98	51.488
513.33	52.490
513.67	52.246
514.02	51.945
514.36	50.857
514.70	52.214
515.05	52.174
515.39	50.826
515.74	51.377
516.08	51.345
516.42	51.001
516.77	50.673
517.11	51.691
517.46	51.047
517.80	49.821
518.14	51.133
518.49	50.962
518.83	50.668
519.17	50.030
519.52	50.740
519.86	49.700
520.20	49.392
520.55	49.156
520.89	49.624
521.23	49.715
521.58	49.716
521.92	49.679
522.26	48.992
522.61	49.221
522.95	49.404
523.29	49.555
523.64	51.017
523.98	50.356
524.32	50.902
524.66	50.768
525.01	50.390
525.35	49.838
525.69	49.966
526.04	48.545
526.38	50.584
526.72	49.444
527.06	48.573
527.41	48.747
527.75	48.794
528.09	49.103
528.43	50.439
528.78	50.165
529.12	49.097
529.46	48.733
529.80	49.145
530.15	50.033
530.49	49.360
530.83	50.000
531.17	49.228
531.51	50.205
531.86	48.606
532.20	48.017
532.54	49.966
532.88	48.871
533.22	51.344
533.57	50.262
533.91	48.433
534.25	50.716
534.59	50.353
534.93	48.143
535.27	49.365
535.62	49.449
535.96	49.250
536.30	49.011
536.64	49.483
536.98	48.014
537.32	49.858
537.66	50.070
538.01	50.210
538.35	49.723
538.69	50.133
539.03	48.462
539.37	50.269
539.71	49.080
540.05	49.355
540.39	49.792
540.73	49.930
541.07	49.724
541.42	48.185
541.76	50.654
542.10	49.690
542.44	49.409
542.78	48.864
543.12	49.382
543.46	49.722
543.80	50.798
544.14	48.465
544.48	49.767
544.82	50.991
545.16	50.888
545.50	49.866
545.84	50.142
546.18	50.142
546.52	49.603
546.86	50.108
547.20	50.072
547.54	47.915
547.88	50.340
548.22	49.704
548.56	50.198
548.90	50.337
549.24	48.485
549.58	47.955
549.92	49.678
550.26	48.425
550.60	49.591
550.94	48.693
551.28	48.686
551.62	49.308
551.96	49.023
552.30	49.927
552.64	50.071
552.98	50.633
553.32	50.071
553.66	49.202
554.00	50.511
554.34	49.557
554.68	49.631
555.02	49.256
555.36	49.065
555.69	49.011
556.03	49.893
556.37	50.107
556.71	49.603
557.05	49.814
557.39	48.922
557.73	49.550
558.07	50.377
558.41	49.081
558.75	49.493
559.08	49.094
559.42	48.333
559.76	49.159
560.10	49.541
560.44	49.442
560.78	48.881
561.12	50.846
561.45	50.457
561.79	50.280
562.13	49.184
562.47	49.137
562.81	49.928
563.15	49.083
563.48	49.081
563.82	50.789
564.16	49.791
564.50	49.865
564.84	50.602
565.17	50.235
565.51	50.478
565.85	50.823
566.19	50.729
566.52	51.609
566.86	50.771
567.20	50.436
567.54	52.129
567.88	52.548
568.21	53.676
568.55	52.880
568.89	53.747
569.23	53.587
569.56	53.722
569.90	55.542
570.24	53.777
570.57	54.109
570.91	54.897
571.25	54.785
571.59	54.905
571.92	54.104
572.26	54.197
572.60	54.078
572.93	53.499
573.27	54.295
573.61	54.535
573.95	55.079
574.28	54.264
574.62	54.767
574.96	54.351
575.29	55.300
575.63	54.107
575.97	53.239
576.30	53.725
576.64	53.960
576.98	54.749
577.31	55.173
577.65	55.550
577.98	55.664
578.32	55.433
578.66	54.846
578.99	54.633
579.33	54.109
579.67	54.050
580.00	54.177
580.34	55.100
580.67	53.635
581.01	54.707
581.35	55.857
581.68	55.954
582.02	56.799
582.35	56.007
582.69	55.551
583.02	55.651
583.36	54.649
583.70	55.530
584.03	54.490
584.37	53.924
584.70	54.753
585.04	53.964
585.37	55.307
585.71	55.715
586.04	55.396
586.38	54.174
586.72	55.093
587.05	56.153
587.39	56.276
587.72	56.397
588.06	54.885
588.39	54.514
588.73	54.701
589.06	54.566
589.40	53.681
589.73	55.020
590.07	54.607
590.40	55.186
590.73	54.736
591.07	53.011
591.40	52.671
591.74	53.846
592.07	54.314
592.41	54.770
592.74	56.033
593.08	55.012
593.41	56.540
593.75	55.414
594.08	55.098
594.41	55.386
594.75	54.771
595.08	55.467
595.42	55.613
595.75	56.403
596.09	54.418
596.42	54.361
596.75	53.464
597.09	54.214
597.42	54.110
597.75	55.245
598.09	53.961
598.42	53.475
598.76	54.269
599.09	55.889
599.42	54.869
599.76	55.305
600.09	54.713
600.42	55.269
600.76	54.346
601.09	55.076
601.42	53.976
601.76	54.585
602.09	53.630
602.42	55.055
602.76	55.051
603.09	54.693
603.42	55.351
603.76	55.444
604.09	55.043
604.42	56.007
604.76	55.407
605.09	55.119
605.42	53.725
605.75	54.772
606.09	54.947
606.42	53.461
606.75	54.545
607.09	54.549
607.42	54.276
607.75	54.574
608.08	53.863
608.42	53.495
608.75	54.602
609.08	54.011
609.41	53.858
609.75	53.679
610.08	54.518
610.41	54.058
610.74	54.608
611.07	54.367
611.41	53.866
611.74	54.744
612.07	52.998
612.40	53.611
612.73	53.616
613.07	52.643
613.40	54.158
613.73	53.442
614.06	52.532
614.39	53.638
614.72	53.053
615.06	53.184
615.39	53.548
615.72	53.014
616.05	53.128
616.38	52.707
616.71	53.945
617.05	52.872
617.38	52.923
617.71	53.019
618.04	54.222
618.37	53.342
618.70	52.871
619.03	52.917
619.36	50.651
619.69	52.767
620.03	52.009
620.36	51.931
620.69	51.463
621.02	50.688
621.35	51.950
621.68	50.255
622.01	52.333
622.34	51.955
622.67	51.893
623.00	50.842
623.33	51.220
623.66	51.458
623.99	51.815
624.32	51.711
624.65	51.504
624.99	53.424
625.32	50.493
625.65	52.160
625.98	51.571
626.31	49.875
626.64	50.953
626.97	50.524
627.30	50.788
627.63	50.347
627.96	50.764
628.29	49.584
628.62	50.737
628.95	49.699
629.28	50.202
629.61	51.047
629.94	50.049
630.26	48.221
630.59	49.740
630.92	50.872
631.25	49.538
631.58	49.670
631.91	49.890
632.24	48.050
632.57	47.841
632.90	47.805
633.23	47.529
633.56	48.363
633.89	46.732
634.22	48.148
634.55	46.633
634.88	45.083
635.20	45.641
