SpectraSuite Data File
++++++++++++++++++++++++++++++++++++
Date: Fri May 15 20:10:40 PDT 2015
User: schluterlab
Dark Spectrum Present: Yes
Reference Spectrum Present: Yes
Number of Sampled Component Spectra: 1
Spectrometers: USB2E3373
Integration Time (usec): 3000 (USB2E3373)
Spectra Averaged: 3 (USB2E3373)
Boxcar Smoothing: 0 (USB2E3373)
Correct for Electrical Dark: No (USB2E3373)
Strobe/Lamp Enabled: No (USB2E3373)
Correct for Detector Non-linearity: No (USB2E3373)
Correct for Stray Light: No (USB2E3373)
Number of Pixels in Processed Spectrum: 2048
>>>>>Begin Processed Spectral Data<<<<<
178.53	0.000
178.91	0.000
179.29	175.000
179.67	-450.000
180.04	14.286
180.42	250.000
180.80	400.000
181.18	-66.667
181.56	200.000
181.94	-100.000
182.31	600.000
182.69	140.000
183.07	0.000
183.45	120.000
183.83	-33.333
184.20	-9.091
184.58	133.333
184.96	50.000
185.34	-0.000
185.72	0.000
186.09	61.538
186.47	0.000
186.85	33.333
187.23	200.000
187.61	-200.000
187.98	-433.333
188.36	33.333
188.74	-100.000
189.12	-11.765
189.49	66.667
189.87	0.000
190.25	92.857
190.63	-250.000
191.00	0.000
191.38	10.526
191.76	500.000
192.14	-0.000
192.51	300.000
192.89	11.111
193.27	-142.857
193.65	133.333
194.02	-9.091
194.40	10.000
194.78	-75.000
195.15	-41.667
195.53	-137.500
195.91	225.000
196.29	-50.000
196.66	61.538
197.04	71.429
197.42	-144.444
197.79	-400.000
198.17	-38.462
198.55	1000.000
198.92	-33.333
199.30	600.000
199.68	-160.000
200.05	0.000
200.43	0.000
200.81	66.667
201.18	133.333
201.56	800.000
201.94	150.000
202.31	-33.333
202.69	20.000
203.07	150.000
203.44	900.000
203.82	0.000
204.19	35.714
204.57	-266.667
204.95	162.500
205.32	-10.000
205.70	14.286
206.08	75.000
206.45	100.000
206.83	100.000
207.20	-114.286
207.58	-700.000
207.96	-33.333
208.33	-40.000
208.71	50.000
209.08	-100.000
209.46	0.000
209.84	-100.000
210.21	-1200.000
210.59	-42.857
210.96	-50.000
211.34	75.000
211.71	6.667
212.09	-28.571
212.46	-700.000
212.84	0.000
213.22	130.000
213.59	50.000
213.97	61.538
214.34	-45.455
214.72	16.667
215.09	250.000
215.47	0.000
215.84	-54.545
216.22	0.000
216.59	-25.000
216.97	-100.000
217.34	-125.000
217.72	-140.000
218.09	187.500
218.47	162.500
218.84	-300.000
219.22	22.222
219.59	-220.000
219.97	366.667
220.34	300.000
220.72	42.857
221.09	225.000
221.47	200.000
221.84	-850.000
222.22	-700.000
222.59	-45.455
222.97	41.667
223.34	-300.000
223.72	50.000
224.09	76.190
224.46	25.000
224.84	466.667
225.21	-30.000
225.59	53.333
225.96	200.000
226.34	200.000
226.71	-171.429
227.08	-16.667
227.46	12.500
227.83	-150.000
228.21	66.667
228.58	45.455
228.95	-25.000
229.33	-60.000
229.70	43.750
230.08	-12.500
230.45	-28.571
230.82	85.714
231.20	-46.667
231.57	35.714
231.95	28.571
232.32	-100.000
232.69	-7.143
233.07	300.000
233.44	0.000
233.81	-60.000
234.19	-22.222
234.56	-17.647
234.93	650.000
235.31	100.000
235.68	-180.000
236.05	-84.615
236.43	-30.000
236.80	41.176
237.17	6.250
237.55	-50.000
237.92	18.519
238.29	8.333
238.67	33.333
239.04	-17.647
239.41	-26.829
239.79	-23.333
240.16	21.951
240.53	-21.053
240.91	-15.217
241.28	-6.349
241.65	19.643
242.02	20.548
242.40	1.667
242.77	-1.695
243.14	-27.273
243.51	-10.000
243.89	1.149
244.26	3.448
244.63	-3.571
245.00	0.000
245.38	0.000
245.75	-10.112
246.12	-3.448
246.49	-1.653
246.87	-2.885
247.24	7.563
247.61	-12.281
247.98	2.439
248.36	-2.500
248.73	9.868
249.10	1.299
249.47	-5.696
249.84	-1.307
250.22	4.706
250.59	-0.654
250.96	7.981
251.33	-2.326
251.70	7.059
252.08	0.000
252.45	0.000
252.82	-1.508
253.19	4.147
253.56	-5.140
253.94	0.000
254.31	2.609
254.68	5.702
255.05	-0.394
255.42	1.747
255.79	-2.703
256.16	-0.389
256.54	1.866
256.91	1.141
257.28	-0.372
257.65	-1.498
258.02	-3.546
258.39	4.040
258.76	1.465
259.14	3.322
259.51	4.207
259.88	-1.718
260.25	2.614
260.62	-0.694
260.99	-3.729
261.36	-5.822
261.73	-1.266
262.10	1.216
262.47	1.227
262.85	2.194
263.22	-0.615
263.59	2.181
263.96	2.174
264.33	-1.515
264.70	1.786
265.07	-2.381
265.44	0.283
265.81	-0.282
266.18	1.639
266.55	1.542
266.92	1.036
267.29	-0.783
267.66	0.512
268.03	1.571
268.40	-0.522
268.77	2.674
269.14	2.158
269.51	0.514
269.88	-0.249
270.25	-3.316
270.62	-2.439
270.99	-1.790
271.36	-0.244
271.73	1.408
272.10	-0.730
272.47	1.891
272.84	-0.743
273.21	2.784
273.58	2.169
273.95	0.915
274.32	1.848
274.69	-1.131
275.06	1.786
275.43	3.175
275.80	-0.883
276.17	-1.379
276.54	0.214
276.91	0.439
277.28	0.655
277.65	0.826
278.02	0.638
278.39	0.219
278.76	-0.210
279.13	-1.245
279.50	2.521
279.87	0.648
280.23	-1.720
280.60	1.949
280.97	-0.606
281.34	1.731
281.71	3.491
282.08	-0.409
282.45	0.587
282.82	-0.965
283.19	-0.193
283.56	1.349
283.92	-1.518
284.29	0.385
284.66	-0.775
285.03	0.786
285.40	0.945
285.77	-0.879
286.14	1.083
286.51	2.952
286.87	1.828
287.24	-0.552
287.61	0.176
287.98	1.053
288.35	-1.386
288.72	2.277
289.08	0.174
289.45	2.636
289.82	0.699
290.19	0.000
290.56	0.858
290.93	-0.842
291.29	-1.079
291.66	1.102
292.03	0.638
292.40	1.129
292.77	-0.797
293.13	-0.974
293.50	-0.910
293.87	2.290
294.24	-0.155
294.60	0.149
294.97	0.446
295.34	0.613
295.71	0.298
296.08	-0.299
296.44	-0.569
296.81	0.139
297.18	1.449
297.55	1.220
297.91	1.096
298.28	1.715
298.65	0.136
299.02	0.135
299.38	-1.094
299.75	-0.138
300.12	-0.131
300.48	-1.449
300.85	0.634
301.22	0.779
301.59	-0.395
301.95	1.899
302.32	1.038
302.69	-0.124
303.05	2.351
303.42	0.872
303.79	1.051
304.15	1.792
304.52	-0.238
304.89	0.117
305.25	0.363
305.62	0.700
305.99	0.000
306.35	0.116
306.72	-0.337
307.09	0.912
307.45	1.722
307.82	0.000
308.19	1.161
308.55	0.218
308.92	1.634
309.29	-0.112
309.65	-0.753
310.02	0.660
310.38	1.647
310.75	1.202
311.12	0.969
311.48	0.848
311.85	-0.314
312.22	-0.422
312.58	0.212
312.95	1.174
313.31	0.311
313.68	0.105
314.05	0.510
314.41	1.031
314.78	1.237
315.14	2.261
315.51	3.002
315.87	1.947
316.24	3.033
316.61	2.559
316.97	2.877
317.34	3.125
317.70	3.155
318.07	3.462
318.43	2.745
318.80	1.610
319.16	3.613
319.53	6.078
319.89	4.429
320.26	5.061
320.62	5.717
320.99	3.549
321.35	6.064
321.72	6.750
322.08	5.942
322.45	7.005
322.81	6.876
323.18	6.968
323.54	6.081
323.91	7.984
324.27	8.203
324.64	9.551
325.00	11.770
325.37	12.672
325.73	10.607
326.10	12.080
326.46	12.915
326.83	14.261
327.19	14.647
327.56	15.204
327.92	16.285
328.29	15.982
328.65	17.642
329.01	17.831
329.38	17.419
329.74	18.886
330.11	19.277
330.47	18.738
330.84	20.288
331.20	22.338
331.56	20.648
331.93	22.100
332.29	21.998
332.66	22.624
333.02	23.234
333.38	22.823
333.75	25.275
334.11	22.023
334.48	23.028
334.84	22.802
335.20	25.069
335.57	23.935
335.93	25.836
336.29	25.875
336.66	24.796
337.02	25.651
337.38	24.352
337.75	26.091
338.11	26.871
338.47	26.551
338.84	27.079
339.20	25.503
339.56	26.789
339.93	25.962
340.29	27.890
340.65	26.523
341.02	26.596
341.38	25.929
341.74	25.530
342.11	24.783
342.47	26.068
342.83	28.028
343.20	25.523
343.56	27.304
343.92	26.926
344.28	26.302
344.65	27.979
345.01	26.448
345.37	27.082
345.73	27.531
346.10	27.265
346.46	26.913
346.82	27.087
347.19	26.185
347.55	27.235
347.91	27.427
348.27	28.213
348.63	27.598
349.00	26.907
349.36	26.434
349.72	27.446
350.08	27.213
350.45	27.534
350.81	26.246
351.17	27.524
351.53	27.265
351.89	27.993
352.26	26.320
352.62	27.661
352.98	26.426
353.34	27.536
353.70	28.236
354.07	27.984
354.43	28.022
354.79	27.828
355.15	28.968
355.51	27.532
355.87	28.964
356.24	27.243
356.60	27.486
356.96	28.810
357.32	27.556
357.68	28.069
358.04	27.625
358.40	28.617
358.77	29.506
359.13	28.183
359.49	27.966
359.85	29.407
360.21	28.389
360.57	27.774
360.93	29.425
361.29	26.360
361.66	28.918
362.02	29.848
362.38	29.398
362.74	28.236
363.10	28.367
363.46	28.910
363.82	29.452
364.18	28.930
364.54	28.382
364.90	29.319
365.26	29.039
365.62	30.219
365.98	30.132
366.35	29.279
366.71	28.234
367.07	28.374
367.43	28.253
367.79	30.601
368.15	29.433
368.51	29.133
368.87	28.284
369.23	28.953
369.59	29.155
369.95	29.619
370.31	30.275
370.67	29.776
371.03	29.574
371.39	28.228
371.75	29.817
372.11	29.458
372.47	29.808
372.83	29.737
373.19	29.743
373.55	28.231
373.91	29.086
374.27	30.333
374.63	30.366
374.99	29.291
375.35	29.596
375.71	31.329
376.07	29.284
376.42	30.816
376.78	30.067
377.14	30.129
377.50	30.611
377.86	30.254
378.22	30.185
378.58	31.090
378.94	30.498
379.30	30.193
379.66	30.784
380.02	30.717
380.38	31.102
380.74	31.239
381.09	31.166
381.45	31.621
381.81	30.722
382.17	30.838
382.53	30.356
382.89	30.885
383.25	30.989
383.61	31.341
383.97	30.667
384.32	31.270
384.68	30.960
385.04	31.373
385.40	29.932
385.76	31.258
386.12	31.242
386.48	30.843
386.83	31.072
387.19	31.563
387.55	31.807
387.91	30.929
388.27	30.891
388.62	31.529
388.98	31.369
389.34	31.918
389.70	31.200
390.06	30.585
390.42	29.987
390.77	31.655
391.13	30.454
391.49	31.565
391.85	31.514
392.20	31.701
392.56	30.706
392.92	30.945
393.28	31.722
393.64	31.772
393.99	31.536
394.35	30.993
394.71	31.226
395.07	31.175
395.42	30.723
395.78	31.075
396.14	30.706
396.50	31.135
396.85	31.487
397.21	31.078
397.57	31.160
397.92	31.516
398.28	31.264
398.64	30.120
399.00	31.433
399.35	29.740
399.71	29.983
400.07	30.774
400.42	30.110
400.78	30.680
401.14	31.518
401.49	30.673
401.85	30.286
402.21	30.542
402.57	30.000
402.92	29.297
403.28	30.451
403.63	31.021
403.99	30.740
404.35	29.981
404.70	28.988
405.06	29.965
405.42	30.081
405.77	29.576
406.13	30.675
406.49	29.485
406.84	30.257
407.20	30.644
407.55	29.878
407.91	29.947
408.27	29.892
408.62	29.908
408.98	29.020
409.34	29.678
409.69	29.393
410.05	29.002
410.40	29.630
410.76	29.976
411.11	29.750
411.47	29.191
411.83	28.562
412.18	30.051
412.54	29.650
412.89	29.557
413.25	29.663
413.60	29.938
413.96	29.387
414.31	29.756
414.67	28.801
415.03	28.229
415.38	28.460
415.74	30.033
416.09	29.262
416.45	29.777
416.80	29.544
417.16	30.732
417.51	29.514
417.87	29.531
418.22	29.858
418.58	29.365
418.93	29.404
419.29	28.745
419.64	28.451
420.00	30.982
420.35	28.716
420.71	29.769
421.06	29.220
421.42	29.387
421.77	30.058
422.12	28.888
422.48	28.912
422.83	29.060
423.19	30.361
423.54	29.453
423.90	29.152
424.25	29.621
424.61	30.171
424.96	29.326
425.31	30.272
425.67	29.695
426.02	30.801
426.38	29.931
426.73	29.661
427.09	31.076
427.44	30.941
427.79	30.466
428.15	30.097
428.50	29.194
428.85	30.283
429.21	30.504
429.56	31.590
429.92	30.868
430.27	30.476
430.62	30.580
430.98	29.406
431.33	30.967
431.68	29.775
432.04	30.017
432.39	30.975
432.74	30.006
433.10	31.149
433.45	29.749
433.80	30.934
434.16	31.247
434.51	31.075
434.86	31.649
435.22	30.230
435.57	31.192
435.92	30.359
436.28	30.054
436.63	30.348
436.98	29.954
437.34	30.792
437.69	31.425
438.04	30.940
438.39	30.788
438.75	31.026
439.10	31.183
439.45	32.319
439.81	31.498
440.16	31.829
440.51	31.403
440.86	32.870
441.22	30.260
441.57	31.347
441.92	31.532
442.27	31.541
442.63	31.585
442.98	31.648
443.33	31.775
443.68	31.088
444.03	31.793
444.39	31.481
444.74	32.107
445.09	31.626
445.44	32.251
445.79	32.388
446.15	31.333
446.50	31.503
446.85	31.296
447.20	32.117
447.55	32.478
447.91	32.036
448.26	32.043
448.61	32.355
448.96	32.243
449.31	31.156
449.66	31.533
450.02	32.801
450.37	31.891
450.72	31.730
451.07	32.595
451.42	31.960
451.77	31.404
452.12	30.622
452.47	31.809
452.83	32.686
453.18	32.258
453.53	31.985
453.88	31.998
454.23	32.514
454.58	31.234
454.93	32.861
455.28	31.302
455.63	32.858
455.98	33.013
456.34	31.865
456.69	31.576
457.04	31.947
457.39	31.896
457.74	31.439
458.09	31.195
458.44	31.714
458.79	31.429
459.14	32.380
459.49	33.015
459.84	32.657
460.19	31.553
460.54	31.846
460.89	32.273
461.24	32.112
461.59	32.482
461.94	31.824
462.29	32.509
462.64	32.691
462.99	32.431
463.34	31.711
463.69	32.111
464.04	32.143
464.39	31.474
464.74	32.883
465.09	32.689
465.44	31.910
465.79	31.179
466.14	32.839
466.49	32.030
466.84	32.957
467.19	32.603
467.54	32.503
467.89	31.965
468.24	31.934
468.59	33.016
468.94	31.937
469.29	32.393
469.64	32.262
469.99	32.165
470.34	32.287
470.68	32.662
471.03	32.130
471.38	32.454
471.73	32.283
472.08	31.208
472.43	31.745
472.78	30.980
473.13	31.769
473.48	31.922
473.83	30.573
474.17	32.837
474.52	31.270
474.87	32.727
475.22	32.886
475.57	32.016
475.92	31.980
476.27	31.898
476.61	33.160
476.96	31.567
477.31	31.531
477.66	31.348
478.01	31.387
478.36	31.590
478.70	31.756
479.05	31.923
479.40	31.532
479.75	30.501
480.10	31.234
480.45	31.900
480.79	32.931
481.14	32.172
481.49	31.478
481.84	31.853
482.19	31.384
482.53	32.278
482.88	31.313
483.23	31.910
483.58	32.170
483.92	31.075
484.27	31.039
484.62	32.407
484.97	31.343
485.31	31.792
485.66	31.999
486.01	32.548
486.36	32.682
486.70	32.216
487.05	31.963
487.40	32.523
487.75	31.775
488.09	31.397
488.44	31.431
488.79	31.266
489.13	31.090
489.48	31.338
489.83	31.659
490.17	31.011
490.52	31.178
490.87	31.050
491.22	32.092
491.56	29.886
491.91	30.354
492.26	31.308
492.60	31.094
492.95	31.087
493.30	29.897
493.64	31.287
493.99	31.932
494.34	30.971
494.68	31.238
495.03	30.657
495.37	31.796
495.72	30.591
496.07	31.268
496.41	31.038
496.76	31.046
497.11	30.880
497.45	30.883
497.80	31.181
498.14	31.396
498.49	30.574
498.84	30.389
499.18	31.225
499.53	31.250
499.87	30.788
500.22	31.058
500.56	30.509
500.91	31.074
501.26	30.054
501.60	31.333
501.95	31.198
502.29	30.702
502.64	31.371
502.98	31.623
503.33	29.971
503.67	30.795
504.02	31.085
504.36	31.272
504.71	30.455
505.06	29.995
505.40	30.305
505.75	30.670
506.09	30.715
506.44	31.417
506.78	31.020
507.13	30.145
507.47	28.877
507.82	29.541
508.16	28.949
508.51	30.220
508.85	30.351
509.19	29.697
509.54	30.080
509.88	29.126
510.23	30.231
510.57	30.999
510.92	29.424
511.26	29.569
511.61	29.758
511.95	30.411
512.30	30.543
512.64	30.328
512.98	29.871
513.33	29.659
513.67	30.358
514.02	31.236
514.36	30.743
514.70	31.177
515.05	30.552
515.39	30.638
515.74	30.719
516.08	30.903
516.42	30.919
516.77	31.305
517.11	30.504
517.46	29.982
517.80	29.380
518.14	29.884
518.49	30.349
518.83	29.587
519.17	29.715
519.52	29.959
519.86	29.292
520.20	30.377
520.55	29.581
520.89	30.113
521.23	29.259
521.58	30.473
521.92	30.577
522.26	29.733
522.61	30.584
522.95	30.728
523.29	29.034
523.64	29.987
523.98	30.331
524.32	28.866
524.66	30.026
525.01	30.130
525.35	29.488
525.69	29.428
526.04	29.431
526.38	30.739
526.72	28.777
527.06	29.183
527.41	29.551
527.75	28.820
528.09	29.701
528.43	30.250
528.78	28.977
529.12	29.806
529.46	29.045
529.80	29.766
530.15	30.429
530.49	29.562
530.83	29.275
531.17	29.080
531.51	29.685
531.86	28.960
532.20	29.576
532.54	29.748
532.88	29.637
533.22	30.847
533.57	29.489
533.91	29.634
534.25	30.013
534.59	28.672
534.93	28.823
535.27	28.934
535.62	29.618
535.96	28.506
536.30	30.079
536.64	30.875
536.98	28.780
537.32	29.872
537.66	30.996
538.01	29.650
538.35	29.542
538.69	29.427
539.03	28.230
539.37	30.013
539.71	29.107
540.05	28.853
540.39	29.571
540.73	28.801
541.07	29.765
541.42	29.772
541.76	30.833
542.10	28.837
542.44	30.507
542.78	27.805
543.12	29.052
543.46	29.485
543.80	28.938
544.14	27.704
544.48	29.580
544.82	28.913
545.16	29.508
545.50	29.506
545.84	29.108
546.18	30.213
546.52	29.993
546.86	29.691
547.20	29.185
547.54	28.551
547.88	29.484
548.22	28.468
548.56	29.090
548.90	28.639
549.24	27.824
549.58	28.561
549.92	28.234
550.26	28.498
550.60	28.996
550.94	29.126
551.28	28.594
551.62	29.923
551.96	28.496
552.30	28.947
552.64	29.126
552.98	28.833
553.32	29.387
553.66	29.100
554.00	29.489
554.34	29.025
554.68	29.056
555.02	29.167
555.36	28.796
555.69	28.132
556.03	27.766
556.37	27.758
556.71	29.242
557.05	28.337
557.39	28.476
557.73	29.385
558.07	28.356
558.41	29.020
558.75	28.215
559.08	28.211
559.42	28.492
559.76	29.303
560.10	28.899
560.44	28.295
560.78	28.881
561.12	28.350
561.45	29.304
561.79	28.852
562.13	28.886
562.47	28.993
562.81	29.035
563.15	27.997
563.48	29.137
563.82	28.620
564.16	28.134
564.50	27.568
564.84	29.518
565.17	28.773
565.51	29.918
565.85	29.698
566.19	28.183
566.52	29.558
566.86	29.049
567.20	28.331
567.54	29.805
567.88	29.994
568.21	29.581
568.55	28.587
568.89	29.877
569.23	29.947
569.56	30.035
569.90	30.532
570.24	29.736
570.57	30.000
570.91	29.976
571.25	29.037
571.59	28.870
571.92	28.859
572.26	28.986
572.60	29.395
572.93	29.056
573.27	28.903
573.61	28.878
573.95	29.547
574.28	29.105
574.62	28.630
574.96	29.294
575.29	28.597
575.63	28.246
575.97	28.788
576.30	28.226
576.64	29.033
576.98	29.241
577.31	29.737
577.65	29.587
577.98	29.903
578.32	28.738
578.66	28.347
578.99	29.013
579.33	28.354
579.67	29.170
580.00	29.013
580.34	29.005
580.67	28.808
581.01	29.059
581.35	29.134
581.68	29.384
582.02	29.602
582.35	29.341
582.69	29.061
583.02	29.353
583.36	29.643
583.70	29.180
584.03	29.302
584.37	29.418
584.70	29.396
585.04	29.197
585.37	28.968
585.71	29.573
586.04	29.148
586.38	29.181
586.72	29.297
587.05	29.434
587.39	29.242
587.72	30.235
588.06	28.923
588.39	29.564
588.73	28.999
589.06	29.615
589.40	29.312
589.73	29.500
590.07	29.381
590.40	29.799
590.73	29.530
591.07	28.880
591.40	29.297
591.74	28.959
592.07	29.592
592.41	29.726
592.74	29.192
593.08	28.571
593.41	29.357
593.75	29.768
594.08	28.939
594.41	29.367
594.75	28.779
595.08	28.717
595.42	28.708
595.75	28.990
596.09	29.633
596.42	29.186
596.75	29.796
597.09	28.702
597.42	29.042
597.75	29.226
598.09	28.520
598.42	28.971
598.76	29.086
599.09	29.487
599.42	29.140
599.76	29.007
600.09	28.318
600.42	29.037
600.76	28.900
601.09	28.626
601.42	28.829
601.76	29.218
602.09	29.208
602.42	29.402
602.76	28.905
603.09	29.402
603.42	29.640
603.76	28.952
604.09	28.716
604.42	29.442
604.76	29.372
605.09	29.250
605.42	29.120
605.75	28.415
606.09	29.130
606.42	28.732
606.75	29.048
607.09	28.879
607.42	28.489
607.75	27.975
608.08	28.392
608.42	29.146
608.75	29.880
609.08	28.650
609.41	28.122
609.75	28.579
610.08	29.656
610.41	28.406
610.74	28.961
611.07	28.630
611.41	28.542
611.74	29.318
612.07	28.908
612.40	29.376
612.73	29.040
613.07	27.953
613.40	29.869
613.73	28.651
614.06	29.215
614.39	29.498
614.72	27.787
615.06	28.492
615.39	27.675
615.72	28.041
616.05	27.877
616.38	28.034
616.71	28.807
617.05	27.733
617.38	28.975
617.71	29.182
618.04	29.968
618.37	29.067
618.70	29.307
619.03	29.792
619.36	27.352
619.69	29.492
620.03	28.853
620.36	28.827
620.69	28.480
621.02	27.370
621.35	29.295
621.68	27.466
622.01	28.333
622.34	28.891
622.67	28.391
623.00	28.101
623.33	28.659
623.66	27.749
623.99	27.837
624.32	28.289
624.65	27.820
624.99	29.044
625.32	28.582
625.65	29.301
625.98	28.203
626.31	28.512
626.64	28.163
626.97	29.058
627.30	29.159
627.63	28.596
627.96	30.279
628.29	28.862
628.62	28.220
628.95	26.553
629.28	29.234
629.61	27.817
629.94	29.814
630.26	27.273
630.59	29.240
630.92	29.026
631.25	27.487
631.58	27.643
631.91	27.741
632.24	28.784
632.57	28.977
632.90	26.572
633.23	27.412
633.56	26.574
633.89	27.620
634.22	28.148
634.55	28.208
634.88	27.586
635.20	26.282
635.53	28.267
635.86	27.308
636.19	28.331
636.52	28.699
636.85	27.419
637.18	26.792
