SpectraSuite Data File
++++++++++++++++++++++++++++++++++++
Date: Fri May 15 17:03:49 PDT 2015
User: schluterlab
Dark Spectrum Present: Yes
Reference Spectrum Present: Yes
Number of Sampled Component Spectra: 1
Spectrometers: USB2E3373
Integration Time (usec): 3000 (USB2E3373)
Spectra Averaged: 3 (USB2E3373)
Boxcar Smoothing: 0 (USB2E3373)
Correct for Electrical Dark: No (USB2E3373)
Strobe/Lamp Enabled: No (USB2E3373)
Correct for Detector Non-linearity: No (USB2E3373)
Correct for Stray Light: No (USB2E3373)
Number of Pixels in Processed Spectrum: 2048
>>>>>Begin Processed Spectral Data<<<<<
178.53	0.000
178.91	0.000
179.29	200.000
179.67	-150.000
180.04	-142.857
180.42	350.000
180.80	300.000
181.18	266.667
181.56	250.000
181.94	300.000
182.31	-300.000
182.69	60.000
183.07	-233.333
183.45	120.000
183.83	-33.333
184.20	9.091
184.58	111.111
184.96	-275.000
185.34	-166.667
185.72	400.000
186.09	92.308
186.47	300.000
186.85	-150.000
187.23	22.222
187.61	-900.000
187.98	233.333
188.36	133.333
188.74	166.667
189.12	94.118
189.49	66.667
189.87	0.000
190.25	121.429
190.63	400.000
191.00	-166.667
191.38	47.368
191.76	450.000
192.14	-350.000
192.51	800.000
192.89	-33.333
193.27	-42.857
193.65	166.667
194.02	109.091
194.40	70.000
194.78	25.000
195.15	-41.667
195.53	-37.500
195.91	-0.000
196.29	200.000
196.66	15.385
197.04	-14.286
197.42	144.444
197.79	-433.333
198.17	-7.692
198.55	200.000
198.92	400.000
199.30	800.000
199.68	-80.000
200.05	233.333
200.43	0.000
200.81	-66.667
201.18	-166.667
201.56	1000.000
201.94	-200.000
202.31	-233.333
202.69	-80.000
203.07	-175.000
203.44	1000.000
203.82	0.000
204.19	71.429
204.57	-233.333
204.95	12.500
205.32	160.000
205.70	142.857
206.08	25.000
206.45	266.667
206.83	128.571
207.20	57.143
207.58	-500.000
207.96	-133.333
208.33	60.000
208.71	200.000
209.08	50.000
209.46	-500.000
209.84	20.000
210.21	500.000
210.59	57.143
210.96	183.333
211.34	-25.000
211.71	86.667
212.09	42.857
212.46	-200.000
212.84	0.000
213.22	180.000
213.59	100.000
213.97	123.077
214.34	81.818
214.72	-50.000
215.09	150.000
215.47	30.769
215.84	154.545
216.22	0.000
216.59	100.000
216.97	750.000
217.34	75.000
217.72	-20.000
218.09	100.000
218.47	75.000
218.84	600.000
219.22	0.000
219.59	80.000
219.97	233.333
220.34	-175.000
220.72	157.143
221.09	250.000
221.47	450.000
221.84	-200.000
222.22	-150.000
222.59	100.000
222.97	116.667
223.34	233.333
223.72	50.000
224.09	57.143
224.46	3.571
224.84	66.667
225.21	20.000
225.59	106.667
225.96	200.000
226.34	150.000
226.71	128.571
227.08	16.667
227.46	12.500
227.83	-150.000
228.21	144.444
228.58	36.364
228.95	87.500
229.33	-10.000
229.70	50.000
230.08	-50.000
230.45	14.286
230.82	300.000
231.20	13.333
231.57	107.143
231.95	157.143
232.32	60.000
232.69	157.143
233.07	366.667
233.44	60.000
233.81	80.000
234.19	155.556
234.56	47.059
234.93	50.000
235.31	75.000
235.68	-40.000
236.05	0.000
236.43	45.000
236.80	52.941
237.17	65.625
237.55	75.000
237.92	14.815
238.29	22.222
238.67	56.667
239.04	38.235
239.41	14.634
239.79	73.333
240.16	56.098
240.53	44.737
240.91	39.130
241.28	31.746
241.65	28.571
242.02	45.205
242.40	38.333
242.77	38.983
243.14	18.182
243.51	33.750
243.89	36.782
244.26	11.494
244.63	35.714
245.00	26.804
245.38	38.144
245.75	20.225
246.12	31.897
246.49	19.008
246.87	27.885
247.24	19.328
247.61	28.070
247.98	27.642
248.36	24.375
248.73	34.211
249.10	20.130
249.47	24.684
249.84	21.569
250.22	30.000
250.59	25.490
250.96	30.516
251.33	23.837
251.70	30.588
252.08	26.904
252.45	30.198
252.82	31.156
253.19	28.111
253.56	21.963
253.94	21.622
254.31	26.957
254.68	24.123
255.05	27.165
255.42	30.568
255.79	24.710
256.16	24.125
256.54	28.731
256.91	26.236
257.28	28.625
257.65	27.715
258.02	21.631
258.39	22.896
258.76	30.037
259.14	27.907
259.51	23.625
259.88	24.055
260.25	25.163
260.62	26.736
260.99	25.763
261.36	24.658
261.73	26.266
262.10	25.532
262.47	25.767
262.85	21.630
263.22	22.154
263.59	24.922
263.96	27.329
264.33	26.061
264.70	26.786
265.07	25.298
265.44	27.195
265.81	24.859
266.18	25.410
266.55	25.193
266.92	26.425
267.29	25.065
267.66	23.274
268.03	26.178
268.40	25.326
268.77	26.738
269.14	27.098
269.51	27.763
269.88	22.693
270.25	26.786
270.62	25.122
270.99	26.598
271.36	24.939
271.73	25.117
272.10	23.601
272.47	26.478
272.84	24.010
273.21	25.754
273.58	26.506
273.95	22.426
274.32	25.173
274.69	21.267
275.06	26.786
275.43	23.583
275.80	22.958
276.17	23.908
276.54	24.411
276.91	25.439
277.28	23.799
277.65	26.033
278.02	22.766
278.39	25.821
278.76	23.061
279.13	23.444
279.50	23.529
279.87	21.166
280.23	23.226
280.60	25.341
280.97	21.818
281.34	21.923
281.71	24.641
282.08	19.632
282.45	22.309
282.82	22.780
283.19	24.758
283.56	22.929
283.92	22.391
284.29	22.308
284.66	21.512
285.03	22.397
285.40	24.008
285.77	23.726
286.14	22.924
286.51	24.908
286.87	21.389
287.24	22.284
287.61	22.399
287.98	24.561
288.35	21.490
288.72	23.818
289.08	20.486
289.45	23.199
289.82	20.280
290.19	19.283
290.56	20.926
290.93	20.875
291.29	17.874
291.66	20.630
292.03	21.691
292.40	21.290
292.77	18.820
293.13	17.857
293.50	18.058
293.87	18.473
294.24	19.784
294.60	18.033
294.97	20.536
295.34	19.172
295.71	17.884
296.08	17.190
296.44	15.363
296.81	17.778
297.18	16.667
297.55	18.699
297.91	18.767
298.28	18.470
298.65	16.554
299.02	18.733
299.38	16.279
299.75	17.793
300.12	15.707
300.48	16.469
300.85	17.110
301.22	16.234
301.59	16.974
301.95	17.595
302.32	16.602
302.69	15.299
303.05	17.327
303.42	16.563
303.79	17.407
304.15	17.085
304.52	15.577
304.89	16.023
305.25	15.496
305.62	14.469
305.99	14.971
306.35	15.376
306.72	14.848
307.09	15.849
307.45	16.877
307.82	14.815
308.19	16.957
308.55	15.703
308.92	16.122
309.29	15.754
309.65	15.285
310.02	15.842
310.38	14.709
310.75	16.940
311.12	16.362
311.48	15.907
311.85	15.602
312.22	15.928
312.58	16.667
312.95	15.902
313.31	15.839
313.68	16.021
314.05	17.143
314.41	17.320
314.78	16.701
315.14	17.780
315.51	16.770
315.87	17.316
316.24	19.110
316.61	18.701
316.97	18.750
317.34	19.727
317.70	17.878
318.07	19.135
318.43	20.392
318.80	20.170
319.16	21.289
319.53	22.602
319.89	21.654
320.26	21.862
320.62	22.267
320.99	21.608
321.35	23.124
321.72	24.507
322.08	24.975
322.45	25.381
322.81	26.228
323.18	26.104
323.54	26.062
323.91	26.777
324.27	28.027
324.64	29.307
325.00	30.109
325.37	31.680
325.73	30.372
326.10	30.609
326.46	33.722
326.83	32.983
327.19	33.391
327.56	34.752
327.92	35.211
328.29	35.268
328.65	36.509
329.01	37.132
329.38	37.419
329.74	37.205
330.11	37.905
330.47	38.404
330.84	38.462
331.20	41.445
331.56	40.463
331.93	41.096
332.29	41.063
332.66	41.900
333.02	40.799
333.38	40.972
333.75	43.590
334.11	42.167
334.48	44.696
334.84	42.491
335.20	44.831
335.57	41.976
335.93	45.167
336.29	45.120
336.66	44.233
337.02	45.446
337.38	45.278
337.75	45.818
338.11	45.446
338.47	45.529
338.84	46.396
339.20	45.978
339.56	47.431
339.93	46.464
340.29	47.156
340.65	46.326
341.02	44.770
341.38	46.991
341.74	44.788
342.11	44.801
342.47	47.776
342.83	46.367
343.20	45.122
343.56	45.478
343.92	46.944
344.28	45.004
344.65	47.064
345.01	47.277
345.37	46.426
345.73	47.531
346.10	46.506
346.46	46.510
346.82	46.890
347.19	46.633
347.55	44.779
347.91	46.521
348.27	45.594
348.63	45.741
349.00	44.709
349.36	47.465
349.72	46.932
350.08	47.377
350.45	47.007
350.81	47.508
351.17	46.173
351.53	47.347
351.89	46.243
352.26	45.760
352.62	46.129
352.98	47.068
353.34	46.216
353.70	47.006
354.07	47.258
354.43	46.998
354.79	47.234
355.15	48.095
355.51	47.864
355.87	47.330
356.24	47.553
356.60	48.019
356.96	48.333
357.32	47.284
357.68	47.772
358.04	48.223
358.40	46.624
358.77	48.246
359.13	47.158
359.49	46.764
359.85	47.582
360.21	48.086
360.57	48.279
360.93	49.017
361.29	47.583
361.66	50.313
362.02	48.561
362.38	48.896
362.74	49.508
363.10	49.135
363.46	49.666
363.82	50.413
364.18	48.413
364.54	48.382
364.90	49.606
365.26	50.291
365.62	51.241
365.98	50.147
366.35	50.255
366.71	51.146
367.07	51.379
367.43	51.546
367.79	51.025
368.15	51.615
368.51	50.838
368.87	51.759
369.23	50.686
369.59	52.551
369.95	52.713
370.31	51.590
370.67	53.284
371.03	50.635
371.39	53.975
371.75	53.846
372.11	52.924
372.47	53.698
372.83	53.868
373.19	53.067
373.55	54.296
373.91	53.636
374.27	54.784
374.63	53.553
374.99	53.191
375.35	54.387
375.71	55.315
376.07	55.126
376.42	56.054
376.78	56.309
377.14	56.737
377.50	55.777
377.86	55.823
378.22	57.052
378.58	58.974
378.94	57.404
379.30	57.080
379.66	58.245
380.02	57.940
380.38	57.760
380.74	58.169
381.09	58.037
381.45	57.798
381.81	58.606
382.17	58.756
382.53	59.588
382.89	59.448
383.25	60.548
383.61	59.756
383.97	60.381
384.32	60.538
384.68	60.991
385.04	60.539
385.40	60.299
385.76	62.767
386.12	62.678
386.48	63.346
386.83	62.016
387.19	61.416
387.55	63.112
387.91	62.531
388.27	62.454
388.62	63.688
388.98	63.168
389.34	62.024
389.70	63.828
390.06	62.429
390.42	64.054
390.77	64.487
391.13	64.691
391.49	64.554
391.85	65.172
392.20	64.093
392.56	65.607
392.92	65.590
393.28	66.097
393.64	65.706
393.99	67.085
394.35	65.591
394.71	66.858
395.07	64.676
395.42	65.027
395.78	66.515
396.14	66.772
396.50	66.138
396.85	67.547
397.21	66.917
397.57	66.144
397.92	66.447
398.28	66.494
398.64	66.386
399.00	67.494
399.35	66.535
399.71	64.503
400.07	67.654
400.42	67.075
400.78	67.667
401.14	66.606
401.49	68.076
401.85	67.520
402.21	67.349
402.57	67.625
402.92	66.939
403.28	68.421
403.63	69.231
403.99	69.707
404.35	68.582
404.70	66.726
405.06	68.625
405.42	69.236
405.77	67.926
406.13	68.743
406.49	68.028
406.84	68.521
407.20	69.115
407.55	68.641
407.91	69.118
408.27	68.897
408.62	69.846
408.98	68.823
409.34	69.827
409.69	69.057
410.05	69.458
410.40	68.580
410.76	70.386
411.11	70.250
411.47	70.611
411.83	69.492
412.18	70.399
412.54	68.602
412.89	69.273
413.25	70.277
413.60	69.689
413.96	69.387
414.31	68.780
414.67	70.109
415.03	69.574
415.38	68.668
415.74	70.293
416.09	71.522
416.45	71.438
416.80	69.597
417.16	72.721
417.51	71.486
417.87	70.665
418.22	71.632
418.58	72.709
418.93	72.978
419.29	68.118
419.64	71.355
420.00	72.985
420.35	71.463
420.71	71.628
421.06	71.271
421.42	71.575
421.77	72.312
422.12	71.169
422.48	70.547
422.83	70.418
423.19	72.178
423.54	72.075
423.90	72.438
424.25	72.388
424.61	73.072
424.96	71.022
425.31	74.003
425.67	73.063
426.02	73.852
426.38	73.513
426.73	73.910
427.09	73.481
427.44	73.765
427.79	74.308
428.15	73.362
428.50	74.803
428.85	72.912
429.21	73.741
429.56	75.202
429.92	73.549
430.27	72.682
430.62	73.497
430.98	73.992
431.33	74.921
431.68	72.841
432.04	75.070
432.39	73.246
432.74	73.722
433.10	75.000
433.45	74.253
433.80	75.508
434.16	74.958
434.51	75.108
434.86	76.481
435.22	75.771
435.57	76.606
435.92	74.790
436.28	75.671
436.63	75.756
436.98	75.203
437.34	75.076
437.69	75.432
438.04	74.929
438.39	76.176
438.75	78.081
439.10	76.174
439.45	76.932
439.81	76.453
440.16	78.860
440.51	76.358
440.86	78.248
441.22	75.735
441.57	77.097
441.92	77.177
442.27	77.494
442.63	77.248
442.98	76.967
443.33	76.294
443.68	76.127
444.03	76.652
444.39	76.488
444.74	77.369
445.09	77.283
445.44	77.379
445.79	78.804
446.15	76.046
446.50	76.761
446.85	76.780
447.20	76.799
447.55	78.069
447.91	77.947
448.26	77.234
448.61	78.066
448.96	78.715
449.31	78.035
449.66	77.875
450.02	78.665
450.37	78.660
450.72	77.721
451.07	78.544
451.42	76.217
451.77	77.577
452.12	76.675
452.47	77.399
452.83	76.090
453.18	77.862
453.53	76.802
453.88	79.114
454.23	77.812
454.58	78.401
454.93	78.093
455.28	75.302
455.63	78.053
455.98	76.729
456.34	76.501
456.69	77.573
457.04	78.702
457.39	76.792
457.74	77.267
458.09	76.104
458.44	77.004
458.79	76.863
459.14	77.918
459.49	77.970
459.84	76.255
460.19	77.973
460.54	78.545
460.89	78.466
461.24	77.329
461.59	77.316
461.94	76.415
462.29	78.046
462.64	77.608
462.99	77.657
463.34	77.399
463.69	77.091
464.04	77.361
464.39	77.805
464.74	77.239
465.09	79.726
465.44	78.130
465.79	75.964
466.14	76.739
466.49	77.171
466.84	77.573
467.19	77.472
467.54	76.373
467.89	78.964
468.24	76.764
468.59	78.730
468.94	77.524
469.29	77.902
469.64	77.102
469.99	79.467
470.34	78.703
470.68	80.239
471.03	79.759
471.38	78.531
471.73	77.171
472.08	76.866
472.43	77.919
472.78	77.656
473.13	78.639
473.48	78.306
473.83	77.460
474.17	78.368
474.52	79.834
474.87	79.455
475.22	78.768
475.57	77.019
475.92	78.113
476.27	76.484
476.61	77.141
476.96	77.022
477.31	77.934
477.66	75.618
478.01	77.934
478.36	76.906
478.70	80.370
479.05	77.473
479.40	77.848
479.75	76.173
480.10	77.471
480.45	78.200
480.79	77.694
481.14	78.586
481.49	76.502
481.84	78.089
482.19	77.268
482.53	77.602
482.88	76.372
483.23	76.823
483.58	77.170
483.92	76.041
484.27	75.798
484.62	76.244
484.97	76.119
485.31	76.264
485.66	75.685
486.01	73.993
486.36	73.243
486.70	73.009
487.05	74.291
487.40	75.078
487.75	75.296
488.09	74.845
488.44	75.172
488.79	75.943
489.13	77.324
489.48	77.212
489.83	76.996
490.17	76.360
490.52	76.859
490.87	76.492
491.22	78.032
491.56	77.372
491.91	77.342
492.26	78.853
492.60	76.248
492.95	78.259
493.30	77.479
493.64	78.389
493.99	76.715
494.34	76.942
494.68	77.619
495.03	76.642
495.37	78.312
495.72	78.243
496.07	77.756
496.41	76.651
496.76	77.199
497.11	76.106
497.45	77.279
497.80	78.052
498.14	77.546
498.49	78.365
498.84	76.747
499.18	77.460
499.53	78.472
499.87	76.605
500.22	77.003
500.56	78.770
500.91	77.259
501.26	76.471
501.60	77.865
501.95	77.487
502.29	76.949
502.64	78.137
502.98	77.553
503.33	76.657
503.67	78.169
504.02	77.713
504.36	77.783
504.71	77.071
505.06	76.799
505.40	77.817
505.75	80.979
506.09	76.787
506.44	79.466
506.78	77.857
507.13	77.353
507.47	76.501
507.82	77.991
508.16	78.711
508.51	78.122
508.85	79.226
509.19	79.191
509.54	79.517
509.88	78.964
510.23	78.967
510.57	78.354
510.92	77.026
511.26	80.142
511.61	79.208
511.95	79.397
512.30	80.044
512.64	78.631
512.98	80.685
513.33	78.511
513.67	79.022
514.02	80.492
514.36	80.629
514.70	80.594
515.05	82.550
515.39	80.579
515.74	81.198
516.08	81.112
516.42	81.567
516.77	80.573
517.11	82.315
517.46	80.371
517.80	80.393
518.14	80.527
518.49	79.868
518.83	81.652
519.17	79.381
519.52	81.054
519.86	80.792
520.20	80.923
520.55	79.800
520.89	81.995
521.23	81.001
521.58	80.442
521.92	81.538
522.26	81.913
522.61	81.753
522.95	82.980
523.29	81.194
523.64	81.703
523.98	83.603
524.32	80.992
524.66	81.818
525.01	81.494
525.35	81.400
525.69	82.896
526.04	82.474
526.38	83.009
526.72	81.818
527.06	82.231
527.41	82.586
527.75	81.971
528.09	81.927
528.43	82.512
528.78	82.640
529.12	81.742
529.46	82.911
529.80	81.064
530.15	82.376
530.49	83.973
530.83	83.447
531.17	82.001
531.51	84.405
531.86	81.849
532.20	83.090
532.54	82.437
532.88	82.136
533.22	81.922
533.57	81.717
533.91	82.637
534.25	84.180
534.59	81.783
534.93	79.736
535.27	81.155
535.62	81.529
535.96	81.931
536.30	82.322
536.64	82.771
536.98	82.927
537.32	83.855
537.66	81.627
538.01	84.476
538.35	82.524
538.69	81.292
539.03	82.365
539.37	82.167
539.71	82.958
540.05	82.621
540.39	82.064
540.73	82.775
541.07	82.942
541.42	82.594
541.76	84.928
542.10	83.138
542.44	84.573
542.78	81.074
543.12	82.212
543.46	82.267
543.80	83.276
544.14	81.242
544.48	81.546
544.82	83.527
545.16	84.836
545.50	81.976
545.84	82.932
546.18	83.830
546.52	82.624
546.86	82.962
547.20	83.333
547.54	82.049
547.88	83.492
548.22	80.999
548.56	81.860
548.90	81.739
549.24	82.713
549.58	80.395
549.92	81.916
550.26	82.271
550.60	82.900
550.94	84.018
551.28	82.380
551.62	85.846
551.96	83.383
552.30	83.918
552.64	82.934
552.98	82.630
553.32	82.525
553.66	83.019
554.00	85.182
554.34	84.786
554.68	82.965
555.02	83.408
555.36	83.396
555.69	83.223
556.03	83.583
556.37	83.416
556.71	84.116
557.05	83.967
557.39	82.454
557.73	83.283
558.07	84.766
558.41	84.839
558.75	84.178
559.08	84.949
559.42	86.032
559.76	86.869
560.10	85.321
560.44	84.363
560.78	82.797
561.12	83.498
561.45	84.961
561.79	84.244
562.13	84.599
562.47	83.309
562.81	83.501
563.15	83.568
563.48	84.229
563.82	83.802
564.16	85.655
564.50	83.108
564.84	84.337
565.17	82.830
565.51	85.997
565.85	84.842
566.19	85.411
566.52	84.383
566.86	83.290
567.20	83.437
567.54	84.976
567.88	84.534
568.21	84.163
568.55	83.315
568.89	83.316
569.23	82.186
569.56	81.042
569.90	82.420
570.24	79.382
570.57	81.564
570.91	81.771
571.25	79.349
571.59	79.601
571.92	77.659
572.26	79.650
572.60	78.450
572.93	78.789
573.27	79.812
573.61	80.728
573.95	78.782
574.28	78.867
574.62	77.905
574.96	78.509
575.29	78.092
575.63	77.378
575.97	78.233
576.30	78.606
576.64	77.325
576.98	79.459
577.31	78.594
577.65	78.509
577.98	78.593
578.32	78.081
578.66	77.176
578.99	78.053
579.33	77.042
579.67	77.416
580.00	78.709
580.34	78.507
580.67	77.794
581.01	79.227
581.35	78.488
581.68	78.311
582.02	77.941
582.35	78.180
582.69	77.834
583.02	77.548
583.36	79.016
583.70	79.361
584.03	80.206
584.37	79.475
584.70	79.863
585.04	78.057
585.37	78.280
585.71	79.635
586.04	78.770
586.38	79.381
586.72	79.340
587.05	81.051
587.39	80.431
587.72	81.356
588.06	80.487
588.39	80.291
588.73	80.708
589.06	80.952
589.40	80.470
589.73	81.709
590.07	82.628
590.40	82.237
590.73	83.155
591.07	82.952
591.40	82.458
591.74	82.308
592.07	82.885
592.41	83.922
592.74	81.641
593.08	80.161
593.41	81.285
593.75	80.406
594.08	80.295
594.41	81.223
594.75	81.794
595.08	81.612
595.42	81.561
595.75	82.764
596.09	82.017
596.42	81.645
596.75	81.883
597.09	82.005
597.42	82.791
597.75	83.967
598.09	82.119
598.42	83.258
598.76	81.510
599.09	80.929
599.42	80.409
599.76	81.226
600.09	81.410
600.42	81.160
600.76	81.872
601.09	81.794
601.42	80.807
601.76	82.295
602.09	81.972
602.42	83.698
602.76	84.211
603.09	83.638
603.42	84.741
603.76	82.339
604.09	82.301
604.42	84.052
604.76	83.623
605.09	82.952
605.42	81.535
605.75	82.925
606.09	82.378
606.42	82.235
606.75	82.165
607.09	83.033
607.42	82.100
607.75	81.883
608.08	82.704
608.42	81.864
608.75	85.012
609.08	84.903
609.41	84.873
609.75	84.728
610.08	85.472
610.41	82.947
610.74	83.325
611.07	85.323
611.41	86.196
611.74	86.301
612.07	84.690
612.40	86.269
612.73	85.932
613.07	85.208
613.40	85.284
613.73	85.562
614.06	84.418
614.39	85.392
614.72	84.874
615.06	86.313
615.39	83.679
615.72	84.284
616.05	85.140
616.38	85.071
616.71	86.667
617.05	85.855
617.38	86.172
617.71	87.296
618.04	88.762
618.37	89.218
618.70	88.383
619.03	89.722
619.36	88.061
619.69	90.296
620.03	88.459
620.36	89.270
620.69	87.509
621.02	87.615
621.35	89.710
621.68	92.177
622.01	90.750
622.34	89.944
622.67	89.196
623.00	87.672
623.33	89.329
623.66	88.781
623.99	88.805
624.32	88.593
624.65	88.195
624.99	89.391
625.32	88.476
625.65	89.866
625.98	90.975
626.31	90.441
626.64	92.288
626.97	93.805
627.30	90.806
627.63	90.988
627.96	92.992
628.29	93.154
628.62	91.249
628.95	93.287
629.28	96.169
629.61	94.317
629.94	93.939
630.26	92.292
630.59	96.254
630.92	93.744
631.25	91.487
631.58	94.604
631.91	95.724
632.24	97.133
632.57	97.045
632.90	96.085
633.23	93.412
633.56	100.378
633.89	97.411
