SpectraSuite Data File
++++++++++++++++++++++++++++++++++++
Date: Fri May 15 17:05:50 PDT 2015
User: schluterlab
Dark Spectrum Present: Yes
Reference Spectrum Present: Yes
Number of Sampled Component Spectra: 1
Spectrometers: USB2E3373
Integration Time (usec): 3000 (USB2E3373)
Spectra Averaged: 3 (USB2E3373)
Boxcar Smoothing: 0 (USB2E3373)
Correct for Electrical Dark: No (USB2E3373)
Strobe/Lamp Enabled: No (USB2E3373)
Correct for Detector Non-linearity: No (USB2E3373)
Correct for Stray Light: No (USB2E3373)
Number of Pixels in Processed Spectrum: 2048
>>>>>Begin Processed Spectral Data<<<<<
178.53	0.000
178.91	0.000
179.29	87.500
179.67	50.000
180.04	-100.000
180.42	275.000
180.80	300.000
181.18	-66.667
181.56	-400.000
181.94	200.000
182.31	-300.000
182.69	140.000
183.07	200.000
183.45	200.000
183.83	33.333
184.20	136.364
184.58	-11.111
184.96	-200.000
185.34	-200.000
185.72	350.000
186.09	38.462
186.47	200.000
186.85	-50.000
187.23	66.667
187.61	-800.000
187.98	-33.333
188.36	44.444
188.74	100.000
189.12	88.235
189.49	72.222
189.87	0.000
190.25	92.857
190.63	0.000
191.00	66.667
191.38	52.632
191.76	400.000
192.14	-125.000
192.51	550.000
192.89	0.000
193.27	85.714
193.65	50.000
194.02	9.091
194.40	120.000
194.78	-87.500
195.15	0.000
195.53	25.000
195.91	-50.000
196.29	200.000
196.66	61.538
197.04	71.429
197.42	88.889
197.79	-133.333
198.17	7.692
198.55	400.000
198.92	-133.333
199.30	300.000
199.68	60.000
200.05	133.333
200.43	0.000
200.81	166.667
201.18	133.333
201.56	-0.000
201.94	200.000
202.31	-66.667
202.69	160.000
203.07	-125.000
203.44	1000.000
203.82	0.000
204.19	78.571
204.57	-166.667
204.95	25.000
205.32	50.000
205.70	71.429
206.08	200.000
206.45	277.778
206.83	150.000
207.20	71.429
207.58	100.000
207.96	233.333
208.33	30.000
208.71	125.000
209.08	-33.333
209.46	200.000
209.84	40.000
210.21	400.000
210.59	85.714
210.96	0.000
211.34	125.000
211.71	13.333
212.09	-57.143
212.46	-300.000
212.84	0.000
213.22	220.000
213.59	200.000
213.97	138.462
214.34	54.545
214.72	-33.333
215.09	300.000
215.47	0.000
215.84	81.818
216.22	200.000
216.59	-37.500
216.97	300.000
217.34	125.000
217.72	80.000
218.09	175.000
218.47	37.500
218.84	200.000
219.22	11.111
219.59	0.000
219.97	166.667
220.34	125.000
220.72	71.429
221.09	-100.000
221.47	-250.000
221.84	-550.000
222.22	-500.000
222.59	127.273
222.97	116.667
223.34	400.000
223.72	50.000
224.09	47.619
224.46	17.857
224.84	-0.000
225.21	80.000
225.59	6.667
225.96	450.000
226.34	-25.000
226.71	14.286
227.08	-133.333
227.46	62.500
227.83	-550.000
228.21	111.111
228.58	72.727
228.95	37.500
229.33	40.000
229.70	50.000
230.08	-87.500
230.45	-14.286
230.82	171.429
231.20	13.333
231.57	142.857
231.95	142.857
232.32	70.000
232.69	107.143
233.07	166.667
233.44	160.000
233.81	-10.000
234.19	100.000
234.56	52.941
234.93	150.000
235.31	350.000
235.68	160.000
236.05	-7.692
236.43	35.000
236.80	88.235
237.17	46.875
237.55	10.000
237.92	25.926
238.29	66.667
238.67	63.333
239.04	17.647
239.41	2.439
239.79	6.667
240.16	31.707
240.53	23.684
240.91	23.913
241.28	20.635
241.65	46.429
242.02	26.027
242.40	33.333
242.77	28.814
243.14	13.636
243.51	22.500
243.89	33.333
244.26	4.598
244.63	19.048
245.00	22.680
245.38	27.835
245.75	6.742
246.12	18.103
246.49	18.182
246.87	17.308
247.24	17.647
247.61	21.053
247.98	25.203
248.36	25.625
248.73	22.368
249.10	15.584
249.47	17.089
249.84	13.725
250.22	15.882
250.59	15.686
250.96	18.779
251.33	18.023
251.70	19.412
252.08	20.305
252.45	16.337
252.82	16.080
253.19	20.737
253.56	15.421
253.94	17.568
254.31	14.783
254.68	23.246
255.05	18.110
255.42	20.087
255.79	18.919
256.16	16.732
256.54	18.657
256.91	18.631
257.28	17.100
257.65	14.981
258.02	13.475
258.39	15.152
258.76	20.879
259.14	19.601
259.51	16.828
259.88	19.244
260.25	18.301
260.62	19.097
260.99	11.864
261.36	19.521
261.73	14.873
262.10	18.541
262.47	16.258
262.85	15.674
263.22	15.692
263.59	21.184
263.96	19.565
264.33	16.970
264.70	14.583
265.07	12.500
265.44	21.530
265.81	16.384
266.18	15.847
266.55	13.882
266.92	18.135
267.29	16.971
267.66	16.880
268.03	16.754
268.40	16.188
268.77	18.717
269.14	17.506
269.51	19.280
269.88	15.960
270.25	14.541
270.62	15.854
270.99	14.834
271.36	15.648
271.73	17.840
272.10	17.518
272.47	16.785
272.84	17.327
273.21	16.937
273.58	15.904
273.95	14.645
274.32	15.473
274.69	13.122
275.06	17.411
275.43	12.925
275.80	16.777
276.17	14.713
276.54	13.704
276.91	16.447
277.28	14.629
277.65	17.562
278.02	17.447
278.39	15.974
278.76	17.610
279.13	13.278
279.50	15.546
279.87	15.767
280.23	15.269
280.60	16.959
280.97	18.990
281.34	14.231
281.71	14.990
282.08	13.701
282.45	14.286
282.82	15.058
283.19	16.441
283.56	15.029
283.92	15.560
284.29	14.808
284.66	13.760
285.03	14.735
285.40	13.611
285.77	14.060
286.14	14.260
286.51	14.945
286.87	12.066
287.24	14.365
287.61	13.228
287.98	16.491
288.35	13.172
288.72	15.762
289.08	14.236
289.45	14.236
289.82	12.413
290.19	14.505
290.56	13.894
290.93	12.795
291.29	14.022
291.66	14.488
292.03	12.600
292.40	12.097
292.77	12.759
293.13	11.039
293.50	11.836
293.87	12.061
294.24	13.292
294.60	12.817
294.97	12.798
295.34	11.196
295.71	11.028
296.08	11.809
296.44	9.531
296.81	9.583
297.18	12.174
297.55	13.415
297.91	11.781
298.28	12.533
298.65	10.448
299.02	10.916
299.38	9.713
299.75	12.138
300.12	10.209
300.48	9.881
300.85	12.041
301.22	9.481
301.59	10.789
301.95	12.278
302.32	12.062
302.69	10.697
303.05	11.386
303.42	10.959
303.79	10.981
304.15	11.350
304.52	9.631
304.89	9.942
305.25	11.138
305.62	9.918
305.99	10.292
306.35	10.867
306.72	9.224
307.09	10.718
307.45	10.218
307.82	10.069
308.19	11.034
308.55	11.341
308.92	12.200
309.29	9.274
309.65	10.657
310.02	9.131
310.38	11.087
310.75	10.929
311.12	10.011
311.48	10.286
311.85	10.785
312.22	10.338
312.58	9.660
312.95	10.459
313.31	10.455
313.68	10.471
314.05	9.898
314.41	11.237
314.78	10.515
315.14	11.511
315.51	12.733
315.87	11.680
316.24	12.437
316.61	12.795
316.97	12.401
317.34	12.305
317.70	12.715
318.07	12.212
318.43	12.941
318.80	12.973
319.16	14.355
319.53	14.815
319.89	13.287
320.26	14.575
320.62	16.449
320.99	15.658
321.35	15.725
321.72	15.576
322.08	16.516
322.45	17.157
322.81	18.566
323.18	17.664
323.54	18.436
323.91	17.819
324.27	19.922
324.64	19.569
325.00	21.259
325.37	21.671
325.73	21.306
326.10	23.070
326.46	23.587
326.83	24.497
327.19	24.237
327.56	26.151
327.92	26.144
328.29	26.339
328.65	27.830
329.01	26.471
329.38	28.940
329.74	27.290
330.11	29.564
330.47	30.056
330.84	30.481
331.20	31.654
331.56	30.833
331.93	32.694
332.29	33.364
332.66	33.394
333.02	34.294
333.38	32.539
333.75	34.799
334.11	34.557
334.48	35.177
334.84	34.432
335.20	35.956
335.57	35.721
335.93	36.314
336.29	36.188
336.66	35.513
337.02	35.409
337.38	34.537
337.75	37.455
338.11	37.692
338.47	36.040
338.84	37.338
339.20	35.558
339.56	38.073
339.93	37.869
340.29	38.349
340.65	38.620
341.02	38.830
341.38	38.230
341.74	38.339
342.11	36.049
342.47	38.078
342.83	38.495
343.20	37.544
343.56	38.957
343.92	39.061
344.28	39.112
344.65	38.083
345.01	39.412
345.37	38.940
345.73	38.745
346.10	40.552
346.46	39.361
346.82	39.198
347.19	38.155
347.55	39.515
347.91	38.997
348.27	38.723
348.63	38.330
349.00	38.884
349.36	39.069
349.72	39.055
350.08	38.689
350.45	39.106
350.81	39.120
351.17	39.088
351.53	38.612
351.89	38.068
352.26	38.320
352.62	39.919
352.98	39.116
353.34	38.969
353.70	38.754
354.07	39.919
354.43	38.831
354.79	39.802
355.15	40.476
355.51	40.902
355.87	40.372
356.24	39.396
356.60	39.854
356.96	40.397
357.32	38.898
357.68	38.233
358.04	41.842
358.40	40.595
358.77	41.069
359.13	39.392
359.49	38.136
359.85	40.172
360.21	40.510
360.57	40.245
360.93	40.696
361.29	38.369
361.66	40.831
362.02	41.136
362.38	40.289
362.74	40.802
363.10	42.889
363.46	40.104
363.82	41.172
364.18	40.738
364.54	39.632
364.90	41.075
365.26	41.485
365.62	41.971
365.98	40.762
366.35	41.879
366.71	41.833
367.07	41.292
367.43	41.409
367.79	41.767
368.15	41.924
368.51	40.787
368.87	40.775
369.23	40.361
369.59	41.472
369.95	41.276
370.31	41.835
370.67	42.910
371.03	41.449
371.39	41.357
371.75	41.392
372.11	41.084
372.47	42.382
372.83	42.441
373.19	41.940
373.55	42.527
373.91	41.037
374.27	43.444
374.63	43.001
374.99	41.844
375.35	41.992
375.71	42.657
376.07	43.329
376.42	42.789
376.78	42.081
377.14	41.774
377.50	44.024
377.86	43.106
378.22	42.821
378.58	43.333
378.94	42.344
379.30	43.356
379.66	43.574
380.02	43.164
380.38	42.727
380.74	44.165
381.09	44.049
381.45	43.058
381.81	42.813
382.17	43.147
382.53	42.286
382.89	45.323
383.25	44.617
383.61	42.622
383.97	43.873
384.32	43.152
384.68	43.096
385.04	42.279
385.40	43.497
385.76	44.969
386.12	43.920
386.48	44.700
386.83	43.437
387.19	43.895
387.55	45.169
387.91	43.949
388.27	43.529
388.62	43.612
388.98	43.033
389.34	42.848
389.70	44.127
390.06	42.983
390.42	44.754
390.77	43.754
391.13	42.749
391.49	43.014
391.85	43.665
392.20	43.440
392.56	42.149
392.92	44.040
393.28	42.925
393.64	43.423
393.99	44.890
394.35	42.758
394.71	43.870
395.07	43.243
395.42	42.380
395.78	43.909
396.14	42.055
396.50	43.944
396.85	44.430
397.21	43.045
397.57	42.382
397.92	43.020
398.28	42.414
398.64	42.048
399.00	41.535
399.35	40.350
399.71	42.677
400.07	43.652
400.42	41.065
400.78	42.621
401.14	40.714
401.49	41.989
401.85	41.377
402.21	41.265
402.57	42.375
402.92	41.656
403.28	42.356
403.63	41.803
403.99	41.582
404.35	41.849
404.70	41.250
405.06	40.247
405.42	40.025
405.77	39.919
406.13	40.629
406.49	40.438
406.84	41.443
407.20	41.240
407.55	39.794
407.91	40.174
408.27	39.643
408.62	40.246
408.98	39.803
409.34	40.892
409.69	39.018
410.05	39.717
410.40	40.370
410.76	41.496
411.11	41.562
411.47	40.434
411.83	40.804
412.18	40.927
412.54	40.200
412.89	38.424
413.25	40.734
413.60	39.255
413.96	39.571
414.31	40.915
414.67	39.192
415.03	39.747
415.38	40.339
415.74	41.042
416.09	41.411
416.45	40.243
416.80	40.119
417.16	41.022
417.51	40.839
417.87	40.091
418.22	40.997
418.58	40.870
418.93	41.881
419.29	39.437
419.64	40.635
420.00	41.751
420.35	41.075
420.71	42.527
421.06	40.761
421.42	42.428
421.77	41.214
422.12	41.146
422.48	41.256
422.83	41.415
423.19	42.777
423.54	41.505
423.90	42.108
424.25	42.997
424.61	43.268
424.96	42.683
425.31	43.270
425.67	43.427
426.02	44.287
426.38	44.208
426.73	44.552
427.09	44.241
427.44	44.000
427.79	43.783
428.15	44.721
428.50	45.245
428.85	43.735
429.21	44.539
429.56	44.960
429.92	44.735
430.27	43.860
430.62	44.746
430.98	44.692
431.33	44.742
431.68	44.270
432.04	44.550
432.39	44.210
432.74	43.957
433.10	46.782
433.45	46.117
433.80	46.605
434.16	46.482
434.51	46.505
434.86	46.341
435.22	47.672
435.57	46.475
435.92	46.946
436.28	46.571
436.63	46.948
436.98	47.103
437.34	48.094
437.69	48.002
438.04	48.205
438.39	47.587
438.75	48.452
439.10	47.934
439.45	48.265
439.81	48.807
440.16	50.059
440.51	49.910
440.86	50.816
441.22	49.661
441.57	50.662
441.92	50.525
442.27	50.388
442.63	49.358
442.98	51.465
443.33	48.692
443.68	51.088
444.03	50.720
444.39	50.074
444.74	52.118
445.09	51.448
445.44	50.883
445.79	51.831
446.15	50.881
446.50	50.860
446.85	52.072
447.20	51.616
447.55	52.734
447.91	51.720
448.26	52.988
448.61	52.619
448.96	53.815
449.31	53.353
449.66	52.497
450.02	53.166
450.37	53.823
450.72	52.463
451.07	53.734
451.42	53.308
451.77	53.225
452.12	52.811
452.47	52.865
452.83	53.592
453.18	53.131
453.53	54.172
453.88	53.248
454.23	54.149
454.58	54.975
454.93	54.575
455.28	53.143
455.63	55.487
455.98	54.179
456.34	52.937
456.69	54.765
457.04	55.514
457.39	53.767
457.74	54.897
458.09	54.562
458.44	54.184
458.79	54.454
459.14	55.092
459.49	56.000
459.84	55.781
460.19	55.825
460.54	55.134
460.89	55.625
461.24	55.963
461.59	55.938
461.94	55.597
462.29	55.911
462.64	55.880
462.99	55.789
463.34	55.702
463.69	55.534
464.04	55.751
464.39	56.458
464.74	54.540
465.09	56.706
465.44	55.280
465.79	55.612
466.14	56.899
466.49	54.514
466.84	56.157
467.19	56.446
467.54	56.130
467.89	57.423
468.24	56.752
468.59	58.222
468.94	56.444
469.29	58.164
469.64	58.783
469.99	59.005
470.34	56.860
470.68	58.315
471.03	58.882
471.38	59.272
471.73	59.244
472.08	57.327
472.43	58.121
472.78	57.642
473.13	57.551
473.48	60.130
473.83	57.472
474.17	59.197
474.52	57.435
474.87	58.606
475.22	58.206
475.57	57.708
475.92	58.640
476.27	58.091
476.61	59.028
476.96	58.171
477.31	58.626
477.66	59.326
478.01	59.461
478.36	58.442
478.70	60.033
479.05	59.615
479.40	58.877
479.75	57.560
480.10	58.833
480.45	59.000
480.79	59.819
481.14	59.375
481.49	59.113
481.84	58.832
482.19	58.185
482.53	59.185
482.88	58.282
483.23	58.637
483.58	59.009
483.92	58.277
484.27	59.526
484.62	58.763
484.97	58.375
485.31	58.382
485.66	56.502
486.01	56.256
486.36	55.517
486.70	55.315
487.05	55.796
487.40	56.593
487.75	57.239
488.09	58.313
488.44	57.290
488.79	59.918
489.13	60.056
489.48	60.325
489.83	58.969
490.17	59.281
490.52	59.215
490.87	58.677
491.22	61.032
491.56	59.393
491.91	59.369
492.26	60.282
492.60	60.701
492.95	61.190
493.30	59.893
493.64	62.181
493.99	61.014
494.34	60.194
494.68	61.762
495.03	60.925
495.37	62.169
495.72	61.030
496.07	61.122
496.41	61.132
496.76	62.091
497.11	60.969
497.45	61.671
497.80	61.806
498.14	61.699
498.49	61.097
498.84	61.427
499.18	61.546
499.53	62.202
499.87	61.138
500.22	61.721
500.56	62.179
500.91	61.496
501.26	62.234
501.60	61.928
501.95	62.688
502.29	62.470
502.64	61.921
502.98	62.309
503.33	60.903
503.67	61.205
504.02	62.170
504.36	63.533
504.71	62.525
505.06	60.946
505.40	62.843
505.75	63.144
506.09	63.305
506.44	63.809
506.78	63.980
507.13	63.857
507.47	62.559
507.82	64.209
508.16	62.229
508.51	63.536
508.85	64.417
509.19	62.906
509.54	63.861
509.88	62.567
510.23	65.035
510.57	64.564
510.92	63.060
511.26	64.648
511.61	66.337
511.95	64.219
512.30	64.523
512.64	64.329
512.98	64.458
513.33	64.857
513.67	65.037
514.02	66.247
514.36	66.457
514.70	67.308
515.05	66.863
515.39	65.407
515.74	67.305
516.08	66.587
516.42	66.784
516.77	66.179
517.11	67.062
517.46	66.786
517.80	65.673
518.14	67.483
518.49	65.925
518.83	68.104
519.17	65.858
519.52	66.075
519.86	66.387
520.20	66.707
520.55	66.291
520.89	67.252
521.23	65.991
521.58	67.129
521.92	68.462
522.26	67.274
522.61	67.468
522.95	69.007
523.29	66.201
523.64	67.980
523.98	68.957
524.32	66.946
524.66	69.270
525.01	68.506
525.35	68.892
525.69	69.293
526.04	66.931
526.38	70.558
526.72	67.233
527.06	68.353
527.41	68.734
527.75	69.906
528.09	66.977
528.43	70.898
528.78	68.845
529.12	68.387
529.46	69.331
529.80	67.321
530.15	69.835
530.49	68.418
530.83	69.699
531.17	68.502
531.51	70.109
531.86	69.341
532.20	69.241
532.54	68.414
532.88	70.910
533.22	70.161
533.57	67.759
533.91	68.473
534.25	69.401
534.59	67.415
534.93	67.590
535.27	68.782
535.62	68.568
535.96	68.428
536.30	68.536
536.64	70.090
536.98	67.944
537.32	70.057
537.66	69.986
538.01	69.091
538.35	70.458
538.69	69.441
539.03	68.148
539.37	68.506
539.71	70.143
540.05	68.839
540.39	69.529
540.73	69.317
541.07	67.749
541.42	68.078
541.76	69.993
542.10	69.649
542.44	68.033
542.78	67.653
543.12	69.368
543.46	69.680
543.80	70.021
544.14	66.622
544.48	68.887
544.82	69.993
545.16	70.697
545.50	68.091
545.84	71.034
546.18	71.418
546.52	70.512
546.86	71.028
547.20	70.815
547.54	69.399
547.88	69.293
548.22	68.639
548.56	68.536
548.90	70.013
549.24	69.008
549.58	69.252
549.92	71.480
550.26	71.136
550.60	70.781
550.94	71.247
551.28	71.252
551.62	72.385
551.96	70.226
552.30	71.711
552.64	70.733
552.98	70.605
553.32	70.756
553.66	71.408
554.00	72.847
554.34	71.935
554.68	71.386
555.02	72.321
555.36	72.999
555.69	72.381
556.03	70.735
556.37	70.605
556.71	70.903
557.05	72.707
557.39	71.301
557.73	72.264
558.07	72.323
558.41	73.124
558.75	73.733
559.08	73.128
559.42	74.206
559.76	74.860
560.10	72.477
560.44	72.450
560.78	70.280
561.12	72.214
561.45	71.680
561.79	72.269
562.13	72.463
562.47	70.863
562.81	72.478
563.15	70.733
563.48	72.843
563.82	71.929
564.16	71.797
564.50	71.419
564.84	70.482
565.17	72.569
565.51	74.454
565.85	72.840
566.19	73.143
566.52	73.458
566.86	71.337
567.20	71.420
567.54	72.506
567.88	71.939
568.21	70.475
568.55	71.141
568.89	71.304
569.23	70.342
569.56	69.571
569.90	68.859
570.24	67.138
570.57	68.327
570.91	67.863
571.25	66.754
571.59	66.552
571.92	65.304
572.26	65.459
572.60	65.922
572.93	65.955
573.27	66.301
573.61	65.722
573.95	65.019
574.28	64.195
574.62	64.175
574.96	64.174
575.29	64.589
575.63	63.592
575.97	64.326
576.30	65.308
576.64	63.497
576.98	65.792
577.31	65.225
577.65	65.321
577.98	64.687
578.32	64.046
578.66	63.787
578.99	64.085
579.33	64.477
579.67	64.295
580.00	65.443
580.34	64.652
580.67	64.812
581.01	65.898
581.35	65.073
581.68	64.613
582.02	63.681
582.35	64.085
582.69	64.608
583.02	64.324
583.36	65.768
583.70	66.277
584.03	67.807
584.37	67.645
584.70	66.703
585.04	65.596
585.37	65.184
585.71	66.675
586.04	66.591
586.38	66.364
586.72	67.088
587.05	67.013
587.39	67.347
587.72	69.300
588.06	67.949
588.39	67.331
588.73	68.254
589.06	69.733
589.40	68.890
589.73	69.186
590.07	69.789
590.40	70.124
590.73	70.675
591.07	70.780
591.40	71.149
591.74	71.538
592.07	72.542
592.41	72.438
592.74	70.052
593.08	69.088
593.41	68.995
593.75	67.910
594.08	67.559
594.41	69.578
594.75	69.542
595.08	70.072
595.42	69.967
595.75	70.372
596.09	70.954
596.42	71.807
596.75	72.202
597.09	72.392
597.42	71.274
597.75	73.248
598.09	71.073
598.42	71.300
598.76	71.557
599.09	70.793
599.42	70.064
599.76	69.074
600.09	70.551
600.42	69.636
600.76	69.688
601.09	70.076
601.42	71.014
601.76	71.695
602.09	71.617
602.42	72.536
602.76	71.902
603.09	73.588
603.42	73.202
603.76	70.968
604.09	72.458
604.42	73.181
604.76	73.387
605.09	72.761
605.42	72.641
605.75	71.979
606.09	72.059
606.42	71.726
606.75	72.035
607.09	72.308
607.42	73.372
607.75	71.625
608.08	70.800
608.42	70.991
608.75	73.398
609.08	73.343
609.41	74.416
609.75	73.538
610.08	73.540
610.41	72.705
610.74	72.891
611.07	74.625
611.41	75.195
611.74	74.467
612.07	74.625
612.40	75.766
612.73	76.384
613.07	74.972
613.40	74.781
613.73	75.210
614.06	75.292
614.39	75.522
614.72	74.734
615.06	75.978
615.39	74.072
615.72	75.511
616.05	76.034
616.38	74.074
616.71	76.391
617.05	76.529
617.38	75.739
617.71	76.981
618.04	76.889
618.37	77.680
618.70	77.624
619.03	78.542
619.36	79.595
619.69	81.425
620.03	81.008
620.36	79.614
620.69	80.014
621.02	79.358
621.35	82.988
621.68	82.143
622.01	82.583
622.34	83.081
622.67	82.098
623.00	80.092
623.33	80.488
623.66	80.404
623.99	80.787
624.32	81.825
624.65	78.120
624.99	82.919
625.32	80.667
625.65	83.346
625.98	83.723
626.31	81.962
626.64	84.402
626.97	83.595
627.30	84.063
627.63	83.276
627.96	86.613
628.29	83.534
628.62	87.119
628.95	86.273
629.28	86.895
629.61	84.247
629.94	88.172
630.26	84.783
630.59	87.201
630.92	87.282
631.25	84.718
631.58	89.978
631.91	89.145
632.24	88.532
632.57	89.773
632.90	91.222
633.23	89.647
633.56	92.695
633.89	93.588
634.22	90.494
634.55	92.757
634.88	92.465
