SpectraSuite Data File
++++++++++++++++++++++++++++++++++++
Date: Fri May 15 17:17:47 PDT 2015
User: schluterlab
Dark Spectrum Present: Yes
Reference Spectrum Present: Yes
Number of Sampled Component Spectra: 1
Spectrometers: USB2E3373
Integration Time (usec): 3000 (USB2E3373)
Spectra Averaged: 3 (USB2E3373)
Boxcar Smoothing: 0 (USB2E3373)
Correct for Electrical Dark: No (USB2E3373)
Strobe/Lamp Enabled: No (USB2E3373)
Correct for Detector Non-linearity: No (USB2E3373)
Correct for Stray Light: No (USB2E3373)
Number of Pixels in Processed Spectrum: 2048
>>>>>Begin Processed Spectral Data<<<<<
178.53	0.000
178.91	0.000
179.29	62.500
179.67	500.000
180.04	-85.714
180.42	375.000
180.80	500.000
181.18	-166.667
181.56	800.000
181.94	400.000
182.31	-1300.000
182.69	20.000
183.07	-133.333
183.45	220.000
183.83	-50.000
184.20	63.636
184.58	55.556
184.96	-150.000
185.34	-100.000
185.72	-500.000
186.09	53.846
186.47	600.000
186.85	-16.667
187.23	11.111
187.61	-1300.000
187.98	-233.333
188.36	100.000
188.74	200.000
189.12	76.471
189.49	83.333
189.87	0.000
190.25	121.429
190.63	50.000
191.00	366.667
191.38	84.211
191.76	350.000
192.14	-300.000
192.51	400.000
192.89	55.556
193.27	14.286
193.65	-0.000
194.02	118.182
194.40	30.000
194.78	-37.500
195.15	33.333
195.53	-12.500
195.91	150.000
196.29	-25.000
196.66	61.538
197.04	-114.286
197.42	44.444
197.79	-266.667
198.17	7.692
198.55	1400.000
198.92	200.000
199.30	-100.000
199.68	-20.000
200.05	100.000
200.43	0.000
200.81	-100.000
201.18	433.333
201.56	-500.000
201.94	450.000
202.31	-366.667
202.69	-20.000
203.07	50.000
203.44	0.000
203.82	0.000
204.19	50.000
204.57	-233.333
204.95	75.000
205.32	60.000
205.70	57.143
206.08	75.000
206.45	122.222
206.83	42.857
207.20	-100.000
207.58	-500.000
207.96	233.333
208.33	70.000
208.71	-25.000
209.08	-33.333
209.46	100.000
209.84	-80.000
210.21	400.000
210.59	128.571
210.96	50.000
211.34	-75.000
211.71	73.333
212.09	-57.143
212.46	-500.000
212.84	0.000
213.22	120.000
213.59	-800.000
213.97	53.846
214.34	127.273
214.72	83.333
215.09	150.000
215.47	115.385
215.84	81.818
216.22	-100.000
216.59	12.500
216.97	650.000
217.34	0.000
217.72	-100.000
218.09	112.500
218.47	-12.500
218.84	300.000
219.22	-44.444
219.59	80.000
219.97	-66.667
220.34	100.000
220.72	42.857
221.09	-125.000
221.47	200.000
221.84	-100.000
222.22	-150.000
222.59	81.818
222.97	100.000
223.34	166.667
223.72	-7.143
224.09	23.810
224.46	14.286
224.84	233.333
225.21	30.000
225.59	66.667
225.96	-400.000
226.34	-100.000
226.71	28.571
227.08	100.000
227.46	37.500
227.83	-50.000
228.21	111.111
228.58	72.727
228.95	100.000
229.33	-0.000
229.70	56.250
230.08	62.500
230.45	114.286
230.82	200.000
231.20	100.000
231.57	100.000
231.95	100.000
232.32	-20.000
232.69	-21.429
233.07	300.000
233.44	160.000
233.81	-30.000
234.19	0.000
234.56	64.706
234.93	-0.000
235.31	25.000
235.68	-160.000
236.05	15.385
236.43	-50.000
236.80	5.882
237.17	12.500
237.55	60.000
237.92	44.444
238.29	25.000
238.67	16.667
239.04	44.118
239.41	-2.439
239.79	-33.333
240.16	24.390
240.53	-2.632
240.91	13.043
241.28	19.048
241.65	19.643
242.02	36.986
242.40	15.000
242.77	5.085
243.14	10.606
243.51	13.750
243.89	8.046
244.26	3.448
244.63	4.762
245.00	3.093
245.38	8.247
245.75	-7.865
246.12	1.724
246.49	16.529
246.87	11.538
247.24	-7.563
247.61	-9.649
247.98	0.000
248.36	5.625
248.73	1.974
249.10	1.948
249.47	-0.633
249.84	8.497
250.22	6.471
250.59	1.307
250.96	7.042
251.33	-5.233
251.70	3.529
252.08	7.614
252.45	5.941
252.82	2.010
253.19	4.147
253.56	-4.206
253.94	4.505
254.31	6.957
254.68	5.263
255.05	-0.394
255.42	1.310
255.79	3.861
256.16	-1.167
256.54	5.970
256.91	0.000
257.28	2.602
257.65	-1.124
258.02	-0.355
258.39	3.704
258.76	2.930
259.14	5.316
259.51	4.207
259.88	0.000
260.25	0.000
260.62	4.514
260.99	-4.407
261.36	-1.027
261.73	-3.481
262.10	6.383
262.47	2.147
262.85	0.940
263.22	0.308
263.59	0.000
263.96	0.932
264.33	2.121
264.70	0.893
265.07	0.893
265.44	3.683
265.81	2.825
266.18	1.093
266.55	2.571
266.92	2.073
267.29	1.305
267.66	0.512
268.03	2.356
268.40	1.828
268.77	3.209
269.14	3.118
269.51	1.799
269.88	2.743
270.25	0.255
270.62	2.195
270.99	-0.256
271.36	-0.244
271.73	1.408
272.10	2.433
272.47	3.546
272.84	3.713
273.21	2.784
273.58	2.410
273.95	2.059
274.32	-0.924
274.69	-1.810
275.06	2.455
275.43	0.227
275.80	1.325
276.17	0.230
276.54	1.285
276.91	2.412
277.28	-0.218
277.65	1.033
278.02	0.000
278.39	0.656
278.76	1.468
279.13	-1.660
279.50	1.050
279.87	-0.432
280.23	0.000
280.60	2.144
280.97	2.222
281.34	0.769
281.71	4.517
282.08	1.840
282.45	1.174
282.82	-0.965
283.19	0.774
283.56	0.963
283.92	0.000
284.29	0.192
284.66	-0.775
285.03	1.572
285.40	0.756
285.77	1.757
286.14	1.625
286.51	2.399
286.87	-0.183
287.24	0.921
287.61	-0.882
287.98	0.877
288.35	0.173
288.72	0.876
289.08	1.042
289.45	-0.176
289.82	2.622
290.19	0.000
290.56	1.715
290.93	-1.010
291.29	0.308
291.66	1.890
292.03	0.000
292.40	0.968
292.77	0.797
293.13	-2.597
293.50	-0.455
293.87	1.679
294.24	0.927
294.60	1.043
294.97	1.190
295.34	-0.153
295.71	1.341
296.08	0.448
296.44	0.000
296.81	0.278
297.18	0.580
297.55	2.575
297.91	1.918
298.28	2.243
298.65	0.543
299.02	1.482
299.38	0.000
299.75	-1.793
300.12	1.047
300.48	0.264
300.85	1.394
301.22	-0.130
301.59	-0.263
301.95	1.392
302.32	1.556
302.69	1.244
303.05	0.495
303.42	0.996
303.79	2.103
304.15	1.195
304.52	-0.832
304.89	-0.117
305.25	1.211
305.62	0.933
305.99	1.404
306.35	-0.116
306.72	-0.787
307.09	0.342
307.45	1.148
307.82	-0.463
308.19	1.742
308.55	0.218
308.92	1.852
309.29	0.559
309.65	0.538
310.02	-0.220
310.38	-0.329
310.75	2.295
311.12	1.292
311.48	0.318
311.85	0.314
312.22	0.211
312.58	0.000
312.95	0.107
313.31	0.104
313.68	0.314
314.05	-0.102
314.41	0.309
314.78	0.722
315.14	1.028
315.51	0.932
315.87	-0.615
316.24	2.224
316.61	1.575
316.97	0.794
317.34	0.488
317.70	1.625
318.07	0.962
318.43	2.059
318.80	1.420
319.16	1.660
319.53	2.374
319.89	1.575
320.26	1.822
320.62	3.410
320.99	1.461
321.35	2.980
321.72	3.634
322.08	3.827
322.45	2.843
322.81	4.912
323.18	2.846
323.54	3.089
323.91	5.063
324.27	5.078
324.64	5.899
325.00	5.566
325.37	7.254
325.73	6.528
326.10	6.812
326.46	8.610
326.83	8.399
327.19	9.503
327.56	10.078
327.92	9.947
328.29	10.268
328.65	11.132
329.01	11.581
329.38	12.258
329.74	11.426
330.11	14.087
330.47	12.338
330.84	13.558
331.20	15.684
331.56	14.722
331.93	15.434
332.29	15.765
332.66	16.561
333.02	16.822
333.38	15.215
333.75	16.850
334.11	16.025
334.48	17.860
334.84	17.857
335.20	18.664
335.57	18.404
335.93	19.512
336.29	18.140
336.66	18.438
337.02	17.937
337.38	17.315
337.75	17.455
338.11	19.116
338.47	20.073
338.84	20.702
339.20	19.927
339.56	19.358
339.93	19.785
340.29	20.550
340.65	20.251
341.02	20.390
341.38	20.177
341.74	20.406
342.11	20.017
342.47	21.441
342.83	20.069
343.20	20.383
343.56	21.130
343.92	20.195
344.28	21.178
344.65	20.639
345.01	19.706
345.37	20.353
345.73	21.423
346.10	21.743
346.46	20.690
346.82	20.376
347.19	19.202
347.55	20.802
347.91	20.146
348.27	21.180
348.63	21.380
349.00	20.591
349.36	21.114
349.72	21.061
350.08	21.148
350.45	20.990
350.81	21.096
351.17	19.951
351.53	20.245
351.89	19.901
352.26	21.040
352.62	21.129
352.98	19.920
353.34	20.290
353.70	22.006
354.07	20.242
354.43	22.098
354.79	21.305
355.15	21.190
355.51	21.677
355.87	21.197
356.24	20.962
356.60	22.070
356.96	20.794
357.32	21.645
357.68	22.048
358.04	21.809
358.40	21.061
358.77	22.089
359.13	23.058
359.49	21.726
359.85	21.607
360.21	21.770
360.57	22.112
360.93	22.163
361.29	21.526
361.66	22.335
362.02	22.955
362.38	22.772
362.74	22.407
363.10	23.552
363.46	23.128
363.82	23.216
364.18	22.878
364.54	22.279
364.90	23.297
365.26	22.999
365.62	24.818
365.98	23.387
366.35	23.816
366.71	23.356
367.07	24.238
367.43	22.574
367.79	23.816
368.15	22.972
368.51	24.253
368.87	23.618
369.23	23.466
369.59	24.490
369.95	23.900
370.31	24.277
370.67	25.149
371.03	24.421
371.39	24.654
371.75	24.103
372.11	24.536
372.47	25.370
372.83	25.266
373.19	24.608
373.55	23.899
373.91	25.702
374.27	25.089
374.63	26.705
374.99	26.241
375.35	26.114
375.71	26.294
376.07	25.772
376.42	26.054
376.78	26.376
377.14	26.134
377.50	26.693
377.86	27.845
378.22	26.930
378.58	28.397
378.94	27.410
379.30	28.135
379.66	28.088
380.02	28.571
380.38	26.963
380.74	27.648
381.09	29.693
381.45	28.440
381.81	29.550
382.17	29.378
382.53	28.357
382.89	29.504
383.25	29.683
383.61	30.183
383.97	29.016
384.32	29.956
384.68	29.350
385.04	29.350
385.40	29.994
385.76	31.384
386.12	31.759
386.48	30.779
386.83	30.818
387.19	31.563
387.55	32.309
387.91	31.907
388.27	30.708
388.62	32.536
388.98	31.614
389.34	31.855
389.70	31.510
390.06	31.403
390.42	32.060
390.77	32.570
391.13	32.219
391.49	32.342
391.85	32.359
392.20	33.208
392.56	32.549
392.92	32.590
393.28	32.724
393.64	32.973
393.99	33.981
394.35	33.586
394.71	33.589
395.07	32.810
395.42	33.151
395.78	33.290
396.14	32.598
396.50	34.115
396.85	33.806
397.21	33.271
397.57	32.915
397.92	33.373
398.28	32.989
398.64	32.169
399.00	33.860
399.35	32.901
399.71	33.774
400.07	33.495
400.42	33.905
400.78	33.497
401.14	34.120
401.49	33.949
401.85	33.699
402.21	34.157
402.57	33.750
402.92	33.752
403.28	34.023
403.63	33.228
403.99	34.056
404.35	33.916
404.70	32.500
405.06	33.608
405.42	32.567
405.77	33.178
406.13	33.120
406.49	33.866
406.84	33.252
407.20	33.835
407.55	32.646
407.91	33.289
408.27	33.333
408.62	34.462
408.98	34.073
409.34	33.643
409.69	33.269
410.05	33.498
410.40	33.395
410.76	33.414
411.11	34.000
411.47	34.385
411.83	33.208
412.18	33.912
412.54	34.145
412.89	33.436
413.25	33.995
413.60	33.727
413.96	32.393
414.31	33.537
414.67	32.777
415.03	33.156
415.38	32.768
415.74	33.681
416.09	34.749
416.45	33.964
416.80	34.171
417.16	34.807
417.51	34.310
417.87	33.246
418.22	33.873
418.58	35.184
418.93	33.793
419.29	33.355
419.64	34.543
420.00	35.516
420.35	34.746
420.71	34.751
421.06	34.561
421.42	35.397
421.77	34.740
422.12	34.733
422.48	34.218
422.83	35.383
423.19	35.553
423.54	34.509
423.90	35.689
424.25	35.649
424.61	35.557
424.96	35.366
425.31	36.280
425.67	35.739
426.02	36.160
426.38	36.381
426.73	37.228
427.09	36.266
427.44	36.294
427.79	35.651
428.15	35.740
428.50	36.220
428.85	35.258
429.21	36.729
429.56	37.898
429.92	36.364
430.27	36.391
430.62	36.069
430.98	35.456
431.33	36.593
431.68	36.368
432.04	36.836
432.39	36.794
432.74	36.440
433.10	37.471
433.45	37.993
433.80	37.899
434.16	36.620
434.51	37.796
434.86	37.166
435.22	37.970
435.57	37.367
435.92	38.563
436.28	37.388
436.63	37.422
436.98	37.949
437.34	38.113
437.69	38.939
438.04	38.348
438.39	38.974
438.75	38.009
439.10	38.483
439.45	38.953
439.81	38.960
440.16	40.202
440.51	38.806
440.86	39.517
441.22	38.292
441.57	39.459
441.92	39.297
442.27	39.856
442.63	39.882
442.98	39.115
443.33	39.455
443.68	39.894
444.03	40.139
444.39	38.957
444.74	40.914
445.09	40.367
445.44	41.197
445.79	40.433
446.15	39.482
446.50	39.545
446.85	40.383
447.20	40.302
447.55	40.346
447.91	39.763
448.26	40.410
448.61	41.451
448.96	39.931
449.31	40.462
449.66	40.244
450.02	40.331
450.37	40.545
450.72	40.493
451.07	41.203
451.42	40.824
451.77	39.843
452.12	39.713
452.47	41.533
452.83	40.459
453.18	40.164
453.53	40.518
453.88	40.923
454.23	40.074
454.58	41.499
454.93	41.237
455.28	40.190
455.63	40.050
455.98	40.890
456.34	41.124
456.69	40.915
457.04	41.399
457.39	41.252
457.74	41.657
458.09	39.906
458.44	41.486
458.79	39.832
459.14	41.362
459.49	41.851
459.84	41.173
460.19	41.748
460.54	41.993
460.89	41.477
461.24	40.932
461.59	41.508
461.94	40.189
462.29	41.496
462.64	43.322
462.99	41.774
463.34	41.307
463.69	41.828
464.04	41.404
464.39	41.116
464.74	41.902
465.09	42.233
465.44	41.027
465.79	41.043
466.14	42.246
466.49	41.403
466.84	43.010
467.19	42.804
467.54	42.465
467.89	40.998
468.24	42.032
468.59	42.540
468.94	40.889
469.29	42.426
469.64	41.900
469.99	42.256
470.34	41.911
470.68	43.400
471.03	43.029
471.38	42.867
471.73	42.367
472.08	42.198
472.43	42.148
472.78	41.809
473.13	42.585
473.48	41.564
473.83	41.781
474.17	42.940
474.52	42.821
474.87	43.273
475.22	42.587
475.57	42.631
475.92	43.225
476.27	43.714
476.61	43.113
476.96	41.606
477.31	42.401
477.66	41.742
478.01	42.223
478.36	43.192
478.70	43.284
479.05	43.242
479.40	43.296
479.75	41.710
480.10	42.448
480.45	43.600
480.79	43.454
481.14	43.648
481.49	42.020
481.84	43.292
482.19	42.002
482.53	42.974
482.88	42.816
483.23	42.850
483.58	43.019
483.92	43.127
484.27	42.206
484.62	41.954
484.97	43.201
485.31	41.329
485.66	42.585
486.01	43.017
486.36	42.664
486.70	41.640
487.05	42.439
487.40	41.960
487.75	42.451
488.09	41.533
488.44	41.781
488.79	42.585
489.13	42.829
489.48	42.668
489.83	42.422
490.17	42.157
490.52	43.187
490.87	41.879
491.22	44.174
491.56	42.030
491.91	42.400
492.26	43.170
492.60	42.898
492.95	44.024
493.30	42.794
493.64	43.026
493.99	43.527
494.34	42.767
494.68	42.857
495.03	42.530
495.37	43.523
495.72	43.463
496.07	43.171
496.41	42.406
496.76	42.976
497.11	42.292
497.45	43.962
497.80	44.147
498.14	42.822
498.49	44.337
498.84	44.411
499.18	44.378
499.53	43.155
499.87	43.920
500.22	44.708
500.56	43.369
500.91	43.876
501.26	42.857
501.60	44.417
501.95	43.668
502.29	44.068
502.64	43.002
502.98	44.055
503.33	43.324
503.67	43.470
504.02	44.282
504.36	44.384
504.71	42.980
505.06	43.785
505.40	44.162
505.75	44.691
506.09	43.588
506.44	44.456
506.78	44.898
507.13	43.899
507.47	43.499
507.82	44.391
508.16	43.529
508.51	44.386
508.85	44.898
509.19	44.705
509.54	44.129
509.88	44.229
510.23	44.755
510.57	44.789
510.92	43.870
511.26	44.735
511.61	44.774
511.95	44.548
512.30	44.845
512.64	45.687
512.98	44.133
513.33	44.376
513.67	44.343
514.02	46.110
514.36	45.600
514.70	46.678
515.05	45.241
515.39	45.514
515.74	47.365
516.08	45.487
516.42	45.171
516.77	45.992
517.11	46.409
517.46	46.080
517.80	46.186
518.14	45.499
518.49	45.072
518.83	45.565
519.17	46.331
519.52	44.050
519.86	44.598
520.20	47.023
520.55	44.841
520.89	46.738
521.23	46.105
521.58	46.688
521.92	46.667
522.26	45.999
522.61	45.909
522.95	48.146
523.29	45.997
523.64	46.125
523.98	47.570
524.32	45.425
524.66	47.183
525.01	46.623
525.35	47.894
525.69	45.859
526.04	46.892
526.38	46.563
526.72	44.408
527.06	45.914
527.41	47.032
527.75	46.984
528.09	46.512
528.43	47.738
528.78	46.997
529.12	46.323
529.46	46.069
529.80	47.372
530.15	48.911
530.49	47.138
530.83	48.358
531.17	45.601
531.51	48.153
531.86	47.043
532.20	45.999
532.54	46.698
532.88	47.981
533.22	46.505
533.57	47.051
533.91	46.997
534.25	48.047
534.59	46.055
534.93	46.696
535.27	45.876
535.62	46.338
535.96	46.902
536.30	47.361
536.64	47.278
536.98	45.087
537.32	48.293
537.66	47.966
538.01	47.902
538.35	48.266
538.69	46.138
539.03	46.548
539.37	46.433
539.71	47.648
540.05	45.485
540.39	46.399
540.73	46.792
541.07	47.583
541.42	45.968
541.76	47.006
542.10	46.869
542.44	47.394
542.78	46.387
543.12	47.253
543.46	47.983
543.80	46.912
544.14	45.260
544.48	46.702
544.82	47.232
545.16	47.814
545.50	48.064
545.84	47.734
546.18	47.021
546.52	47.441
546.86	47.376
547.20	47.926
547.54	45.724
547.88	47.758
548.22	46.154
548.56	46.966
548.90	47.237
549.24	46.350
549.58	46.685
549.92	45.961
550.26	46.593
550.60	48.922
550.94	47.498
551.28	48.609
551.62	48.000
551.96	47.143
552.30	47.442
552.64	44.570
552.98	48.101
553.32	46.505
553.66	46.226
554.00	47.810
554.34	48.818
554.68	46.903
555.02	47.396
555.36	47.494
555.69	47.179
556.03	46.681
556.37	46.619
556.71	48.664
557.05	48.024
557.39	47.138
557.73	47.151
558.07	48.190
558.41	48.086
558.75	47.233
559.08	47.912
559.42	47.222
559.76	48.999
560.10	47.171
560.44	46.612
560.78	46.434
561.12	47.955
561.45	49.122
561.79	48.880
562.13	47.835
562.47	46.763
562.81	47.118
563.15	48.590
563.48	47.878
563.82	47.426
564.16	48.120
564.50	46.757
564.84	47.122
565.17	46.613
565.51	48.839
565.85	48.491
566.19	47.878
566.52	47.721
566.86	48.008
567.20	48.319
567.54	46.715
567.88	48.506
568.21	47.964
568.55	47.120
568.89	47.741
569.23	47.665
569.56	47.285
569.90	47.138
570.24	46.781
570.57	47.055
570.91	47.334
571.25	46.925
571.59	46.714
571.92	45.600
572.26	46.226
572.60	46.233
572.93	46.250
573.27	45.799
573.61	46.032
573.95	46.668
574.28	45.339
574.62	44.902
574.96	45.076
575.29	45.760
575.63	45.038
575.97	45.324
576.30	45.432
576.64	45.060
576.98	45.997
577.31	45.908
577.65	46.147
577.98	46.365
578.32	46.152
578.66	45.089
578.99	45.157
579.33	45.191
579.67	44.840
580.00	45.646
580.34	45.995
580.67	45.252
581.01	45.197
581.35	45.392
581.68	45.621
582.02	45.752
582.35	45.571
582.69	45.890
583.02	45.482
583.36	45.706
583.70	46.573
584.03	46.622
584.37	47.911
584.70	46.538
585.04	45.389
585.37	45.307
585.71	45.766
586.04	45.537
586.38	45.265
586.72	46.055
587.05	46.274
587.39	46.519
587.72	47.130
588.06	47.080
588.39	46.169
588.73	46.764
589.06	47.260
589.40	46.699
589.73	46.586
590.07	47.432
590.40	47.485
590.73	47.241
591.07	47.413
591.40	47.462
591.74	47.059
592.07	47.913
592.41	47.836
592.74	45.998
593.08	45.721
593.41	46.886
593.75	46.549
594.08	45.966
594.41	46.579
594.75	45.916
595.08	46.954
595.42	46.448
595.75	47.540
596.09	46.091
596.42	46.589
596.75	47.114
597.09	46.834
597.42	46.432
597.75	47.183
598.09	46.356
598.42	45.848
598.76	45.603
599.09	46.234
599.42	46.268
599.76	46.464
600.09	46.380
600.42	46.513
600.76	46.025
601.09	46.527
601.42	46.024
601.76	46.487
602.09	46.782
602.42	47.136
602.76	46.265
603.09	47.425
603.42	48.286
603.76	46.452
604.09	46.942
604.42	47.716
604.76	47.530
605.09	48.035
605.42	46.275
605.75	46.454
606.09	46.497
606.42	45.997
606.75	46.147
607.09	47.165
607.42	46.035
607.75	46.714
608.08	45.553
608.42	45.774
608.75	46.940
609.08	47.434
609.41	47.157
609.75	46.825
610.08	47.629
610.41	46.087
610.74	46.319
611.07	47.028
611.41	47.639
611.74	47.281
612.07	47.270
612.40	48.687
612.73	47.288
613.07	47.075
613.40	46.991
613.73	46.391
614.06	45.910
614.39	47.998
614.72	46.499
615.06	46.257
615.39	46.507
615.72	46.071
616.05	46.592
616.38	45.698
616.71	46.361
617.05	47.375
617.38	47.643
617.71	46.918
618.04	48.571
618.37	47.856
618.70	48.713
619.03	49.653
619.36	46.237
619.69	48.370
620.03	47.699
620.36	47.425
620.69	46.467
621.02	46.330
621.35	48.299
621.68	48.980
622.01	48.833
622.34	47.965
622.67	47.476
623.00	47.626
623.33	48.552
623.66	46.971
623.99	47.352
624.32	47.224
624.65	47.444
624.99	48.533
625.32	47.612
625.65	47.840
625.98	48.590
626.31	46.550
626.64	47.227
626.97	46.946
627.30	48.599
627.63	46.534
627.96	47.978
628.29	47.271
628.62	47.886
628.95	48.096
629.28	49.597
629.61	47.657
629.94	50.049
630.26	48.518
630.59	50.884
630.92	48.308
631.25	47.590
631.58	49.559
631.91	49.013
632.24	49.083
632.57	49.091
632.90	49.585
633.23	50.000
633.56	51.511
633.89	48.582
634.22	49.506
634.55	48.030
634.88	48.659
635.20	47.692
635.53	50.267
635.86	47.074
636.19	50.582
636.52	50.000
636.85	46.650
637.18	49.057
637.51	48.050
637.83	49.014
