SpectraSuite Data File
++++++++++++++++++++++++++++++++++++
Date: Fri May 15 20:03:43 PDT 2015
User: schluterlab
Dark Spectrum Present: Yes
Reference Spectrum Present: Yes
Number of Sampled Component Spectra: 1
Spectrometers: USB2E3373
Integration Time (usec): 3000 (USB2E3373)
Spectra Averaged: 3 (USB2E3373)
Boxcar Smoothing: 0 (USB2E3373)
Correct for Electrical Dark: No (USB2E3373)
Strobe/Lamp Enabled: No (USB2E3373)
Correct for Detector Non-linearity: No (USB2E3373)
Correct for Stray Light: No (USB2E3373)
Number of Pixels in Processed Spectrum: 2048
>>>>>Begin Processed Spectral Data<<<<<
178.53	0.000
178.91	0.000
179.29	50.000
179.67	-150.000
180.04	100.000
180.42	75.000
180.80	500.000
181.18	-66.667
181.56	150.000
181.94	50.000
182.31	700.000
182.69	20.000
183.07	300.000
183.45	-140.000
183.83	250.000
184.20	27.273
184.58	133.333
184.96	-200.000
185.34	-66.667
185.72	-200.000
186.09	53.846
186.47	800.000
186.85	316.667
187.23	177.778
187.61	-200.000
187.98	100.000
188.36	44.444
188.74	-466.667
189.12	52.941
189.49	38.889
189.87	0.000
190.25	85.714
190.63	250.000
191.00	100.000
191.38	78.947
191.76	800.000
192.14	-75.000
192.51	200.000
192.89	44.444
193.27	28.571
193.65	100.000
194.02	200.000
194.40	20.000
194.78	-100.000
195.15	41.667
195.53	125.000
195.91	75.000
196.29	-150.000
196.66	38.462
197.04	-28.571
197.42	11.111
197.79	-33.333
198.17	-15.385
198.55	300.000
198.92	100.000
199.30	0.000
199.68	120.000
200.05	66.667
200.43	0.000
200.81	-66.667
201.18	33.333
201.56	700.000
201.94	-50.000
202.31	66.667
202.69	-220.000
203.07	300.000
203.44	500.000
203.82	0.000
204.19	28.571
204.57	-366.667
204.95	25.000
205.32	90.000
205.70	85.714
206.08	75.000
206.45	266.667
206.83	157.143
207.20	-42.857
207.58	-500.000
207.96	166.667
208.33	-30.000
208.71	-150.000
209.08	-116.667
209.46	100.000
209.84	60.000
210.21	200.000
210.59	185.714
210.96	83.333
211.34	-50.000
211.71	106.667
212.09	-85.714
212.46	-1200.000
212.84	0.000
213.22	70.000
213.59	50.000
213.97	53.846
214.34	18.182
214.72	-50.000
215.09	275.000
215.47	-61.538
215.84	18.182
216.22	-333.333
216.59	50.000
216.97	450.000
217.34	250.000
217.72	-120.000
218.09	125.000
218.47	100.000
218.84	-600.000
219.22	22.222
219.59	40.000
219.97	300.000
220.34	275.000
220.72	0.000
221.09	-150.000
221.47	150.000
221.84	-50.000
222.22	-450.000
222.59	-18.182
222.97	16.667
223.34	-100.000
223.72	42.857
224.09	33.333
224.46	3.571
224.84	100.000
225.21	120.000
225.59	-13.333
225.96	300.000
226.34	350.000
226.71	-128.571
227.08	50.000
227.46	50.000
227.83	-450.000
228.21	-33.333
228.58	-9.091
228.95	12.500
229.33	70.000
229.70	81.250
230.08	-37.500
230.45	42.857
230.82	228.571
231.20	13.333
231.57	14.286
231.95	71.429
232.32	-20.000
232.69	71.429
233.07	-133.333
233.44	-80.000
233.81	-40.000
234.19	55.556
234.56	5.882
234.93	50.000
235.31	75.000
235.68	-240.000
236.05	-38.462
236.43	-5.000
236.80	35.294
237.17	50.000
237.55	35.000
237.92	-29.630
238.29	55.556
238.67	20.000
239.04	11.765
239.41	9.756
239.79	50.000
240.16	58.537
240.53	44.737
240.91	43.478
241.28	49.206
241.65	44.643
242.02	28.767
242.40	53.333
242.77	44.068
243.14	25.758
243.51	38.750
243.89	41.379
244.26	34.483
244.63	45.238
245.00	40.206
245.38	47.423
245.75	34.831
246.12	27.586
246.49	42.149
246.87	45.192
247.24	24.370
247.61	38.596
247.98	36.585
248.36	34.375
248.73	42.105
249.10	34.416
249.47	43.671
249.84	41.176
250.22	41.176
250.59	45.098
250.96	45.540
251.33	36.628
251.70	41.176
252.08	45.178
252.45	40.099
252.82	44.221
253.19	38.710
253.56	39.252
253.94	43.243
254.31	43.043
254.68	45.614
255.05	38.976
255.42	43.668
255.79	44.015
256.16	41.634
256.54	44.030
256.91	41.825
257.28	39.405
257.65	37.453
258.02	38.298
258.39	42.424
258.76	42.857
259.14	43.189
259.51	38.835
259.88	42.612
260.25	36.928
260.62	44.792
260.99	37.288
261.36	40.068
261.73	42.089
262.10	39.514
262.47	40.491
262.85	38.871
263.22	41.231
263.59	42.679
263.96	42.547
264.33	43.939
264.70	38.988
265.07	39.583
265.44	42.776
265.81	42.938
266.18	40.437
266.55	39.332
266.92	40.155
267.29	40.731
267.66	40.665
268.03	40.838
268.40	39.687
268.77	47.059
269.14	35.971
269.51	42.931
269.88	42.145
270.25	36.480
270.62	40.244
270.99	40.153
271.36	39.364
271.73	40.610
272.10	38.686
272.47	43.735
272.84	39.851
273.21	41.067
273.58	41.205
273.95	40.503
274.32	38.799
274.69	37.557
275.06	38.170
275.43	38.322
275.80	39.956
276.17	39.770
276.54	38.116
276.91	41.667
277.28	37.555
277.65	37.190
278.02	39.149
278.39	39.606
278.76	39.832
279.13	38.797
279.50	42.857
279.87	40.173
280.23	38.280
280.60	39.376
280.97	37.576
281.34	37.692
281.71	40.452
282.08	36.196
282.45	38.943
282.82	36.486
283.19	38.298
283.56	35.067
283.92	38.899
284.29	36.731
284.66	35.465
285.03	36.149
285.40	34.783
285.77	33.743
286.14	36.823
286.51	40.959
286.87	36.015
287.24	36.280
287.61	34.921
287.98	38.772
288.35	36.395
288.72	36.252
289.08	34.201
289.45	35.501
289.82	34.615
290.19	32.935
290.56	33.105
290.93	32.660
291.29	30.971
291.66	31.811
292.03	34.131
292.40	30.968
292.77	30.463
293.13	27.922
293.50	28.528
293.87	31.298
294.24	32.767
294.60	31.297
294.97	30.357
295.34	29.141
295.71	30.999
296.08	29.148
296.44	27.738
296.81	29.583
297.18	28.986
297.55	29.539
297.91	29.589
298.28	29.683
298.65	27.408
299.02	27.898
299.38	26.539
299.75	28.690
300.12	26.309
300.48	25.955
300.85	26.489
301.22	26.883
301.59	26.053
301.95	29.367
302.32	27.756
302.69	28.234
303.05	27.723
303.42	25.903
303.79	26.168
304.15	26.404
304.52	25.803
304.89	24.678
305.25	24.939
305.62	24.621
305.99	25.614
306.35	24.393
306.72	25.309
307.09	24.971
307.45	25.718
307.82	25.463
308.19	27.758
308.55	24.100
308.92	26.906
309.29	26.592
309.65	24.004
310.02	26.293
310.38	26.674
310.75	25.902
311.12	25.188
311.48	25.451
311.85	24.712
312.22	24.473
312.58	25.902
312.95	24.653
313.31	24.845
313.68	25.654
314.05	24.796
314.41	26.082
314.78	25.464
315.14	25.694
315.51	27.226
315.87	24.898
316.24	26.997
316.61	25.689
316.97	26.687
317.34	26.465
317.70	26.482
318.07	26.731
318.43	26.863
318.80	27.178
319.16	27.637
319.53	27.445
319.89	28.051
320.26	28.036
320.62	27.382
320.99	27.035
321.35	28.366
321.72	29.699
322.08	28.802
322.45	28.934
322.81	29.862
323.18	28.361
323.54	28.475
323.91	30.477
324.27	30.859
324.64	31.929
325.00	30.931
325.37	33.242
325.73	30.644
326.10	33.243
326.46	33.004
326.83	33.683
327.19	33.653
327.56	34.926
327.92	35.387
328.29	33.571
328.65	35.377
329.01	36.673
329.38	35.760
329.74	35.788
330.11	35.867
330.47	36.549
330.84	35.673
331.20	37.643
331.56	35.000
331.93	38.356
332.29	38.130
332.66	36.380
333.02	37.825
333.38	36.572
333.75	38.095
334.11	35.989
334.48	39.166
334.84	38.736
335.20	39.524
335.57	38.259
335.93	38.753
336.29	38.122
336.66	37.239
337.02	37.639
337.38	38.056
337.75	39.091
338.11	38.593
338.47	37.682
338.84	40.018
339.20	37.843
339.56	38.532
339.93	37.959
340.29	38.716
340.65	38.351
341.02	37.500
341.38	35.841
341.74	37.191
342.11	36.742
342.47	38.078
342.83	37.716
343.20	38.240
343.56	38.870
343.92	37.378
344.28	37.831
344.65	37.478
345.01	38.289
345.37	37.847
345.73	39.331
346.10	37.791
346.46	38.604
346.82	36.334
347.19	36.825
347.55	38.262
347.91	37.460
348.27	36.540
348.63	38.160
349.00	38.474
349.36	38.071
349.72	37.645
350.08	37.787
350.45	37.590
350.81	37.126
351.17	37.215
351.53	38.449
351.89	38.150
352.26	38.240
352.62	37.742
352.98	37.751
353.34	37.198
353.70	38.511
354.07	37.500
354.43	38.110
354.79	38.811
355.15	38.095
355.51	38.528
355.87	38.754
356.24	37.765
356.60	38.076
356.96	38.413
357.32	38.179
357.68	37.608
358.04	37.561
358.40	37.058
358.77	38.836
359.13	37.470
359.49	37.442
359.85	38.924
360.21	38.836
360.57	37.567
360.93	38.729
361.29	38.444
361.66	38.088
362.02	39.318
362.38	37.928
362.74	38.607
363.10	39.353
363.46	38.769
363.82	38.317
364.18	38.598
364.54	38.309
364.90	38.351
365.26	39.010
365.62	39.708
365.98	39.516
366.35	39.767
366.71	39.616
367.07	40.276
367.43	38.821
367.79	38.940
368.15	38.981
368.51	40.204
368.87	39.627
369.23	38.773
369.59	40.525
369.95	40.762
370.31	40.824
370.67	40.821
371.03	38.984
371.39	40.190
371.75	40.000
372.11	40.086
372.47	40.385
372.83	40.241
373.19	40.870
373.55	40.289
373.91	40.461
374.27	41.673
374.63	42.211
374.99	41.135
375.35	42.201
375.71	42.517
376.07	42.907
376.42	42.925
376.78	41.812
377.14	42.451
377.50	41.899
377.86	41.566
378.22	42.693
378.58	43.590
378.94	42.155
379.30	41.609
379.66	44.953
380.02	43.532
380.38	43.518
380.74	42.849
381.09	44.785
381.45	44.159
381.81	44.170
382.17	44.543
382.53	44.160
382.89	46.955
383.25	45.986
383.61	45.549
383.97	45.968
384.32	45.028
384.68	45.759
385.04	45.404
385.40	45.613
385.76	47.358
386.12	47.477
386.48	47.063
386.83	46.037
387.19	47.253
387.55	47.302
387.91	46.822
388.27	48.168
388.62	47.892
388.98	47.330
389.34	48.032
389.70	48.167
390.06	46.696
390.42	48.575
390.77	47.090
391.13	48.108
391.49	48.189
391.85	49.318
392.20	49.027
392.56	48.125
392.92	48.326
393.28	49.764
393.64	49.429
393.99	49.404
394.35	49.209
394.71	49.170
395.07	48.020
395.42	47.845
395.78	49.707
396.14	48.045
396.50	49.334
396.85	49.710
397.21	49.812
397.57	49.279
397.92	48.892
398.28	49.080
398.64	48.916
399.00	50.226
399.35	49.718
399.71	49.512
400.07	50.302
400.42	48.654
400.78	50.214
401.14	49.425
401.49	49.672
401.85	49.787
402.21	49.759
402.57	50.375
402.92	49.561
403.28	49.624
403.63	50.441
403.99	49.681
404.35	50.468
404.70	49.048
405.06	49.001
405.42	49.658
405.77	50.203
406.13	50.815
406.49	50.385
406.84	51.284
407.20	49.428
407.55	49.259
407.91	50.000
408.27	48.693
408.62	49.046
408.98	49.723
409.34	51.239
409.69	49.354
410.05	48.768
410.40	49.630
410.76	50.181
411.11	49.250
411.47	49.967
411.83	50.596
412.18	50.515
412.54	49.189
412.89	49.200
413.25	49.639
413.60	48.882
413.96	48.344
414.31	50.183
414.67	48.557
415.03	49.401
415.38	49.608
415.74	49.186
416.09	50.425
416.45	50.506
416.80	50.165
417.16	51.243
417.51	49.300
417.87	50.391
418.22	50.130
418.58	49.833
418.93	51.411
419.29	47.951
419.64	51.199
420.00	51.889
420.35	50.925
420.71	50.122
421.06	50.583
421.42	50.781
421.77	50.867
422.12	50.568
422.48	50.839
422.83	50.812
423.19	50.282
423.54	51.499
423.90	50.589
424.25	51.837
424.61	51.714
424.96	50.871
425.31	52.686
425.67	52.406
426.02	53.004
426.38	53.976
426.73	52.542
427.09	52.848
427.44	53.000
427.79	51.856
428.15	52.549
428.50	51.423
428.85	52.150
429.21	53.424
429.56	53.962
429.92	52.183
430.27	51.729
430.62	51.856
430.98	53.609
431.33	51.893
431.68	51.596
432.04	53.102
432.39	53.280
432.74	52.375
433.10	53.563
433.45	51.732
433.80	53.627
434.16	52.410
434.51	53.333
434.86	53.600
435.22	52.271
435.57	54.273
435.92	52.874
436.28	52.594
436.63	53.508
436.98	52.317
437.34	53.781
437.69	54.562
438.04	53.675
438.39	53.757
438.75	53.613
439.10	54.726
439.45	53.865
439.81	53.639
440.16	54.572
440.51	54.030
440.86	54.743
441.22	53.224
441.57	54.029
441.92	54.407
442.27	54.047
442.63	55.567
442.98	54.968
443.33	54.146
443.68	55.544
444.03	55.092
444.39	54.943
444.74	55.909
445.09	55.067
445.44	55.442
445.79	55.235
446.15	54.130
446.50	54.077
446.85	55.685
447.20	54.171
447.55	55.636
447.91	54.822
448.26	55.265
448.61	55.786
448.96	55.077
449.31	55.549
449.66	55.749
450.02	56.361
450.37	56.728
450.72	54.868
451.07	56.139
451.42	55.306
451.77	55.696
452.12	54.187
452.47	54.797
452.83	54.535
453.18	54.396
453.53	55.563
453.88	56.284
454.23	54.333
454.58	57.872
454.93	54.832
455.28	54.921
455.63	54.991
455.98	56.284
456.34	56.258
456.69	55.591
457.04	55.703
457.39	56.075
457.74	56.288
458.09	54.149
458.44	56.758
458.79	54.510
459.14	56.236
459.49	55.881
459.84	56.458
460.19	56.007
460.54	55.257
460.89	55.852
461.24	56.087
461.59	55.344
461.94	54.214
462.29	56.634
462.64	57.409
462.99	55.924
463.34	55.076
463.69	56.242
464.04	55.751
464.39	55.428
464.74	54.847
465.09	56.207
465.44	56.261
465.79	54.989
466.14	56.385
466.49	56.067
466.84	56.514
467.19	56.195
467.54	55.172
467.89	56.286
468.24	55.961
468.59	57.651
468.94	55.429
469.29	55.803
469.64	56.459
469.99	56.342
470.34	55.495
470.68	57.420
471.03	54.989
471.38	57.632
471.73	55.742
472.08	56.174
472.43	57.718
472.78	55.723
473.13	55.918
473.48	56.352
473.83	55.666
474.17	57.966
474.52	56.860
474.87	57.515
475.22	57.413
475.57	56.352
475.92	56.939
476.27	57.043
476.61	57.465
476.96	55.772
477.31	55.814
477.66	56.292
478.01	56.822
478.36	55.719
478.70	56.824
479.05	57.308
479.40	57.181
479.75	56.152
480.10	56.528
480.45	56.650
480.79	57.654
481.14	58.299
481.49	56.847
481.84	57.288
482.19	57.437
482.53	57.554
482.88	56.659
483.23	56.910
483.58	55.613
483.92	55.518
484.27	55.925
484.62	56.208
484.97	56.385
485.31	57.045
485.66	56.018
486.01	57.140
486.36	57.303
486.70	57.820
487.05	57.248
487.40	57.239
487.75	57.352
488.09	56.119
488.44	56.327
488.79	57.116
489.13	56.611
489.48	56.990
489.83	56.906
490.17	56.045
490.52	56.166
490.87	55.993
491.22	57.116
491.56	55.408
491.91	56.166
492.26	57.657
492.60	56.430
492.95	57.649
493.30	56.619
493.64	57.318
493.99	56.570
494.34	57.136
494.68	57.143
495.03	56.156
495.37	57.213
495.72	56.436
496.07	57.122
496.41	56.415
496.76	57.070
497.11	55.985
497.45	56.229
497.80	57.518
498.14	56.234
498.49	57.390
498.84	56.337
499.18	56.928
499.53	56.349
499.87	55.350
500.22	56.083
500.56	57.237
500.91	57.129
501.26	56.649
501.60	57.354
501.95	57.108
502.29	57.143
502.64	57.529
502.98	58.658
503.33	57.109
503.67	56.819
504.02	58.651
504.36	58.041
504.71	56.263
505.06	57.323
505.40	57.817
505.75	58.041
506.09	56.665
506.44	57.546
506.78	56.837
507.13	57.859
507.47	56.240
507.82	56.677
508.16	57.422
508.51	57.817
508.85	58.137
509.19	57.690
509.54	56.676
509.88	56.904
510.23	57.827
510.57	58.097
510.92	55.917
511.26	57.392
511.61	58.196
511.95	57.644
512.30	58.315
512.64	57.206
512.98	57.440
513.33	57.415
513.67	58.272
514.02	59.096
514.36	60.457
514.70	59.149
515.05	59.283
515.39	59.091
515.74	60.120
516.08	59.354
516.42	59.128
516.77	59.040
517.11	59.585
517.46	59.007
517.80	58.343
518.14	59.645
518.49	58.353
518.83	58.870
519.17	58.096
519.52	58.851
519.86	58.944
520.20	59.964
520.55	58.724
520.89	58.783
521.23	59.278
521.58	60.126
521.92	59.679
522.26	59.336
522.61	59.675
522.95	60.464
523.29	59.657
523.64	57.814
523.98	60.791
524.32	60.374
524.66	59.731
525.01	59.740
525.35	59.041
525.69	60.000
526.04	60.251
526.38	60.700
526.72	57.489
527.06	59.663
527.41	59.367
527.75	59.316
528.09	59.203
528.43	61.242
528.78	59.670
529.12	60.194
529.46	59.714
529.80	57.758
530.15	60.462
530.49	60.067
530.83	61.081
531.17	59.839
531.51	59.781
531.86	60.367
532.20	60.125
532.54	59.905
532.88	60.301
533.22	60.349
533.57	60.288
533.91	58.812
534.25	60.221
534.59	59.397
534.93	59.408
535.27	58.693
535.62	59.041
535.96	60.470
536.30	59.697
536.64	62.509
536.98	59.861
537.32	60.455
537.66	61.080
538.01	60.769
538.35	59.639
538.69	59.987
539.03	59.193
539.37	61.104
539.71	59.918
540.05	59.878
540.39	60.249
540.73	59.205
541.07	60.152
541.42	59.610
541.76	61.321
542.10	60.427
542.44	60.111
542.78	58.156
543.12	60.783
543.46	60.153
543.80	60.236
544.14	58.144
544.48	59.893
544.82	60.834
545.16	61.885
545.50	60.013
545.84	59.773
546.18	61.702
546.52	60.562
546.86	60.029
547.20	60.515
547.54	59.859
547.88	60.598
548.22	59.829
548.56	60.092
548.90	60.445
549.24	59.573
549.58	59.732
549.92	58.256
550.26	58.755
550.60	59.182
550.94	61.165
551.28	60.124
551.62	61.231
551.96	59.474
552.30	62.061
552.64	59.732
552.98	60.408
553.32	60.485
553.66	59.869
554.00	60.876
554.34	61.965
554.68	59.440
555.02	61.384
555.36	59.985
555.69	60.952
556.03	60.457
556.37	59.715
556.71	60.361
557.05	61.074
557.39	58.364
557.73	60.495
558.07	60.784
558.41	60.260
558.75	60.951
559.08	60.599
559.42	60.159
559.76	62.050
560.10	59.480
560.44	59.419
560.78	59.441
561.12	60.578
561.45	62.263
561.79	61.275
562.13	61.533
562.47	60.647
562.81	61.023
563.15	59.661
563.48	61.386
563.82	61.771
564.16	61.560
564.50	59.324
564.84	60.040
565.17	60.295
565.51	62.227
565.85	60.974
566.19	61.273
566.52	62.466
566.86	61.183
567.20	60.212
567.54	60.766
567.88	62.449
568.21	60.577
568.55	60.598
568.89	61.088
569.23	62.253
569.56	60.508
569.90	61.348
570.24	61.518
570.57	61.164
570.91	62.740
571.25	60.178
571.59	59.794
571.92	60.000
572.26	60.900
572.60	60.403
572.93	60.527
573.27	59.655
573.61	60.352
573.95	60.459
574.28	60.726
574.62	60.285
574.96	59.811
575.29	59.793
575.63	58.461
575.97	59.772
576.30	59.657
576.64	59.788
576.98	60.335
577.31	61.072
577.65	60.115
577.98	60.123
578.32	60.271
578.66	59.703
578.99	59.920
579.33	59.181
579.67	59.021
580.00	59.468
580.34	59.801
580.67	59.570
581.01	60.207
581.35	60.078
581.68	59.929
582.02	60.268
582.35	60.409
582.69	60.343
583.02	60.778
583.36	59.380
583.70	60.981
584.03	60.745
584.37	61.434
584.70	60.385
585.04	59.404
585.37	59.951
585.71	60.035
586.04	60.414
586.38	60.123
586.72	60.086
587.05	61.670
587.39	61.784
587.72	61.482
588.06	60.753
588.39	60.837
588.73	60.501
589.06	61.252
589.40	60.387
589.73	60.277
590.07	61.292
590.40	60.797
590.73	61.409
591.07	60.305
591.40	60.819
591.74	60.679
592.07	61.410
592.41	60.822
592.74	60.335
593.08	58.400
593.41	59.736
593.75	60.124
594.08	59.870
594.41	60.153
594.75	60.687
595.08	60.689
595.42	60.839
595.75	61.247
596.09	61.298
596.42	60.521
596.75	60.968
597.09	61.185
597.42	60.434
597.75	61.200
598.09	59.620
598.42	60.244
598.76	59.717
599.09	59.776
599.42	59.303
599.76	59.556
600.09	60.784
600.42	59.894
600.76	59.398
601.09	60.153
601.42	60.400
601.76	60.381
602.09	60.644
602.42	60.110
602.76	60.187
603.09	61.005
603.42	62.960
603.76	59.960
604.09	60.834
604.42	60.660
604.76	61.059
605.09	60.603
605.42	59.368
605.75	60.289
606.09	59.618
606.42	60.217
606.75	60.303
607.09	59.692
607.42	59.725
607.75	59.414
608.08	59.524
608.42	59.296
608.75	60.723
609.08	61.036
609.41	60.711
609.75	60.232
610.08	59.860
610.41	59.710
610.74	60.751
611.07	60.465
611.41	60.820
611.74	61.727
612.07	58.030
612.40	60.832
612.73	61.356
613.07	59.561
613.40	60.120
613.73	60.660
614.06	60.211
614.39	60.801
614.72	60.112
615.06	60.838
615.39	58.570
615.72	59.580
616.05	59.832
616.38	60.000
616.71	59.878
617.05	60.964
617.38	60.779
617.71	58.868
618.04	61.016
618.37	60.971
618.70	60.528
619.03	60.764
619.36	59.262
619.69	61.713
620.03	61.870
620.36	60.300
620.69	60.171
621.02	60.550
621.35	59.585
621.68	60.799
622.01	61.333
622.34	59.617
622.67	60.174
623.00	58.576
623.33	59.299
623.66	59.761
623.99	60.061
624.32	59.848
624.65	60.526
624.99	59.443
625.32	59.515
625.65	60.801
625.98	59.468
626.31	59.684
626.64	62.045
626.97	61.257
627.30	58.932
627.63	60.399
627.96	60.467
628.29	60.407
628.62	58.899
628.95	59.820
629.28	61.290
629.61	59.920
629.94	59.824
630.26	59.190
630.59	62.747
630.92	58.154
631.25	57.744
631.58	60.132
631.91	59.211
632.24	59.977
632.57	61.136
632.90	60.142
633.23	59.882
633.56	62.343
633.89	60.666
634.22	61.975
