SpectraSuite Data File
++++++++++++++++++++++++++++++++++++
Date: Fri May 15 17:11:28 PDT 2015
User: schluterlab
Dark Spectrum Present: Yes
Reference Spectrum Present: Yes
Number of Sampled Component Spectra: 1
Spectrometers: USB2E3373
Integration Time (usec): 3000 (USB2E3373)
Spectra Averaged: 3 (USB2E3373)
Boxcar Smoothing: 0 (USB2E3373)
Correct for Electrical Dark: No (USB2E3373)
Strobe/Lamp Enabled: No (USB2E3373)
Correct for Detector Non-linearity: No (USB2E3373)
Correct for Stray Light: No (USB2E3373)
Number of Pixels in Processed Spectrum: 2048
>>>>>Begin Processed Spectral Data<<<<<
178.53	0.000
178.91	0.000
179.29	25.000
179.67	50.000
180.04	-42.857
180.42	375.000
180.80	-100.000
181.18	-0.000
181.56	-0.000
181.94	650.000
182.31	-100.000
182.69	-40.000
183.07	-133.333
183.45	0.000
183.83	-83.333
184.20	18.182
184.58	88.889
184.96	-200.000
185.34	166.667
185.72	350.000
186.09	23.077
186.47	1500.000
186.85	16.667
187.23	-0.000
187.61	-100.000
187.98	66.667
188.36	155.556
188.74	-200.000
189.12	70.588
189.49	72.222
189.87	0.000
190.25	92.857
190.63	350.000
191.00	100.000
191.38	10.526
191.76	600.000
192.14	50.000
192.51	450.000
192.89	-33.333
193.27	-57.143
193.65	-116.667
194.02	36.364
194.40	120.000
194.78	-62.500
195.15	58.333
195.53	0.000
195.91	150.000
196.29	50.000
196.66	61.538
197.04	28.571
197.42	-55.556
197.79	-100.000
198.17	-38.462
198.55	800.000
198.92	-233.333
199.30	300.000
199.68	-60.000
200.05	133.333
200.43	0.000
200.81	0.000
201.18	466.667
201.56	300.000
201.94	-50.000
202.31	-33.333
202.69	160.000
203.07	-175.000
203.44	800.000
203.82	0.000
204.19	121.429
204.57	-333.333
204.95	112.500
205.32	70.000
205.70	-71.429
206.08	-50.000
206.45	177.778
206.83	85.714
207.20	0.000
207.58	400.000
207.96	166.667
208.33	-10.000
208.71	125.000
209.08	-83.333
209.46	-800.000
209.84	180.000
210.21	400.000
210.59	114.286
210.96	16.667
211.34	-150.000
211.71	73.333
212.09	-128.571
212.46	-500.000
212.84	0.000
213.22	90.000
213.59	-0.000
213.97	92.308
214.34	54.545
214.72	0.000
215.09	350.000
215.47	92.308
215.84	18.182
216.22	200.000
216.59	87.500
216.97	350.000
217.34	75.000
217.72	0.000
218.09	62.500
218.47	112.500
218.84	1000.000
219.22	0.000
219.59	80.000
219.97	100.000
220.34	150.000
220.72	100.000
221.09	-25.000
221.47	150.000
221.84	150.000
222.22	-250.000
222.59	0.000
222.97	33.333
223.34	-100.000
223.72	21.429
224.09	57.143
224.46	46.429
224.84	300.000
225.21	80.000
225.59	93.333
225.96	-300.000
226.34	300.000
226.71	0.000
227.08	-66.667
227.46	112.500
227.83	-650.000
228.21	77.778
228.58	63.636
228.95	87.500
229.33	60.000
229.70	81.250
230.08	75.000
230.45	57.143
230.82	157.143
231.20	66.667
231.57	50.000
231.95	57.143
232.32	-20.000
232.69	-14.286
233.07	433.333
233.44	160.000
233.81	-30.000
234.19	11.111
234.56	29.412
234.93	250.000
235.31	200.000
235.68	60.000
236.05	69.231
236.43	20.000
236.80	88.235
237.17	37.500
237.55	0.000
237.92	37.037
238.29	30.556
238.67	0.000
239.04	32.353
239.41	9.756
239.79	23.333
240.16	41.463
240.53	42.105
240.91	30.435
241.28	41.270
241.65	50.000
242.02	38.356
242.40	46.667
242.77	44.068
243.14	22.727
243.51	36.250
243.89	32.184
244.26	17.241
244.63	33.333
245.00	28.866
245.38	47.423
245.75	25.843
246.12	28.448
246.49	33.058
246.87	37.500
247.24	27.731
247.61	27.193
247.98	24.390
248.36	18.750
248.73	36.184
249.10	26.623
249.47	33.544
249.84	29.412
250.22	31.176
250.59	33.987
250.96	30.516
251.33	23.837
251.70	29.412
252.08	28.934
252.45	26.238
252.82	33.166
253.19	29.493
253.56	26.636
253.94	29.730
254.31	32.174
254.68	30.702
255.05	27.953
255.42	31.441
255.79	27.799
256.16	28.405
256.54	31.716
256.91	31.559
257.28	31.599
257.65	30.712
258.02	27.305
258.39	28.956
258.76	29.670
259.14	29.900
259.51	27.832
259.88	32.990
260.25	27.124
260.62	29.167
260.99	28.136
261.36	27.740
261.73	30.380
262.10	29.787
262.47	30.061
262.85	25.078
263.22	29.231
263.59	31.464
263.96	31.677
264.33	31.515
264.70	28.571
265.07	28.274
265.44	28.895
265.81	31.921
266.18	30.328
266.55	25.707
266.92	27.202
267.29	30.287
267.66	26.087
268.03	25.131
268.40	27.415
268.77	31.818
269.14	26.859
269.51	30.591
269.88	28.180
270.25	27.041
270.62	25.854
270.99	27.366
271.36	27.873
271.73	28.638
272.10	27.007
272.47	30.733
272.84	27.723
273.21	27.842
273.58	28.675
273.95	28.146
274.32	25.866
274.69	26.018
275.06	29.464
275.43	29.252
275.80	27.815
276.17	25.977
276.54	24.197
276.91	28.509
277.28	26.419
277.65	28.512
278.02	28.723
278.39	27.571
278.76	27.044
279.13	25.311
279.50	29.412
279.87	29.590
280.23	24.731
280.60	28.460
280.97	28.081
281.34	27.115
281.71	29.158
282.08	26.176
282.45	27.006
282.82	24.517
283.19	28.433
283.56	26.975
283.92	26.755
284.29	25.769
284.66	24.419
285.03	26.326
285.40	27.410
285.77	24.605
286.14	24.729
286.51	29.336
286.87	26.325
287.24	24.678
287.61	26.631
287.98	27.018
288.35	25.997
288.72	26.795
289.08	22.743
289.45	26.538
289.82	25.874
290.19	22.696
290.56	24.185
290.93	23.401
291.29	23.112
291.66	22.520
292.03	21.531
292.40	22.419
292.77	23.604
293.13	22.403
293.50	19.423
293.87	22.290
294.24	21.638
294.60	19.076
294.97	21.131
295.34	20.859
295.71	20.864
296.08	21.076
296.44	19.630
296.81	20.417
297.18	21.449
297.55	21.274
297.91	20.548
298.28	20.976
298.65	19.267
299.02	19.542
299.38	18.057
299.75	20.138
300.12	19.634
300.48	17.523
300.85	20.025
301.22	18.442
301.59	20.921
301.95	19.873
302.32	20.363
302.69	20.025
303.05	19.802
303.42	18.680
303.79	20.561
304.15	19.116
304.52	17.004
304.89	18.012
305.25	18.523
305.62	16.919
305.99	18.012
306.35	17.572
306.72	16.873
307.09	19.612
307.45	18.829
307.82	17.708
308.19	19.628
308.55	18.757
308.92	18.192
309.29	17.542
309.65	16.362
310.02	17.162
310.38	18.112
310.75	18.361
311.12	18.192
311.48	17.709
311.85	18.325
312.22	17.300
312.58	17.197
312.95	16.862
313.31	16.874
313.68	17.592
314.05	17.755
314.41	18.866
314.78	17.629
315.14	18.911
315.51	18.116
315.87	17.725
316.24	19.616
316.61	18.406
316.97	18.651
317.34	19.238
317.70	18.642
318.07	18.654
318.43	20.784
318.80	19.318
319.16	20.508
319.53	20.418
319.89	19.882
320.26	19.636
320.62	22.066
320.99	20.355
321.35	20.144
321.72	21.184
322.08	21.551
322.45	22.538
322.81	22.593
323.18	21.197
323.54	22.973
323.91	23.077
324.27	23.535
324.64	24.813
325.00	25.000
325.37	26.263
325.73	25.023
326.10	25.704
326.46	28.161
326.83	27.472
327.19	27.986
327.56	28.758
327.92	29.049
328.29	28.214
328.65	30.566
329.01	30.974
329.38	29.677
329.74	31.634
330.11	30.862
330.47	32.282
330.84	32.788
331.20	33.745
331.56	32.500
331.93	34.155
332.29	34.097
332.66	33.665
333.02	35.037
333.38	33.822
333.75	35.256
334.11	35.721
334.48	36.718
334.84	36.538
335.20	34.584
335.57	36.899
335.93	36.585
336.29	37.845
336.66	36.785
337.02	36.152
337.38	36.389
337.75	38.636
338.11	37.060
338.47	37.591
338.84	37.431
339.20	38.300
339.56	37.064
339.93	38.227
340.29	38.165
340.65	38.799
341.02	37.855
341.38	37.788
341.74	38.516
342.11	38.042
342.47	38.078
342.83	38.322
343.20	37.631
343.56	38.609
343.92	37.555
344.28	37.831
344.65	37.651
345.01	37.597
345.37	37.090
345.73	37.741
346.10	38.740
346.46	37.595
346.82	37.152
347.19	37.240
347.55	36.759
347.91	37.783
348.27	37.914
348.63	36.457
349.00	38.802
349.36	37.323
349.72	37.728
350.08	37.049
350.45	37.670
350.81	36.047
351.17	36.156
351.53	36.816
351.89	35.838
352.26	36.320
352.62	37.016
352.98	35.984
353.34	36.715
353.70	36.974
354.07	37.258
354.43	37.150
354.79	38.398
355.15	37.381
355.51	36.867
355.87	36.974
356.24	37.194
356.60	35.489
356.96	37.460
357.32	35.942
357.68	35.027
358.04	36.430
358.40	34.807
358.77	37.161
359.13	36.349
359.49	35.516
359.85	36.895
360.21	37.161
360.57	35.960
360.93	37.065
361.29	35.121
361.66	35.815
362.02	36.818
362.38	37.091
362.74	36.790
363.10	37.246
363.46	36.546
363.82	37.716
364.18	36.827
364.54	35.221
364.90	36.416
365.26	36.681
365.62	36.861
365.98	36.510
366.35	36.926
366.71	36.733
367.07	37.446
367.43	35.730
367.79	37.244
368.15	36.253
368.51	36.635
368.87	36.396
369.23	36.534
369.59	37.318
369.95	36.804
370.31	37.861
370.67	37.015
371.03	36.221
371.39	37.126
371.75	36.044
372.11	36.947
372.47	37.130
372.83	37.402
373.19	37.161
373.55	35.812
373.91	38.949
374.27	37.491
374.63	38.550
374.99	36.028
375.35	37.535
375.71	39.510
376.07	37.921
376.42	37.551
376.78	37.584
377.14	37.779
377.50	37.782
377.86	37.751
378.22	37.652
378.58	38.718
378.94	38.185
379.30	37.492
379.66	40.125
380.02	38.136
380.38	37.797
380.74	38.241
381.09	39.632
381.45	38.226
381.81	38.742
382.17	38.388
382.53	38.351
382.89	39.611
383.25	39.764
383.61	39.268
383.97	39.810
384.32	38.899
384.68	38.576
385.04	38.848
385.40	39.515
385.76	40.629
386.12	39.974
386.48	39.527
386.83	38.554
387.19	38.767
387.55	40.213
387.91	38.814
388.27	39.866
388.62	39.962
388.98	39.288
389.34	39.413
389.70	40.149
390.06	38.389
390.42	40.220
390.77	40.288
391.13	39.975
391.49	39.521
391.85	39.181
392.20	40.364
392.56	39.669
392.92	40.341
393.28	40.094
393.64	40.060
393.99	42.132
394.35	39.722
394.71	40.741
395.07	40.289
395.42	39.709
395.78	40.391
396.14	40.353
396.50	39.949
396.85	40.760
397.21	40.100
397.57	40.439
397.92	39.425
398.28	40.402
398.64	39.096
399.00	40.688
399.35	38.318
399.71	39.518
400.07	40.266
400.42	39.351
400.78	41.029
401.14	40.593
401.49	39.726
401.85	39.305
402.21	41.446
402.57	40.875
402.92	40.339
403.28	39.599
403.63	38.966
403.99	39.477
404.35	40.287
404.70	38.988
405.06	39.835
405.42	40.211
405.77	39.570
406.13	39.406
406.49	39.313
406.84	40.831
407.20	40.337
407.55	39.794
407.91	39.037
408.27	39.324
408.62	39.877
408.98	39.741
409.34	39.901
409.69	39.341
410.05	38.793
410.40	39.691
410.76	40.048
411.11	40.187
411.47	39.448
411.83	39.422
412.18	40.476
412.54	39.451
412.89	39.840
413.25	39.711
413.60	40.000
413.96	39.939
414.31	40.366
414.67	39.384
415.03	39.880
415.38	38.903
415.74	41.107
416.09	40.496
416.45	41.256
416.80	39.524
417.16	41.091
417.51	40.773
417.87	40.091
418.22	41.645
418.58	40.870
418.93	40.752
419.29	40.269
419.64	41.672
420.00	42.128
420.35	39.821
420.71	42.710
421.06	41.498
421.42	42.067
421.77	41.965
422.12	41.317
422.48	40.498
422.83	41.067
423.19	41.817
423.54	40.800
423.90	41.637
424.25	41.389
424.61	42.656
424.96	42.334
425.31	42.923
425.67	42.430
426.02	42.638
426.38	42.642
426.73	43.160
427.09	43.228
427.44	43.294
427.79	43.724
428.15	43.083
428.50	43.307
428.85	42.076
429.21	43.746
429.56	43.935
429.92	43.657
430.27	42.707
430.62	43.074
430.98	43.631
431.33	43.218
431.68	43.433
432.04	44.215
432.39	43.297
432.74	43.235
433.10	45.345
433.45	44.205
433.80	44.864
434.16	44.266
434.51	43.817
434.86	44.948
435.22	44.251
435.57	46.538
435.92	45.389
436.28	44.961
436.63	44.666
436.98	45.249
437.34	46.582
437.69	45.975
438.04	46.439
438.39	45.938
438.75	46.570
439.10	45.614
439.45	46.561
439.81	46.667
440.16	48.397
440.51	47.284
440.86	49.486
441.22	46.889
441.57	47.351
441.92	48.636
442.27	47.783
442.63	47.966
442.98	47.616
443.33	46.633
443.68	47.162
444.03	48.783
444.39	47.516
444.74	48.885
445.09	49.109
445.44	49.801
445.79	49.768
446.15	48.293
446.50	48.142
446.85	49.787
447.20	48.801
447.55	48.605
447.91	48.223
448.26	48.719
448.61	48.820
448.96	50.143
449.31	48.786
449.66	49.942
450.02	50.314
450.37	49.555
450.72	50.229
451.07	50.886
451.42	49.875
451.77	49.608
452.12	49.581
452.47	50.225
452.83	50.294
453.18	49.652
453.53	51.896
453.88	51.184
454.23	52.366
454.58	52.519
454.93	51.740
455.28	50.032
455.63	51.333
455.98	52.135
456.34	51.788
456.69	51.715
457.04	52.741
457.39	52.369
457.74	52.056
458.09	50.677
458.44	51.843
458.79	52.045
459.14	51.888
459.49	52.299
459.84	52.115
460.19	53.580
460.54	51.711
460.89	51.875
461.24	51.925
461.59	52.257
461.94	52.075
462.29	53.378
462.64	53.223
462.99	53.081
463.34	52.017
463.69	52.574
464.04	53.269
464.39	52.638
464.74	52.331
465.09	52.838
465.44	53.664
465.79	51.984
466.14	52.338
466.49	52.559
466.84	53.361
467.19	53.066
467.54	53.448
467.89	53.253
468.24	52.433
468.59	54.794
468.94	53.968
469.29	53.705
469.64	53.315
469.99	55.851
470.34	53.515
470.68	55.108
471.03	55.060
471.38	54.137
471.73	54.972
472.08	54.274
472.43	54.497
472.78	54.421
473.13	55.986
473.48	54.528
473.83	54.047
474.17	55.829
474.52	54.371
474.87	54.909
475.22	54.240
475.57	54.207
475.92	55.129
476.27	55.821
476.61	56.597
476.96	54.267
477.31	54.732
477.66	54.607
478.01	55.531
478.36	54.303
478.70	56.552
479.05	54.560
479.40	55.909
479.75	54.327
480.10	54.531
480.45	54.850
480.79	56.647
481.14	56.762
481.49	54.926
481.84	56.419
482.19	54.911
482.53	56.163
482.88	53.986
483.23	55.134
483.58	55.519
483.92	55.227
484.27	54.831
484.62	55.491
484.97	54.726
485.31	55.491
485.66	53.923
486.01	54.508
486.36	53.380
486.70	53.892
487.05	53.630
487.40	53.671
487.75	54.761
488.09	52.750
488.44	53.645
488.79	54.427
489.13	55.929
489.48	55.665
489.83	56.547
490.17	55.640
490.52	56.074
490.87	54.743
491.22	57.593
491.56	56.309
491.91	56.597
492.26	58.289
492.60	57.054
492.95	56.567
493.30	56.229
493.64	57.024
493.99	56.763
494.34	56.214
494.68	56.619
495.03	55.815
495.37	56.820
495.72	58.051
496.07	58.244
496.41	57.500
496.76	56.840
497.11	55.845
497.45	56.754
497.80	58.729
498.14	56.384
498.49	58.710
498.84	57.335
499.18	57.681
499.53	58.185
499.87	57.296
500.22	58.259
500.56	57.943
500.91	58.283
501.26	57.242
501.60	58.682
501.95	58.661
502.29	58.208
502.64	58.929
502.98	59.151
503.33	57.589
503.67	57.687
504.02	58.162
504.36	59.525
504.71	58.434
505.06	59.034
505.40	58.071
505.75	59.021
506.09	59.655
506.44	60.267
506.78	60.000
507.13	59.772
507.47	58.329
507.82	59.509
508.16	60.222
508.51	60.493
508.85	59.864
509.19	60.564
509.54	60.054
509.88	59.817
510.23	60.194
510.57	60.128
510.92	58.689
511.26	60.556
511.61	61.221
511.95	60.658
512.30	60.754
512.64	59.933
512.98	61.258
513.33	60.940
513.67	60.546
514.02	62.471
514.36	62.000
514.70	62.646
515.05	61.751
515.39	62.574
515.74	63.473
516.08	63.359
516.42	63.310
516.77	63.019
517.11	63.917
517.46	63.076
517.80	63.111
518.14	63.625
518.49	62.440
518.83	63.062
519.17	62.826
519.52	61.871
519.86	62.365
520.20	62.697
520.55	63.852
520.89	64.555
521.23	63.901
521.58	65.174
521.92	64.872
522.26	66.168
522.61	64.416
522.95	66.490
523.29	64.549
523.64	64.485
523.98	65.068
524.32	64.562
524.66	66.325
525.01	65.714
525.35	65.781
525.69	66.734
526.04	65.939
526.38	67.250
526.72	64.356
527.06	65.110
527.41	66.227
527.75	65.550
528.09	65.515
528.43	66.982
528.78	65.875
529.12	66.194
529.46	65.562
529.80	64.535
530.15	66.403
530.49	67.811
530.83	66.895
531.17	66.488
531.51	67.168
531.86	66.417
532.20	67.154
532.54	66.916
532.88	67.214
533.22	67.540
533.57	67.366
533.91	66.253
534.25	68.424
534.59	66.325
534.93	65.513
535.27	65.673
535.62	67.531
535.96	66.732
536.30	66.227
536.64	68.849
536.98	67.735
537.32	69.417
537.66	67.111
538.01	68.462
538.35	67.753
538.69	67.244
539.03	66.097
539.37	67.564
539.71	67.553
540.05	67.142
540.39	68.213
540.73	68.759
541.07	68.370
541.42	67.406
541.76	68.410
542.10	67.653
542.44	67.964
542.78	66.483
543.12	68.132
543.46	69.819
543.80	69.257
544.14	67.023
544.48	68.554
544.82	68.421
545.16	69.467
545.50	67.824
545.84	69.334
546.18	70.638
546.52	68.421
546.86	68.152
547.20	69.671
547.54	68.269
547.88	68.750
548.22	67.916
548.56	68.140
548.90	69.407
549.24	67.700
549.58	68.336
549.92	67.834
550.26	69.597
550.60	69.591
550.94	70.202
551.28	71.561
551.62	71.846
551.96	70.526
552.30	70.541
552.64	68.688
552.98	71.378
553.32	70.043
553.66	70.102
554.00	70.292
554.34	72.747
554.68	69.985
555.02	71.429
555.36	70.007
555.69	70.330
556.03	70.236
556.37	70.107
556.71	70.397
557.05	73.378
557.39	70.260
557.73	72.264
558.07	72.474
558.41	72.205
558.75	72.486
559.08	73.128
559.42	71.667
559.76	73.739
560.10	72.630
560.44	73.194
560.78	71.818
561.12	72.638
561.45	72.874
561.79	73.459
562.13	72.463
562.47	72.014
562.81	71.614
563.15	70.874
563.48	72.277
563.82	73.644
564.16	74.164
564.50	72.500
564.84	71.352
565.17	71.563
565.51	73.429
565.85	73.182
566.19	71.552
566.52	73.861
566.86	72.429
567.20	71.918
567.54	72.567
567.88	72.408
568.21	73.133
568.55	72.011
568.89	71.612
569.23	71.112
569.56	70.009
569.90	69.874
570.24	67.436
570.57	68.945
570.91	69.536
571.25	68.497
571.59	68.328
571.92	67.230
572.26	68.418
572.60	68.155
572.93	66.395
573.27	67.680
573.61	68.288
573.95	66.931
574.28	66.949
574.62	66.514
574.96	66.492
575.29	66.734
575.63	65.976
575.97	66.495
576.30	66.995
576.64	66.861
576.98	67.593
577.31	67.633
577.65	67.638
577.98	67.202
578.32	66.653
578.66	65.614
578.99	66.589
579.33	66.700
579.67	66.717
580.00	67.013
580.34	67.612
580.67	67.359
581.01	67.603
581.35	67.054
581.68	67.546
582.02	67.040
582.35	67.372
582.69	67.764
583.02	67.934
583.36	66.927
583.70	68.250
584.03	69.475
584.37	69.509
584.70	68.654
585.04	68.368
585.37	67.961
585.71	68.279
586.04	68.558
586.38	68.792
586.72	69.871
587.05	70.479
587.39	70.506
587.72	71.651
588.06	69.305
588.39	70.578
588.73	71.093
589.06	71.135
589.40	70.792
589.73	70.756
590.07	71.677
590.40	71.749
590.73	74.012
591.07	72.137
591.40	73.063
591.74	74.072
592.07	74.119
592.41	73.454
592.74	72.959
593.08	70.555
593.41	71.170
593.75	71.573
594.08	71.473
594.41	71.761
594.75	72.519
595.08	72.077
595.42	73.059
595.75	72.400
596.09	72.948
596.42	73.874
596.75	72.513
597.09	73.121
597.42	72.267
597.75	73.431
598.09	72.159
598.42	72.383
598.76	72.716
599.09	73.197
599.42	71.201
599.76	71.783
600.09	71.795
600.42	71.835
600.76	70.988
601.09	73.130
601.42	72.229
601.76	72.568
602.09	73.350
602.42	74.684
602.76	72.793
603.09	73.671
603.42	74.875
603.76	74.032
604.09	73.917
604.42	73.731
604.76	75.211
605.09	73.995
605.42	74.312
605.75	75.744
606.09	73.970
606.42	73.394
606.75	73.636
607.09	72.440
607.42	74.214
607.75	74.112
608.08	73.046
608.42	73.458
608.75	75.663
609.08	75.884
609.41	75.685
609.75	74.194
610.08	75.637
610.41	74.493
610.74	74.842
611.07	77.261
611.41	77.426
611.74	76.652
612.07	74.893
612.40	77.462
612.73	77.684
613.07	75.028
613.40	76.915
613.73	78.344
614.06	76.516
614.39	76.988
614.72	75.518
615.06	76.480
615.39	76.310
615.72	74.058
616.05	76.704
616.38	74.473
616.71	76.575
617.05	79.061
617.38	78.127
617.71	79.623
618.04	79.048
618.37	78.247
618.70	79.340
619.03	81.528
619.36	79.522
619.69	82.108
620.03	80.205
620.36	79.041
620.69	79.800
621.02	79.358
621.35	82.407
621.68	82.313
622.01	83.417
622.34	80.287
622.67	81.703
623.00	80.398
623.33	80.640
623.66	80.703
623.99	80.030
624.32	80.000
624.65	79.925
624.99	80.963
625.32	80.061
625.65	82.325
625.98	83.078
626.31	80.299
626.64	83.276
626.97	82.810
627.30	82.487
627.63	82.929
627.96	82.570
628.29	83.626
628.62	87.414
628.95	84.469
629.28	87.198
629.61	85.045
629.94	86.413
630.26	83.399
630.59	87.617
630.92	85.949
631.25	84.615
631.58	87.445
631.91	85.965
632.24	87.500
632.57	86.364
632.90	89.087
633.23	87.176
633.56	89.924
633.89	87.176
634.22	89.136
634.55	90.470
