SpectraSuite Data File
++++++++++++++++++++++++++++++++++++
Date: Fri May 15 20:16:11 PDT 2015
User: schluterlab
Dark Spectrum Present: Yes
Reference Spectrum Present: Yes
Number of Sampled Component Spectra: 1
Spectrometers: USB2E3373
Integration Time (usec): 3000 (USB2E3373)
Spectra Averaged: 3 (USB2E3373)
Boxcar Smoothing: 0 (USB2E3373)
Correct for Electrical Dark: No (USB2E3373)
Strobe/Lamp Enabled: No (USB2E3373)
Correct for Detector Non-linearity: No (USB2E3373)
Correct for Stray Light: No (USB2E3373)
Number of Pixels in Processed Spectrum: 2048
>>>>>Begin Processed Spectral Data<<<<<
178.53	0.000
178.91	0.000
179.29	50.000
179.67	0.000
180.04	14.286
180.42	150.000
180.80	-500.000
181.18	33.333
181.56	-200.000
181.94	50.000
182.31	200.000
182.69	-100.000
183.07	-333.333
183.45	-200.000
183.83	50.000
184.20	0.000
184.58	111.111
184.96	-125.000
185.34	133.333
185.72	-200.000
186.09	15.385
186.47	-400.000
186.85	16.667
187.23	55.556
187.61	-300.000
187.98	-133.333
188.36	0.000
188.74	-166.667
189.12	52.941
189.49	88.889
189.87	0.000
190.25	135.714
190.63	50.000
191.00	33.333
191.38	10.526
191.76	200.000
192.14	-100.000
192.51	350.000
192.89	-11.111
193.27	-142.857
193.65	150.000
194.02	181.818
194.40	40.000
194.78	-12.500
195.15	8.333
195.53	12.500
195.91	50.000
196.29	0.000
196.66	138.462
197.04	85.714
197.42	-22.222
197.79	-300.000
198.17	-23.077
198.55	400.000
198.92	-433.333
199.30	-400.000
199.68	100.000
200.05	100.000
200.43	0.000
200.81	-166.667
201.18	33.333
201.56	500.000
201.94	-550.000
202.31	-133.333
202.69	-240.000
203.07	300.000
203.44	300.000
203.82	0.000
204.19	35.714
204.57	-300.000
204.95	50.000
205.32	120.000
205.70	28.571
206.08	-175.000
206.45	144.444
206.83	7.143
207.20	14.286
207.58	-200.000
207.96	66.667
208.33	-10.000
208.71	125.000
209.08	33.333
209.46	100.000
209.84	-120.000
210.21	-1100.000
210.59	85.714
210.96	83.333
211.34	-225.000
211.71	-6.667
212.09	-200.000
212.46	-1400.000
212.84	0.000
213.22	40.000
213.59	300.000
213.97	23.077
214.34	36.364
214.72	-116.667
215.09	450.000
215.47	-69.231
215.84	45.455
216.22	66.667
216.59	-62.500
216.97	250.000
217.34	250.000
217.72	80.000
218.09	0.000
218.47	112.500
218.84	-800.000
219.22	33.333
219.59	-60.000
219.97	233.333
220.34	175.000
220.72	171.429
221.09	-50.000
221.47	0.000
221.84	-600.000
222.22	-300.000
222.59	36.364
222.97	16.667
223.34	100.000
223.72	-50.000
224.09	80.952
224.46	14.286
224.84	433.333
225.21	60.000
225.59	-46.667
225.96	100.000
226.34	200.000
226.71	-71.429
227.08	83.333
227.46	50.000
227.83	-250.000
228.21	133.333
228.58	36.364
228.95	62.500
229.33	120.000
229.70	18.750
230.08	-137.500
230.45	-114.286
230.82	42.857
231.20	-93.333
231.57	57.143
231.95	114.286
232.32	-10.000
232.69	78.571
233.07	-66.667
233.44	0.000
233.81	-30.000
234.19	-66.667
234.56	47.059
234.93	-200.000
235.31	100.000
235.68	-200.000
236.05	-53.846
236.43	-30.000
236.80	47.059
237.17	18.750
237.55	-10.000
237.92	11.111
238.29	52.778
238.67	56.667
239.04	11.765
239.41	-2.439
239.79	-10.000
240.16	29.268
240.53	23.684
240.91	10.870
241.28	14.286
241.65	23.214
242.02	34.247
242.40	28.333
242.77	25.424
243.14	15.152
243.51	27.500
243.89	35.632
244.26	34.483
244.63	25.000
245.00	29.897
245.38	41.237
245.75	28.090
246.12	25.000
246.49	33.058
246.87	33.654
247.24	25.210
247.61	28.070
247.98	31.707
248.36	24.375
248.73	27.632
249.10	25.325
249.47	32.911
249.84	30.719
250.22	32.941
250.59	35.294
250.96	30.986
251.33	25.000
251.70	36.471
252.08	29.442
252.45	30.198
252.82	30.653
253.19	28.571
253.56	29.439
253.94	38.739
254.31	31.304
254.68	35.088
255.05	28.740
255.42	31.441
255.79	35.521
256.16	27.237
256.54	33.955
256.91	29.278
257.28	31.599
257.65	27.715
258.02	27.305
258.39	32.323
258.76	30.769
259.14	34.884
259.51	28.155
259.88	28.866
260.25	31.046
260.62	35.764
260.99	32.542
261.36	28.082
261.73	29.430
262.10	33.739
262.47	31.288
262.85	29.467
263.22	31.077
263.59	30.841
263.96	32.298
264.33	34.242
264.70	28.571
265.07	29.762
265.44	34.561
265.81	34.181
266.18	33.333
266.55	33.676
266.92	29.016
267.29	34.465
267.66	30.946
268.03	34.031
268.40	30.026
268.77	32.888
269.14	31.894
269.51	33.162
269.88	29.676
270.25	27.806
270.62	29.512
270.99	30.435
271.36	30.562
271.73	30.516
272.10	32.117
272.47	30.260
272.84	31.683
273.21	28.770
273.58	33.253
273.95	29.748
274.32	28.406
274.69	29.186
275.06	30.357
275.43	30.385
275.80	30.022
276.17	30.345
276.54	31.049
276.91	30.044
277.28	30.131
277.65	31.198
278.02	28.723
278.39	31.729
278.76	29.979
279.13	25.726
279.50	30.882
279.87	31.102
280.23	31.183
280.60	30.799
280.97	29.899
281.34	28.462
281.71	32.033
282.08	28.630
282.45	27.397
282.82	27.606
283.19	30.561
283.56	29.287
283.92	29.981
284.29	29.615
284.66	28.682
285.03	30.452
285.40	28.166
285.77	28.471
286.14	29.061
286.51	29.705
286.87	25.594
287.24	28.729
287.61	28.219
287.98	28.246
288.35	26.516
288.72	29.072
289.08	26.215
289.45	27.241
289.82	26.224
290.19	26.280
290.56	25.386
290.93	26.094
291.29	23.421
291.66	25.039
292.03	26.475
292.40	23.548
292.77	24.721
293.13	21.753
293.50	22.458
293.87	25.191
294.24	24.266
294.60	25.335
294.97	23.512
295.34	24.387
295.71	23.696
296.08	23.169
296.44	22.333
296.81	23.889
297.18	22.319
297.55	24.661
297.91	21.507
298.28	23.615
298.65	22.117
299.02	22.372
299.38	19.836
299.75	21.379
300.12	21.204
300.48	19.499
300.85	21.546
301.22	21.429
301.59	20.263
301.95	22.405
302.32	21.401
302.69	20.522
303.05	21.040
303.42	19.552
303.79	20.794
304.15	21.147
304.52	19.501
304.89	20.585
305.25	20.460
305.62	18.320
305.99	19.883
306.35	20.116
306.72	20.135
307.09	20.182
307.45	21.470
307.82	20.370
308.19	21.022
308.55	18.975
308.92	22.004
309.29	20.335
309.65	18.730
310.02	19.912
310.38	20.746
310.75	20.874
311.12	20.667
311.48	20.467
311.85	20.733
312.22	19.409
312.58	19.745
312.95	18.997
313.31	20.290
313.68	19.162
314.05	19.694
314.41	22.062
314.78	21.443
315.14	22.097
315.51	21.118
315.87	21.414
316.24	23.559
316.61	21.555
316.97	23.214
317.34	20.996
317.70	22.658
318.07	22.692
318.43	24.118
318.80	23.958
319.16	25.391
319.53	26.021
319.89	24.705
320.26	26.316
320.62	25.878
320.99	24.113
321.35	26.002
321.72	26.895
322.08	26.385
322.45	26.701
322.81	26.523
323.18	26.006
323.54	27.317
323.91	28.822
324.27	29.590
324.64	30.431
325.00	30.018
325.37	30.946
325.73	30.825
326.10	31.608
326.46	33.184
326.83	33.508
327.19	33.217
327.56	34.492
327.92	36.444
328.29	35.536
328.65	37.925
329.01	38.143
329.38	37.604
329.74	37.583
330.11	38.462
330.47	39.332
330.84	41.827
331.20	42.395
331.56	41.389
331.93	42.283
332.29	40.972
332.66	41.448
333.02	43.030
333.38	42.988
333.75	44.689
334.11	42.793
334.48	45.784
334.84	45.147
335.20	46.478
335.57	45.240
335.93	45.167
336.29	45.580
336.66	45.050
337.02	46.747
337.38	45.463
337.75	46.455
338.11	47.610
338.47	46.989
338.84	48.336
339.20	47.075
339.56	48.440
339.93	47.717
340.29	48.073
340.65	48.387
341.02	47.429
341.38	46.195
341.74	48.057
342.11	46.534
342.47	48.488
342.83	47.664
343.20	47.648
343.56	47.217
343.92	49.336
344.28	48.335
344.65	48.791
345.01	47.623
345.37	47.603
345.73	48.954
346.10	48.404
346.46	46.930
346.82	48.200
347.19	47.215
347.55	48.454
347.91	48.948
348.27	46.160
348.63	47.871
349.00	47.662
349.36	47.963
349.72	48.590
350.08	47.951
350.45	47.805
350.81	47.425
351.17	47.313
351.53	47.918
351.89	47.812
352.26	48.400
352.62	49.194
352.98	46.988
353.34	47.101
353.70	50.000
354.07	48.790
354.43	46.677
354.79	50.041
355.15	49.127
355.51	49.288
355.87	49.353
356.24	49.266
356.60	49.555
356.96	49.921
357.32	48.562
357.68	50.117
358.04	50.162
358.40	49.277
358.77	49.442
359.13	50.200
359.49	48.921
359.85	48.986
360.21	51.196
360.57	50.191
360.93	48.260
361.29	48.792
361.66	49.687
362.02	50.606
362.38	49.810
362.74	51.098
363.10	50.790
363.46	49.741
363.82	51.315
364.18	49.446
364.54	50.809
364.90	50.824
365.26	49.636
365.62	50.584
365.98	52.199
366.35	51.129
366.71	52.476
367.07	52.830
367.43	51.186
367.79	51.378
368.15	51.759
368.51	51.784
368.87	51.687
369.23	50.686
369.59	53.426
369.95	52.933
370.31	53.251
370.67	53.060
371.03	52.651
371.39	51.349
371.75	53.480
372.11	53.210
372.47	52.885
372.83	52.590
373.19	54.208
373.55	52.347
373.91	54.140
374.27	54.642
374.63	54.846
374.99	53.333
375.35	53.621
375.71	54.336
376.07	54.213
376.42	54.626
376.78	55.436
377.14	54.841
377.50	54.648
377.86	54.351
378.22	55.073
378.58	54.936
378.94	55.577
379.30	55.022
379.66	56.489
380.02	55.487
380.38	55.995
380.74	56.314
381.09	57.117
381.45	55.902
381.81	56.323
382.17	56.155
382.53	56.402
382.89	57.376
383.25	58.432
383.61	57.195
383.97	58.286
384.32	57.661
384.68	57.028
385.04	57.721
385.40	57.685
385.76	60.943
386.12	57.439
386.48	60.345
386.83	57.705
387.19	58.852
387.55	59.034
387.91	59.169
388.27	58.486
388.62	59.471
388.98	59.300
389.34	59.400
389.70	59.416
390.06	58.716
390.42	59.132
390.77	61.543
391.13	59.584
391.49	60.543
391.85	60.949
392.20	59.510
392.56	60.267
392.92	60.129
393.28	60.377
393.64	59.339
393.99	62.320
394.35	61.543
394.71	60.920
395.07	60.151
395.42	59.563
395.78	60.521
396.14	60.151
396.50	61.256
396.85	61.301
397.21	60.652
397.57	61.379
397.92	59.557
398.28	61.609
398.64	60.181
399.00	62.302
399.35	59.989
399.71	59.908
400.07	61.064
400.42	60.526
400.78	60.625
401.14	60.315
401.49	62.001
401.85	61.731
402.21	61.205
402.57	62.812
402.92	60.916
403.28	60.840
403.63	60.530
403.99	60.459
404.35	61.587
404.70	60.833
405.06	60.870
405.42	61.840
405.77	60.953
406.13	62.631
406.49	60.568
406.84	62.164
407.20	63.275
407.55	60.270
407.91	60.695
408.27	60.038
408.62	62.277
408.98	59.643
409.34	61.276
409.69	60.465
410.05	61.268
410.40	60.247
410.76	61.942
411.11	62.187
411.47	62.196
411.83	61.770
412.18	61.969
412.54	61.298
412.89	59.729
413.25	61.071
413.60	60.807
413.96	59.264
414.31	60.793
414.67	60.872
415.03	59.854
415.38	61.031
415.74	62.345
416.09	62.900
416.45	61.175
416.80	61.732
417.16	62.569
417.51	61.959
417.87	61.147
418.22	62.241
418.58	62.475
418.93	61.567
419.29	60.819
419.64	62.800
420.00	62.783
420.35	62.209
420.71	61.847
421.06	61.387
421.42	63.462
421.77	63.931
422.12	61.918
422.48	61.397
422.83	63.863
423.19	61.682
423.54	62.728
423.90	61.955
424.25	63.720
424.61	63.464
424.96	61.789
425.31	64.240
425.67	63.674
426.02	64.370
426.38	64.058
426.73	64.044
427.09	65.570
427.44	64.176
427.79	64.290
428.15	64.138
428.50	63.356
428.85	64.189
429.21	65.761
429.56	64.906
429.92	64.099
430.27	63.659
430.62	63.617
430.98	65.127
431.33	64.564
431.68	64.417
432.04	65.679
432.39	64.746
432.74	62.959
433.10	65.517
433.45	63.560
433.80	65.757
434.16	64.211
434.51	65.484
434.86	65.041
435.22	65.339
435.57	67.311
435.92	64.551
436.28	64.818
436.63	64.404
436.98	64.426
437.34	66.062
437.69	67.442
438.04	65.413
438.39	64.997
438.75	67.881
439.10	65.252
439.45	67.438
439.81	65.627
440.16	67.696
440.51	67.045
440.86	68.580
441.22	66.855
441.57	67.163
441.92	68.730
442.27	67.683
442.63	68.201
442.98	67.892
443.33	66.555
443.68	67.427
444.03	65.872
444.39	67.339
444.74	68.283
445.09	68.151
445.44	68.490
445.79	68.901
446.15	67.291
446.50	66.389
446.85	68.491
447.20	67.623
447.55	67.522
447.91	68.246
448.26	68.241
448.61	68.221
448.96	69.822
449.31	69.133
449.66	67.422
450.02	67.541
450.37	67.694
450.72	66.838
451.07	68.987
451.42	67.541
451.77	67.691
452.12	67.943
452.47	67.225
452.83	68.610
453.18	68.691
453.53	68.774
453.88	70.006
454.23	68.961
454.58	69.710
454.93	67.784
455.28	65.968
455.63	67.886
455.98	68.791
456.34	68.135
456.69	69.060
457.04	70.762
457.39	68.894
457.74	69.407
458.09	67.863
458.44	69.163
458.79	67.731
459.14	68.707
459.49	68.418
459.84	69.430
460.19	69.417
460.54	70.049
460.89	70.114
461.24	69.503
461.59	70.071
461.94	69.371
462.29	68.577
462.64	70.033
462.99	68.788
463.34	68.220
463.69	68.790
464.04	70.097
464.39	68.830
464.74	68.773
465.09	68.746
465.44	70.052
465.79	69.388
466.14	68.073
466.49	69.120
466.84	68.590
467.19	69.775
467.54	69.923
467.89	70.120
468.24	68.491
468.59	70.095
468.94	69.905
469.29	70.754
469.64	69.378
469.99	70.638
470.34	69.352
470.68	69.724
471.03	68.790
471.38	69.757
471.73	68.838
472.08	69.132
472.43	69.933
472.78	69.020
473.13	69.796
473.48	70.619
473.83	69.614
474.17	71.114
474.52	70.070
474.87	70.061
475.22	70.287
475.57	70.299
475.92	69.830
476.27	70.955
476.61	71.817
476.96	68.210
477.31	69.984
477.66	69.775
478.01	69.624
478.36	69.935
478.70	70.092
479.05	71.099
479.40	71.012
479.75	68.926
480.10	68.664
480.45	69.950
480.79	71.601
481.14	71.004
481.49	68.818
481.84	71.187
482.19	70.861
482.53	72.134
482.88	68.687
483.23	70.058
483.58	69.387
483.92	69.409
484.27	68.095
484.62	70.641
484.97	70.730
485.31	69.798
485.66	69.721
486.01	70.615
486.36	70.522
486.70	70.414
487.05	70.002
487.40	70.502
487.75	69.268
488.09	68.696
488.44	68.741
488.79	69.742
489.13	70.593
489.48	68.961
489.83	70.179
490.17	69.393
490.52	69.977
490.87	68.718
491.22	70.344
491.56	71.537
491.91	69.407
492.26	70.880
492.60	70.345
492.95	71.225
493.30	69.614
493.64	71.709
493.99	70.531
494.34	71.505
494.68	69.905
495.03	70.462
495.37	70.461
495.72	71.277
496.07	70.390
496.41	71.557
496.76	70.935
497.11	68.887
497.45	70.740
497.80	71.090
498.14	70.194
498.49	70.950
498.84	70.409
499.18	72.239
499.53	70.040
499.87	69.990
500.22	70.920
500.56	71.810
500.91	69.679
501.26	70.984
501.60	70.339
501.95	70.403
502.29	71.186
502.64	70.705
502.98	71.929
503.33	70.221
503.67	69.639
504.02	71.310
504.36	70.856
504.71	69.343
505.06	69.703
505.40	71.777
505.75	71.443
506.09	70.350
506.44	72.177
506.78	70.612
507.13	70.941
507.47	68.930
507.82	70.780
508.16	70.523
508.51	71.354
508.85	71.533
509.19	71.102
509.54	71.689
509.88	69.849
510.23	70.898
510.57	71.459
510.92	69.723
511.26	70.595
511.61	71.452
511.95	71.342
512.30	70.288
512.64	70.173
512.98	70.354
513.33	72.076
513.67	70.722
514.02	72.597
514.36	72.971
514.70	72.261
515.05	72.679
515.39	71.133
515.74	72.395
516.08	71.608
516.42	71.614
516.77	71.211
517.11	71.513
517.46	71.454
517.80	70.262
518.14	71.341
518.49	71.334
518.83	71.081
519.17	71.862
519.52	70.989
519.86	70.828
520.20	72.296
520.55	71.420
520.89	70.514
521.23	70.804
521.58	72.744
521.92	71.282
522.26	70.917
522.61	71.948
522.95	73.377
523.29	71.156
523.64	71.601
523.98	71.743
524.32	70.554
524.66	71.767
525.01	71.558
525.35	73.104
525.69	73.333
526.04	71.892
526.38	71.725
526.72	72.204
527.06	72.633
527.41	71.438
527.75	71.783
528.09	72.027
528.43	72.384
528.78	72.013
529.12	72.258
529.46	72.580
529.80	70.551
530.15	72.079
530.49	72.525
530.83	73.803
531.17	71.256
531.51	72.982
531.86	71.992
532.20	72.443
532.54	71.273
532.88	72.758
533.22	73.253
533.57	71.887
533.91	72.258
534.25	73.307
534.59	72.033
534.93	70.610
535.27	70.812
535.62	72.003
535.96	71.624
536.30	71.834
536.64	72.915
536.98	71.916
537.32	72.831
537.66	73.422
538.01	72.308
538.35	73.024
538.69	72.304
539.03	71.292
539.37	73.822
539.71	73.279
540.05	70.944
540.39	72.299
540.73	73.013
541.07	72.652
541.42	72.245
541.76	74.329
542.10	71.025
542.44	72.481
542.78	71.025
543.12	72.527
543.46	72.879
543.80	73.699
544.14	70.828
544.48	70.753
544.82	72.727
545.16	73.156
545.50	71.295
545.84	74.079
546.18	73.688
546.52	71.810
546.86	72.035
547.20	72.031
547.54	70.601
547.88	73.438
548.22	70.940
548.56	70.580
548.90	72.776
549.24	70.730
549.58	71.298
549.92	70.836
550.26	72.527
550.60	72.045
550.94	73.637
551.28	73.184
551.62	72.231
551.96	73.609
552.30	73.611
552.64	70.451
552.98	72.433
553.32	71.255
553.66	71.626
554.00	73.942
554.34	71.861
554.68	70.575
555.02	73.289
555.36	72.401
555.69	72.527
556.03	72.020
556.37	71.815
556.71	72.563
557.05	72.483
557.39	71.524
557.73	72.189
558.07	72.549
558.41	72.588
558.75	73.110
559.08	74.074
559.42	72.698
559.76	75.100
560.10	71.713
560.44	70.514
560.78	72.308
561.12	73.202
561.45	73.999
561.79	73.739
562.13	72.534
562.47	71.079
562.81	71.686
563.15	72.073
563.48	71.429
563.82	73.370
564.16	72.423
564.50	72.703
564.84	71.486
565.17	73.172
565.51	74.385
565.85	72.977
566.19	71.552
566.52	73.592
566.86	72.365
567.20	74.284
567.54	74.513
567.88	74.692
568.21	73.416
568.55	73.370
568.89	73.511
569.23	74.001
569.56	73.074
569.90	73.975
570.24	71.865
570.57	73.636
570.91	74.068
571.25	72.509
571.59	71.535
571.92	70.993
572.26	70.652
572.60	71.628
572.93	70.850
573.27	71.191
573.61	71.629
573.95	72.474
574.28	71.319
574.62	70.811
574.96	71.179
575.29	69.914
575.63	69.008
575.97	70.398
576.30	70.340
576.64	70.146
576.98	70.631
577.31	71.934
577.65	71.445
577.98	71.344
578.32	71.095
578.66	70.600
578.99	70.051
579.33	69.223
579.67	69.240
580.00	70.658
580.34	69.478
580.67	70.104
581.01	71.326
581.35	70.370
581.68	71.069
582.02	71.463
582.35	71.272
582.69	71.231
583.02	70.540
583.36	70.239
583.70	70.587
584.03	71.838
584.37	71.005
584.70	71.374
585.04	69.249
585.37	69.877
585.71	69.686
586.04	70.625
586.38	69.912
586.72	70.560
587.05	72.097
587.39	71.484
587.72	72.143
588.06	70.938
588.39	70.749
588.73	70.757
589.06	71.885
589.40	70.722
589.73	70.756
590.07	70.770
590.40	72.523
590.73	72.776
591.07	70.780
591.40	71.327
591.74	72.081
592.07	71.985
592.41	72.615
592.74	71.884
593.08	71.254
593.41	71.301
593.75	70.494
594.08	70.168
594.41	70.160
594.75	71.107
595.08	70.904
595.42	69.856
595.75	72.662
596.09	71.892
596.42	70.401
596.75	70.782
597.09	70.979
597.42	71.138
597.75	70.866
598.09	70.439
598.42	71.661
598.76	70.528
599.09	70.994
599.42	70.292
599.76	70.278
600.09	69.683
600.42	69.826
600.76	69.948
601.09	70.496
601.42	69.526
601.76	70.385
602.09	70.503
602.42	71.230
602.76	71.053
603.09	71.346
603.42	71.865
603.76	70.444
604.09	71.851
604.42	71.616
604.76	71.696
605.09	70.293
605.42	69.887
605.75	70.709
606.09	70.276
606.42	69.683
606.75	70.519
607.09	71.165
607.42	69.251
607.75	69.494
608.08	69.272
608.42	68.844
608.75	71.952
609.08	71.300
609.41	69.898
609.75	71.169
610.08	70.694
610.41	69.710
610.74	70.697
611.07	71.059
611.41	71.095
611.74	71.908
612.07	70.503
612.40	69.639
612.73	72.260
613.07	71.485
613.40	70.897
613.73	70.677
614.06	69.226
614.39	71.461
614.72	69.580
615.06	71.173
615.39	70.633
615.72	70.452
616.05	69.050
616.38	69.801
616.71	71.437
617.05	71.526
617.38	70.836
617.71	71.698
618.04	74.730
618.37	72.320
618.70	70.825
619.03	72.639
619.36	70.405
619.69	72.100
620.03	71.293
620.36	72.103
620.69	71.021
621.02	71.713
621.35	72.780
621.68	73.214
622.01	73.167
622.34	71.987
622.67	72.319
623.00	70.827
623.33	70.503
623.66	71.204
623.99	70.499
624.32	71.863
624.65	71.579
624.99	73.439
625.32	70.432
625.65	71.642
625.98	72.200
626.31	71.737
626.64	73.484
626.97	73.909
627.30	72.592
627.63	72.530
627.96	73.046
628.29	71.045
628.62	72.468
628.95	72.445
629.28	75.403
629.61	73.380
629.94	73.705
630.26	73.123
630.59	75.026
630.92	71.897
631.25	72.923
631.58	73.789
631.91	71.601
632.24	74.771
632.57	72.614
632.90	73.547
633.23	73.176
633.56	74.685
633.89	73.983
