SpectraSuite Data File
++++++++++++++++++++++++++++++++++++
Date: Fri May 15 20:00:30 PDT 2015
User: schluterlab
Dark Spectrum Present: Yes
Reference Spectrum Present: Yes
Number of Sampled Component Spectra: 1
Spectrometers: USB2E3373
Integration Time (usec): 3000 (USB2E3373)
Spectra Averaged: 3 (USB2E3373)
Boxcar Smoothing: 0 (USB2E3373)
Correct for Electrical Dark: No (USB2E3373)
Strobe/Lamp Enabled: No (USB2E3373)
Correct for Detector Non-linearity: No (USB2E3373)
Correct for Stray Light: No (USB2E3373)
Number of Pixels in Processed Spectrum: 2048
>>>>>Begin Processed Spectral Data<<<<<
178.53	0.000
178.91	0.000
179.29	200.000
179.67	50.000
180.04	-71.429
180.42	300.000
180.80	400.000
181.18	166.667
181.56	200.000
181.94	300.000
182.31	-400.000
182.69	-60.000
183.07	166.667
183.45	-80.000
183.83	33.333
184.20	27.273
184.58	122.222
184.96	50.000
185.34	-100.000
185.72	400.000
186.09	123.077
186.47	-900.000
186.85	116.667
187.23	-11.111
187.61	-400.000
187.98	100.000
188.36	77.778
188.74	-66.667
189.12	58.824
189.49	16.667
189.87	0.000
190.25	35.714
190.63	750.000
191.00	0.000
191.38	52.632
191.76	500.000
192.14	-100.000
192.51	550.000
192.89	77.778
193.27	57.143
193.65	33.333
194.02	81.818
194.40	10.000
194.78	-50.000
195.15	-25.000
195.53	0.000
195.91	150.000
196.29	125.000
196.66	15.385
197.04	-171.429
197.42	-33.333
197.79	-266.667
198.17	-76.923
198.55	500.000
198.92	0.000
199.30	1000.000
199.68	40.000
200.05	66.667
200.43	0.000
200.81	366.667
201.18	-366.667
201.56	1200.000
201.94	550.000
202.31	-66.667
202.69	-120.000
203.07	100.000
203.44	2000.000
203.82	0.000
204.19	85.714
204.57	-400.000
204.95	12.500
205.32	30.000
205.70	228.571
206.08	75.000
206.45	377.778
206.83	85.714
207.20	-14.286
207.58	-400.000
207.96	0.000
208.33	-10.000
208.71	25.000
209.08	-133.333
209.46	300.000
209.84	100.000
210.21	-700.000
210.59	85.714
210.96	50.000
211.34	0.000
211.71	80.000
212.09	14.286
212.46	-800.000
212.84	0.000
213.22	150.000
213.59	200.000
213.97	46.154
214.34	90.909
214.72	-83.333
215.09	425.000
215.47	46.154
215.84	18.182
216.22	-466.667
216.59	25.000
216.97	700.000
217.34	225.000
217.72	-160.000
218.09	-75.000
218.47	150.000
218.84	400.000
219.22	22.222
219.59	20.000
219.97	166.667
220.34	175.000
220.72	157.143
221.09	-50.000
221.47	200.000
221.84	-450.000
222.22	-900.000
222.59	81.818
222.97	58.333
223.34	-33.333
223.72	-35.714
224.09	4.762
224.46	25.000
224.84	33.333
225.21	10.000
225.59	60.000
225.96	50.000
226.34	100.000
226.71	42.857
227.08	0.000
227.46	25.000
227.83	50.000
228.21	-11.111
228.58	136.364
228.95	-25.000
229.33	-50.000
229.70	50.000
230.08	0.000
230.45	-14.286
230.82	85.714
231.20	0.000
231.57	21.429
231.95	200.000
232.32	-50.000
232.69	14.286
233.07	-66.667
233.44	80.000
233.81	20.000
234.19	77.778
234.56	41.176
234.93	-100.000
235.31	200.000
235.68	-100.000
236.05	-30.769
236.43	50.000
236.80	82.353
237.17	34.375
237.55	60.000
237.92	40.741
238.29	58.333
238.67	83.333
239.04	50.000
239.41	31.707
239.79	23.333
240.16	68.293
240.53	39.474
240.91	6.522
241.28	50.794
241.65	51.786
242.02	39.726
242.40	50.000
242.77	74.576
243.14	42.424
243.51	45.000
243.89	63.218
244.26	47.126
244.63	54.762
245.00	56.701
245.38	51.546
245.75	34.831
246.12	50.862
246.49	50.413
246.87	62.500
247.24	45.378
247.61	49.123
247.98	49.593
248.36	46.250
248.73	50.000
249.10	46.753
249.47	43.671
249.84	52.288
250.22	48.235
250.59	50.980
250.96	49.765
251.33	43.605
251.70	47.059
252.08	49.746
252.45	43.069
252.82	55.276
253.19	48.848
253.56	50.000
253.94	44.595
254.31	46.957
254.68	50.877
255.05	48.819
255.42	50.655
255.79	47.876
256.16	51.362
256.54	44.776
256.91	47.148
257.28	49.071
257.65	44.944
258.02	47.163
258.39	47.811
258.76	46.886
259.14	46.179
259.51	50.162
259.88	45.704
260.25	50.654
260.62	48.611
260.99	43.729
261.36	50.685
261.73	45.886
262.10	48.328
262.47	46.012
262.85	46.395
263.22	50.154
263.59	49.221
263.96	50.000
264.33	51.212
264.70	44.345
265.07	45.238
265.44	52.691
265.81	46.328
266.18	50.546
266.55	48.329
266.92	51.813
267.29	49.347
267.66	46.036
268.03	47.644
268.40	49.086
268.77	50.267
269.14	46.283
269.51	47.044
269.88	44.140
270.25	46.939
270.62	44.390
270.99	46.292
271.36	47.922
271.73	44.836
272.10	47.202
272.47	48.463
272.84	48.020
273.21	44.780
273.58	46.024
273.95	46.224
274.32	42.032
274.69	43.665
275.06	46.205
275.43	44.898
275.80	45.916
276.17	46.667
276.54	42.827
276.91	45.395
277.28	42.795
277.65	43.182
278.02	43.404
278.39	45.952
278.76	45.073
279.13	41.079
279.50	45.588
279.87	44.924
280.23	45.376
280.60	45.614
280.97	49.293
281.34	44.038
281.71	44.559
282.08	43.763
282.45	42.661
282.82	44.402
283.19	43.907
283.56	46.050
283.92	45.351
284.29	43.077
284.66	43.023
285.03	44.794
285.40	43.667
285.77	42.179
286.14	42.058
286.51	45.018
286.87	40.768
287.24	43.278
287.61	42.504
287.98	42.807
288.35	43.328
288.72	42.557
289.08	42.708
289.45	42.707
289.82	41.259
290.19	39.078
290.56	40.652
290.93	41.414
291.29	37.134
291.66	39.685
292.03	39.553
292.40	38.065
292.77	39.234
293.13	36.688
293.50	35.053
293.87	36.641
294.24	35.085
294.60	36.811
294.97	37.500
295.34	35.890
295.71	35.917
296.08	34.679
296.44	33.713
296.81	32.361
297.18	36.087
297.55	34.417
297.91	33.836
298.28	33.245
298.65	33.243
299.02	34.232
299.38	31.190
299.75	32.552
300.12	32.199
300.48	33.070
300.85	31.812
301.22	31.429
301.59	33.158
301.95	33.671
302.32	32.555
302.69	31.716
303.05	30.693
303.42	32.379
303.79	30.958
304.15	32.258
304.52	31.629
304.89	30.058
305.25	30.993
305.62	29.755
305.99	31.345
306.35	30.173
306.72	28.909
307.09	30.787
307.45	30.884
307.82	29.398
308.19	31.475
308.55	30.207
308.92	31.917
309.29	29.497
309.65	30.571
310.02	29.593
310.38	29.967
310.75	32.678
311.12	31.432
311.48	29.799
311.85	28.796
312.22	29.747
312.58	30.679
312.95	29.562
313.31	29.814
313.68	29.843
314.05	29.796
314.41	30.309
314.78	29.691
315.14	30.627
315.51	31.573
315.87	31.557
316.24	31.648
316.61	31.791
316.97	32.440
317.34	31.250
317.70	32.409
318.07	30.481
318.43	31.667
318.80	30.966
319.16	33.105
319.53	33.143
319.89	31.201
320.26	32.895
320.62	32.999
320.99	32.463
321.35	32.785
321.72	33.645
322.08	32.931
322.45	33.401
322.81	33.890
323.18	34.053
323.54	32.239
323.91	32.911
324.27	32.520
324.64	34.082
325.00	35.675
325.37	35.996
325.73	34.089
326.10	35.967
326.46	34.978
326.83	35.346
327.19	35.310
327.56	35.969
327.92	37.148
328.29	35.536
328.65	37.830
329.01	36.857
329.38	37.327
329.74	36.922
330.11	35.774
330.47	35.529
330.84	36.923
331.20	37.643
331.56	37.037
331.93	37.352
332.29	37.580
332.66	36.471
333.02	36.152
333.38	36.572
333.75	38.553
334.11	36.795
334.48	36.446
334.84	37.271
335.20	36.231
335.57	35.539
335.93	36.495
336.29	38.029
336.66	36.240
337.02	36.245
337.38	35.833
337.75	36.818
338.11	36.610
338.47	36.496
338.84	37.431
339.20	35.466
339.56	36.881
339.93	36.347
340.29	35.596
340.65	37.455
341.02	35.816
341.38	36.018
341.74	36.307
342.11	34.229
342.47	35.854
342.83	35.986
343.20	34.843
343.56	36.783
343.92	36.492
344.28	36.208
344.65	35.492
345.01	35.955
345.37	34.483
345.73	36.067
346.10	37.705
346.46	36.669
346.82	36.498
347.19	35.245
347.55	35.589
347.91	36.408
348.27	34.357
348.63	36.712
349.00	34.619
349.36	35.910
349.72	36.153
350.08	35.738
350.45	36.632
350.81	35.299
351.17	35.668
351.53	35.510
351.89	34.187
352.26	34.640
352.62	33.710
352.98	35.582
353.34	35.024
353.70	35.518
354.07	34.919
354.43	34.668
354.79	34.682
355.15	35.794
355.51	35.443
355.87	34.790
356.24	34.339
356.60	35.166
356.96	33.810
357.32	35.623
357.68	33.776
358.04	33.845
358.40	34.727
358.77	35.885
359.13	36.029
359.49	34.438
359.85	34.633
360.21	34.530
360.57	34.966
360.93	35.174
361.29	33.988
361.66	34.875
362.02	35.758
362.38	35.187
362.74	35.503
363.10	34.387
363.46	33.877
363.82	35.312
364.18	34.613
364.54	35.294
364.90	34.624
365.26	34.862
365.62	36.715
365.98	36.584
366.35	35.033
366.71	36.511
367.07	35.341
367.43	34.651
367.79	35.406
368.15	34.602
368.51	35.251
368.87	36.037
369.23	34.296
369.59	35.058
369.95	36.070
370.31	35.621
370.67	36.269
371.03	35.101
371.39	34.792
371.75	34.945
372.11	34.308
372.47	36.612
372.83	35.415
373.19	36.448
373.55	35.451
373.91	35.493
374.27	36.003
374.63	35.894
374.99	35.106
375.35	35.446
375.71	36.364
376.07	34.972
376.42	36.395
376.78	35.839
377.14	36.357
377.50	35.724
377.86	35.408
378.22	36.631
378.58	36.538
378.94	34.909
379.30	36.494
379.66	36.865
380.02	36.603
380.38	35.484
380.74	36.385
381.09	37.853
381.45	36.575
381.81	36.644
382.17	37.056
382.53	36.914
382.89	37.853
383.25	38.270
383.61	37.622
383.97	36.825
384.32	37.523
384.68	37.895
385.04	37.439
385.40	37.834
385.76	38.931
386.12	38.616
386.48	37.931
386.83	37.476
387.19	38.767
387.55	38.519
387.91	38.142
388.27	37.607
388.62	39.648
388.98	37.385
389.34	39.288
389.70	38.347
390.06	38.263
390.42	39.573
390.77	39.111
391.13	38.588
391.49	39.457
391.85	39.181
392.20	40.050
392.56	38.271
392.92	39.225
393.28	39.505
393.64	39.219
393.99	40.878
394.35	39.469
394.71	40.166
395.07	39.221
395.42	38.130
395.78	39.935
396.14	39.596
396.50	39.759
396.85	39.214
397.21	39.787
397.57	39.122
397.92	39.904
398.28	39.483
398.64	38.253
399.00	39.391
399.35	38.826
399.71	39.345
400.07	40.266
400.42	38.862
400.78	38.579
401.14	39.504
401.49	39.726
401.85	38.452
402.21	38.735
402.57	39.062
402.92	38.959
403.28	39.724
403.63	38.714
403.99	39.541
404.35	40.787
404.70	38.750
405.06	39.013
405.42	39.093
405.77	38.989
406.13	39.756
406.49	38.366
406.84	38.631
407.20	39.133
407.55	38.699
407.91	37.901
408.27	38.177
408.62	38.523
408.98	39.618
409.34	39.901
409.69	38.178
410.05	39.286
410.40	38.889
410.76	39.445
411.11	39.000
411.47	39.711
411.83	38.920
412.18	38.739
412.54	38.826
412.89	36.884
413.25	39.771
413.60	38.261
413.96	38.466
414.31	37.866
414.67	37.267
415.03	38.282
415.38	36.880
415.74	38.176
416.09	39.517
416.45	39.230
416.80	38.401
417.16	38.743
417.51	38.241
417.87	39.113
418.22	39.573
418.58	38.395
418.93	39.310
419.29	36.620
419.64	39.080
420.00	38.917
420.35	38.746
420.71	38.032
421.06	37.999
421.42	38.522
421.77	38.728
422.12	38.138
422.48	37.845
422.83	38.979
423.19	38.318
423.54	38.036
423.90	38.928
424.25	38.863
424.61	38.923
424.96	38.328
425.31	39.053
425.67	39.378
426.02	38.987
426.38	39.699
426.73	39.346
427.09	39.684
427.44	39.000
427.79	39.246
428.15	39.078
428.50	39.007
428.85	39.681
429.21	39.445
429.56	40.377
429.92	39.034
430.27	38.847
430.62	38.683
430.98	39.013
431.33	38.906
431.68	38.566
432.04	40.246
432.39	38.448
432.74	38.906
433.10	40.000
433.45	38.829
433.80	39.930
434.16	38.892
434.51	38.656
434.86	38.560
435.22	39.428
435.57	39.800
435.92	39.162
436.28	38.879
436.63	39.418
436.98	38.702
437.34	38.536
437.69	40.549
438.04	39.430
438.39	39.218
438.75	40.862
439.10	39.106
439.45	39.197
439.81	39.205
440.16	40.321
440.51	39.045
440.86	40.242
441.22	38.575
441.57	38.631
441.92	40.399
442.27	39.634
442.63	40.257
442.98	39.632
443.33	39.176
443.68	40.000
444.03	40.984
444.39	40.089
444.74	40.803
445.09	39.699
445.44	40.855
445.79	41.052
446.15	39.152
446.50	39.101
446.85	40.117
447.20	40.615
447.55	39.955
447.91	40.214
448.26	40.353
448.61	40.299
448.96	41.193
449.31	39.942
449.66	39.837
450.02	40.901
450.37	40.130
450.72	40.836
451.07	41.076
451.42	39.201
451.77	39.602
452.12	39.474
452.47	39.987
452.83	40.459
453.18	40.101
453.53	40.013
453.88	39.951
454.23	40.504
454.58	40.806
454.93	39.755
455.28	39.937
455.63	39.864
455.98	40.229
456.34	40.868
456.69	40.407
457.04	41.399
457.39	40.705
457.74	40.750
458.09	38.493
458.44	39.789
458.79	39.888
459.14	40.675
459.49	40.597
459.84	39.425
460.19	40.595
460.54	41.443
460.89	40.909
461.24	40.994
461.59	40.439
461.94	38.805
462.29	40.350
462.64	40.997
462.99	40.487
463.34	39.708
463.69	39.447
464.04	40.315
464.39	39.721
464.74	40.000
465.09	41.235
465.44	41.777
465.79	40.420
466.14	40.992
466.49	40.426
466.84	41.106
467.19	41.802
467.54	40.038
467.89	40.114
468.24	40.268
468.59	42.286
468.94	39.937
469.29	40.984
469.64	40.602
469.99	41.205
470.34	40.273
470.68	39.821
471.03	40.835
471.38	40.514
471.73	40.686
472.08	38.738
472.43	40.336
472.78	39.411
473.13	40.340
473.48	41.564
473.83	39.851
474.17	40.285
474.52	39.183
474.87	40.667
475.22	40.696
475.57	40.824
475.92	40.318
476.27	40.512
476.61	39.988
476.96	39.654
477.31	40.346
477.66	39.888
478.01	39.641
478.36	39.978
478.70	40.783
479.05	40.330
479.40	40.488
479.75	39.625
480.10	40.553
480.45	39.850
480.79	41.138
481.14	42.008
481.49	39.901
481.84	40.878
482.19	39.570
482.53	41.151
482.88	38.616
483.23	40.163
483.58	39.340
483.92	39.981
484.27	40.611
484.62	39.937
484.97	40.216
485.31	40.860
485.66	40.193
486.01	41.505
486.36	42.030
486.70	41.207
487.05	40.719
487.40	41.262
487.75	40.563
488.09	39.957
488.44	40.440
488.79	39.634
489.13	39.984
489.48	40.060
489.83	39.641
490.17	38.787
490.52	39.215
490.87	39.195
491.22	39.733
491.56	39.469
491.91	39.149
492.26	40.301
492.60	39.395
492.95	39.941
493.30	39.228
493.64	41.061
493.99	39.130
494.34	40.097
494.68	40.286
495.03	39.708
495.37	40.088
495.72	40.030
496.07	39.756
496.41	39.953
496.76	40.120
497.11	39.404
497.45	39.809
497.80	40.918
498.14	38.847
498.49	39.766
498.84	39.920
499.18	40.512
499.53	39.782
499.87	40.370
500.22	38.625
500.56	40.393
500.91	39.106
501.26	39.446
501.60	39.646
501.95	39.981
502.29	40.678
502.64	40.010
502.98	40.947
503.33	39.385
503.67	39.373
504.02	40.909
504.36	39.832
504.71	40.303
505.06	39.507
505.40	39.391
505.75	40.052
506.09	39.128
506.44	39.784
506.78	39.592
507.13	39.555
507.47	39.217
507.82	39.209
508.16	38.774
508.51	40.504
508.85	39.717
509.19	39.117
509.54	40.322
509.88	39.482
510.23	39.591
510.57	39.818
510.92	38.913
511.26	39.662
511.61	40.264
511.95	40.110
512.30	39.080
512.64	40.011
512.98	38.855
513.33	40.179
513.67	38.431
514.02	40.160
514.36	40.343
514.70	40.268
515.05	40.599
515.39	39.256
515.74	41.257
516.08	40.048
516.42	40.342
516.77	39.789
517.11	40.890
517.46	39.557
517.80	39.213
518.14	39.437
518.49	39.183
518.83	40.158
519.17	38.508
519.52	39.550
519.86	38.715
520.20	40.158
520.55	38.524
520.89	40.151
521.23	38.885
521.58	39.369
521.92	40.321
522.26	39.427
522.61	39.221
522.95	40.331
523.29	38.945
523.64	39.771
523.98	40.570
524.32	39.433
524.66	40.525
525.01	40.325
525.35	39.339
525.69	40.337
526.04	39.352
526.38	39.883
526.72	39.045
527.06	39.624
527.41	40.501
527.75	38.874
528.09	39.601
528.43	40.716
528.78	38.416
529.12	39.097
529.46	39.181
529.80	39.139
530.15	40.990
530.49	39.327
530.83	40.014
531.17	39.758
531.51	40.014
531.86	38.681
532.20	39.179
532.54	39.891
532.88	40.657
533.22	39.180
533.57	39.777
533.91	39.752
534.25	40.690
534.59	38.807
534.93	39.711
535.27	39.277
535.62	39.793
535.96	39.465
536.30	40.435
536.64	39.904
536.98	39.652
537.32	39.900
537.66	41.024
538.01	40.350
538.35	40.014
538.69	38.948
539.03	38.893
539.37	39.569
539.71	39.400
540.05	39.172
540.39	39.404
540.73	39.331
541.07	39.848
541.42	39.852
541.76	40.812
542.10	39.367
542.44	40.584
542.78	38.197
543.12	40.247
543.46	40.682
543.80	41.221
544.14	39.119
544.48	39.307
544.82	40.465
545.16	40.232
545.50	40.654
545.84	40.014
546.18	40.426
546.52	39.366
546.86	39.756
547.20	40.486
547.54	39.152
547.88	40.897
548.22	39.053
548.56	39.050
548.90	41.173
549.24	39.738
549.58	39.492
549.92	38.456
550.26	40.879
550.60	40.446
550.94	39.432
551.28	39.645
551.62	40.000
551.96	39.925
552.30	39.693
552.64	40.127
552.98	40.577
553.32	39.087
553.66	39.695
554.00	39.854
554.34	39.513
554.68	38.422
555.02	40.030
555.36	38.968
555.69	39.634
556.03	40.257
556.37	39.288
556.71	39.783
557.05	40.716
557.39	38.067
557.73	40.255
558.07	40.498
558.41	39.510
558.75	38.504
559.08	40.110
559.42	39.206
559.76	39.712
560.10	39.067
560.44	39.538
560.78	40.629
561.12	41.326
561.45	41.883
561.79	40.476
562.13	40.028
562.47	39.712
562.81	40.418
563.15	39.563
563.48	40.099
563.82	40.082
564.16	39.903
564.50	40.676
564.84	40.562
565.17	39.839
565.51	41.462
565.85	41.427
566.19	39.721
566.52	40.885
566.86	40.938
567.20	40.847
567.54	40.876
567.88	41.301
568.21	42.308
568.55	40.652
568.89	41.632
569.23	41.310
569.56	42.119
569.90	43.078
570.24	41.347
570.57	42.545
570.91	42.733
571.25	41.730
571.59	41.732
571.92	41.067
572.26	42.150
572.60	42.016
572.93	41.261
573.27	41.944
573.61	42.094
573.95	42.299
574.28	42.029
574.62	42.004
574.96	42.059
575.29	42.554
575.63	41.358
575.97	41.095
576.30	41.861
576.64	41.669
576.98	42.574
577.31	42.394
577.65	42.110
577.98	42.244
578.32	42.231
578.66	41.758
578.99	42.068
579.33	41.844
579.67	41.711
580.00	42.152
580.34	42.637
580.67	41.939
581.01	41.931
581.35	42.248
581.68	42.787
582.02	43.182
582.35	42.377
582.69	42.501
583.02	42.085
583.36	41.755
583.70	42.290
584.03	42.146
584.37	42.377
584.70	42.308
585.04	41.839
585.37	42.015
585.71	42.360
586.04	41.704
586.38	41.638
586.72	42.841
587.05	43.212
587.39	42.466
587.72	42.947
588.06	42.264
588.39	42.068
588.73	40.995
589.06	42.107
589.40	42.136
589.73	42.059
590.07	42.032
590.40	42.608
590.73	42.875
591.07	41.433
591.40	41.719
591.74	41.719
592.07	41.651
592.41	42.889
592.74	42.015
593.08	41.600
593.41	42.142
593.75	41.413
594.08	41.092
594.41	41.048
594.75	42.290
595.08	41.809
595.42	42.584
595.75	42.246
596.09	41.751
596.42	41.091
596.75	42.318
597.09	40.729
597.42	41.644
597.75	42.464
598.09	41.693
598.42	41.606
598.76	41.570
599.09	41.747
599.42	41.341
599.76	42.325
600.09	41.780
600.42	41.736
600.76	40.936
601.09	41.641
601.42	42.068
601.76	42.358
602.09	41.460
602.42	42.123
602.76	41.893
603.09	42.110
603.42	42.475
603.76	41.210
604.09	41.677
604.42	42.005
604.76	42.234
605.09	42.505
605.42	41.490
605.75	41.813
606.09	41.741
606.42	41.076
606.75	41.515
607.09	41.626
607.42	40.673
607.75	40.808
608.08	40.386
608.42	40.566
608.75	42.169
609.08	42.451
609.41	42.030
609.75	41.784
610.08	42.287
610.41	41.159
610.74	41.784
611.07	41.137
611.41	41.567
611.74	41.791
612.07	40.899
612.40	40.919
612.73	41.977
613.07	40.664
613.40	41.411
613.73	41.130
614.06	41.514
614.39	41.963
614.72	41.401
615.06	41.508
615.39	41.321
615.72	39.989
616.05	41.620
616.38	40.114
616.71	40.856
617.05	41.137
617.38	41.546
617.71	42.579
618.04	41.968
618.37	41.236
618.70	42.178
619.03	41.389
619.36	39.436
619.69	42.456
620.03	42.075
620.36	39.914
620.69	41.613
621.02	41.667
621.35	41.577
621.68	40.306
622.01	41.583
622.34	42.059
622.67	42.035
623.00	39.893
623.33	41.235
623.66	39.940
623.99	41.225
624.32	40.380
624.65	39.925
624.99	41.309
625.32	40.940
625.65	41.084
625.98	40.371
626.31	39.485
626.64	41.248
626.97	40.489
627.30	41.156
627.63	39.948
627.96	40.970
628.29	41.998
628.62	40.806
628.95	39.279
629.28	39.718
629.61	39.781
629.94	39.589
630.26	39.328
630.59	40.479
630.92	38.974
631.25	38.872
631.58	38.106
631.91	39.145
632.24	40.596
632.57	40.909
632.90	37.722
633.23	38.235
633.56	39.169
633.89	39.457
634.22	41.605
634.55	39.136
