SpectraSuite Data File
++++++++++++++++++++++++++++++++++++
Date: Fri May 15 17:28:18 PDT 2015
User: schluterlab
Dark Spectrum Present: Yes
Reference Spectrum Present: Yes
Number of Sampled Component Spectra: 1
Spectrometers: USB2E3373
Integration Time (usec): 3000 (USB2E3373)
Spectra Averaged: 3 (USB2E3373)
Boxcar Smoothing: 0 (USB2E3373)
Correct for Electrical Dark: No (USB2E3373)
Strobe/Lamp Enabled: No (USB2E3373)
Correct for Detector Non-linearity: No (USB2E3373)
Correct for Stray Light: No (USB2E3373)
Number of Pixels in Processed Spectrum: 2048
>>>>>Begin Processed Spectral Data<<<<<
178.53	0.000
178.91	0.000
179.29	125.000
179.67	-350.000
180.04	14.286
180.42	100.000
180.80	-300.000
181.18	66.667
181.56	600.000
181.94	-300.000
182.31	400.000
182.69	-100.000
183.07	-366.667
183.45	-280.000
183.83	-133.333
184.20	9.091
184.58	77.778
184.96	-175.000
185.34	233.333
185.72	-650.000
186.09	76.923
186.47	-100.000
186.85	16.667
187.23	33.333
187.61	400.000
187.98	-66.667
188.36	-66.667
188.74	366.667
189.12	41.176
189.49	50.000
189.87	0.000
190.25	35.714
190.63	300.000
191.00	-266.667
191.38	26.316
191.76	150.000
192.14	-75.000
192.51	-250.000
192.89	-22.222
193.27	0.000
193.65	183.333
194.02	81.818
194.40	70.000
194.78	-62.500
195.15	-16.667
195.53	37.500
195.91	150.000
196.29	-100.000
196.66	46.154
197.04	71.429
197.42	-88.889
197.79	-633.333
198.17	-115.385
198.55	1200.000
198.92	-133.333
199.30	500.000
199.68	180.000
200.05	-233.333
200.43	0.000
200.81	-166.667
201.18	-233.333
201.56	1200.000
201.94	-250.000
202.31	66.667
202.69	-160.000
203.07	200.000
203.44	100.000
203.82	0.000
204.19	71.429
204.57	-100.000
204.95	62.500
205.32	40.000
205.70	157.143
206.08	0.000
206.45	177.778
206.83	85.714
207.20	114.286
207.58	-400.000
207.96	-66.667
208.33	-80.000
208.71	0.000
209.08	-150.000
209.46	-400.000
209.84	100.000
210.21	-100.000
210.59	171.429
210.96	-100.000
211.34	125.000
211.71	40.000
212.09	-142.857
212.46	-300.000
212.84	0.000
213.22	90.000
213.59	-0.000
213.97	30.769
214.34	90.909
214.72	100.000
215.09	275.000
215.47	23.077
215.84	45.455
216.22	0.000
216.59	50.000
216.97	400.000
217.34	150.000
217.72	-180.000
218.09	100.000
218.47	50.000
218.84	-600.000
219.22	-11.111
219.59	-60.000
219.97	166.667
220.34	150.000
220.72	100.000
221.09	200.000
221.47	-100.000
221.84	-500.000
222.22	-50.000
222.59	90.909
222.97	58.333
223.34	200.000
223.72	0.000
224.09	47.619
224.46	7.143
224.84	166.667
225.21	100.000
225.59	106.667
225.96	-450.000
226.34	75.000
226.71	57.143
227.08	33.333
227.46	125.000
227.83	-200.000
228.21	-11.111
228.58	45.455
228.95	25.000
229.33	-20.000
229.70	31.250
230.08	-125.000
230.45	-14.286
230.82	242.857
231.20	53.333
231.57	78.571
231.95	42.857
232.32	40.000
232.69	78.571
233.07	166.667
233.44	-20.000
233.81	20.000
234.19	66.667
234.56	11.765
234.93	-100.000
235.31	25.000
235.68	-260.000
236.05	7.692
236.43	70.000
236.80	58.824
237.17	65.625
237.55	40.000
237.92	-3.704
238.29	52.778
238.67	63.333
239.04	58.824
239.41	43.902
239.79	46.667
240.16	78.049
240.53	34.211
240.91	36.957
241.28	41.270
241.65	75.000
242.02	61.644
242.40	51.667
242.77	66.102
243.14	45.455
243.51	50.000
243.89	52.874
244.26	51.724
244.63	50.000
245.00	48.454
245.38	54.639
245.75	46.067
246.12	47.414
246.49	61.157
246.87	62.500
247.24	56.303
247.61	55.263
247.98	56.911
248.36	48.750
248.73	46.711
249.10	46.753
249.47	48.101
249.84	52.941
250.22	55.294
250.59	56.863
250.96	50.704
251.33	41.860
251.70	49.412
252.08	50.761
252.45	45.050
252.82	61.809
253.19	57.143
253.56	48.598
253.94	51.351
254.31	46.957
254.68	57.456
255.05	51.575
255.42	52.838
255.79	47.876
256.16	53.696
256.54	52.985
256.91	50.570
257.28	52.416
257.65	54.682
258.02	50.709
258.39	55.556
258.76	60.440
259.14	55.482
259.51	51.780
259.88	51.546
260.25	51.961
260.62	58.681
260.99	49.153
261.36	57.534
261.73	52.848
262.10	54.103
262.47	54.294
262.85	51.724
263.22	49.846
263.59	54.206
263.96	55.901
264.33	52.727
264.70	50.893
265.07	53.571
265.44	57.224
265.81	55.085
266.18	54.372
266.55	53.213
266.92	52.850
267.29	55.091
267.66	53.197
268.03	54.188
268.40	48.303
268.77	54.011
269.14	53.957
269.51	54.499
269.88	55.611
270.25	51.786
270.62	50.000
270.99	53.708
271.36	53.301
271.73	51.878
272.10	52.798
272.47	54.610
272.84	50.743
273.21	55.220
273.58	53.253
273.95	51.259
274.32	48.961
274.69	52.489
275.06	54.464
275.43	49.206
275.80	49.890
276.17	54.943
276.54	47.752
276.91	52.851
277.28	50.000
277.65	48.760
278.02	51.277
278.39	49.891
278.76	53.459
279.13	49.378
279.50	51.050
279.87	51.836
280.23	49.677
280.60	50.097
280.97	50.303
281.34	48.462
281.71	51.951
282.08	47.239
282.45	47.554
282.82	47.104
283.19	50.097
283.56	50.482
283.92	47.628
284.29	48.269
284.66	48.450
285.03	48.527
285.40	48.015
285.77	43.937
286.14	46.751
286.51	50.738
286.87	46.069
287.24	47.514
287.61	48.148
287.98	49.298
288.35	46.101
288.72	47.461
289.08	47.743
289.45	47.100
289.82	47.727
290.19	45.222
290.56	46.484
290.93	45.455
291.29	40.986
291.66	42.677
292.03	42.265
292.40	40.806
292.77	41.627
293.13	39.773
293.50	40.971
293.87	40.458
294.24	38.331
294.60	41.729
294.97	38.542
295.34	42.485
295.71	40.984
296.08	39.163
296.44	37.980
296.81	38.056
297.18	37.536
297.55	39.702
297.91	39.589
298.28	39.050
298.65	35.957
299.02	37.601
299.38	36.799
299.75	36.690
300.12	35.864
300.48	36.891
300.85	35.488
301.22	35.974
301.59	34.605
301.95	35.823
302.32	35.927
302.69	36.567
303.05	34.901
303.42	35.243
303.79	35.514
304.15	34.886
304.52	34.602
304.89	34.620
305.25	34.504
305.62	33.839
305.99	32.865
306.35	33.988
306.72	32.846
307.09	34.664
307.45	34.214
307.82	33.102
308.19	34.727
308.55	33.806
308.92	35.512
309.29	33.296
309.65	34.230
310.02	33.663
310.38	34.138
310.75	35.301
311.12	33.907
311.48	34.464
311.85	32.251
312.22	33.650
312.58	33.439
312.95	32.444
313.31	32.091
313.68	31.832
314.05	33.776
314.41	34.021
314.78	33.918
315.14	35.560
315.51	36.439
315.87	33.811
316.24	36.299
316.61	34.055
316.97	34.325
317.34	33.691
317.70	35.564
318.07	34.423
318.43	35.490
318.80	35.606
319.16	36.133
319.53	35.802
319.89	35.236
320.26	37.247
320.62	37.312
320.99	36.117
321.35	37.410
321.72	37.175
322.08	37.261
322.45	39.391
322.81	38.605
323.18	39.156
323.54	39.189
323.91	39.046
324.27	41.113
324.64	40.824
325.00	40.693
325.37	42.424
325.73	39.982
326.10	43.324
326.46	43.139
326.83	42.782
327.19	45.336
327.56	45.004
327.92	45.687
328.29	45.804
328.65	47.830
329.01	46.967
329.38	46.820
329.74	46.553
330.11	47.544
330.47	47.959
330.84	48.654
331.20	51.616
331.56	48.241
331.93	50.868
332.29	51.237
332.66	49.683
333.02	50.651
333.38	51.512
333.75	52.564
334.11	50.492
334.48	51.859
334.84	52.656
335.20	53.614
335.57	51.043
335.93	55.375
336.29	52.118
336.66	51.953
337.02	53.253
337.38	54.907
337.75	53.818
338.11	52.660
338.47	55.018
338.84	54.713
339.20	53.839
339.56	53.578
339.93	53.805
340.29	54.220
340.65	55.466
341.02	53.812
341.38	53.628
341.74	52.915
342.11	53.466
342.47	54.893
342.83	53.287
343.20	53.397
343.56	55.391
343.92	55.447
344.28	54.056
344.65	54.663
345.01	54.538
345.37	53.743
345.73	55.146
346.10	55.393
346.46	54.247
346.82	53.028
347.19	52.535
347.55	52.047
347.91	53.964
348.27	53.436
348.63	54.089
349.00	54.061
349.36	54.780
349.72	54.975
350.08	54.098
350.45	54.669
350.81	53.821
351.17	53.013
351.53	54.367
351.89	52.766
352.26	53.360
352.62	53.871
352.98	51.807
353.34	53.623
353.70	55.178
354.07	53.548
354.43	53.803
354.79	54.583
355.15	53.492
355.51	53.006
355.87	54.207
356.24	52.610
356.60	53.193
356.96	54.365
357.32	53.674
357.68	53.088
358.04	53.393
358.40	53.698
358.77	55.821
359.13	54.283
359.49	53.698
359.85	53.588
360.21	54.545
360.57	53.558
360.93	53.858
361.29	52.341
361.66	54.310
362.02	53.712
362.38	54.379
362.74	53.974
363.10	53.273
363.46	53.225
363.82	54.771
364.18	52.915
364.54	53.456
364.90	53.118
365.26	52.547
365.62	56.350
365.98	54.472
366.35	54.334
366.71	54.989
367.07	54.717
367.43	54.493
367.79	53.428
368.15	54.056
368.51	54.261
368.87	54.415
369.23	53.069
369.59	55.029
369.95	56.012
370.31	53.540
370.67	54.104
371.03	53.174
371.39	53.100
371.75	53.919
372.11	53.210
372.47	55.030
372.83	54.152
373.19	54.922
373.55	54.152
373.91	54.212
374.27	55.776
374.63	56.138
374.99	54.752
375.35	54.735
375.71	55.175
376.07	55.126
376.42	53.537
376.78	55.906
377.14	54.299
377.50	55.312
377.86	56.158
378.22	55.584
378.58	57.051
378.94	55.198
379.30	55.022
379.66	56.740
380.02	55.303
380.38	54.656
380.74	55.057
381.09	56.258
381.45	56.208
381.81	54.719
382.17	56.028
382.53	55.590
382.89	56.811
383.25	56.627
383.61	55.793
383.97	56.000
384.32	56.348
384.68	55.232
385.04	56.127
385.40	56.192
385.76	58.176
386.12	56.598
386.48	57.024
386.83	57.261
387.19	57.143
387.55	57.967
387.91	56.296
388.27	56.105
388.62	58.842
388.98	57.397
389.34	56.215
389.70	58.173
390.06	57.332
390.42	57.319
390.77	57.292
391.13	57.314
391.49	58.021
391.85	58.674
392.20	57.250
392.56	58.551
392.92	58.250
393.28	57.547
393.64	56.336
393.99	58.683
394.35	57.559
394.71	58.429
395.07	56.191
395.42	57.316
395.78	57.134
396.14	58.008
396.50	58.465
396.85	58.017
397.21	56.955
397.57	57.994
397.92	57.280
398.28	58.448
398.64	55.422
399.00	57.901
399.35	55.982
399.71	56.864
400.07	57.860
400.42	56.242
400.78	58.236
401.14	56.987
401.49	56.820
401.85	56.246
402.21	56.867
402.57	57.812
402.92	56.085
403.28	57.393
403.63	56.747
403.99	57.270
404.35	56.652
404.70	55.179
405.06	56.698
405.42	55.998
405.77	55.840
406.13	57.276
406.49	56.187
406.84	58.007
407.20	58.218
407.55	57.051
407.91	57.687
408.27	56.979
408.62	57.292
408.98	56.007
409.34	56.382
409.69	55.168
410.05	56.404
410.40	55.926
410.76	56.333
411.11	56.625
411.47	57.133
411.83	56.309
412.18	56.821
412.54	55.368
412.89	55.788
413.25	57.341
413.60	56.460
413.96	56.687
414.31	55.854
414.67	57.024
415.03	55.992
415.38	56.005
415.74	57.524
416.09	56.695
416.45	58.204
416.80	56.444
417.16	57.873
417.51	56.096
417.87	57.432
418.22	57.254
418.58	57.726
418.93	57.680
419.29	55.506
419.64	57.874
420.00	60.013
420.35	56.955
420.71	57.837
421.06	58.318
421.42	57.091
421.77	57.688
422.12	56.867
422.48	57.336
422.83	59.397
423.19	58.465
423.54	58.025
423.90	57.715
424.25	57.979
424.61	59.364
424.96	58.130
425.31	60.890
425.67	58.509
426.02	59.011
426.38	59.173
426.73	58.717
427.09	59.367
427.44	58.235
427.79	58.574
428.15	59.102
428.50	58.995
428.85	59.582
429.21	60.215
429.56	59.461
429.92	59.579
430.27	58.997
430.62	58.442
430.98	61.146
431.33	59.884
431.68	59.550
432.04	60.537
432.39	59.156
432.74	59.591
433.10	60.805
433.45	60.753
433.80	60.998
434.16	59.945
434.51	59.892
434.86	60.859
435.22	60.067
435.57	61.697
435.92	62.455
436.28	60.346
436.63	61.380
436.98	60.834
437.34	62.190
437.69	61.181
438.04	61.197
438.39	61.759
438.75	62.174
439.10	61.517
439.45	62.203
439.81	62.263
440.16	62.827
440.51	61.970
440.86	63.021
441.22	61.652
441.57	62.086
441.92	63.169
442.27	64.468
442.63	63.865
442.98	62.033
443.33	61.937
443.68	61.751
444.03	63.537
444.39	62.814
444.74	63.824
445.09	64.978
445.44	64.330
445.79	65.137
446.15	63.106
446.50	63.561
446.85	65.143
447.20	63.347
447.55	64.007
447.91	64.016
448.26	65.111
448.61	65.343
448.96	64.945
449.31	64.451
449.66	64.866
450.02	64.746
450.37	65.086
450.72	63.803
451.07	66.772
451.42	64.919
451.77	64.014
452.12	63.457
452.47	62.846
452.83	65.018
453.18	65.338
453.53	65.424
453.88	64.481
454.23	63.860
454.58	65.869
454.93	65.786
455.28	64.889
455.63	64.910
455.98	65.664
456.34	63.602
456.69	67.217
457.04	65.784
457.39	66.768
457.74	66.868
458.09	65.627
458.44	66.589
458.79	66.218
459.14	65.847
459.49	65.970
459.84	65.426
460.19	65.959
460.54	66.687
460.89	66.193
461.24	66.522
461.59	66.211
461.94	64.591
462.29	67.913
462.64	67.508
462.99	67.095
463.34	66.342
463.69	67.632
464.04	67.494
464.39	67.435
464.74	67.178
465.09	66.999
465.44	68.609
465.79	65.816
466.14	67.218
466.49	67.395
466.84	67.460
467.19	67.960
467.54	68.327
467.89	67.909
468.24	67.275
468.59	67.302
468.94	65.841
469.29	67.082
469.64	67.191
469.99	69.096
470.34	68.259
470.68	68.456
471.03	68.577
471.38	68.688
471.73	67.367
472.08	67.707
472.43	68.188
472.78	66.758
473.13	68.027
473.48	68.664
473.83	67.684
474.17	68.782
474.52	67.900
474.87	69.030
475.22	69.189
475.57	68.662
475.92	68.897
476.27	69.674
476.61	70.081
476.96	67.429
477.31	69.281
477.66	69.213
478.01	70.578
478.36	69.444
478.70	70.310
479.05	69.396
479.40	69.475
479.75	69.604
480.10	69.278
480.45	70.500
480.79	70.846
481.14	70.543
481.49	70.690
481.84	71.429
482.19	70.206
482.53	70.360
482.88	69.212
483.23	69.242
483.58	70.755
483.92	69.361
484.27	69.371
484.62	70.596
484.97	69.030
485.31	70.303
485.66	70.339
486.01	72.618
486.36	71.724
486.70	72.396
487.05	71.677
487.40	71.070
487.75	71.803
488.09	71.075
488.44	70.736
488.79	71.311
489.13	70.793
489.48	70.971
489.83	70.583
490.17	70.382
490.52	69.885
490.87	69.551
491.22	72.875
491.56	71.490
491.91	70.507
492.26	70.831
492.60	69.962
492.95	71.717
493.30	71.275
493.64	71.807
493.99	71.111
494.34	71.311
494.68	70.762
495.03	70.657
495.37	71.344
495.72	71.984
496.07	71.951
496.41	72.736
496.76	72.225
497.11	71.355
497.45	72.220
497.80	71.493
498.14	71.237
498.49	71.965
498.84	70.659
499.18	71.837
499.53	72.222
499.87	71.547
500.22	71.414
500.56	72.920
500.91	71.737
501.26	71.033
501.60	72.258
501.95	71.955
502.29	73.220
502.64	73.214
502.98	72.570
503.33	71.566
503.67	72.386
504.02	72.727
504.36	72.044
504.71	72.778
505.06	71.213
505.40	72.386
505.75	73.351
506.09	72.124
506.44	72.947
506.78	73.622
507.13	71.923
507.47	71.540
507.82	72.222
508.16	72.108
508.51	73.557
508.85	72.684
509.19	73.124
509.54	73.029
509.88	71.953
510.23	72.673
510.57	72.849
510.92	70.522
511.26	73.486
511.61	73.212
511.95	72.822
512.30	72.838
512.64	72.287
512.98	73.554
513.33	72.076
513.67	72.769
514.02	74.314
514.36	73.600
514.70	74.242
515.05	73.854
515.39	73.022
515.74	74.132
516.08	73.521
516.42	73.910
516.77	73.669
517.11	74.243
517.46	73.788
517.80	73.957
518.14	72.994
518.49	72.776
518.83	72.904
519.17	73.135
519.52	72.232
519.86	72.329
520.20	72.236
520.55	71.920
520.89	73.400
521.23	73.528
521.58	73.817
521.92	72.628
522.26	73.390
522.61	74.091
522.95	75.033
523.29	73.253
523.64	74.333
523.98	74.141
524.32	73.647
524.66	74.392
525.01	74.091
525.35	72.521
525.69	74.141
526.04	71.958
526.38	74.449
526.72	73.250
527.06	71.920
527.41	73.219
527.75	73.123
528.09	72.957
528.43	74.072
528.78	73.597
529.12	74.000
529.46	74.204
529.80	73.591
530.15	74.917
530.49	73.939
530.83	76.129
531.17	73.741
531.51	73.598
531.86	72.468
532.20	74.669
532.54	73.451
532.88	74.675
533.22	75.336
533.57	73.591
533.91	74.869
534.25	75.065
534.59	74.599
534.93	73.442
535.27	72.716
535.62	74.465
535.96	75.408
536.30	75.396
536.64	75.465
536.98	73.589
537.32	75.747
537.66	75.666
538.01	75.944
538.35	75.035
538.69	74.767
539.03	73.342
539.37	74.361
539.71	74.029
540.05	74.202
540.39	73.892
540.73	74.826
541.07	75.345
541.42	74.126
541.76	74.329
542.10	75.981
542.44	75.122
542.78	73.297
543.12	74.519
543.46	74.131
543.80	76.405
544.14	73.431
544.48	74.484
544.82	76.965
545.16	75.751
545.50	75.100
545.84	75.071
546.18	75.603
546.52	73.828
546.86	73.760
547.20	75.250
547.54	74.064
547.88	75.476
548.22	72.124
548.56	74.538
548.90	76.078
549.24	73.140
549.58	73.131
549.92	73.410
550.26	73.480
550.60	74.796
550.94	75.803
551.28	76.121
551.62	78.538
551.96	76.692
552.30	75.146
552.64	74.118
552.98	75.387
553.32	74.893
553.66	73.657
554.00	75.547
554.34	76.145
554.68	74.779
555.02	74.851
555.36	74.420
555.69	75.238
556.03	74.518
556.37	74.662
556.71	73.141
557.05	75.764
557.39	72.714
557.73	74.663
558.07	75.943
558.41	75.881
558.75	76.150
559.08	74.468
559.42	74.683
559.76	76.541
560.10	74.771
560.44	76.471
560.78	74.196
561.12	75.388
561.45	76.950
561.79	76.821
562.13	76.153
562.47	75.971
562.81	74.784
563.15	73.625
563.48	74.682
563.82	76.253
564.16	76.671
564.50	74.797
564.84	74.632
565.17	75.654
565.51	77.664
565.85	78.258
566.19	76.658
566.52	76.944
566.86	75.643
567.20	76.588
567.54	76.582
567.88	79.906
568.21	79.581
568.55	78.315
568.89	79.004
569.23	78.286
569.56	79.028
569.90	79.821
570.24	79.047
570.57	80.582
570.91	79.644
571.25	78.560
571.59	77.733
571.92	78.430
572.26	79.257
572.60	78.140
572.93	76.906
573.27	77.335
573.61	79.385
573.95	79.219
574.28	79.025
574.62	77.676
574.96	77.512
575.29	77.663
575.63	76.652
575.97	77.636
576.30	78.943
576.64	77.033
576.98	79.665
577.31	78.496
577.65	78.899
577.98	79.248
578.32	79.124
578.66	77.498
578.99	78.989
579.33	77.992
579.67	77.113
580.00	77.570
580.34	78.209
580.67	78.462
581.01	78.386
581.35	78.553
581.68	79.099
582.02	79.703
582.35	78.997
582.69	78.866
583.02	79.128
583.36	78.874
583.70	78.842
584.03	79.650
584.37	79.023
584.70	78.489
585.04	76.891
585.37	78.059
585.71	78.400
586.04	78.417
586.38	78.448
586.72	78.737
587.05	78.798
587.39	79.620
587.72	80.016
588.06	78.854
588.39	78.952
588.73	77.411
589.06	78.669
589.40	78.120
589.73	78.021
590.07	79.192
590.40	78.522
590.73	79.654
591.07	77.820
591.40	78.851
591.74	78.009
592.07	78.340
592.41	78.092
592.74	77.977
593.08	76.982
593.41	78.386
593.75	77.396
594.08	77.892
594.41	77.183
594.75	77.901
595.08	78.434
595.42	78.248
595.75	79.009
596.09	79.124
596.42	77.842
596.75	77.975
597.09	76.902
597.42	77.823
597.75	77.966
598.09	77.184
598.42	76.805
598.76	77.392
599.09	77.324
599.42	76.203
599.76	77.314
600.09	77.376
600.42	77.104
600.76	77.266
601.09	77.176
601.42	77.086
601.76	77.809
602.09	77.558
602.42	77.843
602.76	77.377
603.09	79.111
603.42	79.431
603.76	78.065
604.09	77.683
604.42	78.342
604.76	78.371
605.09	78.062
605.42	77.652
605.75	76.138
606.09	76.645
606.42	76.480
606.75	77.056
607.09	76.527
607.42	75.676
607.75	77.575
608.08	76.640
608.42	74.783
608.75	78.120
609.08	78.027
609.41	77.005
609.75	75.806
610.08	78.333
610.41	75.507
610.74	76.889
611.07	79.638
611.41	77.063
611.74	78.518
612.07	75.749
612.40	77.735
612.73	78.192
613.07	76.828
613.40	76.313
613.73	76.889
614.06	75.904
614.39	77.778
614.72	76.134
615.06	77.039
615.39	75.928
615.72	75.404
616.05	75.140
616.38	74.245
616.71	76.942
617.05	75.849
617.38	73.790
617.71	77.484
618.04	79.365
618.37	76.860
618.70	77.030
619.03	77.083
619.36	77.713
619.69	77.862
620.03	77.356
620.36	75.250
620.69	76.445
621.02	75.459
621.35	77.510
621.68	78.827
622.01	76.750
622.34	75.738
622.67	74.921
623.00	75.038
623.33	76.524
623.66	75.542
623.99	75.870
624.32	76.122
624.65	76.241
624.99	75.696
625.32	74.223
625.65	75.334
625.98	75.101
626.31	73.815
626.64	76.083
626.97	75.218
627.30	75.919
627.63	74.783
627.96	75.562
628.29	75.208
628.62	75.713
628.95	73.848
629.28	75.000
629.61	75.673
629.94	77.224
630.26	72.826
630.59	75.442
630.92	76.000
631.25	72.615
631.58	75.661
631.91	73.026
632.24	74.885
632.57	72.727
632.90	74.496
633.23	70.824
633.56	75.315
633.89	72.873
