SpectraSuite Data File
++++++++++++++++++++++++++++++++++++
Date: Fri May 15 17:03:09 PDT 2015
User: schluterlab
Dark Spectrum Present: Yes
Reference Spectrum Present: Yes
Number of Sampled Component Spectra: 1
Spectrometers: USB2E3373
Integration Time (usec): 3000 (USB2E3373)
Spectra Averaged: 3 (USB2E3373)
Boxcar Smoothing: 0 (USB2E3373)
Correct for Electrical Dark: No (USB2E3373)
Strobe/Lamp Enabled: No (USB2E3373)
Correct for Detector Non-linearity: No (USB2E3373)
Correct for Stray Light: No (USB2E3373)
Number of Pixels in Processed Spectrum: 2048
>>>>>Begin Processed Spectral Data<<<<<
178.53	0.000
178.91	0.000
179.29	162.500
179.67	-100.000
180.04	-114.286
180.42	25.000
180.80	400.000
181.18	-133.333
181.56	-500.000
181.94	600.000
182.31	200.000
182.69	100.000
183.07	-266.667
183.45	-100.000
183.83	-0.000
184.20	63.636
184.58	22.222
184.96	25.000
185.34	-100.000
185.72	150.000
186.09	23.077
186.47	-600.000
186.85	-0.000
187.23	44.444
187.61	-900.000
187.98	400.000
188.36	33.333
188.74	-33.333
189.12	100.000
189.49	33.333
189.87	0.000
190.25	85.714
190.63	-100.000
191.00	-66.667
191.38	26.316
191.76	200.000
192.14	50.000
192.51	600.000
192.89	-33.333
193.27	0.000
193.65	83.333
194.02	45.455
194.40	-20.000
194.78	12.500
195.15	41.667
195.53	-25.000
195.91	-0.000
196.29	25.000
196.66	38.462
197.04	14.286
197.42	-66.667
197.79	-200.000
198.17	-15.385
198.55	100.000
198.92	-33.333
199.30	200.000
199.68	-20.000
200.05	-66.667
200.43	0.000
200.81	100.000
201.18	0.000
201.56	-200.000
201.94	-200.000
202.31	-200.000
202.69	-260.000
203.07	-50.000
203.44	400.000
203.82	0.000
204.19	107.143
204.57	-233.333
204.95	50.000
205.32	60.000
205.70	0.000
206.08	-25.000
206.45	311.111
206.83	78.571
207.20	0.000
207.58	500.000
207.96	-100.000
208.33	-100.000
208.71	-25.000
209.08	150.000
209.46	-300.000
209.84	-60.000
210.21	-200.000
210.59	114.286
210.96	-116.667
211.34	-75.000
211.71	86.667
212.09	-42.857
212.46	-1200.000
212.84	0.000
213.22	20.000
213.59	-350.000
213.97	76.923
214.34	154.545
214.72	-100.000
215.09	350.000
215.47	53.846
215.84	63.636
216.22	-200.000
216.59	100.000
216.97	150.000
217.34	375.000
217.72	-180.000
218.09	87.500
218.47	-0.000
218.84	-200.000
219.22	-11.111
219.59	40.000
219.97	166.667
220.34	-75.000
220.72	100.000
221.09	50.000
221.47	250.000
221.84	-300.000
222.22	-550.000
222.59	36.364
222.97	16.667
223.34	-100.000
223.72	28.571
224.09	42.857
224.46	64.286
224.84	33.333
225.21	100.000
225.59	33.333
225.96	350.000
226.34	-0.000
226.71	0.000
227.08	50.000
227.46	62.500
227.83	-550.000
228.21	111.111
228.58	81.818
228.95	75.000
229.33	170.000
229.70	25.000
230.08	-62.500
230.45	0.000
230.82	185.714
231.20	33.333
231.57	71.429
231.95	128.571
232.32	-80.000
232.69	35.714
233.07	133.333
233.44	20.000
233.81	0.000
234.19	66.667
234.56	58.824
234.93	-400.000
235.31	125.000
235.68	-100.000
236.05	23.077
236.43	20.000
236.80	17.647
237.17	37.500
237.55	10.000
237.92	7.407
238.29	19.444
238.67	36.667
239.04	11.765
239.41	4.878
239.79	-6.667
240.16	17.073
240.53	-23.684
240.91	-2.174
241.28	22.222
241.65	1.786
242.02	20.548
242.40	25.000
242.77	5.085
243.14	-12.121
243.51	22.500
243.89	8.046
244.26	3.448
244.63	14.286
245.00	5.155
245.38	12.371
245.75	-4.494
246.12	8.621
246.49	0.826
246.87	7.692
247.24	-4.202
247.61	-0.877
247.98	5.691
248.36	8.125
248.73	11.184
249.10	2.597
249.47	-1.899
249.84	7.843
250.22	3.529
250.59	6.536
250.96	10.798
251.33	2.907
251.70	4.706
252.08	9.645
252.45	6.436
252.82	6.030
253.19	7.834
253.56	2.336
253.94	5.856
254.31	8.261
254.68	7.018
255.05	6.693
255.42	5.677
255.79	2.703
256.16	7.393
256.54	6.716
256.91	5.703
257.28	5.948
257.65	6.367
258.02	5.319
258.39	5.051
258.76	7.692
259.14	7.973
259.51	6.796
259.88	3.436
260.25	4.575
260.62	4.861
260.99	3.051
261.36	1.370
261.73	4.747
262.10	5.471
262.47	4.908
262.85	4.702
263.22	4.308
263.59	6.231
263.96	7.143
264.33	5.758
264.70	2.976
265.07	3.571
265.44	5.949
265.81	7.062
266.18	7.923
266.55	7.198
266.92	6.995
267.29	8.094
267.66	6.650
268.03	4.974
268.40	4.961
268.77	8.556
269.14	5.516
269.51	6.427
269.88	4.738
270.25	5.357
270.62	2.683
270.99	5.115
271.36	3.423
271.73	4.460
272.10	4.380
272.47	4.255
272.84	4.703
273.21	6.729
273.58	7.711
273.95	5.492
274.32	6.697
274.69	4.751
275.06	6.696
275.43	4.535
275.80	8.609
276.17	4.828
276.54	5.782
276.91	5.482
277.28	3.493
277.65	5.165
278.02	5.319
278.39	4.158
278.76	4.403
279.13	3.112
279.50	5.252
279.87	7.127
280.23	2.796
280.60	5.263
280.97	5.455
281.34	5.000
281.71	4.312
282.08	7.157
282.45	5.675
282.82	3.475
283.19	5.609
283.56	6.166
283.92	2.467
284.29	3.462
284.66	3.876
285.03	3.929
285.40	4.915
285.77	3.691
286.14	3.971
286.51	4.059
286.87	4.570
287.24	4.236
287.61	4.586
287.98	6.491
288.35	4.506
288.72	4.028
289.08	4.340
289.45	5.624
289.82	5.769
290.19	4.608
290.56	3.945
290.93	4.714
291.29	3.390
291.66	5.984
292.03	3.828
292.40	5.000
292.77	3.349
293.13	1.461
293.50	3.338
293.87	5.038
294.24	2.473
294.60	5.961
294.97	5.952
295.34	2.301
295.71	3.726
296.08	4.783
296.44	2.845
296.81	4.028
297.18	2.899
297.55	4.607
297.91	3.425
298.28	4.485
298.65	2.578
299.02	4.717
299.38	2.189
299.75	3.586
300.12	2.487
300.48	2.240
300.85	3.929
301.22	2.208
301.59	2.500
301.95	3.544
302.32	2.983
302.69	3.358
303.05	4.332
303.42	3.736
303.79	4.322
304.15	3.465
304.52	2.854
304.89	3.275
305.25	3.995
305.62	2.917
305.99	3.509
306.35	3.353
306.72	3.487
307.09	4.105
307.45	3.330
307.82	3.009
308.19	3.833
308.55	4.035
308.92	4.248
309.29	1.676
309.65	3.337
310.02	3.960
310.38	2.854
310.75	3.607
311.12	4.413
311.48	3.287
311.85	4.293
312.22	1.688
312.58	2.442
312.95	3.308
313.31	2.588
313.68	3.037
314.05	3.061
314.41	3.608
314.78	2.474
315.14	2.158
315.51	3.934
315.87	3.484
316.24	4.348
316.61	3.445
316.97	3.175
317.34	4.199
317.70	2.868
318.07	2.692
318.43	3.922
318.80	2.746
319.16	4.199
319.53	4.938
319.89	2.657
320.26	4.150
320.62	4.112
320.99	1.253
321.35	3.392
321.72	3.634
322.08	2.820
322.45	2.437
322.81	3.143
323.18	3.631
323.54	3.185
323.91	3.797
324.27	4.199
324.64	3.464
325.00	3.467
325.37	5.234
325.73	2.901
326.10	4.178
326.46	3.498
326.83	4.637
327.19	4.621
327.56	3.562
327.92	5.018
328.29	4.554
328.65	2.358
329.01	3.860
329.38	4.332
329.74	3.872
330.11	5.097
330.47	4.360
330.84	2.981
331.20	5.703
331.56	3.981
331.93	4.475
332.29	5.041
332.66	4.525
333.02	3.996
333.38	3.941
333.75	4.579
334.11	2.865
334.48	4.986
334.84	4.212
335.20	3.751
335.57	4.352
335.93	5.601
336.29	4.144
336.66	3.270
337.02	2.974
337.38	3.426
337.75	4.364
338.11	4.869
338.47	4.562
338.84	4.621
339.20	4.022
339.56	3.945
339.93	4.029
340.29	3.394
340.65	5.018
341.02	3.989
341.38	4.779
341.74	3.799
342.11	2.860
342.47	4.626
342.83	4.152
343.20	3.746
343.56	4.609
343.92	3.277
344.28	4.270
344.65	3.972
345.01	3.371
345.37	4.878
345.73	4.937
346.10	4.487
346.46	3.616
346.82	4.910
347.19	3.325
347.55	4.344
347.91	5.178
348.27	3.961
348.63	4.855
349.00	3.856
349.36	3.491
349.72	4.229
350.08	3.361
350.45	4.868
350.81	2.907
351.17	3.013
351.53	5.143
351.89	3.799
352.26	4.080
352.62	3.871
352.98	4.819
353.34	3.784
353.70	4.612
354.07	3.548
354.43	3.843
354.79	3.055
355.15	4.524
355.51	3.956
355.87	4.045
356.24	2.692
356.60	3.072
356.96	4.841
357.32	4.393
357.68	3.206
358.04	3.554
358.40	3.215
358.77	4.466
359.13	4.484
359.49	4.160
359.85	4.134
360.21	3.190
360.57	4.055
360.93	4.690
361.29	3.701
361.66	3.448
362.02	4.394
362.38	4.113
362.74	3.558
363.10	4.364
363.46	3.336
363.82	4.884
364.18	4.649
364.54	4.118
364.90	3.513
365.26	3.348
365.62	3.942
365.98	3.886
366.35	3.059
366.71	4.361
367.07	4.427
367.43	3.882
367.79	4.028
368.15	4.666
368.51	4.807
368.87	3.015
369.23	4.693
369.59	3.499
369.95	4.252
370.31	3.829
370.67	3.507
371.03	3.286
371.39	3.428
371.75	3.736
372.11	3.709
372.47	3.920
372.83	4.258
373.19	4.351
373.55	3.827
373.91	4.176
374.27	4.040
374.63	4.666
374.99	3.050
375.35	3.969
375.71	3.986
376.07	4.073
376.42	3.810
376.78	4.564
377.14	3.859
377.50	3.785
377.86	4.418
378.22	4.020
378.58	3.974
378.94	3.592
379.30	4.367
379.66	5.078
380.02	3.801
380.38	3.713
380.74	3.770
381.09	3.926
381.45	4.037
381.81	3.886
382.17	3.553
382.53	4.122
382.89	3.955
383.25	4.231
383.61	4.390
383.97	2.984
384.32	3.815
384.68	3.467
385.04	3.431
385.40	3.671
385.76	4.591
386.12	4.657
386.48	3.895
386.83	4.185
387.19	4.884
387.55	4.141
387.91	4.584
388.27	4.212
388.62	4.091
388.98	4.174
389.34	4.560
389.70	4.288
390.06	4.279
390.42	3.821
390.77	3.793
391.13	3.657
391.49	4.528
391.85	4.224
392.20	4.269
392.56	5.531
392.92	4.521
393.28	4.304
393.64	5.045
393.99	5.643
394.35	4.617
394.71	5.236
395.07	4.840
395.42	4.250
395.78	4.821
396.14	4.792
396.50	4.946
396.85	4.636
397.21	5.138
397.57	4.639
397.92	5.512
398.28	4.885
398.64	4.337
399.00	5.192
399.35	3.950
399.71	4.997
400.07	5.381
400.42	5.630
400.78	5.328
401.14	5.445
401.49	5.599
401.85	4.997
402.21	5.783
402.57	5.375
402.92	4.391
403.28	5.201
403.63	4.981
403.99	4.719
404.35	5.934
404.70	5.536
405.06	5.170
405.42	5.469
405.77	4.648
406.13	4.657
406.49	4.973
406.84	5.134
407.20	5.238
407.55	4.379
407.91	4.947
408.27	5.099
408.62	5.662
408.98	5.607
409.34	5.576
409.69	5.103
410.05	5.296
410.40	5.247
410.76	5.489
411.11	5.625
411.47	5.457
411.83	5.022
412.18	5.148
412.54	5.618
412.89	5.111
413.25	5.716
413.60	5.404
413.96	5.644
414.31	6.463
414.67	5.709
415.03	5.859
415.38	5.026
415.74	6.450
416.09	5.748
416.45	6.009
416.80	5.948
417.16	5.387
417.51	6.329
417.87	6.323
418.22	6.282
418.58	5.686
418.93	6.583
419.29	5.698
419.64	5.638
420.00	6.486
420.35	6.149
420.71	6.379
421.06	6.262
421.42	6.611
421.77	6.474
422.12	5.846
422.48	5.847
422.83	6.613
423.19	6.772
423.54	5.879
423.90	5.830
424.25	6.429
424.61	6.610
424.96	6.911
425.31	6.932
425.67	6.925
426.02	6.478
426.38	6.700
426.73	6.901
427.09	7.089
427.44	7.471
427.79	6.070
428.15	7.221
428.50	6.965
428.85	7.125
429.21	7.527
429.56	7.925
429.92	7.499
430.27	7.368
430.62	6.325
430.98	6.263
431.33	7.256
431.68	6.698
432.04	6.260
432.39	7.131
432.74	6.073
433.10	7.586
433.45	6.989
433.80	6.558
434.16	6.759
434.51	6.989
434.86	7.724
435.22	7.796
435.57	7.735
435.92	7.425
436.28	7.096
436.63	7.872
436.98	6.605
437.34	6.776
437.69	7.335
438.04	7.635
438.39	7.392
438.75	7.286
439.10	7.301
439.45	7.669
439.81	7.401
440.16	7.304
440.51	8.239
440.86	8.882
441.22	8.032
441.57	7.064
441.92	8.919
442.27	7.151
442.63	8.458
442.98	7.926
443.33	7.624
443.68	7.533
444.03	7.799
444.39	8.067
444.74	8.417
445.09	7.684
445.44	7.407
445.79	8.716
446.15	7.819
446.50	7.321
446.85	7.811
447.20	7.925
447.55	8.426
447.91	6.937
448.26	8.594
448.61	8.463
448.96	8.090
449.31	7.399
449.66	7.666
450.02	7.530
450.37	8.121
450.72	7.789
451.07	8.101
451.42	8.240
451.77	7.173
452.12	8.134
452.47	7.212
452.83	7.951
453.18	7.717
453.53	8.597
453.88	7.650
454.23	8.113
454.58	8.123
454.93	8.312
455.28	6.794
455.63	8.308
455.98	8.779
456.34	8.621
456.69	8.196
457.04	7.940
457.39	7.594
457.74	8.827
458.09	7.710
458.44	8.367
458.79	7.955
459.14	8.982
459.49	8.955
459.84	8.742
460.19	7.524
460.54	9.108
460.89	8.182
461.24	8.199
461.59	8.610
461.94	7.799
462.29	8.504
462.64	8.439
462.99	8.666
463.34	8.414
463.69	7.658
464.04	9.322
464.39	7.823
464.74	8.712
465.09	8.297
465.44	9.002
465.79	8.957
466.14	8.609
466.49	8.051
466.84	8.269
467.19	8.073
467.54	9.068
467.89	8.718
468.24	8.881
468.59	8.825
468.94	8.190
469.29	8.918
469.64	9.638
469.99	8.760
470.34	7.713
470.68	9.098
471.03	8.493
471.38	8.773
471.73	8.824
472.08	7.870
472.43	7.852
472.78	7.402
473.13	8.707
473.48	9.055
473.83	8.344
474.17	8.420
474.52	9.381
474.87	9.273
475.22	8.176
475.57	8.696
475.92	8.777
476.27	9.197
476.61	8.391
476.96	8.254
477.31	9.086
477.66	8.764
478.01	8.254
478.36	8.442
478.70	8.483
479.05	9.341
479.40	8.585
479.75	8.498
480.10	8.141
480.45	8.050
480.79	8.862
481.14	8.811
481.49	8.867
481.84	8.784
482.19	8.606
482.53	8.681
482.88	8.162
483.23	8.397
483.58	8.726
483.92	8.664
484.27	9.025
484.62	7.754
484.97	7.587
485.31	8.490
485.66	8.033
486.01	8.564
486.36	8.129
486.70	8.378
487.05	8.555
487.40	8.402
487.75	8.592
488.09	8.127
488.44	8.735
488.79	8.778
489.13	8.814
489.48	9.064
489.83	9.013
490.17	7.910
490.52	8.129
490.87	8.052
491.22	8.453
491.56	8.349
491.91	7.648
492.26	8.896
492.60	8.253
492.95	8.805
493.30	7.816
493.64	7.908
493.99	8.841
494.34	7.913
494.68	8.762
495.03	8.370
495.37	8.832
495.72	8.582
496.07	8.829
496.41	8.821
496.76	8.614
497.11	8.570
497.45	9.212
497.80	9.183
498.14	9.190
498.49	8.278
498.84	8.583
499.18	8.584
499.53	8.581
499.87	7.977
500.22	8.309
500.56	8.220
500.91	8.082
501.26	8.255
501.60	9.444
501.95	8.006
502.29	9.104
502.64	9.122
502.98	8.387
503.33	9.078
503.67	8.867
504.02	8.847
504.36	8.906
504.71	8.737
505.06	8.556
505.40	8.325
505.75	8.711
506.09	8.211
506.44	9.651
506.78	9.031
507.13	9.049
507.47	8.825
507.82	8.120
508.16	8.928
508.51	8.972
508.85	9.471
509.19	8.036
509.54	9.759
509.88	9.277
510.23	8.983
510.57	9.193
510.92	7.783
511.26	8.947
511.61	9.076
511.95	8.055
512.30	8.259
512.64	8.959
512.98	8.759
513.33	9.345
513.67	8.357
514.02	9.382
514.36	9.429
514.70	9.324
515.05	9.342
515.39	8.501
515.74	9.581
516.08	9.444
516.42	9.482
516.77	9.713
517.11	9.199
517.46	9.156
517.80	8.999
518.14	8.879
518.49	9.075
518.83	9.052
519.17	8.308
519.52	8.644
519.86	8.223
520.20	9.538
520.55	8.130
520.89	9.724
521.23	9.310
521.58	9.590
521.92	8.654
522.26	9.564
522.61	9.740
522.95	9.205
523.29	9.593
523.64	10.165
523.98	9.657
524.32	8.956
524.66	10.051
525.01	9.675
525.35	9.332
525.69	8.956
526.04	8.267
526.38	10.246
526.72	8.698
527.06	8.690
527.41	9.499
527.75	9.048
528.09	9.103
528.43	10.466
528.78	9.505
529.12	9.097
529.46	9.812
529.80	9.310
530.15	10.033
530.49	8.350
530.83	8.960
531.17	8.529
531.51	9.576
531.86	9.653
532.20	9.186
532.54	9.939
532.88	9.240
533.22	9.274
533.57	9.764
533.91	7.963
534.25	9.635
534.59	9.622
534.93	8.181
535.27	8.947
535.62	8.814
535.96	9.459
536.30	10.290
536.64	9.511
536.98	8.990
537.32	10.455
537.66	10.238
538.01	10.280
538.35	9.362
538.69	10.053
539.03	9.433
539.37	10.363
539.71	10.225
540.05	8.758
540.39	9.280
540.73	9.623
541.07	8.909
541.42	10.081
541.76	10.599
542.10	8.809
542.44	9.590
542.78	9.360
543.12	8.997
543.46	10.083
543.80	8.883
544.14	8.411
544.48	9.660
544.82	9.296
545.16	9.016
545.50	9.680
545.84	8.640
546.18	9.787
546.52	10.094
546.86	9.633
547.20	10.372
547.54	8.551
547.88	9.783
548.22	9.467
548.56	9.697
548.90	10.175
549.24	10.055
549.58	9.238
549.92	9.149
550.26	9.084
550.60	9.963
550.94	9.410
551.28	8.810
551.62	9.615
551.96	9.248
552.30	9.284
552.64	8.956
552.98	10.056
553.32	10.057
553.66	8.636
554.00	8.686
554.34	9.675
554.68	9.440
555.02	10.714
555.36	9.274
555.69	8.718
556.03	8.922
556.37	9.395
556.71	9.747
557.05	9.471
557.39	8.625
557.73	9.220
558.07	10.106
558.41	9.877
558.75	9.119
559.08	10.165
559.42	9.127
559.76	8.967
560.10	9.098
560.44	9.159
560.78	10.140
561.12	9.097
561.45	10.049
561.79	9.804
562.13	9.723
562.47	9.065
562.81	9.438
563.15	9.732
563.48	9.901
563.82	10.089
564.16	9.401
564.50	8.851
564.84	10.643
565.17	8.719
565.51	9.836
565.85	9.053
566.19	9.549
566.52	9.651
566.86	9.769
567.20	9.402
567.54	9.185
567.88	9.607
568.21	9.276
568.55	9.076
568.89	9.497
569.23	10.159
569.56	8.669
569.90	9.541
570.24	9.267
570.57	9.382
570.91	9.132
571.25	8.714
571.59	8.720
571.92	8.978
572.26	9.028
572.60	9.271
572.93	9.413
573.27	8.683
573.61	9.248
573.95	9.366
574.28	9.243
574.62	8.874
574.96	9.025
575.29	9.213
575.63	9.199
575.97	9.217
576.30	9.221
576.64	8.609
576.98	9.472
577.31	8.970
577.65	9.106
577.98	9.277
578.32	9.072
578.66	8.575
578.99	8.938
579.33	8.968
579.67	8.857
580.00	9.165
580.34	9.478
580.67	8.877
581.01	8.934
581.35	8.850
581.68	9.034
582.02	8.992
582.35	8.728
582.69	9.077
583.02	9.186
583.36	8.990
583.70	9.346
584.03	8.896
584.37	9.853
584.70	9.313
585.04	9.326
585.37	9.337
585.71	9.010
586.04	8.699
586.38	8.669
586.72	9.039
587.05	9.359
587.39	9.393
587.72	9.459
588.06	8.995
588.39	9.143
588.73	9.219
589.06	9.459
589.40	9.748
589.73	9.967
590.07	10.121
590.40	10.255
590.73	9.843
591.07	9.966
591.40	9.083
591.74	9.276
592.07	10.250
592.41	8.878
592.74	9.757
593.08	8.592
593.41	9.423
593.75	9.552
594.08	8.788
594.41	9.061
594.75	8.817
595.08	9.837
595.42	9.091
595.75	9.200
596.09	9.265
596.42	9.053
596.75	8.881
597.09	9.613
597.42	9.485
597.75	9.574
598.09	9.009
598.42	9.161
598.76	9.009
599.09	9.455
599.42	8.412
599.76	9.255
600.09	9.050
600.42	9.553
600.76	9.064
601.09	9.580
601.42	9.988
601.76	9.289
602.09	9.653
602.42	9.478
602.76	9.380
603.09	9.385
603.42	9.657
603.76	9.395
604.09	9.194
604.42	9.391
604.76	10.013
605.09	9.963
605.42	9.707
605.75	9.370
606.09	9.257
606.42	9.883
606.75	9.481
607.09	10.154
607.42	9.482
607.75	9.059
608.08	9.479
608.42	9.639
608.75	9.590
609.08	8.819
609.41	9.746
609.75	9.728
610.08	9.785
610.41	9.034
610.74	9.605
611.07	9.406
611.41	9.289
611.74	10.021
612.07	8.833
612.40	9.245
612.73	9.266
613.07	9.055
613.40	10.175
613.73	9.569
614.06	10.072
614.39	9.532
614.72	8.964
615.06	8.547
615.39	8.515
615.72	9.365
616.05	9.497
616.38	9.003
616.71	10.092
617.05	9.574
617.38	9.177
617.71	9.308
618.04	9.778
618.37	10.277
618.70	9.571
619.03	11.042
619.36	9.190
619.69	9.249
620.03	9.642
620.36	10.157
620.69	9.208
621.02	9.939
621.35	9.793
621.68	10.459
622.01	9.583
622.34	9.896
622.67	10.410
623.00	9.571
623.33	9.756
623.66	9.499
623.99	9.985
624.32	9.658
624.65	8.797
624.99	10.233
625.32	10.008
625.65	9.976
625.98	10.798
626.31	8.562
626.64	9.792
626.97	9.948
627.30	10.683
627.63	9.619
627.96	9.434
628.29	8.511
628.62	10.816
628.95	11.122
629.28	10.081
629.61	10.369
629.94	10.557
630.26	9.881
630.59	10.614
630.92	10.667
631.25	9.744
631.58	9.912
631.91	9.649
632.24	8.372
632.57	9.773
632.90	9.253
633.23	10.118
633.56	10.327
633.89	10.727
634.22	10.617
634.55	9.022
634.88	10.345
635.20	10.385
635.53	9.867
635.86	7.802
636.19	11.125
636.52	9.566
636.85	8.065
637.18	8.805
637.51	10.440
637.83	9.724
638.16	11.733
638.49	9.401
638.82	10.395
639.15	10.583
639.48	9.766
639.81	9.623
640.13	11.977
640.46	8.746
640.79	8.395
641.12	8.567
641.45	9.760
641.77	11.556
642.10	9.953
642.43	9.486
642.76	6.766
643.09	10.824
643.41	9.547
643.74	10.049
644.07	9.195
644.40	11.486
644.73	9.107
645.05	10.403
645.38	10.053
645.71	9.220
646.04	10.952
646.36	9.397
646.69	12.410
647.02	10.775
647.35	8.209
647.67	9.872
648.00	11.754
648.33	11.092
648.66	10.339
648.98	7.538
649.31	9.091
649.64	10.204
649.96	10.697
650.29	9.199
650.62	11.795
650.94	11.111
651.27	8.380
651.60	11.532
651.92	12.063
652.25	7.460
652.58	10.833
652.90	10.635
653.23	8.739
653.56	9.645
653.88	9.966
654.21	10.333
654.54	11.715
654.86	12.733
655.19	8.626
655.52	9.907
655.84	8.083
656.17	9.240
656.49	12.764
656.82	13.543
657.15	10.488
657.47	7.759
657.80	5.769
