SpectraSuite Data File
++++++++++++++++++++++++++++++++++++
Date: Fri May 15 17:08:30 PDT 2015
User: schluterlab
Dark Spectrum Present: Yes
Reference Spectrum Present: Yes
Number of Sampled Component Spectra: 1
Spectrometers: USB2E3373
Integration Time (usec): 3000 (USB2E3373)
Spectra Averaged: 3 (USB2E3373)
Boxcar Smoothing: 0 (USB2E3373)
Correct for Electrical Dark: No (USB2E3373)
Strobe/Lamp Enabled: No (USB2E3373)
Correct for Detector Non-linearity: No (USB2E3373)
Correct for Stray Light: No (USB2E3373)
Number of Pixels in Processed Spectrum: 2048
>>>>>Begin Processed Spectral Data<<<<<
178.53	0.000
178.91	0.000
179.29	100.000
179.67	0.000
180.04	-185.714
180.42	175.000
180.80	-700.000
181.18	133.333
181.56	-100.000
181.94	350.000
182.31	-200.000
182.69	140.000
183.07	200.000
183.45	80.000
183.83	66.667
184.20	118.182
184.58	77.778
184.96	-200.000
185.34	-0.000
185.72	-200.000
186.09	30.769
186.47	900.000
186.85	-83.333
187.23	-88.889
187.61	-1000.000
187.98	133.333
188.36	11.111
188.74	100.000
189.12	52.941
189.49	94.444
189.87	0.000
190.25	114.286
190.63	500.000
191.00	-133.333
191.38	15.789
191.76	300.000
192.14	-75.000
192.51	300.000
192.89	166.667
193.27	100.000
193.65	-33.333
194.02	81.818
194.40	160.000
194.78	50.000
195.15	75.000
195.53	50.000
195.91	75.000
196.29	50.000
196.66	69.231
197.04	-142.857
197.42	33.333
197.79	-566.667
198.17	0.000
198.55	500.000
198.92	166.667
199.30	400.000
199.68	-160.000
200.05	166.667
200.43	0.000
200.81	133.333
201.18	-33.333
201.56	-0.000
201.94	150.000
202.31	-100.000
202.69	220.000
203.07	-50.000
203.44	1400.000
203.82	0.000
204.19	14.286
204.57	-133.333
204.95	-50.000
205.32	220.000
205.70	71.429
206.08	200.000
206.45	211.111
206.83	92.857
207.20	-14.286
207.58	-1100.000
207.96	333.333
208.33	-50.000
208.71	-100.000
209.08	-83.333
209.46	-1000.000
209.84	-80.000
210.21	100.000
210.59	85.714
210.96	166.667
211.34	100.000
211.71	126.667
212.09	71.429
212.46	-500.000
212.84	0.000
213.22	50.000
213.59	400.000
213.97	61.538
214.34	72.727
214.72	0.000
215.09	250.000
215.47	69.231
215.84	72.727
216.22	-66.667
216.59	75.000
216.97	700.000
217.34	75.000
217.72	-100.000
218.09	175.000
218.47	25.000
218.84	-200.000
219.22	44.444
219.59	-40.000
219.97	-0.000
220.34	-50.000
220.72	200.000
221.09	175.000
221.47	250.000
221.84	-600.000
222.22	-450.000
222.59	63.636
222.97	75.000
223.34	300.000
223.72	7.143
224.09	33.333
224.46	46.429
224.84	100.000
225.21	-20.000
225.59	86.667
225.96	350.000
226.34	-175.000
226.71	157.143
227.08	100.000
227.46	50.000
227.83	-200.000
228.21	11.111
228.58	109.091
228.95	37.500
229.33	50.000
229.70	87.500
230.08	12.500
230.45	42.857
230.82	71.429
231.20	0.000
231.57	50.000
231.95	200.000
232.32	-10.000
232.69	50.000
233.07	400.000
233.44	0.000
233.81	-50.000
234.19	166.667
234.56	-11.765
234.93	100.000
235.31	275.000
235.68	-80.000
236.05	-7.692
236.43	40.000
236.80	123.529
237.17	53.125
237.55	75.000
237.92	51.852
238.29	61.111
238.67	63.333
239.04	61.765
239.41	34.146
239.79	63.333
240.16	51.220
240.53	23.684
240.91	21.739
241.28	46.032
241.65	44.643
242.02	49.315
242.40	45.000
242.77	50.847
243.14	45.455
243.51	55.000
243.89	42.529
244.26	34.483
244.63	19.048
245.00	35.052
245.38	43.299
245.75	19.101
246.12	31.897
246.49	34.711
246.87	31.731
247.24	28.571
247.61	28.070
247.98	43.902
248.36	30.000
248.73	36.842
249.10	29.221
249.47	29.114
249.84	35.948
250.22	37.059
250.59	35.294
250.96	38.498
251.33	34.884
251.70	36.471
252.08	35.025
252.45	35.644
252.82	28.141
253.19	35.945
253.56	25.701
253.94	36.937
254.31	33.478
254.68	35.965
255.05	33.858
255.42	38.428
255.79	35.907
256.16	32.685
256.54	34.328
256.91	34.601
257.28	33.457
257.65	35.206
258.02	30.496
258.39	35.017
258.76	30.769
259.14	30.565
259.51	33.981
259.88	35.395
260.25	35.948
260.62	38.889
260.99	35.593
261.36	32.192
261.73	31.013
262.10	35.866
262.47	36.196
262.85	32.288
263.22	33.538
263.59	37.383
263.96	37.578
264.33	32.121
264.70	34.821
265.07	30.952
265.44	36.827
265.81	33.051
266.18	34.153
266.55	35.733
266.92	32.124
267.29	31.070
267.66	34.527
268.03	33.770
268.40	36.292
268.77	37.968
269.14	32.854
269.51	33.676
269.88	31.671
270.25	32.908
270.62	33.415
270.99	35.038
271.36	31.051
271.73	34.742
272.10	36.740
272.47	31.442
272.84	35.396
273.21	32.947
273.58	33.012
273.95	32.265
274.32	33.487
274.69	32.127
275.06	33.036
275.43	34.014
275.80	30.464
276.17	31.954
276.54	32.120
276.91	35.307
277.28	33.406
277.65	33.058
278.02	31.064
278.39	33.260
278.76	32.495
279.13	30.290
279.50	33.193
279.87	31.965
280.23	30.323
280.60	31.774
280.97	32.929
281.34	32.692
281.71	34.292
282.08	32.720
282.45	31.115
282.82	32.432
283.19	33.656
283.56	31.407
283.92	30.740
284.29	30.192
284.66	29.845
285.03	30.648
285.40	30.435
285.77	27.241
286.14	30.144
286.51	28.782
286.87	29.616
287.24	29.466
287.61	29.101
287.98	30.702
288.35	31.196
288.72	31.874
289.08	29.514
289.45	28.998
289.82	30.769
290.19	29.010
290.56	28.130
290.93	27.104
291.29	25.886
291.66	25.039
292.03	25.997
292.40	27.419
292.77	25.997
293.13	23.052
293.50	24.886
293.87	22.443
294.24	26.430
294.60	23.845
294.97	26.339
295.34	23.773
295.71	26.379
296.08	23.468
296.44	22.333
296.81	24.306
297.18	23.478
297.55	24.119
297.91	23.699
298.28	25.726
298.65	20.760
299.02	22.372
299.38	21.477
299.75	22.621
300.12	22.513
300.48	20.949
300.85	22.053
301.22	22.208
301.59	21.842
301.95	22.152
302.32	22.438
302.69	21.517
303.05	22.153
303.42	21.544
303.79	21.963
304.15	21.027
304.52	19.144
304.89	21.287
305.25	20.339
305.62	21.820
305.99	20.468
306.35	21.850
306.72	19.123
307.09	21.323
307.45	20.781
307.82	20.602
308.19	20.906
308.55	20.393
308.92	20.697
309.29	19.777
309.65	20.022
310.02	19.362
310.38	21.405
310.75	19.781
311.12	20.452
311.48	19.618
311.85	20.524
312.22	18.776
312.58	19.427
312.95	18.143
313.31	18.634
313.68	19.581
314.05	19.490
314.41	19.897
314.78	19.381
315.14	18.911
315.51	19.255
315.87	19.160
316.24	20.526
316.61	20.276
316.97	20.734
317.34	18.750
317.70	19.025
318.07	19.231
318.43	19.510
318.80	19.223
319.16	19.824
319.53	19.278
319.89	18.898
320.26	18.421
320.62	20.160
320.99	18.580
321.35	19.733
321.72	19.626
322.08	18.228
322.45	17.665
322.81	17.976
323.18	18.548
323.54	18.436
323.91	17.916
324.27	19.238
324.64	18.633
325.00	18.613
325.37	19.467
325.73	17.588
326.10	18.619
326.46	19.462
326.83	18.460
327.19	19.442
327.56	18.766
327.92	18.662
328.29	19.018
328.65	19.340
329.01	18.658
329.38	17.972
329.74	18.508
330.11	19.555
330.47	17.811
330.84	16.442
331.20	19.392
331.56	17.222
331.93	19.909
332.29	19.065
332.66	17.285
333.02	19.145
333.38	17.965
333.75	18.315
334.11	17.189
334.48	17.860
334.84	18.773
335.20	18.390
335.57	17.860
335.93	17.706
336.29	17.219
336.66	17.620
337.02	16.264
337.38	17.870
337.75	19.182
338.11	17.944
338.47	17.974
338.84	18.577
339.20	18.007
339.56	17.706
339.93	19.606
340.29	18.440
340.65	19.982
341.02	17.730
341.38	17.345
341.74	18.463
342.11	17.418
342.47	17.883
342.83	17.907
343.20	17.857
343.56	17.565
343.92	17.538
344.28	17.506
344.65	17.530
345.01	17.113
345.37	17.578
345.73	18.243
346.10	17.947
346.46	18.419
346.82	17.430
347.19	16.459
347.55	18.045
347.91	17.799
348.27	17.462
348.63	18.143
349.00	16.981
349.36	17.789
349.72	18.076
350.08	17.295
350.45	17.159
350.81	17.442
351.17	15.635
351.53	18.531
351.89	16.680
352.26	17.200
352.62	16.935
352.98	16.305
353.34	16.184
353.70	17.880
354.07	17.177
354.43	16.813
354.79	16.846
355.15	16.825
355.51	16.930
355.87	17.476
356.24	15.498
356.60	15.926
356.96	18.016
357.32	16.374
357.68	16.810
358.04	15.670
358.40	17.122
358.77	17.464
359.13	17.054
359.49	17.797
359.85	16.693
360.21	16.986
360.57	16.603
360.93	16.490
361.29	15.785
361.66	16.614
362.02	16.212
362.38	16.527
362.74	15.821
363.10	17.381
363.46	15.864
363.82	18.107
364.18	15.867
364.54	15.809
364.90	16.344
365.26	16.230
365.62	17.080
365.98	17.375
366.35	17.043
366.71	16.704
367.07	17.271
367.43	16.535
367.79	17.032
368.15	16.583
368.51	16.824
368.87	15.721
369.23	16.173
369.59	17.201
369.95	16.202
370.31	17.052
370.67	15.672
371.03	16.057
371.39	15.974
371.75	17.436
372.11	16.619
372.47	15.680
372.83	15.898
373.19	15.549
373.55	15.668
373.91	16.199
374.27	15.875
374.63	17.085
374.99	16.099
375.35	16.156
375.71	16.154
376.07	16.222
376.42	16.190
376.78	17.114
377.14	15.504
377.50	15.604
377.86	15.863
378.22	15.954
378.58	15.769
378.94	16.383
379.30	15.970
379.66	15.674
380.02	15.941
380.38	15.277
380.74	15.919
381.09	15.521
381.45	16.697
381.81	16.348
382.17	15.419
382.53	16.365
382.89	16.635
383.25	15.246
383.61	16.402
383.97	15.111
384.32	15.822
384.68	15.666
385.04	15.625
385.40	15.930
385.76	17.044
386.12	16.106
386.48	17.114
386.83	16.297
387.19	16.484
387.55	15.935
387.91	16.015
388.27	15.812
388.62	15.733
388.98	16.390
389.34	15.990
389.70	16.718
390.06	15.607
390.42	16.321
390.77	15.827
391.13	15.511
391.49	15.006
391.85	16.049
392.20	15.819
392.56	16.147
392.92	16.500
393.28	15.979
393.64	15.195
393.99	16.176
394.35	16.129
394.71	16.475
395.07	16.342
395.42	15.726
395.78	15.505
396.14	16.456
396.50	16.677
396.85	15.583
397.21	15.539
397.57	15.987
397.92	16.657
398.28	17.184
398.64	15.723
399.00	16.084
399.35	16.253
399.71	15.738
400.07	16.082
400.42	16.218
400.78	16.412
401.14	16.939
401.49	15.724
401.85	15.539
402.21	16.506
402.57	16.562
402.92	15.119
403.28	16.541
403.63	16.646
403.99	16.390
404.35	16.240
404.70	17.083
405.06	15.805
405.42	16.532
405.77	15.572
406.13	16.356
406.49	15.867
406.84	15.648
407.20	17.098
407.55	15.840
407.91	15.508
408.27	16.507
408.62	17.046
408.98	16.821
409.34	16.791
409.69	16.085
410.05	16.441
410.40	15.617
410.76	16.526
411.11	16.000
411.47	16.568
411.83	15.945
412.18	16.731
412.54	16.542
412.89	15.948
413.25	16.907
413.60	16.708
413.96	15.583
414.31	16.402
414.67	16.485
415.03	16.378
415.38	15.796
415.74	16.938
416.09	17.570
416.45	16.745
416.80	16.722
417.16	16.436
417.51	16.722
417.87	15.711
418.22	17.487
418.58	16.923
418.93	15.925
419.29	16.197
419.64	16.461
420.00	18.199
420.35	16.896
420.71	16.950
421.06	17.434
421.42	16.647
421.77	17.283
422.12	17.196
422.48	16.134
422.83	17.227
423.19	15.971
423.54	15.991
423.90	16.431
424.25	16.475
424.61	17.319
424.96	17.654
425.31	18.082
425.67	16.373
426.02	17.373
426.38	17.282
426.73	16.646
427.09	17.215
427.44	18.059
427.79	17.973
428.15	17.536
428.50	17.626
428.85	16.769
429.21	17.317
429.56	17.197
429.92	17.976
430.27	17.293
430.62	16.414
430.98	17.091
431.33	17.508
431.68	17.321
432.04	16.825
432.39	17.342
432.74	16.957
433.10	17.069
433.45	17.324
433.80	17.644
434.16	16.620
434.51	17.742
434.86	17.596
435.22	17.162
435.57	16.781
435.92	17.485
436.28	17.352
436.63	17.056
436.98	17.034
437.34	17.483
437.69	17.233
438.04	17.265
438.39	16.982
438.75	16.393
439.10	17.204
439.45	16.859
439.81	17.554
440.16	17.043
440.51	17.791
440.86	18.308
441.22	17.647
441.57	18.377
441.92	17.471
442.27	18.071
442.63	18.737
442.98	18.265
443.33	17.474
443.68	18.090
444.03	18.579
444.39	17.364
444.74	17.726
445.09	18.430
445.44	17.835
445.79	17.896
446.15	17.015
446.50	18.303
446.85	17.906
447.20	17.570
447.55	18.359
447.91	18.331
448.26	18.213
448.61	18.020
448.96	18.531
449.31	17.977
449.66	18.351
450.02	18.254
450.37	18.139
450.72	18.041
451.07	18.987
451.42	18.477
451.77	18.746
452.12	17.823
452.47	18.287
452.83	18.375
453.18	18.469
453.53	18.268
453.88	18.579
454.23	18.254
454.58	18.892
454.93	18.492
455.28	17.524
455.63	18.413
455.98	18.641
456.34	18.838
456.69	18.742
457.04	18.841
457.39	18.348
457.74	18.259
458.09	18.246
458.44	18.256
458.79	18.431
459.14	18.936
459.49	18.985
459.84	18.387
460.19	18.629
460.54	18.949
460.89	18.693
461.24	18.820
461.59	18.527
461.94	18.113
462.29	19.180
462.64	18.804
462.99	18.551
463.34	18.220
463.69	18.597
464.04	18.341
464.39	18.981
464.74	18.589
465.09	19.526
465.44	19.100
465.79	18.367
466.14	19.156
466.49	18.861
466.84	18.382
467.19	18.210
467.54	18.710
467.89	18.383
468.24	18.491
468.59	18.667
468.94	18.349
469.29	19.607
469.64	18.797
469.99	19.481
470.34	17.952
470.68	19.090
471.03	18.967
471.38	18.759
471.73	19.118
472.08	18.996
472.43	19.396
472.78	18.986
473.13	18.912
473.48	18.893
473.83	19.489
474.17	19.689
474.52	19.336
474.87	18.727
475.22	18.609
475.57	19.368
475.92	19.473
476.27	19.441
476.61	19.271
476.96	18.182
477.31	18.983
477.66	18.652
478.01	19.147
478.36	18.900
478.70	19.086
479.05	19.670
479.40	19.237
479.75	18.248
480.10	18.689
480.45	18.700
480.79	19.184
481.14	19.467
481.49	18.621
481.84	18.678
482.19	19.270
482.53	18.897
482.88	18.807
483.23	18.618
483.58	18.868
483.92	18.103
484.27	18.323
484.62	19.005
484.97	18.118
485.31	18.750
485.66	19.237
486.01	18.857
486.36	18.127
486.70	17.964
487.05	17.914
487.40	17.632
487.75	17.549
488.09	17.058
488.44	17.779
488.79	17.744
489.13	18.630
489.48	18.726
489.83	18.744
490.17	18.742
490.52	19.215
490.87	18.510
491.22	19.245
491.56	19.307
491.91	19.025
492.26	18.960
492.60	18.522
492.95	19.134
493.30	18.075
493.64	19.106
493.99	19.517
494.34	19.029
494.68	18.905
495.03	18.345
495.37	19.038
495.72	18.829
496.07	18.683
496.41	18.868
496.76	18.931
497.11	18.957
497.45	19.379
497.80	19.173
498.14	19.622
498.49	19.147
498.84	19.361
499.18	19.277
499.53	19.048
499.87	18.774
500.22	18.744
500.56	19.112
500.91	18.825
501.26	18.982
501.60	19.036
501.95	18.923
502.29	19.080
502.64	19.305
502.98	18.698
503.33	18.780
503.67	18.795
504.02	19.844
504.36	19.396
504.71	19.141
505.06	19.175
505.40	19.137
505.75	18.866
506.09	19.007
506.44	19.969
506.78	18.776
507.13	18.666
507.47	18.172
507.82	18.590
508.16	18.806
508.51	19.150
508.85	18.681
509.19	18.095
509.54	19.088
509.88	19.094
510.23	18.666
510.57	19.188
510.92	18.550
511.26	19.367
511.61	19.637
511.95	19.014
512.30	19.401
512.64	19.310
512.98	19.371
513.33	20.257
513.67	19.386
514.02	19.851
514.36	19.714
514.70	20.105
515.05	20.270
515.39	19.540
515.74	20.539
516.08	20.024
516.42	20.377
516.77	20.538
517.11	20.297
517.46	20.826
517.80	20.441
518.14	19.657
518.49	19.171
518.83	19.806
519.17	19.163
519.52	20.189
519.86	19.628
520.20	19.441
520.55	19.012
520.89	20.201
521.23	20.646
521.58	20.315
521.92	20.256
522.26	20.169
522.61	19.221
522.95	21.126
523.29	20.140
523.64	20.712
523.98	20.998
524.32	19.910
524.66	20.230
525.01	20.325
525.35	21.128
525.69	19.933
526.04	20.437
526.38	19.844
526.72	19.817
527.06	19.650
527.41	20.119
527.75	20.375
528.09	20.465
528.43	20.797
528.78	19.934
529.12	18.774
529.46	19.623
529.80	19.823
530.15	19.538
530.49	19.731
530.83	19.562
531.17	19.275
531.51	20.178
531.86	19.443
532.20	19.763
532.54	19.197
532.88	20.397
533.22	20.901
533.57	19.856
533.91	19.713
534.25	20.768
534.59	19.949
534.93	19.698
535.27	19.289
535.62	20.220
535.96	20.483
536.30	20.976
536.64	20.124
536.98	19.791
537.32	20.341
537.66	20.898
538.01	20.070
538.35	19.903
538.69	20.439
539.03	19.549
539.37	19.987
539.71	20.791
540.05	20.231
540.39	19.875
540.73	20.572
541.07	18.923
541.42	20.363
541.76	20.509
542.10	19.752
542.44	19.527
542.78	18.720
543.12	19.780
543.46	20.445
543.80	19.431
544.14	19.359
544.48	20.720
544.82	19.139
545.16	20.287
545.50	20.227
545.84	20.255
546.18	19.716
546.52	19.899
546.86	19.842
547.20	19.814
547.54	18.940
547.88	20.041
548.22	19.592
548.56	20.778
548.90	20.283
549.24	20.179
549.58	20.381
549.92	19.085
550.26	20.952
550.60	19.851
550.94	20.015
551.28	19.011
551.62	20.462
551.96	20.902
552.30	20.029
552.64	19.958
552.98	20.183
553.32	20.328
553.66	20.247
554.00	20.511
554.34	21.049
554.68	19.690
555.02	20.685
555.36	19.671
555.69	19.634
556.03	19.986
556.37	19.288
556.71	20.505
557.05	21.775
557.39	19.480
557.73	20.765
558.07	20.437
558.41	20.750
558.75	20.031
559.08	21.355
559.42	19.762
559.76	19.616
560.10	20.489
560.44	20.253
560.78	19.930
561.12	19.958
561.45	20.379
561.79	20.518
562.13	20.085
562.47	20.504
562.81	21.110
563.15	20.733
563.48	21.499
563.82	20.728
564.16	19.708
564.50	20.068
564.84	19.746
565.17	18.981
565.51	20.355
565.85	20.370
566.19	20.358
566.52	19.973
566.86	21.080
567.20	19.552
567.54	20.012
567.88	20.797
568.21	19.910
568.55	20.109
568.89	19.199
569.23	19.499
569.56	19.527
569.90	19.935
570.24	18.831
570.57	18.800
570.91	19.101
571.25	18.941
571.59	18.468
571.92	18.015
572.26	17.995
572.60	18.078
572.93	18.011
573.27	18.056
573.61	18.646
573.95	18.159
574.28	18.114
574.62	18.154
574.96	17.951
575.29	17.542
575.63	17.543
575.97	17.837
576.30	17.599
576.64	18.252
576.98	18.250
577.31	17.818
577.65	18.119
577.98	17.857
578.32	18.227
578.66	17.924
578.99	17.782
579.33	17.712
579.67	17.411
580.00	17.620
580.34	17.861
580.67	17.359
581.01	17.747
581.35	17.722
581.68	17.969
582.02	18.260
582.35	17.697
582.69	17.900
583.02	17.176
583.36	17.625
583.70	17.913
584.03	17.737
584.37	17.702
584.70	17.912
585.04	17.332
585.37	18.133
585.71	17.823
586.04	17.776
586.38	17.631
586.72	17.704
587.05	18.400
587.39	18.200
587.72	18.562
588.06	17.797
588.39	18.257
588.73	17.796
589.06	18.069
589.40	18.009
589.73	18.474
590.07	18.202
590.40	18.189
590.73	18.410
591.07	17.981
591.40	18.655
591.74	18.597
592.07	19.156
592.41	18.595
592.74	18.280
593.08	18.093
593.41	18.188
593.75	18.286
594.08	18.435
594.41	18.523
594.75	18.321
595.08	18.577
595.42	18.255
595.75	18.288
596.09	17.866
596.42	18.520
596.75	18.606
597.09	19.408
597.42	18.609
597.75	19.056
598.09	18.696
598.42	18.953
598.76	18.233
599.09	18.950
599.42	18.757
599.76	18.172
600.09	18.477
600.42	18.537
600.76	17.942
601.09	18.282
601.42	18.410
601.76	18.420
602.09	18.853
602.42	19.124
602.76	18.803
603.09	17.608
603.42	19.147
603.76	18.266
604.09	18.712
604.42	18.274
604.76	18.692
605.09	19.104
605.42	19.097
605.75	18.827
606.09	18.599
606.42	18.307
606.75	18.442
607.09	18.198
607.42	17.944
607.75	18.783
608.08	18.194
608.42	18.136
608.75	19.325
609.08	18.784
609.41	18.122
609.75	18.952
610.08	18.972
610.41	18.502
610.74	19.356
611.07	19.121
611.41	18.993
611.74	19.670
612.07	18.576
612.40	18.709
612.73	19.548
613.07	18.335
613.40	18.818
613.73	19.082
614.06	19.310
614.39	18.895
614.72	18.319
615.06	18.994
615.39	18.450
615.72	18.568
616.05	18.603
616.38	18.405
616.71	18.960
617.05	18.839
617.38	19.422
617.71	19.119
618.04	19.175
618.37	20.240
618.70	19.076
619.03	20.347
619.36	19.247
619.69	19.939
620.03	19.795
620.36	18.884
620.69	18.630
621.02	19.725
621.35	19.751
621.68	19.303
622.01	19.833
622.34	19.872
622.67	20.426
623.00	19.525
623.33	18.445
623.66	19.596
623.99	19.440
624.32	19.468
624.65	19.398
624.99	19.639
625.32	18.802
625.65	20.267
625.98	21.595
626.31	18.038
626.64	20.451
626.97	20.681
627.30	19.965
627.63	19.411
627.96	20.575
628.29	21.184
628.62	20.157
628.95	20.641
629.28	20.968
629.61	20.937
629.94	21.408
630.26	19.565
630.59	22.164
630.92	20.103
631.25	20.718
631.58	20.705
631.91	19.846
632.24	20.757
632.57	21.364
632.90	20.641
633.23	21.647
633.56	20.529
633.89	20.592
634.22	21.728
