SpectraSuite Data File
++++++++++++++++++++++++++++++++++++
Date: Fri May 15 17:03:53 PDT 2015
User: schluterlab
Dark Spectrum Present: Yes
Reference Spectrum Present: Yes
Number of Sampled Component Spectra: 1
Spectrometers: USB2E3373
Integration Time (usec): 3000 (USB2E3373)
Spectra Averaged: 3 (USB2E3373)
Boxcar Smoothing: 0 (USB2E3373)
Correct for Electrical Dark: No (USB2E3373)
Strobe/Lamp Enabled: No (USB2E3373)
Correct for Detector Non-linearity: No (USB2E3373)
Correct for Stray Light: No (USB2E3373)
Number of Pixels in Processed Spectrum: 2048
>>>>>Begin Processed Spectral Data<<<<<
178.53	0.000
178.91	0.000
179.29	150.000
179.67	-150.000
180.04	-0.000
180.42	175.000
180.80	100.000
181.18	33.333
181.56	50.000
181.94	550.000
182.31	-200.000
182.69	180.000
183.07	133.333
183.45	120.000
183.83	66.667
184.20	81.818
184.58	-33.333
184.96	-400.000
185.34	-166.667
185.72	-450.000
186.09	30.769
186.47	400.000
186.85	-0.000
187.23	33.333
187.61	-700.000
187.98	0.000
188.36	200.000
188.74	133.333
189.12	82.353
189.49	66.667
189.87	0.000
190.25	100.000
190.63	750.000
191.00	-33.333
191.38	15.789
191.76	150.000
192.14	-250.000
192.51	100.000
192.89	88.889
193.27	-42.857
193.65	33.333
194.02	81.818
194.40	140.000
194.78	-75.000
195.15	75.000
195.53	25.000
195.91	125.000
196.29	150.000
196.66	61.538
197.04	-71.429
197.42	88.889
197.79	100.000
198.17	7.692
198.55	-600.000
198.92	-200.000
199.30	-100.000
199.68	140.000
200.05	33.333
200.43	0.000
200.81	33.333
201.18	0.000
201.56	-100.000
201.94	-150.000
202.31	-200.000
202.69	-60.000
203.07	-100.000
203.44	400.000
203.82	0.000
204.19	35.714
204.57	-333.333
204.95	25.000
205.32	100.000
205.70	0.000
206.08	25.000
206.45	177.778
206.83	164.286
207.20	14.286
207.58	-400.000
207.96	133.333
208.33	10.000
208.71	100.000
209.08	66.667
209.46	700.000
209.84	40.000
210.21	-300.000
210.59	128.571
210.96	66.667
211.34	25.000
211.71	113.333
212.09	-42.857
212.46	-400.000
212.84	0.000
213.22	90.000
213.59	150.000
213.97	92.308
214.34	136.364
214.72	150.000
215.09	-50.000
215.47	38.462
215.84	-36.364
216.22	300.000
216.59	87.500
216.97	150.000
217.34	-100.000
217.72	-80.000
218.09	87.500
218.47	-25.000
218.84	400.000
219.22	-22.222
219.59	140.000
219.97	-33.333
220.34	175.000
220.72	171.429
221.09	275.000
221.47	550.000
221.84	150.000
222.22	-600.000
222.59	136.364
222.97	75.000
223.34	100.000
223.72	64.286
224.09	19.048
224.46	35.714
224.84	266.667
225.21	90.000
225.59	26.667
225.96	0.000
226.34	-25.000
226.71	42.857
227.08	50.000
227.46	137.500
227.83	-300.000
228.21	144.444
228.58	181.818
228.95	37.500
229.33	-70.000
229.70	143.750
230.08	200.000
230.45	185.714
230.82	114.286
231.20	66.667
231.57	121.429
231.95	185.714
232.32	130.000
232.69	135.714
233.07	600.000
233.44	140.000
233.81	110.000
234.19	122.222
234.56	94.118
234.93	-200.000
235.31	475.000
235.68	-100.000
236.05	53.846
236.43	15.000
236.80	94.118
237.17	46.875
237.55	40.000
237.92	62.963
238.29	27.778
238.67	60.000
239.04	32.353
239.41	21.951
239.79	40.000
240.16	70.732
240.53	47.368
240.91	36.957
241.28	47.619
241.65	46.429
242.02	41.096
242.40	61.667
242.77	54.237
243.14	36.364
243.51	38.750
243.89	64.368
244.26	41.379
244.63	45.238
245.00	31.959
245.38	42.268
245.75	40.449
246.12	49.138
246.49	47.107
246.87	50.962
247.24	35.294
247.61	41.228
247.98	46.341
248.36	44.375
248.73	36.184
249.10	42.857
249.47	37.342
249.84	33.333
250.22	40.588
250.59	49.020
250.96	42.254
251.33	37.209
251.70	45.882
252.08	38.579
252.45	42.079
252.82	44.724
253.19	40.092
253.56	42.056
253.94	38.288
254.31	44.348
254.68	43.860
255.05	35.039
255.42	41.921
255.79	35.521
256.16	43.580
256.54	41.418
256.91	42.586
257.28	37.918
257.65	37.453
258.02	38.652
258.39	41.077
258.76	41.758
259.14	41.196
259.51	36.893
259.88	37.457
260.25	39.216
260.62	41.319
260.99	37.627
261.36	40.068
261.73	39.557
262.10	40.426
262.47	41.411
262.85	41.066
263.22	40.000
263.59	42.368
263.96	38.509
264.33	42.424
264.70	42.560
265.07	39.881
265.44	41.643
265.81	37.853
266.18	39.071
266.55	40.103
266.92	41.192
267.29	43.342
267.66	38.107
268.03	36.911
268.40	38.381
268.77	40.374
269.14	37.170
269.51	38.817
269.88	38.653
270.25	35.204
270.62	37.073
270.99	36.829
271.36	38.875
271.73	40.845
272.10	37.956
272.47	42.080
272.84	36.386
273.21	41.531
273.58	37.349
273.95	38.902
274.32	40.647
274.69	37.104
275.06	37.723
275.43	35.374
275.80	37.748
276.17	39.540
276.54	33.833
276.91	39.693
277.28	36.900
277.65	39.050
278.02	35.106
278.39	38.731
278.76	35.639
279.13	35.892
279.50	38.025
279.87	36.069
280.23	37.419
280.60	36.842
280.97	36.162
281.34	35.000
281.71	36.961
282.08	36.401
282.45	34.442
282.82	35.907
283.19	37.718
283.56	35.453
283.92	36.053
284.29	31.923
284.66	31.589
285.03	36.739
285.40	35.917
285.77	32.337
286.14	33.032
286.51	35.793
286.87	33.272
287.24	34.807
287.61	33.862
287.98	34.211
288.35	34.315
288.72	35.552
289.08	34.549
289.45	34.974
289.82	31.993
290.19	34.471
290.56	31.561
290.93	32.660
291.29	33.128
291.66	31.496
292.03	31.579
292.40	29.194
292.77	28.230
293.13	28.571
293.50	29.135
293.87	29.466
294.24	27.975
294.60	28.316
294.97	29.315
295.34	26.380
295.71	26.826
296.08	25.859
296.44	25.889
296.81	28.611
297.18	26.812
297.55	27.371
297.91	27.397
298.28	27.704
298.65	26.594
299.02	26.415
299.38	24.350
299.75	26.069
300.12	24.084
300.48	24.111
300.85	25.982
301.22	24.286
301.59	25.526
301.95	24.177
302.32	24.903
302.69	24.129
303.05	25.866
303.42	25.031
303.79	24.533
304.15	24.492
304.52	23.187
304.89	23.860
305.25	24.092
305.62	22.054
305.99	23.392
306.35	22.775
306.72	22.610
307.09	24.173
307.45	23.995
307.82	24.190
308.19	24.274
308.55	22.792
308.92	24.401
309.29	21.899
309.65	21.206
310.02	22.332
310.38	23.381
310.75	24.918
311.12	23.574
311.48	23.118
311.85	23.665
312.22	22.257
312.58	23.992
312.95	22.092
313.31	22.774
313.68	24.084
314.05	24.592
314.41	24.845
314.78	24.639
315.14	24.974
315.51	25.052
315.87	24.180
316.24	26.087
316.61	25.394
316.97	25.595
317.34	24.707
317.70	26.004
318.07	25.192
318.43	26.961
318.80	26.515
319.16	28.125
319.53	28.110
319.89	28.543
320.26	28.543
320.62	31.194
320.99	29.123
321.35	29.805
321.72	30.530
322.08	29.909
322.45	31.371
322.81	31.041
323.18	31.403
323.54	31.660
323.91	32.522
324.27	32.715
324.64	34.270
325.00	35.675
325.37	37.006
325.73	35.177
326.10	37.330
326.46	37.937
326.83	39.370
327.19	38.971
327.56	38.923
327.92	41.461
328.29	40.268
328.65	41.038
329.01	42.096
329.38	41.843
329.74	43.059
330.11	43.281
330.47	43.506
330.84	44.231
331.20	46.958
331.56	44.537
331.93	46.849
332.29	46.104
332.66	46.697
333.02	46.654
333.38	46.654
333.75	48.352
334.11	46.911
334.48	48.595
334.84	48.443
335.20	48.765
335.57	47.235
335.93	49.413
336.29	48.527
336.66	51.680
337.02	48.699
337.38	49.630
337.75	51.182
338.11	49.775
338.47	51.277
338.84	50.555
339.20	49.909
339.56	51.193
339.93	49.508
340.29	50.000
340.65	49.910
341.02	50.798
341.38	49.823
341.74	51.502
342.11	50.693
342.47	51.246
342.83	50.260
343.20	49.042
343.56	51.130
343.92	50.044
344.28	49.957
344.65	51.641
345.01	50.216
345.37	49.874
345.73	51.381
346.10	51.337
346.46	50.378
346.82	50.409
347.19	49.792
347.55	50.794
347.91	52.104
348.27	49.879
348.63	53.152
349.00	50.533
349.36	51.122
349.72	52.239
350.08	50.656
350.45	51.636
350.81	50.332
351.17	50.163
351.53	51.102
351.89	50.206
352.26	50.400
352.62	51.290
352.98	51.004
353.34	49.919
353.70	50.971
354.07	48.952
354.43	50.921
354.79	51.693
355.15	51.587
355.51	50.633
355.87	52.023
356.24	50.326
356.60	51.334
356.96	52.063
357.32	50.958
357.68	50.899
358.04	51.292
358.40	51.929
358.77	53.110
359.13	51.161
359.49	50.847
359.85	52.106
360.21	52.791
360.57	52.257
360.93	52.042
361.29	51.208
361.66	54.702
362.02	53.939
362.38	53.465
362.74	53.823
363.10	54.251
363.46	52.632
363.82	53.343
364.18	52.768
364.54	53.162
364.90	52.760
365.26	53.202
365.62	54.161
365.98	54.032
366.35	55.572
366.71	54.398
367.07	55.370
367.43	54.134
367.79	53.357
368.15	54.128
368.51	54.989
368.87	53.984
369.23	54.729
369.59	55.394
369.95	56.452
370.31	55.564
370.67	56.119
371.03	54.668
371.39	54.850
371.75	56.410
372.11	56.348
372.47	57.322
372.83	56.920
373.19	57.275
373.55	56.606
373.91	55.148
374.27	58.327
374.63	57.717
374.99	56.454
375.35	57.521
375.71	57.902
376.07	59.480
376.42	59.388
376.78	58.389
377.14	58.632
377.50	58.699
377.86	58.501
378.22	58.839
378.58	60.962
378.94	60.744
379.30	59.451
379.66	60.000
380.02	58.614
380.38	59.830
380.74	60.443
381.09	62.331
381.45	61.162
381.81	60.271
382.17	62.437
382.53	62.086
382.89	62.524
383.25	63.597
383.61	62.805
383.97	62.794
384.32	61.288
384.68	62.663
385.04	61.703
385.40	63.348
385.76	64.591
386.12	65.718
386.48	64.943
386.83	63.348
387.19	63.492
387.55	66.123
387.91	65.037
388.27	65.324
388.62	66.960
388.98	64.273
389.34	65.397
389.70	65.009
390.06	64.821
390.42	66.062
390.77	66.514
391.13	65.195
391.49	66.171
391.85	66.472
392.20	66.729
392.56	65.925
392.92	68.409
393.28	67.335
393.64	66.547
393.99	69.091
394.35	66.287
394.71	67.752
395.07	67.316
395.42	65.756
395.78	68.664
396.14	67.339
396.50	67.597
396.85	68.513
397.21	68.797
397.57	68.527
397.92	68.125
398.28	69.023
398.64	68.735
399.00	69.526
399.35	67.720
399.71	68.352
400.07	69.649
400.42	67.748
400.78	69.871
401.14	68.845
401.49	70.518
401.85	68.312
402.21	70.542
402.57	68.625
402.92	68.068
403.28	69.549
403.63	70.366
403.99	70.281
404.35	70.831
404.70	69.286
405.06	70.153
405.42	67.806
405.77	69.262
406.13	70.431
406.49	70.101
406.84	70.966
407.20	69.356
407.55	69.543
407.91	69.652
408.27	70.427
408.62	71.200
408.98	69.501
409.34	69.950
409.69	70.026
410.05	69.089
410.40	70.494
410.76	69.843
411.11	70.250
411.47	69.954
411.83	69.931
412.18	71.364
412.54	70.225
412.89	69.951
413.25	71.059
413.60	69.503
413.96	69.080
414.31	69.695
414.67	71.841
415.03	70.373
415.38	70.170
415.74	71.531
416.09	72.110
416.45	72.451
416.80	69.531
417.16	72.030
417.51	70.420
417.87	70.404
418.22	72.085
418.58	72.040
418.93	72.351
419.29	69.142
419.64	73.040
420.00	71.851
420.35	72.299
420.71	73.208
421.06	72.560
421.42	74.159
421.77	73.699
422.12	71.964
422.48	72.279
422.83	73.028
423.19	72.630
423.54	72.075
423.90	71.790
424.25	73.192
424.61	72.950
424.96	72.358
425.31	74.119
425.67	73.474
426.02	73.263
426.38	74.515
426.73	74.758
427.09	74.430
427.44	73.176
427.79	75.074
428.15	74.454
428.50	73.652
428.85	74.324
429.21	74.477
429.56	76.011
429.92	73.292
430.27	74.135
430.62	74.386
430.98	75.053
431.33	76.288
431.68	73.574
432.04	75.126
432.39	73.075
432.74	73.121
433.10	74.713
433.45	75.388
433.80	77.713
434.16	76.011
434.51	75.269
434.86	74.623
435.22	75.659
435.57	75.795
435.92	75.509
436.28	73.226
436.63	76.669
436.98	74.565
437.34	76.528
437.69	75.611
438.04	75.442
438.39	75.382
438.75	77.049
439.10	74.929
439.45	76.750
439.81	77.187
440.16	76.900
440.51	77.075
440.86	77.160
441.22	75.679
441.57	77.208
441.92	78.069
442.27	77.661
442.63	76.552
442.98	75.761
443.33	76.628
443.68	76.552
444.03	76.552
444.39	76.144
444.74	78.205
445.09	76.949
445.44	76.467
445.79	77.411
446.15	76.432
446.50	76.484
446.85	77.311
447.20	75.339
447.55	76.897
447.91	77.327
448.26	76.153
448.61	77.605
448.96	77.625
449.31	76.301
449.66	76.365
450.02	76.440
450.37	76.704
450.72	75.487
451.07	76.772
451.42	73.783
451.77	75.226
452.12	75.120
452.47	74.630
452.83	77.150
453.18	75.459
453.53	74.905
453.88	75.653
454.23	76.767
454.58	76.889
454.93	75.000
455.28	74.730
455.63	75.883
455.98	76.609
456.34	74.904
456.69	76.175
457.04	75.425
457.39	77.886
457.74	76.179
458.09	76.751
458.44	75.541
458.79	74.846
459.14	75.114
459.49	76.597
459.84	75.409
460.19	76.153
460.54	76.222
460.89	76.591
461.24	74.969
461.59	75.356
461.94	74.151
462.29	74.910
462.64	74.884
462.99	74.069
463.34	74.757
463.69	74.646
464.04	74.879
464.39	74.712
464.74	75.521
465.09	76.170
465.44	75.765
465.79	73.810
466.14	76.283
466.49	74.756
466.84	74.539
467.19	75.156
467.54	73.691
467.89	76.058
468.24	74.148
468.59	75.683
468.94	73.333
469.29	75.082
469.64	72.864
469.99	75.403
470.34	73.788
470.68	74.795
471.03	75.372
471.38	75.107
471.73	73.950
472.08	74.016
472.43	74.698
472.78	74.366
473.13	74.966
473.48	74.593
473.83	72.790
474.17	74.482
474.52	74.091
474.87	74.727
475.22	75.351
475.57	74.195
475.92	75.370
476.27	75.087
476.61	74.248
476.96	72.783
477.31	74.094
477.66	72.809
478.01	75.463
478.36	73.638
478.70	73.844
479.05	73.901
479.40	73.397
479.75	71.794
480.10	73.016
480.45	73.850
480.79	74.421
481.14	75.051
481.49	72.660
481.84	73.793
482.19	73.714
482.53	72.422
482.88	72.697
483.23	73.321
483.58	71.274
483.92	72.265
484.27	71.969
484.62	73.734
484.97	72.844
485.31	73.772
485.66	74.825
486.01	76.331
486.36	75.330
486.70	73.622
487.05	73.799
487.40	74.018
487.75	73.352
488.09	71.323
488.44	70.323
488.79	71.236
489.13	72.155
489.48	72.424
489.83	71.345
490.17	71.416
490.52	71.871
490.87	70.801
491.22	71.442
491.56	71.300
491.91	71.797
492.26	72.630
492.60	71.401
492.95	72.750
493.30	69.516
493.64	71.857
493.99	71.787
494.34	70.922
494.68	71.095
495.03	71.241
495.37	73.209
495.72	71.378
496.07	71.171
496.41	71.274
496.76	72.363
497.11	70.238
497.45	71.551
497.80	72.906
498.14	70.591
498.49	71.762
498.84	70.958
499.18	72.239
499.53	72.073
499.87	70.088
500.22	70.969
500.56	71.911
500.91	70.231
501.26	70.391
501.60	71.520
501.95	70.791
502.29	71.235
502.64	70.946
502.98	72.521
503.33	70.701
503.67	69.157
504.02	70.772
504.36	71.103
504.71	70.303
505.06	70.508
505.40	70.254
505.75	72.113
506.09	69.336
506.44	71.920
506.78	70.612
507.13	70.993
507.47	69.452
507.82	70.940
508.16	69.995
508.51	69.832
508.85	69.649
509.19	70.197
509.54	69.115
509.88	69.633
510.23	71.920
510.57	71.032
510.92	69.403
511.26	70.813
511.61	70.517
511.95	71.014
512.30	71.120
512.64	69.894
512.98	69.568
513.33	70.229
513.67	70.438
514.02	72.140
514.36	70.343
514.70	70.804
515.05	70.740
515.39	69.540
515.74	71.677
516.08	70.114
516.42	71.614
516.77	71.270
517.11	71.039
517.46	71.694
517.80	71.633
518.14	69.443
518.49	70.433
518.83	69.927
519.17	68.466
519.52	67.910
519.86	69.328
520.20	70.474
520.55	69.168
520.89	69.511
521.23	69.728
521.58	70.662
521.92	70.128
522.26	69.616
522.61	70.000
522.95	71.788
523.29	68.742
523.64	69.886
523.98	70.901
524.32	71.263
524.66	70.487
525.01	71.558
525.35	69.605
525.69	70.303
526.04	68.849
526.38	71.077
526.72	69.130
527.06	69.390
527.41	68.272
527.75	69.571
528.09	69.635
528.43	70.223
528.78	70.099
529.12	70.581
529.46	71.410
529.80	69.474
530.15	70.033
530.49	71.582
530.83	71.272
531.17	69.980
531.51	70.793
531.86	67.573
532.20	70.981
532.54	69.912
532.88	69.952
533.22	70.094
533.57	69.921
533.91	70.757
534.25	72.461
534.59	70.237
534.93	69.855
535.27	68.972
535.62	70.253
535.96	70.059
536.30	71.240
536.64	70.641
536.98	69.895
537.32	71.266
537.66	71.388
538.01	69.650
538.35	71.012
538.69	70.040
539.03	69.583
539.37	71.265
539.71	70.211
540.05	71.283
540.39	70.360
540.73	72.106
541.07	70.304
541.42	71.438
541.76	70.819
542.10	70.957
542.44	72.064
542.78	70.819
543.12	70.330
543.46	71.558
543.80	72.797
544.14	69.693
544.48	70.886
544.82	71.702
545.16	71.038
545.50	70.494
545.84	72.734
546.18	71.915
546.52	70.368
546.86	69.375
547.20	70.887
547.54	70.742
547.88	72.418
548.22	69.560
548.56	70.251
548.90	71.159
549.24	68.526
549.58	68.618
549.92	69.478
550.26	72.234
550.60	70.335
550.94	70.575
551.28	70.247
551.62	72.462
551.96	72.180
552.30	70.322
552.64	70.310
552.98	69.972
553.32	69.615
553.66	70.900
554.00	72.628
554.34	71.713
554.68	69.395
555.02	69.940
555.36	70.905
555.69	70.330
556.03	70.307
556.37	69.751
556.71	71.913
557.05	71.141
557.39	70.186
557.73	70.915
558.07	72.851
558.41	72.205
558.75	71.395
559.08	71.631
559.42	71.270
559.76	72.378
560.10	71.407
560.44	70.514
560.78	71.608
561.12	72.708
561.45	73.647
561.79	71.359
562.13	72.463
562.47	71.295
562.81	71.686
563.15	70.522
563.48	72.136
563.82	71.929
564.16	72.981
564.50	71.554
564.84	71.285
565.17	72.032
565.51	73.361
565.85	73.320
566.19	73.210
566.52	74.933
566.86	72.943
567.20	72.105
567.54	74.148
567.88	75.806
568.21	75.396
568.55	73.913
568.89	75.051
569.23	75.397
569.56	75.788
569.90	76.776
570.24	76.330
570.57	77.309
570.91	77.030
571.25	76.126
571.59	76.518
571.92	74.963
572.26	75.876
572.60	74.915
572.93	74.804
573.27	75.361
573.61	76.521
573.95	76.270
574.28	76.192
574.62	75.947
574.96	75.841
575.29	76.300
575.63	73.205
575.97	75.034
576.30	75.373
576.64	75.364
576.98	76.551
577.31	76.407
577.65	77.683
577.98	77.853
578.32	77.393
578.66	74.962
578.99	75.948
579.33	76.318
579.67	74.211
580.00	76.962
580.34	75.871
580.67	75.989
581.01	76.321
581.35	76.723
581.68	78.252
582.02	77.702
582.35	77.419
582.69	77.211
583.02	76.885
583.36	76.485
583.70	76.246
584.03	76.842
584.37	76.369
584.70	75.934
585.04	76.088
585.37	76.536
585.71	76.722
586.04	76.878
586.38	77.087
586.72	76.729
587.05	77.874
587.39	77.132
587.72	78.513
588.06	76.640
588.39	76.388
588.73	76.221
589.06	76.810
589.40	75.389
589.73	76.451
590.07	77.190
590.40	77.090
590.73	77.677
591.07	75.997
591.40	75.156
591.74	76.018
592.07	76.948
592.41	77.518
592.74	77.539
593.08	76.633
593.41	78.616
593.75	78.181
594.08	76.004
594.41	76.820
594.75	76.374
595.08	77.299
595.42	77.770
595.75	77.469
596.09	76.935
596.42	77.470
596.75	76.199
597.09	75.854
597.42	76.332
597.75	77.691
598.09	75.917
598.42	76.218
598.76	76.362
599.09	77.764
599.42	77.491
599.76	78.330
600.09	76.848
600.42	77.180
600.76	76.226
601.09	76.718
601.42	76.655
601.76	77.094
602.09	77.517
602.42	78.770
602.76	77.165
603.09	77.949
603.42	78.512
603.76	78.589
604.09	76.630
604.42	77.665
604.76	78.772
605.09	78.154
605.42	76.795
605.75	77.364
606.09	79.108
606.42	76.606
606.75	76.926
607.09	76.967
607.42	77.182
607.75	76.510
608.08	77.134
608.42	75.834
608.75	78.217
609.08	78.774
609.41	78.173
609.75	77.016
610.08	77.833
610.41	78.213
610.74	77.669
611.07	79.173
611.41	78.204
611.74	77.665
612.07	76.178
612.40	77.681
612.73	79.209
613.07	76.828
613.40	76.368
613.73	78.400
614.06	77.462
614.39	77.778
614.72	77.927
615.06	76.369
615.39	75.437
615.72	77.395
616.05	77.486
616.38	75.783
616.71	77.798
617.05	77.888
617.38	78.630
617.71	78.679
618.04	80.317
618.37	77.680
618.70	78.680
619.03	79.097
619.36	75.253
619.69	79.151
620.03	78.598
620.36	78.398
620.69	75.946
621.02	76.988
621.35	76.680
621.68	76.276
622.01	77.417
622.34	77.334
622.67	78.233
623.00	76.799
623.33	76.982
623.66	77.113
623.99	78.215
624.32	78.251
624.65	76.917
624.99	77.502
625.32	76.876
625.65	79.183
625.98	77.760
626.31	76.891
626.64	76.950
626.97	76.527
627.30	76.883
627.63	75.563
627.96	77.089
628.29	77.798
628.62	76.205
628.95	76.553
629.28	78.730
629.61	78.863
629.94	77.419
630.26	75.988
630.59	79.605
630.92	76.923
631.25	75.590
631.58	75.991
631.91	76.535
632.24	76.147
632.57	77.386
632.90	77.343
633.23	75.647
633.56	79.849
633.89	75.092
634.22	77.037
