SpectraSuite Data File
++++++++++++++++++++++++++++++++++++
Date: Fri May 15 17:24:11 PDT 2015
User: schluterlab
Dark Spectrum Present: Yes
Reference Spectrum Present: Yes
Number of Sampled Component Spectra: 1
Spectrometers: USB2E3373
Integration Time (usec): 3000 (USB2E3373)
Spectra Averaged: 3 (USB2E3373)
Boxcar Smoothing: 0 (USB2E3373)
Correct for Electrical Dark: No (USB2E3373)
Strobe/Lamp Enabled: No (USB2E3373)
Correct for Detector Non-linearity: No (USB2E3373)
Correct for Stray Light: No (USB2E3373)
Number of Pixels in Processed Spectrum: 2048
>>>>>Begin Processed Spectral Data<<<<<
178.53	0.000
178.91	0.000
179.29	100.000
179.67	0.000
180.04	-128.571
180.42	175.000
180.80	200.000
181.18	-466.667
181.56	400.000
181.94	50.000
182.31	600.000
182.69	0.000
183.07	-133.333
183.45	-180.000
183.83	-50.000
184.20	9.091
184.58	44.444
184.96	-75.000
185.34	-33.333
185.72	300.000
186.09	15.385
186.47	400.000
186.85	133.333
187.23	-133.333
187.61	-600.000
187.98	-33.333
188.36	66.667
188.74	-166.667
189.12	82.353
189.49	77.778
189.87	0.000
190.25	42.857
190.63	400.000
191.00	-233.333
191.38	36.842
191.76	200.000
192.14	100.000
192.51	350.000
192.89	44.444
193.27	71.429
193.65	183.333
194.02	18.182
194.40	60.000
194.78	-75.000
195.15	-16.667
195.53	-125.000
195.91	-25.000
196.29	-25.000
196.66	30.769
197.04	57.143
197.42	22.222
197.79	-400.000
198.17	-61.538
198.55	300.000
198.92	-100.000
199.30	-200.000
199.68	40.000
200.05	-66.667
200.43	0.000
200.81	33.333
201.18	33.333
201.56	1500.000
201.94	-250.000
202.31	-100.000
202.69	100.000
203.07	-150.000
203.44	100.000
203.82	0.000
204.19	35.714
204.57	-100.000
204.95	100.000
205.32	70.000
205.70	100.000
206.08	-75.000
206.45	200.000
206.83	164.286
207.20	-100.000
207.58	-200.000
207.96	-166.667
208.33	-90.000
208.71	-100.000
209.08	-66.667
209.46	-300.000
209.84	20.000
210.21	100.000
210.59	171.429
210.96	33.333
211.34	50.000
211.71	80.000
212.09	-28.571
212.46	-600.000
212.84	0.000
213.22	70.000
213.59	-150.000
213.97	100.000
214.34	127.273
214.72	-33.333
215.09	425.000
215.47	30.769
215.84	-45.455
216.22	66.667
216.59	25.000
216.97	50.000
217.34	125.000
217.72	-240.000
218.09	87.500
218.47	-12.500
218.84	-700.000
219.22	44.444
219.59	40.000
219.97	133.333
220.34	50.000
220.72	28.571
221.09	-50.000
221.47	200.000
221.84	-150.000
222.22	100.000
222.59	-9.091
222.97	83.333
223.34	0.000
223.72	0.000
224.09	28.571
224.46	35.714
224.84	266.667
225.21	90.000
225.59	126.667
225.96	200.000
226.34	200.000
226.71	42.857
227.08	0.000
227.46	125.000
227.83	0.000
228.21	66.667
228.58	18.182
228.95	25.000
229.33	130.000
229.70	18.750
230.08	-37.500
230.45	128.571
230.82	142.857
231.20	33.333
231.57	85.714
231.95	14.286
232.32	-60.000
232.69	57.143
233.07	100.000
233.44	20.000
233.81	-80.000
234.19	66.667
234.56	76.471
234.93	650.000
235.31	150.000
235.68	-20.000
236.05	-92.308
236.43	10.000
236.80	52.941
237.17	18.750
237.55	35.000
237.92	33.333
238.29	19.444
238.67	43.333
239.04	26.471
239.41	-9.756
239.79	23.333
240.16	46.341
240.53	7.895
240.91	28.261
241.28	19.048
241.65	28.571
242.02	34.247
242.40	23.333
242.77	23.729
243.14	15.152
243.51	27.500
243.89	33.333
244.26	17.241
244.63	29.762
245.00	24.742
245.38	30.928
245.75	12.360
246.12	22.414
246.49	27.273
246.87	27.885
247.24	10.084
247.61	14.912
247.98	24.390
248.36	23.750
248.73	22.368
249.10	22.078
249.47	23.418
249.84	24.837
250.22	30.000
250.59	21.569
250.96	23.474
251.33	26.163
251.70	22.353
252.08	23.350
252.45	16.337
252.82	31.658
253.19	24.885
253.56	21.028
253.94	27.027
254.31	25.217
254.68	24.123
255.05	25.591
255.42	24.017
255.79	21.622
256.16	24.125
256.54	25.746
256.91	23.194
257.28	24.164
257.65	23.970
258.02	19.149
258.39	25.926
258.76	26.007
259.14	23.920
259.51	25.566
259.88	22.680
260.25	23.203
260.62	25.347
260.99	22.373
261.36	21.575
261.73	26.899
262.10	21.884
262.47	23.313
262.85	21.317
263.22	20.923
263.59	23.364
263.96	25.776
264.33	22.727
264.70	20.536
265.07	21.429
265.44	24.929
265.81	24.011
266.18	21.038
266.55	24.936
266.92	24.611
267.29	26.110
267.66	24.297
268.03	21.728
268.40	24.021
268.77	24.866
269.14	25.180
269.51	24.422
269.88	23.192
270.25	22.194
270.62	20.000
270.99	18.670
271.36	23.961
271.73	22.300
272.10	24.088
272.47	23.641
272.84	21.535
273.21	24.130
273.58	20.723
273.95	22.883
274.32	18.476
274.69	23.077
275.06	22.098
275.43	24.717
275.80	21.413
276.17	18.851
276.54	20.771
276.91	22.149
277.28	20.742
277.65	22.521
278.02	20.213
278.39	24.945
278.76	20.335
279.13	18.257
279.50	21.639
279.87	23.974
280.23	21.290
280.60	20.273
280.97	22.222
281.34	20.385
281.71	21.766
282.08	19.223
282.45	21.918
282.82	19.691
283.19	20.503
283.56	21.387
283.92	18.596
284.29	19.808
284.66	19.186
285.03	20.039
285.40	20.605
285.77	20.387
286.14	19.134
286.51	24.908
286.87	21.572
287.24	19.890
287.61	17.460
287.98	21.754
288.35	18.891
288.72	22.067
289.08	19.271
289.45	19.332
289.82	19.406
290.19	20.990
290.56	19.211
290.93	18.855
291.29	17.411
291.66	18.740
292.03	18.979
292.40	18.871
292.77	20.096
293.13	16.883
293.50	15.781
293.87	17.252
294.24	15.920
294.60	18.629
294.97	19.048
295.34	15.491
295.71	16.393
296.08	17.638
296.44	14.083
296.81	16.528
297.18	16.667
297.55	17.480
297.91	16.712
298.28	15.172
298.65	15.875
299.02	16.173
299.38	14.227
299.75	16.138
300.12	15.052
300.48	16.074
300.85	15.463
301.22	15.065
301.59	13.684
301.95	16.835
302.32	15.045
302.69	15.547
303.05	13.366
303.42	15.567
303.79	14.720
304.15	15.771
304.52	13.674
304.89	14.035
305.25	13.438
305.62	12.602
305.99	15.088
306.35	14.335
306.72	13.273
307.09	13.683
307.45	13.777
307.82	13.889
308.19	16.144
308.55	14.177
308.92	14.924
309.29	13.631
309.65	14.209
310.02	13.971
310.38	15.587
310.75	14.208
311.12	14.316
311.48	14.316
311.85	14.450
312.22	13.819
312.58	14.862
312.95	13.661
313.31	14.079
313.68	14.869
314.05	12.347
314.41	14.845
314.78	15.155
315.14	15.005
315.51	14.907
315.87	15.164
316.24	17.391
316.61	16.339
316.97	15.179
317.34	16.504
317.70	16.539
318.07	17.115
318.43	17.353
318.80	15.814
319.16	16.895
319.53	18.993
319.89	17.815
320.26	18.421
320.62	19.258
320.99	17.641
321.35	18.602
321.72	20.457
322.08	19.537
322.45	21.218
322.81	19.941
323.18	19.627
323.54	20.656
323.91	20.643
324.27	22.656
324.64	23.034
325.00	22.901
325.37	24.426
325.73	23.481
326.10	24.886
326.46	26.099
326.83	26.772
327.19	27.463
327.56	26.586
327.92	28.081
328.29	29.107
328.65	30.000
329.01	28.585
329.38	30.415
329.74	30.973
330.11	30.677
330.47	31.354
330.84	32.115
331.20	34.125
331.56	31.759
331.93	34.064
332.29	32.631
332.66	34.027
333.02	34.387
333.38	34.464
333.75	35.165
334.11	33.841
334.48	34.814
334.84	34.890
335.20	35.682
335.57	34.723
335.93	35.592
336.29	36.188
336.66	34.332
337.02	34.572
337.38	35.833
337.75	35.091
338.11	35.888
338.47	36.131
338.84	36.691
339.20	36.380
339.56	36.055
339.93	36.437
340.29	36.514
340.65	37.276
341.02	36.968
341.38	36.637
341.74	36.572
342.11	36.135
342.47	38.523
342.83	37.716
343.20	36.760
343.56	37.652
343.92	37.910
344.28	37.660
344.65	37.306
345.01	37.338
345.37	36.501
345.73	35.565
346.10	37.705
346.46	36.838
346.82	37.971
347.19	36.409
347.55	37.510
347.91	37.298
348.27	36.297
348.63	38.075
349.00	38.064
349.36	36.575
349.72	38.723
350.08	38.033
350.45	37.271
350.81	36.960
351.17	37.215
351.53	37.633
351.89	38.233
352.26	37.280
352.62	38.710
352.98	37.510
353.34	36.634
353.70	37.217
354.07	37.823
354.43	38.431
354.79	38.315
355.15	37.698
355.51	36.946
355.87	37.055
356.24	38.173
356.60	38.480
356.96	37.857
357.32	37.620
357.68	38.155
358.04	38.853
358.40	39.550
358.77	38.756
359.13	38.191
359.49	36.826
359.85	39.782
360.21	39.713
360.57	37.796
360.93	39.561
361.29	38.897
361.66	40.047
362.02	39.545
362.38	40.061
362.74	40.121
363.10	39.804
363.46	38.547
363.82	40.796
364.18	39.041
364.54	40.074
364.90	39.068
365.26	40.247
365.62	41.752
365.98	40.616
366.35	40.350
366.71	41.463
367.07	41.001
367.43	41.121
367.79	40.141
368.15	40.919
368.51	42.243
368.87	41.493
369.23	41.155
369.59	42.347
369.95	41.202
370.31	42.052
370.67	41.866
371.03	41.299
371.39	42.159
371.75	42.125
372.11	42.511
372.47	42.456
372.83	43.506
373.19	43.224
373.55	43.249
373.91	43.197
374.27	43.232
374.63	44.867
374.99	44.610
375.35	43.524
375.71	44.545
376.07	46.067
376.42	44.898
376.78	44.899
377.14	46.107
377.50	46.547
377.86	44.846
378.22	46.075
378.58	45.064
378.94	45.495
379.30	46.725
379.66	46.646
380.02	46.597
380.38	46.439
380.74	45.661
381.09	48.037
381.45	47.706
381.81	47.193
382.17	47.652
382.53	47.970
382.89	48.336
383.25	48.600
383.61	48.171
383.97	48.698
384.32	49.406
384.68	49.907
385.04	48.039
385.40	47.978
385.76	48.742
386.12	51.358
386.48	51.149
386.83	49.841
387.19	49.206
387.55	51.129
387.91	51.589
388.27	49.817
388.62	51.038
388.98	50.522
389.34	51.343
389.70	51.896
390.06	50.535
390.42	50.907
390.77	52.976
391.13	50.441
391.49	51.940
391.85	53.801
392.20	50.282
392.56	53.083
392.92	51.732
393.28	52.358
393.64	53.093
393.99	54.044
394.35	53.131
394.71	52.937
395.07	52.986
395.42	53.430
395.78	53.160
396.14	53.531
396.50	53.646
396.85	54.282
397.21	53.759
397.57	53.229
397.92	52.906
398.28	54.368
398.64	53.434
399.00	54.063
399.35	53.442
399.71	52.958
400.07	54.111
400.42	53.305
400.78	54.317
401.14	54.446
401.49	54.199
401.85	53.260
402.21	54.157
402.57	55.000
402.92	53.262
403.28	53.634
403.63	54.918
403.99	54.209
404.35	54.716
404.70	52.857
405.06	53.525
405.42	53.760
405.77	52.760
406.13	55.646
406.49	52.990
406.84	54.645
407.20	53.763
407.55	53.316
407.91	54.880
408.27	54.175
408.62	54.338
408.98	52.742
409.34	54.523
409.69	54.328
410.05	53.756
410.40	54.012
410.76	54.343
411.11	53.062
411.47	54.306
411.83	53.923
412.18	54.633
412.54	54.682
412.89	53.202
413.25	54.392
413.60	53.975
413.96	53.374
414.31	53.841
414.67	54.971
415.03	53.928
415.38	54.243
415.74	54.332
416.09	54.997
416.45	54.963
416.80	54.131
417.16	56.285
417.51	55.430
417.87	54.433
418.22	55.181
418.58	55.518
418.93	55.549
419.29	53.329
419.64	56.643
420.00	57.305
420.35	55.522
420.71	56.318
421.06	55.924
421.42	55.409
421.77	56.821
422.12	56.186
422.48	55.766
422.83	54.988
423.19	54.797
423.54	56.143
423.90	56.302
424.25	56.716
424.61	57.772
424.96	55.459
425.31	58.463
425.67	57.629
426.02	57.538
426.38	58.297
426.73	58.475
427.09	59.430
427.44	57.647
427.79	57.513
428.15	57.646
428.50	57.541
428.85	57.432
429.21	58.461
429.56	58.706
429.92	57.730
430.27	57.243
430.62	57.658
430.98	57.749
431.33	58.254
431.68	58.556
432.04	58.692
432.39	58.699
432.74	57.426
433.10	59.828
433.45	59.259
433.80	60.476
434.16	59.501
434.51	59.355
434.86	60.569
435.22	59.843
435.57	60.574
435.92	60.659
436.28	59.630
436.63	60.525
436.98	59.328
437.34	60.315
437.69	63.447
438.04	60.171
438.39	60.904
438.75	61.566
439.10	60.611
439.45	61.412
439.81	61.651
440.16	61.698
440.51	61.791
440.86	63.323
441.22	60.577
441.57	60.872
441.92	62.749
442.27	62.361
442.63	62.259
442.98	61.401
443.33	60.434
443.68	62.016
444.03	61.798
444.39	60.994
444.74	63.155
445.09	62.862
445.44	61.709
445.79	62.919
446.15	61.949
446.50	63.172
446.85	63.868
447.20	62.044
447.55	62.779
447.91	62.380
448.26	62.948
448.61	62.176
448.96	63.110
449.31	62.139
449.66	63.182
450.02	62.464
450.37	63.367
450.72	63.230
451.07	64.494
451.42	63.795
451.77	63.171
452.12	61.902
452.47	63.876
452.83	62.721
453.18	63.188
453.53	64.475
453.88	63.692
454.23	63.553
454.58	64.736
454.93	64.240
455.28	62.413
455.63	64.662
455.98	62.778
456.34	63.602
456.69	64.358
457.04	64.461
457.39	64.216
457.74	64.148
458.09	62.213
458.44	63.839
458.79	62.577
459.14	64.016
459.49	64.418
459.84	63.339
460.19	63.896
460.54	64.120
460.89	63.750
461.24	63.975
461.59	63.539
461.94	62.075
462.29	62.847
462.64	62.591
462.99	63.575
463.34	63.978
463.69	62.355
464.04	63.983
464.39	62.523
464.74	62.209
465.09	64.005
465.44	65.378
465.79	62.812
466.14	63.455
466.49	63.485
466.84	63.712
467.19	65.207
467.54	62.580
467.89	64.056
468.24	62.591
468.59	64.698
468.94	63.556
469.29	64.328
469.64	64.457
469.99	65.662
470.34	64.437
470.68	65.623
471.03	64.402
471.38	63.766
471.73	64.776
472.08	63.094
472.43	64.966
472.78	63.331
473.13	64.218
473.48	63.974
473.83	63.948
474.17	64.637
474.52	64.327
474.87	64.061
475.22	64.308
475.57	63.354
475.92	63.906
476.27	64.901
476.61	63.773
476.96	62.465
477.31	64.089
477.66	63.596
478.01	64.009
478.36	62.963
478.70	64.220
479.05	63.901
479.40	64.441
479.75	63.556
480.10	63.697
480.45	63.500
480.79	65.156
481.14	65.523
481.49	63.941
481.84	64.575
482.19	63.237
482.53	64.460
482.88	63.580
483.23	64.491
483.58	63.915
483.92	63.892
484.27	62.625
484.62	63.245
484.97	64.055
485.31	62.536
485.66	62.386
486.01	62.227
486.36	61.542
486.70	61.766
487.05	62.229
487.40	61.841
487.75	61.859
488.09	62.392
488.44	62.242
488.79	62.533
489.13	63.381
489.48	63.574
489.83	63.408
490.17	62.787
490.52	64.988
490.87	63.397
491.22	65.091
491.56	63.520
491.91	63.576
492.26	64.074
492.60	64.299
492.95	65.027
493.30	64.094
493.64	64.784
493.99	64.155
494.34	64.126
494.68	65.095
495.03	63.747
495.37	64.377
495.72	63.756
496.07	64.341
496.41	64.670
496.76	65.500
497.11	63.484
497.45	63.914
497.80	65.792
498.14	64.680
498.49	64.246
498.84	64.122
499.18	64.960
499.53	64.484
499.87	64.786
500.22	64.144
500.56	65.255
500.91	63.554
501.26	63.915
501.60	64.584
501.95	63.610
502.29	64.068
502.64	65.299
502.98	64.924
503.33	63.737
503.67	63.663
504.02	65.103
504.36	64.968
504.71	65.051
505.06	64.419
505.40	64.315
505.75	65.258
506.09	63.507
506.44	66.324
506.78	65.051
507.13	65.408
507.47	64.543
507.82	64.957
508.16	65.980
508.51	66.002
508.85	65.829
509.19	64.236
509.54	65.255
509.88	64.941
510.23	66.003
510.57	65.847
510.92	63.380
511.26	66.012
511.61	64.741
511.95	65.644
512.30	64.246
512.64	67.223
512.98	66.030
513.33	66.032
513.67	64.639
514.02	65.961
514.36	65.714
514.70	66.725
515.05	67.861
515.39	67.178
515.74	68.323
516.08	66.527
516.42	66.019
516.77	67.876
517.11	67.893
517.46	67.265
517.80	65.912
518.14	66.565
518.49	67.248
518.83	67.072
519.17	67.010
519.52	65.542
519.86	66.267
520.20	67.132
520.55	67.042
520.89	68.444
521.23	65.484
521.58	68.517
521.92	67.115
522.26	68.575
522.61	68.377
522.95	69.073
523.29	67.471
523.64	67.789
523.98	68.244
524.32	66.946
524.66	68.694
525.01	69.481
525.35	68.438
525.69	68.956
526.04	67.526
526.38	68.547
526.72	67.103
527.06	67.899
527.41	68.404
527.75	67.761
528.09	68.505
528.43	69.075
528.78	69.241
529.12	68.516
529.46	68.291
529.80	67.321
530.15	68.185
530.49	69.966
530.83	69.494
531.17	68.570
531.51	68.605
531.86	68.321
532.20	68.267
532.54	67.393
532.88	68.104
533.22	67.070
533.57	67.890
533.91	67.167
534.25	68.880
534.59	66.517
534.93	65.702
535.27	66.751
535.62	67.077
535.96	68.102
536.30	68.404
536.64	69.814
536.98	66.969
537.32	69.986
537.66	69.565
538.01	68.112
538.35	66.644
538.69	67.643
539.03	67.669
539.37	67.497
539.71	67.416
540.05	67.006
540.39	68.629
540.73	67.573
541.07	69.682
541.42	68.145
541.76	68.617
542.10	67.515
542.44	67.964
542.78	65.382
543.12	68.063
543.46	68.289
543.80	68.425
544.14	66.288
544.48	67.688
544.82	68.148
545.16	69.262
545.50	67.356
545.84	67.989
546.18	68.227
546.52	69.142
546.86	68.943
547.20	68.526
547.54	67.915
547.88	67.255
548.22	66.141
548.56	68.470
548.90	67.385
549.24	67.493
549.58	68.829
549.92	68.049
550.26	68.278
550.60	69.368
550.94	69.007
551.28	70.325
551.62	69.923
551.96	69.549
552.30	69.518
552.64	67.842
552.98	66.526
553.32	68.117
553.66	67.634
554.00	69.124
554.34	68.907
554.68	67.699
555.02	68.750
555.36	69.260
555.69	68.278
556.03	68.308
556.37	68.114
556.71	68.159
557.05	70.768
557.39	68.476
557.73	69.040
558.07	69.910
558.41	69.525
558.75	69.447
559.08	70.449
559.42	70.159
559.76	71.177
560.10	69.343
560.44	68.057
560.78	67.343
561.12	71.157
561.45	70.204
561.79	70.238
562.13	70.263
562.47	68.561
562.81	69.092
563.15	68.054
563.48	69.095
563.82	70.007
564.16	69.986
564.50	68.919
564.84	69.411
565.17	68.075
565.51	70.492
565.85	70.508
566.19	68.568
566.52	69.839
566.86	68.573
567.20	68.991
567.54	68.674
567.88	70.767
568.21	67.308
568.55	67.609
568.89	67.762
569.23	69.090
569.56	68.214
569.90	68.210
570.24	65.017
570.57	66.800
570.91	66.434
571.25	65.834
571.59	66.085
571.92	64.296
572.26	64.342
572.60	63.814
572.93	64.732
573.27	64.357
573.61	65.245
573.95	64.691
574.28	64.062
574.62	64.505
574.96	63.426
575.29	64.008
575.63	63.073
575.97	63.296
576.30	64.436
576.64	63.947
576.98	64.324
577.31	64.242
577.65	65.000
577.98	64.159
578.32	63.837
578.66	63.464
578.99	63.126
579.33	63.502
579.67	63.891
580.00	64.582
580.34	63.856
580.67	63.947
581.01	64.025
581.35	63.738
581.68	63.610
582.02	64.287
582.35	63.287
582.69	64.608
583.02	64.046
583.36	64.396
583.70	65.239
584.03	65.527
584.37	66.968
584.70	64.835
585.04	64.171
585.37	64.742
585.71	64.700
586.04	65.103
586.38	64.897
586.72	65.681
587.05	65.829
587.39	66.424
587.72	66.375
588.06	66.067
588.39	65.765
588.73	65.965
589.06	65.460
589.40	65.710
589.73	67.032
590.07	67.107
590.40	66.641
590.73	68.575
591.07	67.133
591.40	68.077
591.74	68.733
592.07	68.553
592.41	67.845
592.74	67.264
593.08	65.875
593.41	66.557
593.75	66.405
594.08	66.667
594.41	66.667
594.75	65.763
595.08	67.196
595.42	67.243
595.75	68.719
596.09	68.921
596.42	68.045
596.75	68.250
597.09	68.064
597.42	67.931
597.75	69.354
598.09	67.089
598.42	67.103
598.76	67.267
599.09	67.628
599.42	66.048
599.76	66.178
600.09	66.968
600.42	66.641
600.76	66.085
601.09	67.023
601.42	66.236
601.76	67.447
602.09	67.616
602.42	68.618
602.76	69.100
603.09	69.186
603.42	69.816
603.76	68.145
604.09	68.449
604.42	68.697
604.76	68.847
605.09	68.921
605.42	67.449
605.75	67.163
606.09	68.662
606.42	67.098
606.75	67.532
607.09	68.264
607.42	67.745
607.75	68.517
608.08	66.307
608.42	67.017
608.75	69.060
609.08	68.909
609.41	70.761
609.75	68.800
610.08	68.797
610.41	69.179
610.74	68.747
611.07	70.388
611.41	69.279
611.74	70.949
612.07	69.593
612.40	70.842
612.73	70.960
613.07	68.504
613.40	70.186
613.73	70.957
614.06	68.948
614.39	70.164
614.72	68.739
615.06	70.782
615.39	66.758
615.72	68.299
616.05	68.436
616.38	68.604
616.71	70.642
617.05	69.734
617.38	71.213
617.71	70.943
618.04	72.190
618.37	70.933
618.70	72.079
619.03	72.639
619.36	71.129
619.69	71.797
620.03	73.411
620.36	70.243
620.69	71.592
621.02	72.554
621.35	73.527
621.68	73.554
622.01	73.750
622.34	73.184
622.67	71.609
623.00	71.363
623.33	74.390
623.66	69.559
623.99	71.785
624.32	72.015
624.65	72.481
624.99	73.439
625.32	72.479
625.65	74.156
625.98	74.617
626.31	72.153
626.64	74.957
626.97	73.909
627.30	74.956
627.63	73.137
627.96	75.472
628.29	75.856
628.62	75.123
628.95	75.050
629.28	77.016
629.61	75.872
629.94	76.051
630.26	75.988
630.59	77.523
630.92	75.487
631.25	73.744
631.58	79.075
631.91	76.864
632.24	76.376
632.57	77.045
632.90	77.936
633.23	75.294
633.56	81.108
633.89	78.298
634.22	79.753
