SpectraSuite Data File
++++++++++++++++++++++++++++++++++++
Date: Fri May 15 17:26:31 PDT 2015
User: schluterlab
Dark Spectrum Present: Yes
Reference Spectrum Present: Yes
Number of Sampled Component Spectra: 1
Spectrometers: USB2E3373
Integration Time (usec): 3000 (USB2E3373)
Spectra Averaged: 3 (USB2E3373)
Boxcar Smoothing: 0 (USB2E3373)
Correct for Electrical Dark: No (USB2E3373)
Strobe/Lamp Enabled: No (USB2E3373)
Correct for Detector Non-linearity: No (USB2E3373)
Correct for Stray Light: No (USB2E3373)
Number of Pixels in Processed Spectrum: 2048
>>>>>Begin Processed Spectral Data<<<<<
178.53	0.000
178.91	0.000
179.29	87.500
179.67	-200.000
180.04	-28.571
180.42	250.000
180.80	-100.000
181.18	-33.333
181.56	250.000
181.94	150.000
182.31	-400.000
182.69	0.000
183.07	-233.333
183.45	60.000
183.83	-16.667
184.20	-9.091
184.58	144.444
184.96	-125.000
185.34	-166.667
185.72	-350.000
186.09	-0.000
186.47	-100.000
186.85	183.333
187.23	122.222
187.61	-0.000
187.98	-100.000
188.36	66.667
188.74	166.667
189.12	-17.647
189.49	66.667
189.87	0.000
190.25	42.857
190.63	400.000
191.00	-266.667
191.38	36.842
191.76	200.000
192.14	-250.000
192.51	850.000
192.89	11.111
193.27	-42.857
193.65	50.000
194.02	127.273
194.40	-20.000
194.78	12.500
195.15	33.333
195.53	12.500
195.91	200.000
196.29	-75.000
196.66	92.308
197.04	85.714
197.42	-11.111
197.79	-200.000
198.17	-92.308
198.55	-0.000
198.92	100.000
199.30	1100.000
199.68	80.000
200.05	-133.333
200.43	0.000
200.81	-100.000
201.18	0.000
201.56	1000.000
201.94	350.000
202.31	-466.667
202.69	-120.000
203.07	400.000
203.44	500.000
203.82	0.000
204.19	7.143
204.57	-466.667
204.95	187.500
205.32	30.000
205.70	14.286
206.08	50.000
206.45	222.222
206.83	100.000
207.20	-42.857
207.58	700.000
207.96	-400.000
208.33	-90.000
208.71	0.000
209.08	-133.333
209.46	200.000
209.84	-160.000
210.21	-300.000
210.59	-28.571
210.96	16.667
211.34	25.000
211.71	93.333
212.09	100.000
212.46	-900.000
212.84	0.000
213.22	110.000
213.59	250.000
213.97	0.000
214.34	36.364
214.72	50.000
215.09	200.000
215.47	-7.692
215.84	27.273
216.22	-200.000
216.59	-37.500
216.97	50.000
217.34	25.000
217.72	-160.000
218.09	87.500
218.47	137.500
218.84	-200.000
219.22	-111.111
219.59	-200.000
219.97	366.667
220.34	-25.000
220.72	0.000
221.09	125.000
221.47	200.000
221.84	-400.000
222.22	-550.000
222.59	36.364
222.97	66.667
223.34	33.333
223.72	-7.143
224.09	0.000
224.46	3.571
224.84	466.667
225.21	-30.000
225.59	-53.333
225.96	-300.000
226.34	75.000
226.71	0.000
227.08	133.333
227.46	100.000
227.83	-150.000
228.21	55.556
228.58	81.818
228.95	-75.000
229.33	10.000
229.70	100.000
230.08	-25.000
230.45	-85.714
230.82	42.857
231.20	-73.333
231.57	78.571
231.95	42.857
232.32	0.000
232.69	157.143
233.07	200.000
233.44	-140.000
233.81	20.000
234.19	-22.222
234.56	-5.882
234.93	200.000
235.31	325.000
235.68	-140.000
236.05	-30.769
236.43	10.000
236.80	5.882
237.17	31.250
237.55	25.000
237.92	22.222
238.29	36.111
238.67	36.667
239.04	44.118
239.41	-7.317
239.79	6.667
240.16	41.463
240.53	34.211
240.91	26.087
241.28	30.159
241.65	62.500
242.02	42.466
242.40	36.667
242.77	47.458
243.14	21.212
243.51	40.000
243.89	43.678
244.26	35.632
244.63	44.048
245.00	36.082
245.38	42.268
245.75	34.831
246.12	38.793
246.49	43.802
246.87	44.231
247.24	32.773
247.61	41.228
247.98	46.341
248.36	37.500
248.73	37.500
249.10	40.909
249.47	40.506
249.84	47.712
250.22	40.588
250.59	45.752
250.96	42.723
251.33	34.302
251.70	44.118
252.08	42.132
252.45	40.594
252.82	44.724
253.19	42.396
253.56	34.579
253.94	38.739
254.31	46.087
254.68	43.860
255.05	42.520
255.42	41.485
255.79	42.857
256.16	41.245
256.54	44.030
256.91	41.445
257.28	37.546
257.65	41.573
258.02	39.362
258.39	45.118
258.76	43.590
259.14	39.535
259.51	40.453
259.88	42.612
260.25	42.810
260.62	47.222
260.99	41.695
261.36	43.151
261.73	41.139
262.10	39.818
262.47	41.104
262.85	41.379
263.22	38.462
263.59	42.056
263.96	44.099
264.33	43.030
264.70	41.071
265.07	39.286
265.44	43.343
265.81	43.785
266.18	42.623
266.55	43.188
266.92	44.301
267.29	44.386
267.66	44.757
268.03	41.885
268.40	41.514
268.77	48.396
269.14	41.487
269.51	44.987
269.88	41.147
270.25	41.582
270.62	39.756
270.99	40.153
271.36	41.076
271.73	44.601
272.10	41.849
272.47	41.135
272.84	41.584
273.21	42.691
273.58	39.036
273.95	37.757
274.32	40.416
274.69	38.462
275.06	41.741
275.43	39.909
275.80	42.163
276.17	41.609
276.54	39.186
276.91	41.228
277.28	40.830
277.65	40.289
278.02	39.574
278.39	39.825
278.76	41.929
279.13	34.647
279.50	40.756
279.87	40.389
280.23	39.785
280.60	39.571
280.97	42.222
281.34	37.115
281.71	40.452
282.08	38.446
282.45	38.943
282.82	39.382
283.19	39.845
283.56	37.765
283.92	39.279
284.29	39.038
284.66	36.822
285.03	39.293
285.40	38.185
285.77	36.380
286.14	36.462
286.51	38.561
286.87	36.746
287.24	36.464
287.61	37.037
287.98	38.070
288.35	34.835
288.72	37.653
289.08	36.458
289.45	38.137
289.82	34.615
290.19	34.130
290.56	36.364
290.93	34.848
291.29	32.357
291.66	33.228
292.03	33.333
292.40	36.613
292.77	32.057
293.13	31.006
293.50	31.715
293.87	31.908
294.24	33.849
294.60	31.595
294.97	30.060
295.34	30.828
295.71	29.955
296.08	30.194
296.44	27.881
296.81	28.194
297.18	30.580
297.55	32.927
297.91	29.589
298.28	29.024
298.65	27.680
299.02	30.189
299.38	25.718
299.75	28.414
300.12	29.058
300.48	29.249
300.85	27.630
301.22	28.831
301.59	27.632
301.95	27.215
302.32	29.053
302.69	28.483
303.05	26.856
303.42	27.397
303.79	28.037
304.15	28.913
304.52	25.327
304.89	27.602
305.25	27.845
305.62	24.971
305.99	27.251
306.35	25.665
306.72	25.872
307.09	25.884
307.45	27.440
307.82	26.157
308.19	26.481
308.55	26.390
308.92	26.035
309.29	26.816
309.65	26.265
310.02	26.293
310.38	25.906
310.75	26.011
311.12	27.557
311.48	25.557
311.85	24.607
312.22	25.316
312.58	25.265
312.95	24.653
313.31	25.155
313.68	24.293
314.05	24.898
314.41	27.113
314.78	24.330
315.14	26.002
315.51	25.362
315.87	24.898
316.24	24.570
316.61	25.492
316.97	24.504
317.34	24.805
317.70	23.996
318.07	25.000
318.43	24.216
318.80	23.674
319.16	25.586
319.53	24.786
319.89	24.409
320.26	23.785
320.62	26.479
320.99	25.157
321.35	24.358
321.72	25.649
322.08	24.371
322.45	25.178
322.81	23.183
323.18	23.945
323.54	24.035
323.91	23.466
324.27	24.316
324.64	24.532
325.00	23.814
325.37	25.620
325.73	22.756
326.10	24.977
326.46	24.036
326.83	23.797
327.19	25.371
327.56	23.023
327.92	24.736
328.29	23.929
328.65	24.528
329.01	23.989
329.38	23.779
329.74	23.324
330.11	22.706
330.47	23.284
330.84	22.692
331.20	25.000
331.56	23.333
331.93	24.201
332.29	23.740
332.66	23.258
333.02	24.071
333.38	22.915
333.75	24.634
334.11	23.814
334.48	23.481
334.84	24.084
335.20	23.239
335.57	21.850
335.93	23.577
336.29	24.309
336.66	24.160
337.02	23.699
337.38	22.685
337.75	23.727
338.11	23.625
338.47	23.449
338.84	22.921
339.20	23.309
339.56	23.945
339.93	23.724
340.29	22.844
340.65	22.849
341.02	22.606
341.38	22.478
341.74	23.145
342.11	21.664
342.47	22.865
342.83	22.751
343.20	22.474
343.56	23.652
343.92	21.435
344.28	23.740
344.65	23.402
345.01	21.348
345.37	22.035
345.73	22.678
346.10	22.865
346.46	22.204
346.82	22.422
347.19	20.948
347.55	22.556
347.91	23.382
348.27	22.474
348.63	22.913
349.00	22.067
349.36	22.610
349.72	22.720
350.08	21.639
350.45	22.027
350.81	22.591
351.17	22.313
351.53	23.673
351.89	23.287
352.26	22.160
352.62	22.016
352.98	21.928
353.34	21.095
353.70	22.896
354.07	20.806
354.43	22.258
354.79	21.057
355.15	21.190
355.51	22.864
355.87	21.926
356.24	20.799
356.60	21.746
356.96	22.063
357.32	21.166
357.68	21.579
358.04	21.002
358.40	21.463
358.77	21.053
359.13	21.217
359.49	21.263
359.85	21.061
360.21	21.850
360.57	21.423
360.93	21.483
361.29	21.148
361.66	23.354
362.02	21.742
362.38	21.173
362.74	21.575
363.10	21.670
363.46	21.275
363.82	21.488
364.18	20.959
364.54	20.882
364.90	22.222
365.26	21.252
365.62	22.482
365.98	21.114
366.35	22.360
366.71	21.360
367.07	22.061
367.43	20.561
367.79	21.767
368.15	21.106
368.51	21.413
368.87	20.603
369.23	21.011
369.59	20.190
369.95	22.361
370.31	21.821
370.67	20.821
371.03	20.612
371.39	21.444
371.75	21.099
372.11	20.328
372.47	22.041
372.83	21.008
373.19	21.683
373.55	20.433
373.91	20.734
374.27	20.765
374.63	20.962
374.99	20.071
375.35	20.752
375.71	21.538
376.07	20.787
376.42	20.544
376.78	20.604
377.14	21.192
377.50	20.850
377.86	22.289
378.22	20.549
378.58	21.795
378.94	20.605
379.30	21.273
379.66	21.066
380.02	21.214
380.38	20.572
380.74	20.407
381.09	21.534
381.45	21.468
381.81	20.543
382.17	21.129
382.53	20.737
382.89	21.092
383.25	21.157
383.61	21.890
383.97	20.952
384.32	20.700
384.68	21.362
385.04	20.833
385.40	20.660
385.76	22.201
386.12	21.604
386.48	21.328
386.83	21.433
387.19	20.818
387.55	21.142
387.91	20.782
388.27	20.452
388.62	21.397
388.98	21.301
389.34	21.736
389.70	21.504
390.06	21.082
390.42	21.244
390.77	21.321
391.13	20.492
391.49	21.022
391.85	22.417
392.20	21.155
392.56	21.106
392.92	21.550
393.28	22.170
393.64	21.261
393.99	22.696
394.35	20.746
394.71	22.350
395.07	20.427
395.42	20.522
395.78	21.042
396.14	21.627
396.50	21.433
396.85	20.798
397.21	21.429
397.57	21.254
397.92	21.210
398.28	21.897
398.64	21.024
399.00	21.558
399.35	21.445
399.71	21.310
400.07	22.128
400.42	21.726
400.78	21.678
401.14	22.505
401.49	22.275
401.85	21.572
402.21	22.771
402.57	22.625
402.92	21.393
403.28	22.368
403.63	22.068
403.99	21.429
404.35	21.487
404.70	22.024
405.06	21.445
405.42	21.131
405.77	20.686
406.13	21.478
406.49	21.314
406.84	21.760
407.20	22.276
407.55	21.442
407.91	21.390
408.27	22.180
408.62	22.215
408.98	21.750
409.34	22.243
409.69	21.576
410.05	21.367
410.40	22.037
410.76	21.713
411.11	21.812
411.47	21.762
411.83	21.720
412.18	21.493
412.54	21.161
412.89	21.798
413.25	22.804
413.60	22.547
413.96	22.393
414.31	22.195
414.67	21.552
415.03	22.437
415.38	21.606
415.74	21.759
416.09	21.881
416.45	22.417
416.80	22.802
417.16	22.169
417.51	22.385
417.87	22.034
418.22	23.057
418.58	22.140
418.93	22.445
419.29	20.871
419.64	21.452
420.00	23.237
420.35	21.851
420.71	23.026
421.06	22.406
421.42	22.476
421.77	22.023
422.12	22.191
422.48	22.523
422.83	21.752
423.19	22.291
423.54	21.752
423.90	23.027
424.25	23.134
424.61	23.011
424.96	22.474
425.31	23.281
425.67	22.829
426.02	23.086
426.38	23.356
426.73	23.850
427.09	23.038
427.44	23.176
427.79	23.512
428.15	23.362
428.50	22.774
428.85	22.174
429.21	22.524
429.56	23.127
429.92	22.958
430.27	23.158
430.62	21.694
430.98	22.452
431.33	22.923
431.68	22.135
432.04	22.750
432.39	23.560
432.74	22.069
433.10	23.448
433.45	22.461
433.80	23.680
434.16	22.992
434.51	23.118
434.86	23.868
435.22	23.836
435.57	23.144
435.92	23.054
436.28	22.958
436.63	23.560
436.98	22.885
437.34	23.533
437.69	24.687
438.04	23.704
438.39	23.274
438.75	24.044
439.10	23.316
439.45	23.676
439.81	22.875
440.16	23.100
440.51	23.522
440.86	23.867
441.22	23.303
441.57	22.903
441.92	23.715
442.27	24.390
442.63	24.143
442.98	24.009
443.33	23.706
443.68	23.607
444.03	23.845
444.39	23.266
444.74	24.136
445.09	24.165
445.44	23.989
445.79	24.910
446.15	23.568
446.50	23.461
446.85	24.442
447.20	24.140
447.55	24.609
447.91	23.632
448.26	24.587
448.61	24.583
448.96	24.269
449.31	23.988
449.66	24.158
450.02	24.929
450.37	23.355
450.72	24.685
451.07	25.253
451.42	24.532
451.77	23.749
452.12	23.445
452.47	24.598
452.83	23.793
453.18	23.782
453.53	24.020
453.88	23.983
454.23	24.462
454.58	24.496
454.93	24.227
455.28	23.429
455.63	24.117
455.98	24.293
456.34	23.691
456.69	24.778
457.04	24.953
457.39	24.544
457.74	23.761
458.09	24.191
458.44	24.517
458.79	24.202
459.14	24.714
459.49	24.716
459.84	24.535
460.19	24.575
460.54	24.389
460.89	25.341
461.24	24.845
461.59	25.178
461.94	24.151
462.29	25.573
462.64	25.914
462.99	24.983
463.34	24.061
463.69	24.968
464.04	24.697
464.39	24.560
464.74	25.399
465.09	24.704
465.44	24.351
465.79	24.093
466.14	25.371
466.49	24.669
466.84	25.402
467.19	24.406
467.54	24.330
467.89	24.574
468.24	24.392
468.59	25.587
468.94	25.714
469.29	25.311
469.64	25.427
469.99	25.578
470.34	24.232
470.68	25.876
471.03	25.619
471.38	25.392
471.73	25.420
472.08	25.509
472.43	24.564
472.78	25.086
473.13	24.626
473.48	25.081
473.83	24.720
474.17	25.972
474.52	25.590
474.87	25.394
475.22	25.869
475.57	25.353
475.92	25.123
476.27	26.601
476.61	25.405
476.96	25.209
477.31	26.555
477.66	25.337
478.01	25.042
478.36	25.817
478.70	25.666
479.05	25.495
479.40	25.490
479.75	25.756
480.10	24.936
480.45	24.850
480.79	25.680
481.14	25.564
481.49	25.369
481.84	25.917
482.19	25.257
482.53	25.899
482.88	25.585
483.23	25.528
483.58	24.717
483.92	25.508
484.27	25.160
484.62	25.504
484.97	24.959
485.31	25.145
485.66	24.154
486.01	23.984
486.36	24.153
486.70	24.198
487.05	24.503
487.40	24.276
487.75	24.028
488.09	24.258
488.44	25.000
488.79	24.916
489.13	25.000
489.48	25.139
489.83	24.798
490.17	24.854
490.52	25.958
490.87	25.914
491.22	25.836
491.56	25.664
491.91	25.956
492.26	26.495
492.60	26.440
492.95	26.611
493.30	25.256
493.64	25.933
493.99	25.942
494.34	26.068
494.68	26.952
495.03	25.061
495.37	26.497
495.72	26.754
496.07	25.756
496.41	25.943
496.76	26.301
497.11	25.151
497.45	26.969
497.80	26.186
498.14	26.230
498.49	26.155
498.84	26.248
499.18	26.506
499.53	25.992
499.87	26.167
500.22	26.311
500.56	26.626
500.91	25.602
501.26	25.853
501.60	26.070
501.95	26.735
502.29	26.344
502.64	26.351
502.98	26.147
503.33	25.504
503.67	26.651
504.02	26.882
504.36	26.818
504.71	26.162
505.06	26.422
505.40	26.599
505.75	26.856
506.09	26.153
506.44	27.053
506.78	26.633
507.13	26.525
507.47	25.796
507.82	26.656
508.16	26.994
508.51	27.387
508.85	27.211
509.19	26.876
509.54	27.131
509.88	26.699
510.23	27.111
510.57	27.365
510.92	26.546
511.26	27.278
511.61	27.283
511.95	27.452
512.30	26.829
512.64	27.602
512.98	27.344
513.33	27.140
513.67	26.720
514.02	28.547
514.36	27.486
514.70	28.438
515.05	29.495
515.39	28.099
515.74	28.623
516.08	28.512
516.42	28.092
516.77	28.204
517.11	28.131
517.46	28.306
517.80	28.605
518.14	28.720
518.49	27.825
518.83	28.129
519.17	27.774
519.52	26.880
519.86	28.151
520.20	27.704
520.55	28.330
520.89	28.670
521.23	29.386
521.58	29.338
521.92	28.526
522.26	28.432
522.61	27.662
522.95	29.934
523.29	29.288
523.64	29.543
523.98	28.710
524.32	29.059
524.66	29.449
525.01	30.325
525.35	29.294
525.69	29.024
526.04	29.365
526.38	29.572
526.72	28.385
527.06	29.637
527.41	30.211
527.75	29.357
528.09	29.701
528.43	30.182
528.78	29.043
529.12	29.677
529.46	29.110
529.80	29.069
530.15	30.033
530.49	29.764
530.83	30.917
531.17	28.744
531.51	30.164
531.86	29.436
532.20	29.506
532.54	29.204
532.88	30.048
533.22	29.368
533.57	28.702
533.91	29.765
534.25	30.208
534.59	28.480
534.93	29.012
535.27	28.109
535.62	29.164
535.96	29.615
536.30	30.013
536.64	29.083
536.98	29.129
537.32	29.374
537.66	29.663
538.01	29.161
538.35	29.750
538.69	29.361
539.03	29.050
539.37	29.139
539.71	29.039
540.05	29.396
540.39	29.501
540.73	29.986
541.07	29.006
541.42	30.108
541.76	29.800
542.10	29.250
542.44	30.368
542.78	28.630
543.12	28.915
543.46	31.502
543.80	29.424
544.14	28.638
544.48	28.981
544.82	30.007
545.16	29.850
545.50	29.907
545.84	29.887
546.18	30.993
546.52	29.560
546.86	29.691
547.20	29.757
547.54	28.481
547.88	29.959
548.22	29.191
548.56	29.288
548.90	29.582
549.24	29.890
549.58	30.395
549.92	29.307
550.26	30.842
550.60	29.368
550.94	30.321
551.28	30.912
551.62	30.462
551.96	30.902
552.30	29.094
552.64	30.113
552.98	30.169
553.32	29.315
553.66	29.536
554.00	28.905
554.34	29.911
554.68	30.826
555.02	30.208
555.36	30.366
555.69	29.817
556.03	30.050
556.37	28.683
556.71	31.191
557.05	30.052
557.39	28.773
557.73	30.360
558.07	29.563
558.41	29.862
558.75	30.631
559.08	29.551
559.42	29.683
559.76	30.584
560.10	31.116
560.44	29.859
560.78	30.490
561.12	30.748
561.45	30.921
561.79	30.322
562.13	29.808
562.47	30.432
562.81	29.611
563.15	29.831
563.48	30.198
563.82	29.581
564.16	30.292
564.50	28.514
564.84	30.522
565.17	29.041
565.51	30.396
565.85	29.630
566.19	30.371
566.52	29.826
566.86	30.720
567.20	28.456
567.54	29.440
567.88	29.115
568.21	29.808
568.55	29.130
568.89	30.544
569.23	28.455
569.56	27.496
569.90	28.664
570.24	27.205
570.57	26.909
570.91	27.571
571.25	26.439
571.59	26.222
571.92	26.904
572.26	26.178
572.60	26.233
572.93	26.263
573.27	26.332
573.61	26.909
573.95	25.997
574.28	26.165
574.62	25.350
574.96	25.654
575.29	26.022
575.63	25.032
575.97	25.834
576.30	26.033
576.64	25.219
576.98	26.332
577.31	26.026
577.65	26.376
577.98	25.655
578.32	25.443
578.66	24.887
578.99	25.199
579.33	25.431
579.67	24.577
580.00	25.646
580.34	25.796
580.67	25.223
581.01	25.384
581.35	25.258
581.68	25.251
582.02	25.289
582.35	24.828
582.69	25.321
583.02	25.144
583.36	25.432
583.70	25.883
584.03	26.244
584.37	26.539
584.70	25.989
585.04	25.233
585.37	25.627
585.71	25.525
586.04	25.946
586.38	25.820
586.72	26.055
587.05	25.968
587.39	26.335
587.72	26.709
588.06	25.574
588.39	26.203
588.73	26.068
589.06	26.647
589.40	26.581
589.73	27.747
590.07	27.341
590.40	27.167
590.73	27.883
591.07	26.887
591.40	27.783
591.74	28.462
592.07	27.876
592.41	26.943
592.74	27.599
593.08	26.755
593.41	26.293
593.75	26.595
594.08	26.296
594.41	26.892
594.75	26.260
595.08	27.544
595.42	27.015
595.75	27.000
596.09	27.052
596.42	27.532
596.75	28.286
597.09	27.517
597.42	27.597
597.75	27.119
598.09	26.754
598.42	26.715
598.76	27.585
599.09	26.603
599.42	26.715
599.76	26.599
600.09	26.961
600.42	26.611
600.76	25.892
601.09	26.641
601.42	26.910
601.76	26.995
602.09	27.021
602.42	27.843
602.76	27.165
603.09	27.824
603.42	28.135
603.76	26.976
604.09	26.893
604.42	26.269
604.76	27.993
605.09	27.925
605.42	27.720
605.75	27.102
606.09	26.624
606.42	27.314
606.75	27.359
607.09	27.341
607.42	27.293
607.75	26.909
608.08	26.730
608.42	26.953
608.75	28.530
609.08	26.956
609.41	27.310
609.75	27.167
610.08	26.910
610.41	27.488
610.74	27.743
611.07	26.977
611.41	28.023
611.74	28.571
612.07	27.248
612.40	27.735
612.73	29.040
613.07	28.121
613.40	28.063
613.73	27.868
614.06	28.548
614.39	28.765
614.72	28.683
615.06	28.380
615.39	27.620
615.72	27.664
616.05	28.268
616.38	27.578
616.71	28.991
617.05	29.216
617.38	29.290
617.71	29.245
618.04	30.413
618.37	30.139
618.70	30.429
619.03	29.514
619.36	29.522
619.69	30.705
620.03	30.387
620.36	29.757
620.69	30.193
621.02	29.511
621.35	32.531
621.68	31.378
622.01	31.000
622.34	30.966
622.67	30.047
623.00	30.322
623.33	29.649
623.66	30.217
623.99	30.408
624.32	29.658
624.65	30.000
624.99	30.399
625.32	30.250
625.65	31.579
625.98	30.540
626.31	30.923
626.64	31.889
626.97	31.065
627.30	30.736
627.63	32.842
627.96	31.447
628.29	31.267
628.62	34.513
628.95	32.064
629.28	33.165
629.61	32.602
629.94	32.649
630.26	32.708
630.59	33.507
630.92	34.462
631.25	31.897
631.58	33.921
631.91	33.333
632.24	33.945
632.57	33.636
632.90	33.808
633.23	34.941
633.56	35.768
633.89	34.032
