SpectraSuite Data File
++++++++++++++++++++++++++++++++++++
Date: Fri May 15 17:17:44 PDT 2015
User: schluterlab
Dark Spectrum Present: Yes
Reference Spectrum Present: Yes
Number of Sampled Component Spectra: 1
Spectrometers: USB2E3373
Integration Time (usec): 3000 (USB2E3373)
Spectra Averaged: 3 (USB2E3373)
Boxcar Smoothing: 0 (USB2E3373)
Correct for Electrical Dark: No (USB2E3373)
Strobe/Lamp Enabled: No (USB2E3373)
Correct for Detector Non-linearity: No (USB2E3373)
Correct for Stray Light: No (USB2E3373)
Number of Pixels in Processed Spectrum: 2048
>>>>>Begin Processed Spectral Data<<<<<
178.53	0.000
178.91	0.000
179.29	112.500
179.67	-50.000
180.04	-114.286
180.42	475.000
180.80	100.000
181.18	233.333
181.56	200.000
181.94	150.000
182.31	100.000
182.69	260.000
183.07	133.333
183.45	160.000
183.83	-150.000
184.20	81.818
184.58	88.889
184.96	-100.000
185.34	-133.333
185.72	-200.000
186.09	38.462
186.47	-300.000
186.85	83.333
187.23	77.778
187.61	-700.000
187.98	333.333
188.36	33.333
188.74	300.000
189.12	76.471
189.49	83.333
189.87	0.000
190.25	92.857
190.63	150.000
191.00	-266.667
191.38	21.053
191.76	450.000
192.14	-100.000
192.51	500.000
192.89	0.000
193.27	-57.143
193.65	33.333
194.02	63.636
194.40	140.000
194.78	-25.000
195.15	58.333
195.53	50.000
195.91	150.000
196.29	-25.000
196.66	-23.077
197.04	-85.714
197.42	188.889
197.79	-266.667
198.17	-69.231
198.55	600.000
198.92	100.000
199.30	600.000
199.68	20.000
200.05	-133.333
200.43	0.000
200.81	233.333
201.18	133.333
201.56	100.000
201.94	-200.000
202.31	-233.333
202.69	-40.000
203.07	-125.000
203.44	700.000
203.82	0.000
204.19	71.429
204.57	-233.333
204.95	25.000
205.32	140.000
205.70	28.571
206.08	25.000
206.45	266.667
206.83	142.857
207.20	157.143
207.58	300.000
207.96	166.667
208.33	-50.000
208.71	100.000
209.08	0.000
209.46	-600.000
209.84	-180.000
210.21	-500.000
210.59	114.286
210.96	50.000
211.34	125.000
211.71	86.667
212.09	28.571
212.46	-400.000
212.84	0.000
213.22	210.000
213.59	150.000
213.97	84.615
214.34	118.182
214.72	16.667
215.09	25.000
215.47	84.615
215.84	72.727
216.22	33.333
216.59	0.000
216.97	-50.000
217.34	150.000
217.72	-40.000
218.09	87.500
218.47	-0.000
218.84	200.000
219.22	44.444
219.59	80.000
219.97	200.000
220.34	250.000
220.72	42.857
221.09	100.000
221.47	-50.000
221.84	-50.000
222.22	150.000
222.59	100.000
222.97	83.333
223.34	133.333
223.72	42.857
224.09	42.857
224.46	71.429
224.84	-33.333
225.21	60.000
225.59	93.333
225.96	200.000
226.34	-0.000
226.71	57.143
227.08	166.667
227.46	62.500
227.83	-350.000
228.21	144.444
228.58	36.364
228.95	0.000
229.33	50.000
229.70	100.000
230.08	-62.500
230.45	171.429
230.82	71.429
231.20	-40.000
231.57	128.571
231.95	242.857
232.32	50.000
232.69	7.143
233.07	133.333
233.44	100.000
233.81	10.000
234.19	66.667
234.56	-17.647
234.93	400.000
235.31	175.000
235.68	-120.000
236.05	-7.692
236.43	20.000
236.80	23.529
237.17	37.500
237.55	35.000
237.92	7.407
238.29	38.889
238.67	30.000
239.04	17.647
239.41	-4.878
239.79	-3.333
240.16	4.878
240.53	7.895
240.91	8.696
241.28	28.571
241.65	25.000
242.02	26.027
242.40	6.667
242.77	8.475
243.14	15.152
243.51	10.000
243.89	25.287
244.26	14.943
244.63	25.000
245.00	11.340
245.38	23.711
245.75	-1.124
246.12	12.931
246.49	8.264
246.87	24.038
247.24	11.765
247.61	5.263
247.98	11.382
248.36	13.750
248.73	17.763
249.10	3.247
249.47	14.557
249.84	7.190
250.22	12.353
250.59	18.954
250.96	11.737
251.33	8.721
251.70	11.176
252.08	9.645
252.45	11.881
252.82	10.553
253.19	14.747
253.56	3.271
253.94	15.315
254.31	8.261
254.68	13.596
255.05	8.661
255.42	7.860
255.79	10.811
256.16	14.397
256.54	14.552
256.91	12.928
257.28	9.294
257.65	10.487
258.02	9.220
258.39	10.438
258.76	12.454
259.14	12.957
259.51	12.298
259.88	8.935
260.25	14.052
260.62	9.375
260.99	10.847
261.36	8.219
261.73	10.127
262.10	13.070
262.47	9.509
262.85	7.210
263.22	6.462
263.59	9.034
263.96	12.733
264.33	10.909
264.70	8.036
265.07	11.905
265.44	9.915
265.81	11.299
266.18	8.197
266.55	10.797
266.92	11.399
267.29	11.488
267.66	9.974
268.03	12.042
268.40	10.705
268.77	9.893
269.14	8.873
269.51	11.568
269.88	8.978
270.25	7.398
270.62	9.024
270.99	5.882
271.36	8.313
271.73	9.859
272.10	9.246
272.47	12.530
272.84	10.149
273.21	9.513
273.58	13.253
273.95	9.840
274.32	7.621
274.69	8.597
275.06	12.277
275.43	10.658
275.80	9.051
276.17	9.195
276.54	8.994
276.91	11.184
277.28	8.952
277.65	10.744
278.02	10.000
278.39	6.565
278.76	6.918
279.13	5.187
279.50	10.714
279.87	9.071
280.23	7.742
280.60	11.696
280.97	9.899
281.34	11.154
281.71	12.115
282.08	8.589
282.45	10.959
282.82	7.336
283.19	10.445
283.56	9.249
283.92	8.159
284.29	7.115
284.66	8.915
285.03	9.037
285.40	11.531
285.77	7.733
286.14	6.679
286.51	9.041
286.87	8.958
287.24	7.551
287.61	6.173
287.98	10.877
288.35	9.012
288.72	10.158
289.08	9.201
289.45	9.666
289.82	8.566
290.19	6.997
290.56	7.376
290.93	8.418
291.29	8.320
291.66	8.819
292.03	6.539
292.40	8.548
292.77	8.612
293.13	5.195
293.50	6.980
293.87	7.023
294.24	7.883
294.60	7.452
294.97	10.268
295.34	6.135
295.71	6.706
296.08	6.876
296.44	6.686
296.81	7.083
297.18	7.246
297.55	8.537
297.91	7.534
298.28	8.047
298.65	6.649
299.02	7.278
299.38	6.156
299.75	7.586
300.12	6.545
300.48	7.246
300.85	6.591
301.22	7.143
301.59	6.974
301.95	6.962
302.32	7.652
302.69	7.338
303.05	6.683
303.42	7.721
303.79	7.827
304.15	7.288
304.52	5.470
304.89	5.848
305.25	5.811
305.62	5.601
305.99	5.848
306.35	5.202
306.72	6.974
307.09	7.070
307.45	6.659
307.82	4.977
308.19	6.852
308.55	5.453
308.92	6.754
309.29	5.922
309.65	6.997
310.02	6.161
310.38	5.488
310.75	6.448
311.12	6.781
311.48	6.363
311.85	7.016
312.22	4.641
312.58	6.369
312.95	5.123
313.31	6.522
313.68	6.178
314.05	5.204
314.41	7.423
314.78	6.289
315.14	6.783
315.51	6.625
315.87	6.455
316.24	7.280
316.61	7.283
316.97	7.242
317.34	6.152
317.70	7.266
318.07	7.885
318.43	7.451
318.80	8.144
319.16	7.324
319.53	8.927
319.89	7.776
320.26	8.806
320.62	9.529
320.99	8.559
321.35	8.839
321.72	9.450
322.08	9.869
322.45	9.442
322.81	10.118
323.18	9.814
323.54	10.811
323.91	11.295
324.27	12.012
324.64	12.828
325.00	13.777
325.37	15.243
325.73	13.962
326.10	15.441
326.46	16.951
326.83	16.885
327.19	17.001
327.56	17.029
327.92	18.486
328.29	18.393
328.65	19.623
329.01	19.761
329.38	21.567
329.74	20.869
330.11	22.428
330.47	22.635
330.84	22.596
331.20	25.095
331.56	25.000
331.93	25.023
332.29	25.573
332.66	25.882
333.02	25.651
333.38	26.306
333.75	27.106
334.11	27.126
334.48	27.289
334.84	26.648
335.20	27.539
335.57	26.564
335.93	27.823
336.29	29.098
336.66	28.247
337.02	27.602
337.38	27.315
337.75	29.636
338.11	30.298
338.47	29.653
338.84	30.037
339.20	29.250
339.56	29.450
339.93	29.275
340.29	31.009
340.65	30.197
341.02	29.078
341.38	30.000
341.74	29.682
342.11	29.029
342.47	30.160
342.83	31.401
343.20	31.098
343.56	31.478
343.92	31.444
344.28	30.231
344.65	30.743
345.01	30.337
345.37	30.025
345.73	30.126
346.10	32.010
346.46	29.100
346.82	30.687
347.19	29.676
347.55	31.662
347.91	31.634
348.27	30.558
348.63	31.942
349.00	31.091
349.36	32.003
349.72	32.172
350.08	31.721
350.45	30.886
350.81	31.312
351.17	30.619
351.53	31.592
351.89	30.801
352.26	31.120
352.62	33.226
352.98	31.486
353.34	31.643
353.70	32.362
354.07	33.065
354.43	30.745
354.79	31.544
355.15	32.222
355.51	33.386
355.87	31.958
356.24	31.403
356.60	31.770
356.96	32.857
357.32	33.946
357.68	32.525
358.04	31.664
358.40	33.601
358.77	33.971
359.13	33.227
359.49	31.125
359.85	33.931
360.21	33.014
360.57	33.512
360.93	33.132
361.29	32.704
361.66	33.386
362.02	32.652
362.38	33.206
362.74	34.217
363.10	33.935
363.46	33.136
363.82	34.335
364.18	34.465
364.54	33.382
364.90	34.122
365.26	33.843
365.62	35.547
365.98	33.871
366.35	35.834
366.71	34.442
367.07	34.398
367.43	34.292
367.79	35.194
368.15	34.817
368.51	35.688
368.87	34.530
369.23	34.368
369.59	37.026
369.95	36.877
370.31	36.199
370.67	35.896
371.03	36.146
371.39	35.667
371.75	35.678
372.11	34.736
372.47	36.095
372.83	36.693
373.19	36.591
373.55	37.329
373.91	37.221
374.27	37.279
374.63	37.688
374.99	37.376
375.35	36.072
375.71	37.832
376.07	38.483
376.42	38.163
376.78	37.718
377.14	38.727
377.50	39.044
377.86	38.353
378.22	39.566
378.58	38.782
378.94	38.563
379.30	39.613
379.66	39.749
380.02	39.240
380.38	37.675
380.74	39.258
381.09	39.877
381.45	39.633
381.81	39.297
382.17	39.404
382.53	40.162
382.89	40.427
383.25	40.137
383.61	41.524
383.97	40.571
384.32	40.213
384.68	41.610
385.04	40.135
385.40	40.448
385.76	41.572
386.12	42.173
386.48	42.784
386.83	41.408
387.19	42.186
387.55	42.472
387.91	42.054
388.27	41.209
388.62	42.668
388.98	42.234
389.34	43.098
389.70	43.070
390.06	41.473
390.42	42.422
390.77	42.577
391.13	42.434
391.49	42.367
391.85	43.535
392.20	42.185
392.56	44.437
392.92	42.924
393.28	43.691
393.64	41.982
393.99	44.702
394.35	42.948
394.71	43.423
395.07	43.180
395.42	43.412
395.78	42.345
396.14	43.380
396.50	43.056
396.85	43.335
397.21	43.922
397.57	43.197
397.92	43.919
398.28	43.736
398.64	42.229
399.00	43.679
399.35	42.889
399.71	42.447
400.07	43.954
400.42	42.717
400.78	43.784
401.14	43.799
401.49	43.359
401.85	43.327
402.21	43.313
402.57	44.000
402.92	42.095
403.28	43.045
403.63	43.380
403.99	42.283
404.35	44.285
404.70	42.976
405.06	42.009
405.42	42.573
405.77	42.301
406.13	42.666
406.49	41.918
406.84	43.276
407.20	43.588
407.55	43.593
407.91	41.778
408.27	42.639
408.62	42.215
408.98	41.713
409.34	42.813
409.69	41.344
410.05	41.010
410.40	41.667
410.76	43.185
411.11	42.062
411.47	42.932
411.83	41.933
412.18	42.535
412.54	41.199
412.89	40.764
413.25	41.637
413.60	41.739
413.96	41.718
414.31	42.805
414.67	42.399
415.03	41.877
415.38	42.102
415.74	41.498
416.09	42.195
416.45	42.809
416.80	41.375
417.16	42.610
417.51	41.306
417.87	41.199
418.22	40.933
418.58	40.870
418.93	42.571
419.29	41.101
419.64	42.903
420.00	43.073
420.35	41.731
420.71	42.284
421.06	42.419
421.42	42.788
421.77	42.197
422.12	41.998
422.48	41.527
422.83	40.661
423.19	41.140
423.54	42.269
423.90	41.166
424.25	41.160
424.61	42.166
424.96	41.463
425.31	42.808
425.67	43.016
426.02	42.697
426.38	42.580
426.73	42.433
427.09	43.544
427.44	43.176
427.79	42.192
428.15	43.083
428.50	42.459
428.85	42.998
429.21	42.049
429.56	44.043
429.92	42.886
430.27	41.604
430.62	42.446
430.98	42.144
431.33	43.060
431.68	42.125
432.04	42.873
432.39	42.327
432.74	41.371
433.10	43.046
433.45	43.369
433.80	42.194
434.16	42.327
434.51	42.634
434.86	42.625
435.22	42.737
435.57	42.670
435.92	42.275
436.28	42.934
436.63	43.240
436.98	42.874
437.34	42.166
437.69	43.769
438.04	43.020
438.39	41.784
438.75	43.594
439.10	41.539
439.45	42.970
439.81	43.425
440.16	44.774
440.51	43.104
440.86	44.169
441.22	42.930
441.57	43.377
441.92	45.226
442.27	43.459
442.63	43.737
442.98	43.136
443.33	42.738
443.68	42.281
444.03	43.269
444.39	43.532
444.74	44.036
445.09	44.933
445.44	43.476
445.79	44.198
446.15	42.566
446.50	43.594
446.85	44.474
447.20	43.274
447.55	43.973
447.91	44.050
448.26	43.426
448.61	43.696
448.96	44.349
449.31	44.220
449.66	43.786
450.02	43.697
450.37	45.228
450.72	42.440
451.07	44.241
451.42	43.258
451.77	43.761
452.12	43.182
452.47	42.820
452.83	43.110
453.18	42.631
453.53	43.047
453.88	43.898
454.23	42.963
454.58	43.766
454.93	43.557
455.28	42.286
455.63	43.149
455.98	44.799
456.34	41.379
456.69	43.774
457.04	44.297
457.39	42.953
457.74	43.168
458.09	41.672
458.44	42.539
458.79	42.129
459.14	43.707
459.49	42.985
459.84	42.978
460.19	43.325
460.54	42.787
460.89	42.784
461.24	43.043
461.59	42.933
461.94	42.013
462.29	42.400
462.64	42.126
462.99	41.571
463.34	42.629
463.69	41.634
464.04	43.462
464.39	42.147
464.74	42.515
465.09	43.606
465.44	43.393
465.79	41.667
466.14	43.501
466.49	42.496
466.84	42.475
467.19	42.491
467.54	41.826
467.89	41.693
468.24	41.606
468.59	43.111
468.94	42.603
469.29	41.639
469.64	41.627
469.99	42.747
470.34	40.956
470.68	42.729
471.03	42.109
471.38	40.799
471.73	41.737
472.08	40.434
472.43	41.678
472.78	40.987
473.13	40.884
473.48	41.629
473.83	41.034
474.17	41.192
474.52	41.608
474.87	41.879
475.22	40.818
475.57	40.711
475.92	41.031
476.27	42.841
476.61	41.667
476.96	40.100
477.31	40.562
477.66	40.337
478.01	40.988
478.36	41.285
478.70	40.892
479.05	41.429
479.40	41.494
479.75	39.833
480.10	40.655
480.45	40.650
480.79	41.893
481.14	41.137
481.49	40.936
481.84	41.168
482.19	40.599
482.53	40.959
482.88	41.289
483.23	39.635
483.58	40.377
483.92	40.174
484.27	39.745
484.62	39.444
484.97	39.801
485.31	40.462
485.66	41.671
486.01	41.740
486.36	41.462
486.70	40.685
487.05	40.876
487.40	39.943
487.75	40.225
488.09	39.926
488.44	39.959
488.79	39.821
489.13	40.264
489.48	39.675
489.83	39.193
490.17	40.000
490.52	39.169
490.87	39.010
491.22	40.258
491.56	38.852
491.91	38.193
492.26	38.600
492.60	38.772
492.95	39.646
493.30	37.909
493.64	39.686
493.99	39.469
494.34	39.175
494.68	39.048
495.03	38.394
495.37	39.009
495.72	39.273
496.07	38.585
496.41	39.151
496.76	38.462
497.11	38.426
497.45	39.093
497.80	39.203
498.14	38.500
498.49	38.090
498.84	38.673
499.18	39.558
499.53	39.187
499.87	38.619
500.22	39.416
500.56	38.729
500.91	38.604
501.26	38.705
501.60	38.711
501.95	38.234
502.29	38.402
502.64	38.948
502.98	39.369
503.33	38.136
503.67	38.506
504.02	38.856
504.36	38.545
504.71	38.535
505.06	38.500
505.40	39.137
505.75	37.784
506.09	37.912
506.44	38.912
506.78	38.724
507.13	38.676
507.47	37.493
507.82	38.194
508.16	37.559
508.51	39.087
508.85	38.828
509.19	38.212
509.54	37.802
509.88	38.403
510.23	38.515
510.57	38.375
510.92	37.687
511.26	38.298
511.61	38.009
511.95	38.411
512.30	37.583
512.64	37.841
512.98	37.170
513.33	38.780
513.67	37.749
514.02	38.215
514.36	39.200
514.70	37.937
515.05	38.073
515.39	37.839
515.74	39.162
516.08	38.314
516.42	38.751
516.77	38.034
517.11	38.398
517.46	38.061
517.80	38.200
518.14	37.722
518.49	38.281
518.83	37.849
519.17	37.780
519.52	38.011
519.86	37.515
520.20	37.606
520.55	36.648
520.89	37.578
521.23	37.429
521.58	39.054
521.92	38.077
522.26	37.215
522.61	37.468
522.95	39.205
523.29	36.912
523.64	38.437
523.98	38.496
524.32	37.371
524.66	37.196
525.01	38.571
525.35	38.756
525.69	37.441
526.04	37.368
526.38	38.132
526.72	37.606
527.06	37.289
527.41	37.137
527.75	36.662
528.09	38.272
528.43	38.825
528.78	37.294
529.12	39.161
529.46	37.492
529.80	37.175
530.15	37.822
530.49	37.845
530.83	39.193
531.17	37.340
531.51	37.825
531.86	37.729
532.20	38.831
532.54	37.577
532.88	38.741
533.22	37.836
533.57	38.204
533.91	38.577
534.25	38.151
534.59	37.845
534.93	37.508
535.27	36.802
535.62	38.367
535.96	38.487
536.30	39.116
536.64	39.421
536.98	36.864
537.32	38.407
537.66	38.359
538.01	38.671
538.35	38.696
538.69	38.216
539.03	36.364
539.37	38.493
539.71	35.924
540.05	38.018
540.39	37.535
540.73	38.145
541.07	38.950
541.42	37.970
541.76	38.059
542.10	38.541
542.44	38.082
542.78	36.545
543.12	37.843
543.46	39.221
543.80	38.168
544.14	36.449
544.48	37.175
544.82	38.414
545.16	38.456
545.50	37.650
545.84	37.748
546.18	40.000
546.52	39.077
546.86	37.527
547.20	37.697
547.54	36.961
547.88	37.704
548.22	37.475
548.56	37.533
548.90	38.073
549.24	38.912
549.58	38.364
549.92	36.526
550.26	37.875
550.60	38.141
550.94	38.088
551.28	37.017
551.62	38.077
551.96	38.797
552.30	38.670
552.64	36.953
552.98	37.553
553.32	38.231
553.66	36.792
554.00	38.467
554.34	38.035
554.68	36.947
555.02	38.095
555.36	38.743
555.69	37.656
556.03	37.616
556.37	37.722
556.71	37.184
557.05	37.136
557.39	36.357
557.73	38.606
558.07	37.406
558.41	38.361
558.75	37.880
559.08	36.643
559.42	37.619
559.76	37.870
560.10	37.538
560.44	37.751
560.78	37.832
561.12	38.434
561.45	38.791
561.79	38.445
562.13	37.686
562.47	37.914
562.81	38.256
563.15	38.011
563.48	38.331
563.82	39.465
564.16	38.162
564.50	37.365
564.84	38.487
565.17	38.095
565.51	38.730
565.85	39.026
566.19	38.528
566.52	38.740
566.86	39.460
567.20	38.107
567.54	39.538
567.88	40.246
568.21	39.423
568.55	40.054
568.89	40.195
569.23	39.817
569.56	39.536
569.90	40.438
570.24	39.635
570.57	40.473
570.91	40.467
571.25	39.428
571.59	40.143
571.92	38.904
572.26	39.100
572.60	39.504
572.93	39.504
573.27	39.216
573.61	39.916
573.95	40.333
574.28	40.413
574.62	40.020
574.96	39.491
575.29	39.854
575.63	38.974
575.97	39.360
576.30	39.218
576.64	38.914
576.98	39.871
577.31	40.305
577.65	40.252
577.98	40.828
578.32	40.688
578.66	39.781
578.99	38.956
579.33	39.345
579.67	39.061
580.00	40.127
580.34	40.149
580.67	39.318
581.01	40.154
581.35	40.181
581.68	40.701
582.02	40.356
582.35	39.851
582.69	40.397
583.02	40.120
583.36	39.461
583.70	40.369
584.03	40.645
584.37	40.683
584.70	40.907
585.04	39.482
585.37	40.172
585.71	40.805
586.04	40.192
586.38	39.717
586.72	40.029
587.05	41.132
587.39	40.453
587.72	41.061
588.06	40.742
588.39	40.103
588.73	40.232
589.06	41.194
589.40	40.166
589.73	39.467
590.07	39.615
590.40	40.286
590.73	40.980
591.07	40.797
591.40	40.205
591.74	40.498
592.07	41.466
592.41	40.945
592.74	40.263
593.08	39.853
593.41	40.560
593.75	40.857
594.08	40.165
594.41	40.575
594.75	40.267
595.08	40.749
595.42	41.480
595.75	41.495
596.09	41.400
596.42	41.381
596.75	41.163
597.09	40.957
597.42	41.780
597.75	40.953
598.09	40.244
598.42	39.756
598.76	40.197
599.09	40.865
599.42	39.901
599.76	40.971
600.09	40.498
600.42	40.561
600.76	39.636
601.09	39.771
601.42	40.266
601.76	40.056
602.09	40.512
602.42	41.575
602.76	40.832
603.09	41.528
603.42	41.931
603.76	40.968
604.09	41.353
604.42	41.159
604.76	42.145
605.09	41.088
605.42	40.451
605.75	40.630
606.09	40.807
606.42	40.784
606.75	40.130
607.09	40.835
607.42	39.965
607.75	41.297
608.08	40.386
608.42	40.475
608.75	41.253
609.08	41.854
609.41	40.964
609.75	40.827
610.08	41.588
610.41	40.435
610.74	40.712
611.07	41.344
611.41	40.944
611.74	41.098
612.07	40.257
612.40	41.575
612.73	41.864
613.07	41.114
613.40	41.521
613.73	39.787
614.06	41.625
614.39	41.117
614.72	39.608
615.06	41.173
615.39	40.284
615.72	39.774
616.05	40.559
616.38	39.316
616.71	41.407
617.05	41.013
617.38	40.415
617.71	41.509
618.04	42.349
618.37	41.551
618.70	41.650
619.03	41.111
619.36	40.955
619.69	41.622
620.03	42.367
620.36	41.059
620.69	41.113
621.02	41.208
621.35	41.577
621.68	41.327
622.01	41.917
622.34	40.543
622.67	40.773
623.00	40.429
623.33	41.768
623.66	39.791
623.99	40.318
624.32	41.141
624.65	39.549
624.99	41.836
625.32	40.409
625.65	41.477
625.98	41.821
626.31	40.565
626.64	40.295
626.97	40.401
627.30	41.769
627.63	41.421
627.96	40.701
628.29	41.628
628.62	41.101
628.95	40.982
629.28	42.036
629.61	39.482
629.94	40.567
630.26	42.391
630.59	42.144
630.92	40.513
631.25	38.667
631.58	40.859
631.91	39.912
632.24	40.482
632.57	40.227
632.90	39.858
633.23	41.294
633.56	39.673
633.89	41.430
634.22	40.741
634.55	40.661
634.88	41.635
635.20	39.487
635.53	40.667
635.86	39.012
636.19	41.527
636.52	40.051
636.85	39.454
637.18	41.635
637.51	38.113
