SpectraSuite Data File
++++++++++++++++++++++++++++++++++++
Date: Fri May 15 17:26:38 PDT 2015
User: schluterlab
Dark Spectrum Present: Yes
Reference Spectrum Present: Yes
Number of Sampled Component Spectra: 1
Spectrometers: USB2E3373
Integration Time (usec): 3000 (USB2E3373)
Spectra Averaged: 3 (USB2E3373)
Boxcar Smoothing: 0 (USB2E3373)
Correct for Electrical Dark: No (USB2E3373)
Strobe/Lamp Enabled: No (USB2E3373)
Correct for Detector Non-linearity: No (USB2E3373)
Correct for Stray Light: No (USB2E3373)
Number of Pixels in Processed Spectrum: 2048
>>>>>Begin Processed Spectral Data<<<<<
178.53	0.000
178.91	0.000
179.29	187.500
179.67	-550.000
180.04	28.571
180.42	100.000
180.80	400.000
181.18	-100.000
181.56	250.000
181.94	300.000
182.31	-200.000
182.69	0.000
183.07	-500.000
183.45	0.000
183.83	50.000
184.20	72.727
184.58	22.222
184.96	-75.000
185.34	-200.000
185.72	0.000
186.09	69.231
186.47	-200.000
186.85	150.000
187.23	-11.111
187.61	-1300.000
187.98	-200.000
188.36	66.667
188.74	-100.000
189.12	52.941
189.49	27.778
189.87	0.000
190.25	-21.429
190.63	350.000
191.00	100.000
191.38	15.789
191.76	350.000
192.14	200.000
192.51	100.000
192.89	-33.333
193.27	-42.857
193.65	150.000
194.02	27.273
194.40	30.000
194.78	-162.500
195.15	8.333
195.53	-112.500
195.91	250.000
196.29	-25.000
196.66	46.154
197.04	-14.286
197.42	-66.667
197.79	-300.000
198.17	-23.077
198.55	1400.000
198.92	-300.000
199.30	-400.000
199.68	-20.000
200.05	-300.000
200.43	0.000
200.81	200.000
201.18	-133.333
201.56	300.000
201.94	150.000
202.31	-433.333
202.69	-100.000
203.07	-75.000
203.44	400.000
203.82	0.000
204.19	50.000
204.57	-100.000
204.95	75.000
205.32	10.000
205.70	-28.571
206.08	-25.000
206.45	277.778
206.83	100.000
207.20	-114.286
207.58	100.000
207.96	-566.667
208.33	-20.000
208.71	-150.000
209.08	-133.333
209.46	-800.000
209.84	-120.000
210.21	1000.000
210.59	100.000
210.96	-150.000
211.34	-50.000
211.71	0.000
212.09	-28.571
212.46	-1700.000
212.84	0.000
213.22	110.000
213.59	200.000
213.97	-15.385
214.34	36.364
214.72	166.667
215.09	300.000
215.47	15.385
215.84	27.273
216.22	-100.000
216.59	-50.000
216.97	450.000
217.34	-150.000
217.72	-140.000
218.09	100.000
218.47	137.500
218.84	-300.000
219.22	-44.444
219.59	60.000
219.97	333.333
220.34	275.000
220.72	100.000
221.09	-75.000
221.47	150.000
221.84	0.000
222.22	-250.000
222.59	81.818
222.97	58.333
223.34	-133.333
223.72	-35.714
224.09	4.762
224.46	42.857
224.84	333.333
225.21	-60.000
225.59	6.667
225.96	350.000
226.34	175.000
226.71	-85.714
227.08	-66.667
227.46	50.000
227.83	-300.000
228.21	-11.111
228.58	100.000
228.95	87.500
229.33	110.000
229.70	37.500
230.08	-25.000
230.45	-85.714
230.82	142.857
231.20	-13.333
231.57	64.286
231.95	-85.714
232.32	-90.000
232.69	71.429
233.07	200.000
233.44	-120.000
233.81	-30.000
234.19	133.333
234.56	52.941
234.93	-150.000
235.31	275.000
235.68	-40.000
236.05	7.692
236.43	15.000
236.80	-5.882
237.17	71.875
237.55	5.000
237.92	44.444
238.29	27.778
238.67	36.667
239.04	29.412
239.41	24.390
239.79	30.000
240.16	63.415
240.53	55.263
240.91	30.435
241.28	42.857
241.65	37.500
242.02	50.685
242.40	61.667
242.77	40.678
243.14	48.485
243.51	45.000
243.89	54.023
244.26	42.529
244.63	48.810
245.00	54.639
245.38	64.948
245.75	35.955
246.12	47.414
246.49	45.455
246.87	55.769
247.24	44.538
247.61	35.088
247.98	47.967
248.36	49.375
248.73	51.974
249.10	47.403
249.47	48.101
249.84	48.366
250.22	49.412
250.59	54.248
250.96	52.582
251.33	45.930
251.70	58.235
252.08	45.178
252.45	46.535
252.82	58.794
253.19	48.387
253.56	48.131
253.94	52.703
254.31	54.783
254.68	52.193
255.05	46.850
255.42	53.712
255.79	48.649
256.16	57.198
256.54	51.866
256.91	53.612
257.28	48.327
257.65	49.813
258.02	52.128
258.39	47.475
258.76	52.381
259.14	55.814
259.51	49.838
259.88	48.797
260.25	49.020
260.62	53.125
260.99	52.881
261.36	47.945
261.73	49.367
262.10	50.456
262.47	50.613
262.85	51.724
263.22	49.231
263.59	54.829
263.96	50.621
264.33	53.939
264.70	50.893
265.07	50.298
265.44	52.125
265.81	48.588
266.18	53.552
266.55	51.928
266.92	51.295
267.29	50.653
267.66	50.384
268.03	52.094
268.40	50.392
268.77	50.802
269.14	49.880
269.51	51.157
269.88	48.878
270.25	48.980
270.62	49.024
270.99	50.895
271.36	47.922
271.73	48.592
272.10	50.122
272.47	54.610
272.84	49.257
273.21	50.812
273.58	50.843
273.95	50.343
274.32	49.885
274.69	46.606
275.06	50.000
275.43	50.567
275.80	51.656
276.17	50.805
276.54	47.752
276.91	49.561
277.28	47.162
277.65	48.347
278.02	48.085
278.39	47.921
278.76	48.637
279.13	46.680
279.50	48.950
279.87	46.868
280.23	47.312
280.60	46.589
280.97	45.657
281.34	47.308
281.71	49.487
282.08	48.671
282.45	47.945
282.82	46.525
283.19	48.162
283.56	47.206
283.92	47.249
284.29	48.654
284.66	43.411
285.03	46.365
285.40	46.503
285.77	42.882
286.14	46.390
286.51	48.155
286.87	44.059
287.24	46.225
287.61	45.503
287.98	44.211
288.35	43.674
288.72	42.732
289.08	45.660
289.45	45.694
289.82	44.930
290.19	41.638
290.56	44.082
290.93	41.751
291.29	41.448
291.66	41.732
292.03	42.265
292.40	41.774
292.77	41.148
293.13	38.636
293.50	37.785
293.87	40.000
294.24	40.185
294.60	38.599
294.97	38.988
295.34	38.650
295.71	38.450
296.08	37.369
296.44	36.273
296.81	36.250
297.18	38.551
297.55	39.431
297.91	35.616
298.28	35.752
298.65	35.278
299.02	35.714
299.38	33.926
299.75	35.724
300.12	35.733
300.48	36.232
300.85	34.981
301.22	35.974
301.59	32.632
301.95	34.177
302.32	34.501
302.69	33.458
303.05	33.416
303.42	34.247
303.79	33.762
304.15	34.648
304.52	32.818
304.89	33.333
305.25	33.051
305.62	31.155
305.99	32.398
306.35	32.486
306.72	32.171
307.09	31.129
307.45	33.180
307.82	31.713
308.19	33.566
308.55	30.752
308.92	31.590
309.29	31.620
309.65	30.248
310.02	30.913
310.38	33.041
310.75	32.568
311.12	30.678
311.48	31.813
311.85	28.796
312.22	29.536
312.58	31.210
312.95	29.989
313.31	32.091
313.68	30.471
314.05	31.735
314.41	31.134
314.78	30.928
315.14	30.730
315.51	31.470
315.87	30.738
316.24	32.255
316.61	30.217
316.97	30.754
317.34	30.371
317.70	31.358
318.07	29.712
318.43	30.294
318.80	29.545
319.16	31.250
319.53	31.909
319.89	30.217
320.26	29.656
320.62	31.294
320.99	27.662
321.35	29.085
321.72	29.907
322.08	31.017
322.45	30.660
322.81	29.470
323.18	29.931
323.54	28.378
323.91	29.990
324.27	30.469
324.64	29.963
325.00	30.292
325.37	30.303
325.73	28.558
326.10	30.518
326.46	29.596
326.83	29.484
327.19	29.032
327.56	29.018
327.92	30.370
328.29	28.214
328.65	29.906
329.01	28.676
329.38	29.124
329.74	28.801
330.11	28.916
330.47	29.128
330.84	29.038
331.20	30.798
331.56	28.241
331.93	28.493
332.29	28.781
332.66	28.869
333.02	27.881
333.38	27.864
333.75	29.853
334.11	27.305
334.48	28.286
334.84	29.029
335.20	28.637
335.57	27.833
335.93	27.823
336.29	27.901
336.66	27.793
337.02	27.416
337.38	27.222
337.75	27.182
338.11	28.945
338.47	28.741
338.84	27.449
339.20	28.245
339.56	27.706
339.93	27.574
340.29	29.450
340.65	28.495
341.02	27.216
341.38	27.345
341.74	28.269
342.11	26.863
342.47	28.559
342.83	27.422
343.20	27.265
343.56	28.261
343.92	28.432
344.28	27.754
344.65	27.029
345.01	27.053
345.37	27.839
345.73	26.946
346.10	28.473
346.46	27.082
346.82	27.250
347.19	26.850
347.55	27.736
347.91	27.346
348.27	26.839
348.63	26.576
349.00	26.825
349.36	26.517
349.72	27.363
350.08	27.049
350.45	27.773
350.81	26.246
351.17	25.651
351.53	27.673
351.89	27.085
352.26	26.320
352.62	26.371
352.98	26.345
353.34	27.053
353.70	26.537
354.07	26.290
354.43	25.941
354.79	25.846
355.15	27.143
355.51	26.028
355.87	26.780
356.24	25.693
356.60	25.707
356.96	26.111
357.32	26.198
357.68	25.410
358.04	26.575
358.40	25.241
358.77	25.678
359.13	25.701
359.49	25.347
359.85	24.727
360.21	25.997
360.57	25.631
360.93	24.811
361.29	24.698
361.66	25.784
362.02	26.364
362.38	25.743
362.74	25.662
363.10	26.260
363.46	26.093
363.82	26.747
364.18	25.240
364.54	25.368
364.90	25.090
365.26	25.473
365.62	26.058
365.98	25.953
366.35	27.385
366.71	25.573
367.07	26.270
367.43	25.953
367.79	25.159
368.15	25.054
368.51	25.346
368.87	24.838
369.23	24.549
369.59	25.364
369.95	26.320
370.31	25.578
370.67	25.597
371.03	23.824
371.39	25.091
371.75	24.835
372.11	24.893
372.47	24.926
372.83	24.556
373.19	24.608
373.55	24.404
373.91	24.982
374.27	26.223
374.63	25.197
374.99	24.965
375.35	25.627
375.71	25.455
376.07	25.702
376.42	25.306
376.78	25.034
377.14	24.441
377.50	24.502
377.86	25.100
378.22	25.271
378.58	24.744
378.94	24.701
379.30	24.891
379.66	25.956
380.02	23.850
380.38	24.224
380.74	24.536
381.09	25.644
381.45	25.260
381.81	24.676
382.17	24.175
382.53	24.485
382.89	24.294
383.25	25.451
383.61	24.878
383.97	23.746
384.32	24.765
384.68	24.768
385.04	23.713
385.40	24.144
385.76	24.906
386.12	25.162
386.48	24.649
386.83	24.413
387.19	24.908
387.55	25.345
387.91	23.961
388.27	24.298
388.62	24.984
388.98	25.414
389.34	24.610
389.70	24.736
390.06	24.166
390.42	24.352
390.77	24.787
391.13	24.086
391.49	24.191
391.85	25.211
392.20	24.608
392.56	24.158
392.92	25.015
393.28	24.882
393.64	24.024
393.99	25.016
394.35	24.478
394.71	25.096
395.07	24.513
395.42	24.226
395.78	25.212
396.14	24.464
396.50	25.428
396.85	25.499
397.21	23.622
397.57	24.702
397.92	24.865
398.28	25.057
398.64	24.458
399.00	24.831
399.35	23.363
399.71	24.067
400.07	24.849
400.42	24.480
400.78	24.434
401.14	24.017
401.49	24.181
401.85	24.314
402.21	24.337
402.57	24.625
402.92	23.526
403.28	24.875
403.63	24.779
403.99	24.554
404.35	25.422
404.70	25.179
405.06	24.971
405.42	24.425
405.77	23.823
406.13	24.622
406.49	24.097
406.84	25.306
407.20	24.985
407.55	24.276
407.91	25.334
408.27	23.518
408.62	24.062
408.98	24.399
409.34	24.659
409.69	24.548
410.05	23.707
410.40	24.630
410.76	24.005
411.11	24.500
411.47	24.984
411.83	23.415
412.18	25.097
412.54	24.532
412.89	23.461
413.25	24.428
413.60	24.286
413.96	25.153
414.31	24.390
414.67	23.926
415.03	22.437
415.38	24.021
415.74	24.821
416.09	25.278
416.45	24.578
416.80	25.446
417.16	23.550
417.51	24.783
417.87	25.489
418.22	25.065
418.58	24.950
418.93	24.514
419.29	22.919
419.64	24.627
420.00	26.071
420.35	24.358
420.71	24.727
421.06	24.494
421.42	25.120
421.77	25.029
422.12	23.893
422.48	24.418
422.83	24.478
423.19	24.718
423.54	23.986
423.90	24.558
424.25	24.110
424.61	24.725
424.96	24.332
425.31	25.708
425.67	24.413
426.02	24.676
426.38	24.233
426.73	24.879
427.09	25.759
427.44	25.529
427.79	24.750
428.15	25.182
428.50	24.652
428.85	23.280
429.21	24.788
429.56	24.259
429.92	24.705
430.27	24.912
430.62	24.726
430.98	23.832
431.33	24.763
431.68	24.490
432.04	25.042
432.39	24.643
432.74	25.496
433.10	25.920
433.45	25.209
433.80	24.086
434.16	23.934
434.51	24.785
434.86	24.332
435.22	24.509
435.57	25.390
435.92	24.850
436.28	24.210
436.63	24.586
436.98	24.160
437.34	24.682
437.69	25.343
438.04	24.046
438.39	23.580
438.75	24.954
439.10	23.939
439.45	24.893
439.81	24.832
440.16	24.881
440.51	24.955
440.86	25.619
441.22	23.360
441.57	24.393
441.92	24.502
442.27	24.612
442.63	24.786
442.98	24.641
443.33	23.873
443.68	24.615
444.03	25.484
444.39	24.693
444.74	25.251
445.09	25.000
445.44	24.615
445.79	25.374
446.15	24.394
446.50	24.847
446.85	24.867
447.20	24.505
447.55	25.335
447.91	24.253
448.26	24.986
448.61	24.986
448.96	24.727
449.31	24.451
449.66	25.203
450.02	25.157
450.37	24.659
450.72	24.628
451.07	24.810
451.42	24.906
451.77	24.533
452.12	24.222
452.47	24.469
452.83	24.853
453.18	24.984
453.53	24.463
453.88	24.408
454.23	24.770
454.58	25.504
454.93	25.129
455.28	24.381
455.63	24.551
455.98	25.015
456.34	24.457
456.69	25.159
457.04	25.268
457.39	24.727
457.74	23.881
458.09	23.955
458.44	24.517
458.79	23.810
459.14	25.400
459.49	25.015
459.84	25.212
460.19	24.393
460.54	24.267
460.89	25.739
461.24	25.093
461.59	25.534
461.94	24.654
462.29	26.176
462.64	25.515
462.99	25.051
463.34	24.965
463.69	24.196
464.04	25.303
464.39	24.985
464.74	24.233
465.09	25.203
465.44	25.274
465.79	24.036
466.14	24.914
466.49	24.267
466.84	24.688
467.19	24.406
467.54	24.202
467.89	24.953
468.24	24.818
468.59	25.587
468.94	25.016
469.29	25.049
469.64	25.564
469.99	24.737
470.34	24.846
470.68	25.130
471.03	24.416
471.38	24.964
471.73	25.000
472.08	25.305
472.43	25.235
472.78	23.989
473.13	24.694
473.48	25.472
473.83	23.910
474.17	25.712
474.52	25.335
474.87	24.788
475.22	24.649
475.57	24.958
475.92	25.507
476.27	25.728
476.61	25.752
476.96	24.651
477.31	25.149
477.66	25.000
478.01	25.098
478.36	24.020
478.70	24.579
479.05	25.714
479.40	25.649
479.75	24.557
480.10	23.810
480.45	25.250
480.79	24.924
481.14	25.154
481.49	25.025
481.84	24.083
482.19	24.088
482.53	25.420
482.88	25.155
483.23	24.376
483.58	24.623
483.92	24.056
484.27	23.200
484.62	24.204
484.97	24.295
485.31	24.097
485.66	23.885
486.01	24.219
486.36	23.869
486.70	24.396
487.05	24.235
487.40	24.845
487.75	24.732
488.09	24.258
488.44	24.175
488.79	24.580
489.13	25.080
489.48	24.583
489.83	24.753
490.17	25.124
490.52	24.942
490.87	24.988
491.22	25.263
491.56	24.526
491.91	24.187
492.26	23.918
492.60	24.184
492.95	25.381
493.30	23.644
493.64	25.000
493.99	25.217
494.34	24.854
494.68	25.048
495.03	24.526
495.37	24.681
495.72	25.290
496.07	25.073
496.41	24.528
496.76	24.735
497.11	24.639
497.45	25.107
497.80	24.975
498.14	24.391
498.49	24.937
498.84	24.351
499.18	25.100
499.53	24.504
499.87	24.416
500.22	24.481
500.56	25.214
500.91	24.749
501.26	24.815
501.60	24.348
501.95	25.133
502.29	25.085
502.64	25.097
502.98	25.062
503.33	24.207
503.67	24.337
504.02	25.806
504.36	25.037
504.71	25.000
505.06	24.107
505.40	24.061
505.75	25.464
506.09	24.835
506.44	25.103
506.78	25.051
507.13	24.819
507.47	24.700
507.82	24.412
508.16	24.511
508.51	24.711
508.85	25.222
509.19	24.481
509.54	25.147
509.88	24.703
510.23	24.744
510.57	25.227
510.92	23.614
511.26	24.932
511.61	24.477
511.95	25.151
512.30	24.557
512.64	25.264
512.98	24.537
513.33	25.630
513.67	24.901
514.02	25.572
514.36	25.486
514.70	25.408
515.05	24.031
515.39	24.852
515.74	25.449
516.08	26.240
516.42	26.266
516.77	26.273
517.11	24.510
517.46	25.434
517.80	24.911
518.14	24.923
518.49	25.661
518.83	26.185
519.17	25.409
519.52	24.571
519.86	24.790
520.20	24.666
520.55	24.891
520.89	25.784
521.23	24.256
521.58	25.489
521.92	25.641
522.26	25.439
522.61	25.714
522.95	26.225
523.29	25.413
523.64	25.667
523.98	26.118
524.32	25.129
524.66	25.608
525.01	26.039
525.35	25.275
525.69	25.185
526.04	25.066
526.38	26.005
526.72	24.199
527.06	24.903
527.41	25.396
527.75	24.799
528.09	24.385
528.43	25.793
528.78	25.017
529.12	25.290
529.46	25.926
529.80	24.953
530.15	25.611
530.49	25.791
530.83	25.581
531.17	25.722
531.51	26.539
531.86	25.153
532.20	25.957
532.54	25.255
532.88	25.873
533.22	25.874
533.57	24.967
533.91	25.131
534.25	26.367
534.59	25.144
534.93	25.110
535.27	24.365
535.62	25.146
535.96	25.440
536.30	25.594
536.64	25.706
536.98	24.669
537.32	26.387
537.66	25.105
538.01	26.084
538.35	25.104
538.69	25.300
539.03	24.744
539.37	25.370
539.71	25.153
540.05	25.730
540.39	25.139
540.73	24.686
541.07	25.691
541.42	25.000
541.76	25.740
542.10	24.570
542.44	25.226
542.78	24.226
543.12	24.657
543.46	25.591
543.80	25.399
544.14	24.299
544.48	25.316
544.82	25.154
545.16	24.727
545.50	25.033
545.84	26.629
546.18	26.028
546.52	25.090
546.86	24.587
547.20	24.678
547.54	24.382
547.88	25.068
548.22	24.260
548.56	24.142
548.90	25.539
549.24	25.000
549.58	25.882
549.92	24.089
550.26	24.835
550.60	25.502
550.94	26.064
551.28	24.343
551.62	27.462
551.96	25.113
552.30	24.854
552.64	24.824
552.98	25.387
553.32	25.392
553.66	24.673
554.00	24.234
554.34	26.219
554.68	25.737
555.02	25.893
555.36	25.056
555.69	25.055
556.03	22.769
556.37	24.342
556.71	25.054
557.05	24.758
557.39	25.651
557.73	25.562
558.07	25.264
558.41	24.196
558.75	25.955
559.08	24.586
559.42	24.365
559.76	25.380
560.10	25.076
560.44	24.348
560.78	24.825
561.12	24.683
561.45	26.072
561.79	25.210
562.13	25.195
562.47	23.957
562.81	25.360
563.15	25.529
563.48	25.177
563.82	24.846
564.16	25.209
564.50	24.189
564.84	24.565
565.17	24.614
565.51	25.205
565.85	26.132
566.19	25.000
566.52	25.201
566.86	25.707
567.20	24.533
567.54	24.939
567.88	25.542
568.21	25.226
568.55	24.946
568.89	24.230
569.23	24.892
569.56	24.212
569.90	24.848
570.24	24.302
570.57	24.691
570.91	25.026
571.25	24.071
571.59	24.696
571.92	23.763
572.26	24.004
572.60	23.690
572.93	24.223
573.27	23.511
573.61	24.284
573.95	24.031
574.28	24.153
574.62	23.519
574.96	24.233
575.29	23.498
575.63	23.503
575.97	23.990
576.30	23.419
576.64	23.232
576.98	24.402
577.31	24.158
577.65	23.968
577.98	24.134
578.32	23.983
578.66	23.727
578.99	23.631
579.33	23.657
579.67	23.467
580.00	23.924
580.34	24.154
580.67	22.948
581.01	23.679
581.35	23.730
581.68	23.991
582.02	23.564
582.35	24.048
582.69	23.958
583.02	23.756
583.36	23.515
583.70	24.455
584.03	24.409
584.37	24.562
584.70	23.901
585.04	23.497
585.37	23.563
585.71	23.328
586.04	23.777
586.38	23.553
586.72	23.472
587.05	24.581
587.39	24.574
587.72	24.248
588.06	23.748
588.39	23.811
588.73	24.542
589.06	24.299
589.40	23.954
589.73	24.279
590.07	24.698
590.40	24.303
590.73	24.382
591.07	23.707
591.40	24.310
591.74	24.118
592.07	24.490
592.41	24.735
592.74	24.014
593.08	23.507
593.41	23.657
593.75	23.847
594.08	23.721
594.41	23.981
594.75	23.855
595.08	24.215
595.42	24.328
595.75	24.071
596.09	24.316
596.42	23.811
596.75	24.423
597.09	24.282
597.42	24.661
597.75	24.279
598.09	23.812
598.42	23.240
598.76	23.895
599.09	24.319
599.42	23.797
599.76	23.740
600.09	24.133
600.42	23.806
600.76	23.440
601.09	23.206
601.42	23.541
601.76	23.581
602.09	23.515
602.42	24.263
602.76	23.981
603.09	24.585
603.42	24.498
603.76	24.395
604.09	23.694
604.42	24.196
604.76	24.433
605.09	24.132
605.42	24.605
605.75	24.343
606.09	24.246
606.42	23.603
606.75	24.069
607.09	23.692
607.42	23.881
607.75	24.201
608.08	23.944
608.42	23.298
608.75	24.530
609.08	24.464
609.41	23.959
609.75	24.446
610.08	23.265
610.41	23.961
610.74	24.525
611.07	24.083
611.41	24.338
611.74	25.320
612.07	23.769
612.40	24.672
612.73	23.390
613.07	24.184
613.40	24.562
613.73	23.671
614.06	24.652
614.39	23.914
614.72	24.202
615.06	24.693
615.39	23.745
615.72	23.305
616.05	24.134
616.38	23.248
616.71	24.404
617.05	23.904
617.38	24.513
617.71	23.774
618.04	25.206
618.37	25.914
618.70	24.488
619.03	24.167
619.36	23.806
619.69	25.095
620.03	25.712
620.36	25.107
620.69	24.625
621.02	25.076
621.35	25.477
621.68	24.575
622.01	24.833
622.34	24.980
622.67	25.079
623.00	24.196
623.33	25.305
623.66	23.934
623.99	24.735
624.32	25.399
624.65	23.910
624.99	25.357
625.32	24.109
625.65	26.002
625.98	25.302
626.31	24.522
626.64	25.217
626.97	25.393
627.30	25.657
627.63	23.397
627.96	26.235
628.29	23.867
628.62	25.172
628.95	24.649
629.28	26.310
629.61	24.227
629.94	26.588
630.26	24.802
630.59	25.911
630.92	26.256
631.25	24.308
631.58	24.780
631.91	25.219
632.24	26.261
632.57	25.682
632.90	25.504
633.23	26.824
633.56	24.811
