SpectraSuite Data File
++++++++++++++++++++++++++++++++++++
Date: Fri May 15 17:20:20 PDT 2015
User: schluterlab
Dark Spectrum Present: Yes
Reference Spectrum Present: Yes
Number of Sampled Component Spectra: 1
Spectrometers: USB2E3373
Integration Time (usec): 3000 (USB2E3373)
Spectra Averaged: 3 (USB2E3373)
Boxcar Smoothing: 0 (USB2E3373)
Correct for Electrical Dark: No (USB2E3373)
Strobe/Lamp Enabled: No (USB2E3373)
Correct for Detector Non-linearity: No (USB2E3373)
Correct for Stray Light: No (USB2E3373)
Number of Pixels in Processed Spectrum: 2048
>>>>>Begin Processed Spectral Data<<<<<
178.53	0.000
178.91	0.000
179.29	162.500
179.67	0.000
180.04	-42.857
180.42	525.000
180.80	900.000
181.18	-133.333
181.56	350.000
181.94	100.000
182.31	700.000
182.69	280.000
183.07	466.667
183.45	0.000
183.83	50.000
184.20	54.545
184.58	-66.667
184.96	-300.000
185.34	-233.333
185.72	-200.000
186.09	-0.000
186.47	600.000
186.85	50.000
187.23	-111.111
187.61	-500.000
187.98	100.000
188.36	22.222
188.74	200.000
189.12	64.706
189.49	50.000
189.87	0.000
190.25	135.714
190.63	250.000
191.00	233.333
191.38	115.789
191.76	200.000
192.14	-0.000
192.51	450.000
192.89	-11.111
193.27	28.571
193.65	-16.667
194.02	81.818
194.40	70.000
194.78	0.000
195.15	8.333
195.53	37.500
195.91	-200.000
196.29	-125.000
196.66	-23.077
197.04	-57.143
197.42	55.556
197.79	-233.333
198.17	-30.769
198.55	100.000
198.92	-300.000
199.30	1000.000
199.68	180.000
200.05	-233.333
200.43	0.000
200.81	66.667
201.18	366.667
201.56	-200.000
201.94	250.000
202.31	-466.667
202.69	0.000
203.07	-100.000
203.44	1300.000
203.82	0.000
204.19	114.286
204.57	-100.000
204.95	62.500
205.32	140.000
205.70	114.286
206.08	125.000
206.45	300.000
206.83	150.000
207.20	200.000
207.58	-400.000
207.96	66.667
208.33	10.000
208.71	125.000
209.08	-116.667
209.46	-400.000
209.84	120.000
210.21	300.000
210.59	85.714
210.96	100.000
211.34	0.000
211.71	100.000
212.09	128.571
212.46	-1100.000
212.84	0.000
213.22	180.000
213.59	450.000
213.97	46.154
214.34	154.545
214.72	-33.333
215.09	175.000
215.47	107.692
215.84	45.455
216.22	133.333
216.59	37.500
216.97	650.000
217.34	150.000
217.72	160.000
218.09	50.000
218.47	100.000
218.84	700.000
219.22	100.000
219.59	100.000
219.97	-100.000
220.34	-50.000
220.72	142.857
221.09	125.000
221.47	200.000
221.84	-650.000
222.22	-300.000
222.59	136.364
222.97	108.333
223.34	-66.667
223.72	14.286
224.09	4.762
224.46	21.429
224.84	233.333
225.21	-10.000
225.59	60.000
225.96	100.000
226.34	200.000
226.71	100.000
227.08	166.667
227.46	112.500
227.83	-100.000
228.21	111.111
228.58	200.000
228.95	125.000
229.33	20.000
229.70	56.250
230.08	87.500
230.45	71.429
230.82	214.286
231.20	26.667
231.57	128.571
231.95	128.571
232.32	20.000
232.69	50.000
233.07	133.333
233.44	320.000
233.81	110.000
234.19	55.556
234.56	5.882
234.93	50.000
235.31	25.000
235.68	20.000
236.05	38.462
236.43	75.000
236.80	47.059
237.17	59.375
237.55	50.000
237.92	37.037
238.29	19.444
238.67	33.333
239.04	14.706
239.41	7.317
239.79	30.000
240.16	58.537
240.53	42.105
240.91	41.304
241.28	31.746
241.65	46.429
242.02	52.055
242.40	31.667
242.77	22.034
243.14	34.848
243.51	42.500
243.89	51.724
244.26	26.437
244.63	46.429
245.00	30.928
245.38	34.021
245.75	33.708
246.12	24.138
246.49	28.926
246.87	35.577
247.24	23.529
247.61	32.456
247.98	25.203
248.36	30.625
248.73	30.921
249.10	36.364
249.47	37.975
249.84	32.680
250.22	30.000
250.59	31.373
250.96	31.925
251.33	36.047
251.70	28.235
252.08	30.457
252.45	27.723
252.82	35.176
253.19	36.406
253.56	29.907
253.94	34.234
254.31	30.435
254.68	32.895
255.05	30.315
255.42	31.441
255.79	28.958
256.16	29.183
256.54	32.836
256.91	30.038
257.28	33.829
257.65	34.831
258.02	30.496
258.39	30.303
258.76	37.363
259.14	32.890
259.51	31.392
259.88	32.302
260.25	35.294
260.62	35.069
260.99	27.797
261.36	30.822
261.73	32.595
262.10	30.091
262.47	32.515
262.85	29.467
263.22	30.462
263.59	29.595
263.96	32.609
264.33	28.788
264.70	29.762
265.07	31.845
265.44	34.844
265.81	34.181
266.18	32.514
266.55	31.877
266.92	31.088
267.29	32.376
267.66	30.435
268.03	31.414
268.40	32.376
268.77	36.364
269.14	31.655
269.51	32.391
269.88	31.920
270.25	31.633
270.62	30.244
270.99	30.946
271.36	31.051
271.73	34.742
272.10	29.197
272.47	33.333
272.84	28.960
273.21	29.466
273.58	31.807
273.95	31.350
274.32	31.178
274.69	28.054
275.06	32.366
275.43	30.839
275.80	29.801
276.17	31.724
276.54	29.550
276.91	32.456
277.28	30.349
277.65	30.165
278.02	29.362
278.39	27.571
278.76	30.608
279.13	27.801
279.50	29.622
279.87	31.102
280.23	30.753
280.60	30.409
280.97	31.919
281.34	29.808
281.71	31.622
282.08	32.720
282.45	29.550
282.82	26.834
283.19	31.141
283.56	30.443
283.92	26.565
284.29	29.231
284.66	28.488
285.03	26.719
285.40	26.465
285.77	28.120
286.14	29.603
286.51	28.598
286.87	28.519
287.24	27.256
287.61	29.806
287.98	29.474
288.35	27.903
288.72	28.546
289.08	27.257
289.45	28.120
289.82	26.748
290.19	27.133
290.56	25.386
290.93	26.431
291.29	26.502
291.66	28.504
292.03	28.230
292.40	27.903
292.77	25.997
293.13	24.026
293.50	27.011
293.87	26.718
294.24	25.811
294.60	26.528
294.97	25.893
295.34	24.540
295.71	22.951
296.08	27.952
296.44	23.613
296.81	24.306
297.18	24.493
297.55	27.371
297.91	26.986
298.28	26.121
298.65	24.423
299.02	25.741
299.38	22.435
299.75	25.379
300.12	24.215
300.48	24.901
300.85	25.349
301.22	24.935
301.59	24.342
301.95	25.696
302.32	26.459
302.69	25.871
303.05	25.000
303.42	24.159
303.79	25.701
304.15	26.404
304.52	24.257
304.89	24.795
305.25	25.182
305.62	22.870
305.99	25.614
306.35	23.815
306.72	23.285
307.09	24.629
307.45	25.603
307.82	25.347
308.19	25.552
308.55	23.882
308.92	25.926
309.29	25.028
309.65	24.973
310.02	24.752
310.38	23.710
310.75	25.355
311.12	24.650
311.48	24.708
311.85	25.340
312.22	25.211
312.58	25.159
312.95	24.867
313.31	25.673
313.68	25.864
314.05	26.020
314.41	26.907
314.78	25.773
315.14	26.927
315.51	24.534
315.87	25.410
316.24	26.694
316.61	25.492
316.97	25.397
317.34	26.465
317.70	25.048
318.07	25.385
318.43	26.176
318.80	26.136
319.16	25.488
319.53	26.686
319.89	26.870
320.26	27.632
320.62	26.680
320.99	26.827
321.35	27.235
321.72	27.518
322.08	26.888
322.45	27.614
322.81	27.407
323.18	27.674
323.54	27.124
323.91	28.238
324.27	29.199
324.64	28.745
325.00	27.190
325.37	29.385
325.73	27.108
326.10	28.610
326.46	30.673
326.83	29.396
327.19	29.904
327.56	30.321
327.92	29.665
328.29	30.893
328.65	30.189
329.01	29.963
329.38	29.124
329.74	29.651
330.11	31.418
330.47	29.963
330.84	31.346
331.20	32.795
331.56	30.926
331.93	32.237
332.29	32.356
332.66	32.489
333.02	31.506
333.38	32.081
333.75	32.326
334.11	31.782
334.48	33.092
334.84	33.059
335.20	33.669
335.57	31.822
335.93	33.333
336.29	32.689
336.66	33.061
337.02	32.528
337.38	32.222
337.75	33.727
338.11	32.822
338.47	33.485
338.84	33.272
339.20	34.095
339.56	33.119
339.93	33.393
340.29	34.404
340.65	34.140
341.02	33.156
341.38	32.743
341.74	33.039
342.11	32.582
342.47	33.808
342.83	34.256
343.20	33.188
343.56	34.000
343.92	32.772
344.28	33.732
344.65	31.434
345.01	32.757
345.37	32.212
345.73	33.389
346.10	33.477
346.46	33.558
346.82	32.979
347.19	32.086
347.55	33.166
347.91	32.848
348.27	32.902
348.63	32.794
349.00	31.829
349.36	33.500
349.72	33.002
350.08	33.197
350.45	31.764
350.81	31.561
351.17	32.003
351.53	33.061
351.89	32.287
352.26	32.640
352.62	33.145
352.98	31.647
353.34	30.757
353.70	33.091
354.07	32.984
354.43	32.186
354.79	32.783
355.15	33.810
355.51	32.358
355.87	32.282
356.24	31.974
356.60	32.175
356.96	32.698
357.32	32.987
357.68	31.431
358.04	33.118
358.40	33.601
358.77	32.855
359.13	32.346
359.49	31.818
359.85	32.371
360.21	32.536
360.57	31.523
360.93	33.359
361.29	32.175
361.66	33.229
362.02	34.091
362.38	33.816
362.74	33.005
363.10	33.484
363.46	33.358
363.82	34.035
364.18	33.284
364.54	32.426
364.90	33.262
365.26	33.333
365.62	34.672
365.98	33.211
366.35	34.304
366.71	33.259
367.07	33.237
367.43	33.357
367.79	34.205
368.15	32.735
368.51	33.285
368.87	33.597
369.23	32.563
369.59	34.184
369.95	33.724
370.31	33.671
370.67	34.627
371.03	33.981
371.39	33.115
371.75	34.505
372.11	33.951
372.47	34.541
372.83	33.712
373.19	35.021
373.55	33.935
373.91	34.629
374.27	35.648
374.63	34.458
374.99	34.610
375.35	34.053
375.71	36.294
376.07	35.674
376.42	35.646
376.78	35.369
377.14	35.139
377.50	36.255
377.86	36.948
378.22	36.120
378.58	35.769
378.94	36.169
379.30	35.808
379.66	36.176
380.02	36.665
380.38	35.119
380.74	36.685
381.09	37.423
381.45	36.514
381.81	37.569
382.17	36.104
382.53	36.540
382.89	37.602
383.25	38.457
383.61	38.293
383.97	37.714
384.32	37.461
384.68	38.638
385.04	38.542
385.40	38.706
385.76	39.874
386.12	39.586
386.48	37.356
386.83	38.808
387.19	37.973
387.55	39.586
387.91	39.181
388.27	38.828
388.62	40.088
388.98	39.042
389.34	39.788
389.70	39.776
390.06	38.326
390.42	39.702
390.77	40.615
391.13	39.092
391.49	40.168
391.85	39.506
392.20	40.176
392.56	40.687
392.92	40.517
393.28	40.271
393.64	40.000
393.99	40.690
394.35	39.785
394.71	40.549
395.07	39.975
395.42	39.223
395.78	40.782
396.14	39.849
396.50	40.900
396.85	40.373
397.21	40.852
397.57	40.752
397.92	40.324
398.28	40.287
398.64	39.699
399.00	40.632
399.35	39.334
399.71	39.862
400.07	40.447
400.42	39.841
400.78	40.661
401.14	40.653
401.49	40.739
401.85	40.037
402.21	40.904
402.57	41.000
402.92	39.523
403.28	40.727
403.63	40.731
403.99	41.327
404.35	41.224
404.70	39.643
405.06	40.071
405.42	40.273
405.77	39.686
406.13	41.153
406.49	38.840
406.84	40.220
407.20	40.819
407.55	39.343
407.91	40.040
408.27	41.236
408.62	40.123
408.98	40.481
409.34	40.335
409.69	39.535
410.05	39.594
410.40	40.123
410.76	40.832
411.11	39.688
411.47	40.631
411.83	39.862
412.18	40.669
412.54	41.011
412.89	39.532
413.25	39.771
413.60	40.248
413.96	39.509
414.31	40.244
414.67	39.384
415.03	41.012
415.38	39.687
415.74	40.586
416.09	40.235
416.45	41.594
416.80	42.168
417.16	42.127
417.51	41.173
417.87	41.265
418.22	41.839
418.58	42.475
418.93	40.690
419.29	39.821
419.64	42.709
420.00	42.632
420.35	41.015
420.71	41.312
421.06	40.761
421.42	42.248
421.77	41.618
422.12	40.976
422.48	40.931
422.83	40.777
423.19	42.325
423.54	40.800
423.90	41.873
424.25	42.595
424.61	41.554
424.96	41.057
425.31	42.403
425.67	43.369
426.02	43.581
426.38	43.081
426.73	43.039
427.09	43.038
427.44	43.529
427.79	42.074
428.15	43.447
428.50	42.580
428.85	42.383
429.21	43.124
429.56	44.151
429.92	42.167
430.27	43.158
430.62	41.871
430.98	43.418
431.33	43.218
431.68	43.328
432.04	43.264
432.39	42.898
432.74	41.732
433.10	45.172
433.45	44.086
433.80	43.297
434.16	42.161
434.51	44.140
434.86	43.264
435.22	42.681
435.57	45.540
435.92	43.713
436.28	42.397
436.63	44.666
436.98	42.700
437.34	43.194
437.69	43.888
438.04	44.046
438.39	44.166
438.75	44.202
439.10	44.369
439.45	45.344
439.81	45.076
440.16	44.477
440.51	45.254
440.86	46.103
441.22	45.192
441.57	44.923
441.92	45.278
442.27	44.956
442.63	45.075
442.98	44.515
443.33	44.240
443.68	43.873
444.03	45.206
444.39	45.303
444.74	46.210
445.09	45.379
445.44	45.869
445.79	46.055
446.15	45.485
446.50	44.537
446.85	45.643
447.20	44.578
447.55	44.810
447.91	46.193
448.26	45.304
448.61	45.078
448.96	46.127
449.31	46.012
449.66	45.645
450.02	44.438
450.37	46.058
450.72	45.704
451.07	46.582
451.42	44.382
451.77	44.786
452.12	44.976
452.47	45.911
452.83	46.525
453.18	44.908
453.53	46.776
453.88	47.177
454.23	45.667
454.58	46.725
454.93	47.552
455.28	45.143
455.63	46.621
455.98	47.925
456.34	46.424
456.69	47.205
457.04	46.503
457.39	45.990
457.74	45.949
458.09	45.497
458.44	45.699
458.79	47.115
459.14	47.883
459.49	47.224
459.84	45.911
460.19	45.995
460.54	46.822
460.89	46.364
461.24	47.578
461.59	46.615
461.94	46.101
462.29	46.562
462.64	47.907
462.99	46.852
463.34	46.871
463.69	47.104
464.04	48.063
464.39	46.331
464.74	46.319
465.09	46.974
465.44	46.797
465.79	46.202
466.14	46.693
466.49	46.924
466.84	46.579
467.19	47.747
467.54	46.424
467.89	47.568
468.24	47.324
468.59	47.111
468.94	46.794
469.29	48.000
469.64	47.847
469.99	48.984
470.34	46.689
470.68	47.353
471.03	49.469
471.38	46.291
471.73	46.919
472.08	46.472
472.43	48.322
472.78	46.813
473.13	48.231
473.48	47.492
473.83	46.575
474.17	48.122
474.52	47.224
474.87	47.030
475.22	47.773
475.57	47.544
475.92	48.491
476.27	47.614
476.61	48.669
476.96	46.012
477.31	48.405
477.66	47.247
478.01	48.007
478.36	48.203
478.70	48.613
479.05	48.407
479.40	47.536
479.75	47.132
480.10	47.824
480.45	47.950
480.79	49.144
481.14	48.873
481.49	47.044
481.84	48.890
482.19	47.287
482.53	47.770
482.88	47.685
483.23	47.361
483.58	47.783
483.92	47.967
484.27	47.220
484.62	47.916
484.97	48.093
485.31	47.363
485.66	46.454
486.01	46.160
486.36	46.052
486.70	46.054
487.05	46.035
487.40	46.975
487.75	47.014
488.09	47.064
488.44	48.040
488.79	48.039
489.13	49.239
489.48	49.124
489.83	47.668
490.17	47.551
490.52	47.714
490.87	49.144
491.22	49.188
491.56	48.197
491.91	48.279
492.26	50.219
492.60	48.177
492.95	50.025
493.30	47.924
493.64	49.067
493.99	49.082
494.34	48.252
494.68	48.952
495.03	48.905
495.37	49.215
495.72	50.429
496.07	49.463
496.41	49.387
496.76	48.457
497.11	48.486
497.45	48.449
497.80	49.395
498.14	48.634
498.49	50.229
498.84	49.601
499.18	49.598
499.53	48.760
499.87	49.076
500.22	49.159
500.56	49.420
500.91	50.050
501.26	49.184
501.60	49.139
501.95	49.733
502.29	49.249
502.64	49.324
502.98	49.778
503.33	49.712
503.67	48.867
504.02	50.489
504.36	50.025
504.71	49.495
505.06	48.817
505.40	50.355
505.75	49.948
506.09	50.329
506.44	51.489
506.78	51.378
507.13	50.103
507.47	49.922
507.82	49.519
508.16	49.868
508.51	50.472
508.85	50.392
509.19	50.506
509.54	51.153
509.88	49.730
510.23	51.049
510.57	50.935
510.92	49.307
511.26	50.027
511.61	50.440
511.95	50.795
512.30	50.887
512.64	51.085
512.98	51.151
513.33	51.875
513.67	50.881
514.02	52.460
514.36	51.143
514.70	53.205
515.05	53.349
515.39	52.007
515.74	52.395
516.08	52.301
516.42	52.297
516.77	53.365
517.11	52.166
517.46	53.321
517.80	53.695
518.14	51.439
518.49	52.764
518.83	52.187
519.17	52.274
519.52	52.694
519.86	52.281
520.20	53.524
520.55	52.783
520.89	53.011
521.23	52.375
521.58	53.060
521.92	54.872
522.26	53.546
522.61	54.156
522.95	54.570
523.29	53.939
523.64	53.240
523.98	54.699
524.32	53.995
524.66	53.969
525.01	55.390
525.35	54.051
525.69	55.354
526.04	53.505
526.38	55.707
526.72	53.891
527.06	53.632
527.41	54.156
527.75	54.290
528.09	53.555
528.43	55.368
528.78	53.993
529.12	55.548
529.46	54.646
529.80	53.325
530.15	56.766
530.49	56.094
530.83	56.224
531.17	55.339
531.51	55.472
531.86	55.337
532.20	56.019
532.54	54.459
532.88	55.373
533.22	56.384
533.57	54.849
533.91	54.961
534.25	56.250
534.59	54.843
534.93	53.304
535.27	53.871
535.62	55.347
535.96	55.316
536.30	55.343
536.64	55.686
536.98	54.286
537.32	56.188
537.66	57.433
538.01	55.245
538.35	54.646
538.69	54.860
539.03	54.477
539.37	55.855
539.71	55.419
540.05	55.669
540.39	56.163
540.73	55.788
541.07	56.354
541.42	56.048
541.76	56.366
542.10	55.609
542.44	56.567
542.78	55.816
543.12	55.563
543.46	55.772
543.80	55.656
544.14	53.805
544.48	54.697
544.82	55.844
545.16	55.328
545.50	55.007
545.84	55.453
546.18	56.312
546.52	57.967
546.86	56.003
547.20	57.225
547.54	55.830
547.88	56.658
548.22	54.306
548.56	55.541
548.90	56.536
549.24	53.926
549.58	56.629
549.92	56.469
550.26	56.557
550.60	55.911
550.94	56.385
551.28	56.260
551.62	57.692
551.96	57.218
552.30	57.895
552.64	56.770
552.98	55.767
553.32	56.277
553.66	55.806
554.00	58.102
554.34	57.681
554.68	57.301
555.02	57.961
555.36	56.395
555.69	55.458
556.03	55.960
556.37	55.658
556.71	56.318
557.05	57.420
557.39	55.019
557.73	56.822
558.07	56.259
558.41	58.116
558.75	57.132
559.08	56.107
559.42	57.143
559.76	57.806
560.10	57.110
560.44	55.547
560.78	56.643
561.12	57.475
561.45	58.468
561.79	56.933
562.13	57.204
562.47	57.338
562.81	56.988
563.15	55.289
563.48	56.577
563.82	56.898
564.16	58.078
564.50	54.797
564.84	55.689
565.17	56.472
565.51	57.240
565.85	57.064
566.19	56.830
566.52	57.440
566.86	56.877
567.20	56.476
567.54	56.448
567.88	57.996
568.21	56.618
568.55	55.272
568.89	56.571
569.23	55.128
569.56	53.765
569.90	55.055
570.24	53.145
570.57	53.855
570.91	54.653
571.25	53.239
571.59	52.351
571.92	51.822
572.26	52.687
572.60	52.837
572.93	51.616
573.27	51.661
573.61	52.208
573.95	52.922
574.28	51.907
574.62	50.852
574.96	52.231
575.29	51.212
575.63	50.583
575.97	51.044
576.30	51.870
576.64	51.417
576.98	51.506
577.31	52.028
577.65	52.775
577.98	51.817
578.32	51.199
578.66	51.236
578.99	51.497
579.33	50.837
579.67	50.391
580.00	51.975
580.34	51.244
580.67	51.533
581.01	52.354
581.35	51.421
581.68	51.407
582.02	50.817
582.35	51.551
582.69	51.169
583.02	51.314
583.36	51.337
583.70	52.466
584.03	52.572
584.37	53.811
584.70	53.324
585.04	50.933
585.37	51.499
585.71	52.111
586.04	52.017
586.38	51.827
586.72	51.966
587.05	52.397
587.39	51.971
587.72	52.843
588.06	51.868
588.39	51.552
588.73	53.053
589.06	53.588
589.40	53.094
589.73	53.742
590.07	54.154
590.40	54.567
590.73	54.695
591.07	53.647
591.40	53.161
591.74	53.529
592.07	55.380
592.41	53.799
592.74	52.688
593.08	50.995
593.41	52.817
593.75	52.633
594.08	51.665
594.41	52.948
594.75	53.664
595.08	52.440
595.42	52.705
595.75	54.337
596.09	53.284
596.42	53.535
596.75	53.242
597.09	54.032
597.42	53.342
597.75	54.100
598.09	53.508
598.42	54.513
598.76	53.539
599.09	53.566
599.42	52.065
599.76	53.236
600.09	52.451
600.42	51.857
600.76	51.857
601.09	52.557
601.42	52.213
601.76	52.838
602.09	52.764
602.42	53.875
602.76	54.329
603.09	54.444
603.42	54.557
603.76	53.871
604.09	52.977
604.42	53.511
604.76	53.761
605.09	53.245
605.42	53.634
605.75	52.890
606.09	52.527
606.42	53.169
606.75	53.463
607.09	53.626
607.42	52.946
607.75	52.664
608.08	52.201
608.42	51.850
608.75	54.554
609.08	54.559
609.41	53.909
609.75	54.083
610.08	53.220
610.41	53.285
610.74	53.584
611.07	54.109
611.41	54.126
611.74	54.904
612.07	54.336
612.40	54.705
612.73	55.932
613.07	53.937
613.40	54.048
613.73	55.120
614.06	54.702
614.39	54.089
614.72	54.062
615.06	54.637
615.39	54.312
615.72	53.122
616.05	54.525
616.38	54.245
616.71	54.862
617.05	56.146
617.38	55.563
617.71	55.472
618.04	57.460
618.37	56.305
618.70	56.172
619.03	56.806
619.36	54.703
619.69	57.392
620.03	56.465
620.36	56.152
620.69	55.032
621.02	57.569
621.35	58.506
621.68	58.844
622.01	58.167
622.34	56.744
622.67	57.808
623.00	57.274
623.33	57.012
623.66	56.171
623.99	56.657
624.32	57.262
624.65	56.617
624.99	57.111
625.32	56.482
625.65	58.680
625.98	58.340
626.31	56.775
626.64	57.886
626.97	58.639
627.30	58.757
627.63	58.146
627.96	58.670
628.29	58.742
628.62	59.194
628.95	60.020
629.28	59.375
629.61	58.524
629.94	59.140
630.26	57.905
630.59	60.250
630.92	59.692
631.25	58.564
631.58	60.793
631.91	61.513
632.24	61.468
632.57	63.068
632.90	60.142
633.23	60.235
633.56	62.720
633.89	61.159
