SpectraSuite Data File
++++++++++++++++++++++++++++++++++++
Date: Fri May 15 20:03:06 PDT 2015
User: schluterlab
Dark Spectrum Present: Yes
Reference Spectrum Present: Yes
Number of Sampled Component Spectra: 1
Spectrometers: USB2E3373
Integration Time (usec): 3000 (USB2E3373)
Spectra Averaged: 3 (USB2E3373)
Boxcar Smoothing: 0 (USB2E3373)
Correct for Electrical Dark: No (USB2E3373)
Strobe/Lamp Enabled: No (USB2E3373)
Correct for Detector Non-linearity: No (USB2E3373)
Correct for Stray Light: No (USB2E3373)
Number of Pixels in Processed Spectrum: 2048
>>>>>Begin Processed Spectral Data<<<<<
178.53	0.000
178.91	0.000
179.29	112.500
179.67	-550.000
180.04	-100.000
180.42	25.000
180.80	100.000
181.18	-33.333
181.56	50.000
181.94	350.000
182.31	-100.000
182.69	120.000
183.07	-66.667
183.45	0.000
183.83	133.333
184.20	100.000
184.58	66.667
184.96	-25.000
185.34	100.000
185.72	-450.000
186.09	-0.000
186.47	-600.000
186.85	100.000
187.23	211.111
187.61	-500.000
187.98	-166.667
188.36	55.556
188.74	-66.667
189.12	35.294
189.49	38.889
189.87	0.000
190.25	57.143
190.63	-200.000
191.00	-200.000
191.38	-57.895
191.76	400.000
192.14	100.000
192.51	100.000
192.89	66.667
193.27	0.000
193.65	16.667
194.02	118.182
194.40	90.000
194.78	-125.000
195.15	8.333
195.53	-162.500
195.91	350.000
196.29	-125.000
196.66	84.615
197.04	28.571
197.42	-44.444
197.79	-400.000
198.17	-69.231
198.55	1100.000
198.92	66.667
199.30	0.000
199.68	-200.000
200.05	-366.667
200.43	0.000
200.81	-33.333
201.18	33.333
201.56	700.000
201.94	300.000
202.31	-200.000
202.69	-200.000
203.07	50.000
203.44	100.000
203.82	0.000
204.19	42.857
204.57	-433.333
204.95	75.000
205.32	80.000
205.70	-28.571
206.08	-150.000
206.45	133.333
206.83	100.000
207.20	28.571
207.58	-100.000
207.96	-333.333
208.33	-20.000
208.71	100.000
209.08	-383.333
209.46	-100.000
209.84	-80.000
210.21	-1400.000
210.59	-57.143
210.96	16.667
211.34	-350.000
211.71	53.333
212.09	71.429
212.46	-1200.000
212.84	0.000
213.22	80.000
213.59	250.000
213.97	61.538
214.34	90.909
214.72	-16.667
215.09	275.000
215.47	38.462
215.84	-72.727
216.22	0.000
216.59	-37.500
216.97	850.000
217.34	25.000
217.72	-100.000
218.09	37.500
218.47	125.000
218.84	-600.000
219.22	-22.222
219.59	-260.000
219.97	266.667
220.34	-0.000
220.72	28.571
221.09	-75.000
221.47	250.000
221.84	-200.000
222.22	-500.000
222.59	45.455
222.97	8.333
223.34	-66.667
223.72	-21.429
224.09	4.762
224.46	17.857
224.84	400.000
225.21	80.000
225.59	13.333
225.96	400.000
226.34	200.000
226.71	-100.000
227.08	100.000
227.46	87.500
227.83	-450.000
228.21	66.667
228.58	90.909
228.95	-62.500
229.33	130.000
229.70	-12.500
230.08	-12.500
230.45	-14.286
230.82	114.286
231.20	40.000
231.57	64.286
231.95	14.286
232.32	-90.000
232.69	64.286
233.07	0.000
233.44	60.000
233.81	-40.000
234.19	-22.222
234.56	-29.412
234.93	200.000
235.31	-25.000
235.68	-240.000
236.05	-69.231
236.43	-30.000
236.80	0.000
237.17	15.625
237.55	-35.000
237.92	0.000
238.29	5.556
238.67	30.000
239.04	11.765
239.41	-12.195
239.79	-6.667
240.16	4.878
240.53	13.158
240.91	-15.217
241.28	15.873
241.65	16.071
242.02	15.068
242.40	8.333
242.77	0.000
243.14	9.091
243.51	2.500
243.89	20.690
244.26	-8.046
244.63	-3.571
245.00	11.340
245.38	18.557
245.75	5.618
246.12	8.621
246.49	9.917
246.87	15.385
247.24	3.361
247.61	-4.386
247.98	2.439
248.36	8.750
248.73	11.184
249.10	9.091
249.47	8.228
249.84	9.150
250.22	12.353
250.59	7.843
250.96	14.085
251.33	0.581
251.70	6.471
252.08	6.599
252.45	8.911
252.82	5.528
253.19	7.373
253.56	5.140
253.94	13.514
254.31	15.217
254.68	10.526
255.05	8.268
255.42	12.227
255.79	7.722
256.16	8.560
256.54	8.582
256.91	9.506
257.28	11.896
257.65	4.494
258.02	5.674
258.39	7.407
258.76	9.890
259.14	8.638
259.51	10.356
259.88	6.873
260.25	8.497
260.62	11.111
260.99	6.780
261.36	6.507
261.73	5.696
262.10	9.726
262.47	5.521
262.85	8.464
263.22	3.077
263.59	7.165
263.96	10.248
264.33	11.515
264.70	6.250
265.07	8.929
265.44	7.082
265.81	6.780
266.18	9.836
266.55	12.082
266.92	5.699
267.29	8.355
267.66	10.486
268.03	6.806
268.40	7.572
268.77	11.230
269.14	5.755
269.51	8.226
269.88	4.489
270.25	6.888
270.62	5.366
270.99	4.092
271.36	5.868
271.73	8.451
272.10	7.299
272.47	10.165
272.84	7.178
273.21	6.961
273.58	7.711
273.95	9.840
274.32	7.621
274.69	6.335
275.06	9.598
275.43	5.669
275.80	10.155
276.17	7.816
276.54	8.779
276.91	7.456
277.28	6.769
277.65	9.917
278.02	8.298
278.39	6.783
278.76	8.595
279.13	4.357
279.50	8.613
279.87	7.559
280.23	5.806
280.60	9.942
280.97	6.263
281.34	8.846
281.71	9.856
282.08	7.975
282.45	5.871
282.82	7.915
283.19	5.029
283.56	10.790
283.92	6.831
284.29	5.769
284.66	8.333
285.03	7.662
285.40	6.427
285.77	7.909
286.14	7.220
286.51	7.934
286.87	8.044
287.24	6.630
287.61	5.644
287.98	9.123
288.35	7.279
288.72	8.581
289.08	7.986
289.45	7.030
289.82	8.217
290.19	6.826
290.56	4.631
290.93	6.734
291.29	7.550
291.66	7.244
292.03	6.699
292.40	6.129
292.77	6.699
293.13	3.084
293.50	5.463
293.87	8.397
294.24	6.646
294.60	5.961
294.97	8.036
295.34	5.982
295.71	5.961
296.08	5.979
296.44	5.548
296.81	5.417
297.18	4.783
297.55	7.046
297.91	6.575
298.28	8.311
298.65	6.106
299.02	6.873
299.38	3.694
299.75	5.103
300.12	4.843
300.48	5.929
300.85	6.591
301.22	6.623
301.59	5.658
301.95	8.608
302.32	7.134
302.69	5.224
303.05	5.941
303.42	6.227
303.79	7.243
304.15	6.332
304.52	4.994
304.89	5.029
305.25	5.206
305.62	4.901
305.99	5.029
306.35	5.087
306.72	4.724
307.09	5.587
307.45	5.855
307.82	5.093
308.19	5.459
308.55	5.125
308.92	5.556
309.29	5.140
309.65	5.382
310.02	5.611
310.38	4.720
310.75	5.137
311.12	5.490
311.48	5.514
311.85	5.445
312.22	5.063
312.58	6.157
312.95	4.376
313.31	4.244
313.68	4.712
314.05	3.776
314.41	5.670
314.78	4.227
315.14	5.858
315.51	5.694
315.87	4.918
316.24	5.865
316.61	4.823
316.97	5.556
317.34	4.980
317.70	5.067
318.07	5.577
318.43	6.176
318.80	4.924
319.16	4.590
319.53	5.318
319.89	5.413
320.26	5.263
320.62	5.517
320.99	4.489
321.35	6.064
321.72	6.334
322.08	4.834
322.45	4.467
322.81	4.813
323.18	4.024
323.54	4.923
323.91	5.550
324.27	4.785
324.64	6.086
325.00	5.657
325.37	6.520
325.73	4.533
326.10	5.359
326.46	5.830
326.83	5.774
327.19	5.493
327.56	5.213
327.92	6.602
328.29	4.286
328.65	6.415
329.01	5.055
329.38	5.530
329.74	5.194
330.11	5.005
330.47	4.638
330.84	4.808
331.20	6.179
331.56	5.741
331.93	5.388
332.29	6.049
332.66	5.973
333.02	5.390
333.38	4.950
333.75	5.861
334.11	5.013
334.48	5.077
334.84	5.220
335.20	4.849
335.57	4.986
335.93	5.691
336.29	5.893
336.66	5.450
337.02	3.625
337.38	4.815
337.75	5.545
338.11	6.673
338.47	5.657
338.84	5.176
339.20	5.850
339.56	5.688
339.93	5.551
340.29	4.862
340.65	6.004
341.02	5.496
341.38	5.133
341.74	3.887
342.11	5.113
342.47	4.893
342.83	6.228
343.20	5.314
343.56	5.304
343.92	5.934
344.28	5.807
344.65	4.922
345.01	4.149
345.37	6.308
345.73	5.941
346.10	5.004
346.46	6.476
346.82	5.319
347.19	4.821
347.55	6.349
347.91	6.392
348.27	5.901
348.63	5.111
349.00	5.086
349.36	4.821
349.72	5.970
350.08	5.902
350.45	6.544
350.81	4.319
351.17	5.863
351.53	5.469
351.89	5.367
352.26	5.200
352.62	6.371
352.98	5.783
353.34	5.153
353.70	5.987
354.07	5.161
354.43	5.524
354.79	5.615
355.15	5.635
355.51	5.854
355.87	5.825
356.24	4.894
356.60	5.174
356.96	5.873
357.32	5.591
357.68	4.769
358.04	5.331
358.40	5.145
358.77	5.662
359.13	5.044
359.49	5.162
359.85	5.070
360.21	5.343
360.57	4.820
360.93	5.446
361.29	5.060
361.66	5.721
362.02	5.530
362.38	5.179
362.74	5.678
363.10	5.643
363.46	4.893
363.82	6.536
364.18	5.314
364.54	5.368
364.90	5.878
365.26	5.167
365.62	6.058
365.98	6.158
366.35	7.647
366.71	6.135
367.07	7.039
367.43	6.039
367.79	6.360
368.15	6.102
368.51	5.025
368.87	5.599
369.23	5.271
369.59	5.466
369.95	5.718
370.31	6.069
370.67	4.701
371.03	5.452
371.39	5.689
371.75	5.861
372.11	5.920
372.47	5.843
372.83	5.678
373.19	6.633
373.55	6.065
373.91	5.904
374.27	6.449
374.63	7.179
374.99	5.816
375.35	5.641
375.71	6.294
376.07	5.829
376.42	6.190
376.78	6.242
377.14	6.432
377.50	5.910
377.86	6.426
378.22	6.254
378.58	5.385
378.94	5.482
379.30	6.363
379.66	6.458
380.02	6.376
380.38	6.208
380.74	5.745
381.09	7.178
381.45	7.401
381.81	6.354
382.17	6.726
382.53	6.683
382.89	7.282
383.25	6.907
383.61	6.890
383.97	5.905
384.32	7.505
384.68	6.811
385.04	6.985
385.40	6.409
385.76	7.799
386.12	7.115
386.48	7.663
386.83	7.039
387.19	7.570
387.55	7.403
387.91	7.885
388.27	7.387
388.62	7.048
388.98	7.735
389.34	7.308
389.70	7.520
390.06	7.741
390.42	7.189
390.77	7.848
391.13	7.377
391.49	7.115
391.85	7.537
392.20	8.349
392.56	7.374
392.92	8.338
393.28	7.842
393.64	8.529
393.99	8.966
394.35	8.096
394.71	8.238
395.07	8.234
395.42	7.590
395.78	8.664
396.14	8.008
396.50	8.497
396.85	8.822
397.21	8.709
397.57	7.712
397.92	8.928
398.28	8.966
398.64	7.952
399.00	8.691
399.35	7.675
399.71	8.845
400.07	8.585
400.42	9.302
400.78	9.737
401.14	9.498
401.49	9.827
401.85	8.653
402.21	9.096
402.57	9.625
402.92	8.030
403.28	9.336
403.63	9.458
403.99	9.056
404.35	9.119
404.70	9.226
405.06	9.166
405.42	10.131
405.77	9.762
406.13	8.847
406.49	9.414
406.84	8.496
407.20	10.235
407.55	9.208
407.91	9.358
408.27	8.795
408.62	10.215
408.98	9.920
409.34	10.223
409.69	9.432
410.05	9.236
410.40	9.444
410.76	9.831
411.11	9.750
411.47	9.796
411.83	9.353
412.18	9.781
412.54	9.613
412.89	10.530
413.25	9.747
413.60	10.186
413.96	10.000
414.31	11.037
414.67	10.969
415.03	9.254
415.38	10.183
415.74	10.228
416.09	10.908
416.45	10.398
416.80	10.575
417.16	11.464
417.51	11.659
417.87	10.300
418.22	10.427
418.58	9.431
418.93	11.034
419.29	10.819
419.64	10.629
420.00	11.650
420.35	10.925
420.71	11.361
421.06	10.743
421.42	11.178
421.77	10.867
422.12	11.010
422.48	10.720
422.83	10.789
423.19	10.948
423.54	10.170
423.90	9.953
424.25	11.481
424.61	11.016
424.96	10.511
425.31	10.630
425.67	10.798
426.02	11.484
426.38	11.647
426.73	11.501
427.09	11.329
427.44	11.588
427.79	11.314
428.15	11.772
428.50	11.205
428.85	11.057
429.21	11.828
429.56	10.889
429.92	11.145
430.27	11.429
430.62	11.291
430.98	11.093
431.33	12.198
431.68	11.617
432.04	11.794
432.39	11.751
432.74	11.185
433.10	12.989
433.45	11.111
433.80	12.130
434.16	10.859
434.51	11.828
434.86	11.440
435.22	12.114
435.57	11.915
435.92	12.096
436.28	11.628
436.63	12.037
436.98	10.371
437.34	11.131
437.69	11.449
438.04	11.681
438.39	11.240
438.75	12.143
439.10	12.111
439.45	11.625
439.81	11.743
440.16	11.995
440.51	12.716
440.86	12.266
441.22	11.991
441.57	11.148
441.92	12.225
442.27	11.807
442.63	12.794
442.98	12.005
443.33	11.909
443.68	11.936
444.03	12.519
444.39	12.297
444.74	12.486
445.09	12.194
445.44	12.023
445.79	12.945
446.15	11.123
446.50	12.368
446.85	12.221
447.20	12.409
447.55	13.114
447.91	12.014
448.26	12.578
448.61	12.435
448.96	11.589
449.31	12.139
449.66	12.195
450.02	12.721
450.37	11.796
450.72	12.199
451.07	12.468
451.42	11.610
451.77	13.080
452.12	12.261
452.47	12.428
452.83	12.839
453.18	13.093
453.53	12.642
453.88	11.840
454.23	12.600
454.58	12.720
454.93	13.338
455.28	11.302
455.63	12.647
455.98	13.229
456.34	12.388
456.69	13.469
457.04	13.043
457.39	13.062
457.74	12.455
458.09	12.125
458.44	12.405
458.79	12.941
459.14	12.986
459.49	13.851
459.84	12.972
460.19	12.743
460.54	12.775
460.89	12.386
461.24	12.919
461.59	13.183
461.94	12.579
462.29	13.209
462.64	13.156
462.99	13.473
463.34	11.405
463.69	12.355
464.04	13.801
464.39	12.189
464.74	13.313
465.09	13.662
465.44	13.099
465.79	13.095
466.14	13.512
466.49	12.651
466.84	13.325
467.19	13.830
467.54	13.091
467.89	12.697
468.24	13.200
468.59	14.413
468.94	12.698
469.29	14.295
469.64	13.260
469.99	13.595
470.34	12.696
470.68	14.541
471.03	14.437
471.38	13.766
471.73	13.655
472.08	13.501
472.43	12.819
472.78	12.680
473.13	13.605
473.48	13.225
473.83	13.200
474.17	14.249
474.52	12.955
474.87	14.000
475.22	12.935
475.57	13.495
475.92	13.439
476.27	12.864
476.61	13.889
476.96	13.385
477.31	14.224
477.66	13.090
478.01	12.970
478.36	13.344
478.70	12.942
479.05	13.901
479.40	13.514
479.75	12.565
480.10	13.722
480.45	13.500
480.79	14.149
481.14	13.525
481.49	13.103
481.84	13.610
482.19	13.237
482.53	13.669
482.88	13.413
483.23	13.676
483.58	13.679
483.92	13.359
484.27	12.899
484.62	14.030
484.97	13.060
485.31	13.331
485.66	12.440
486.01	12.610
486.36	12.602
486.70	12.541
487.05	12.665
487.40	12.849
487.75	13.239
488.09	12.237
488.44	12.895
488.79	13.336
489.13	13.301
489.48	13.040
489.83	13.722
490.17	13.393
490.52	13.764
490.87	13.096
491.22	13.801
491.56	13.852
491.91	13.623
492.26	13.563
492.60	13.484
492.95	14.314
493.30	14.118
493.64	13.409
493.99	13.961
494.34	13.932
494.68	12.905
495.03	13.771
495.37	13.543
495.72	13.983
496.07	13.902
496.41	13.538
496.76	13.865
497.11	13.880
497.45	14.081
497.80	14.632
498.14	14.059
498.49	13.814
498.84	14.421
499.18	13.604
499.53	13.492
499.87	14.056
500.22	14.293
500.56	14.826
500.91	14.608
501.26	14.286
501.60	14.117
501.95	14.313
502.29	14.770
502.64	15.444
502.98	13.863
503.33	13.833
503.67	14.458
504.02	15.103
504.36	14.993
504.71	14.394
505.06	14.293
505.40	14.162
505.75	14.485
506.09	13.887
506.44	14.990
506.78	14.286
507.13	14.891
507.47	14.517
507.82	13.996
508.16	13.999
508.51	14.690
508.85	14.600
509.19	14.263
509.54	14.906
509.88	14.887
510.23	14.470
510.57	15.286
510.92	14.072
511.26	14.621
511.61	14.521
511.95	15.233
512.30	15.078
512.64	15.582
512.98	15.160
513.33	14.941
513.67	15.577
514.02	15.389
514.36	14.857
514.70	16.026
515.05	15.629
515.39	15.171
515.74	16.886
516.08	14.943
516.42	16.137
516.77	16.384
517.11	16.202
517.46	16.457
517.80	15.793
518.14	15.003
518.49	15.204
518.83	15.796
519.17	14.736
519.52	15.927
519.86	14.766
520.20	16.039
520.55	15.260
520.89	16.123
521.23	15.769
521.58	16.909
521.92	16.026
522.26	17.111
522.61	16.234
522.95	17.086
523.29	16.074
523.64	17.217
523.98	17.239
524.32	15.722
524.66	16.901
525.01	16.429
525.35	17.174
525.69	15.690
526.04	16.138
526.38	17.315
526.72	16.089
527.06	16.861
527.41	17.480
527.75	16.890
528.09	16.346
528.43	18.636
528.78	15.776
529.12	16.645
529.46	15.010
529.80	16.339
530.15	17.294
530.49	17.104
530.83	17.168
531.17	16.991
531.51	17.442
531.86	16.451
532.20	16.493
532.54	17.903
532.88	16.085
533.22	16.062
533.57	16.252
533.91	15.601
534.25	16.992
534.59	16.806
534.93	16.488
535.27	16.561
535.62	15.813
535.96	16.569
536.30	16.821
536.64	16.954
536.98	16.516
537.32	16.927
537.66	18.163
538.01	16.713
538.35	16.713
538.69	17.643
539.03	16.200
539.37	17.295
539.71	16.496
540.05	16.701
540.39	17.729
540.73	16.736
541.07	17.127
541.42	17.070
541.76	16.793
542.10	16.380
542.44	17.860
542.78	17.068
543.12	16.896
543.46	17.594
543.80	17.418
544.14	16.822
544.48	17.655
544.82	17.088
545.16	17.964
545.50	17.891
545.84	17.776
546.18	18.369
546.52	17.231
546.86	17.901
547.20	17.954
547.54	16.184
547.88	17.731
548.22	16.042
548.56	16.689
548.90	18.127
549.24	15.634
549.58	17.207
549.92	16.869
550.26	17.363
550.60	18.141
550.94	17.102
551.28	17.852
551.62	17.846
551.96	17.293
552.30	17.544
552.64	16.925
552.98	17.300
553.32	16.548
553.66	17.925
554.00	18.102
554.34	16.765
554.68	16.667
555.02	17.634
555.36	16.829
555.69	16.850
556.03	16.417
556.37	17.651
556.71	17.906
557.05	18.046
557.39	17.249
557.73	17.841
558.07	18.552
558.41	17.764
558.75	17.615
559.08	18.125
559.42	18.333
559.76	17.054
560.10	17.508
560.44	18.317
560.78	18.392
561.12	17.630
561.45	18.833
561.79	17.717
562.13	17.885
562.47	17.482
562.81	17.651
563.15	18.336
563.48	17.539
563.82	17.982
564.16	17.270
564.50	17.162
564.84	18.005
565.17	16.834
565.51	17.964
565.85	17.490
566.19	16.976
566.52	17.627
566.86	18.059
567.20	17.186
567.54	17.701
567.88	17.223
568.21	17.308
568.55	16.196
568.89	16.684
569.23	16.273
569.56	16.025
569.90	16.322
570.24	15.668
570.57	15.818
570.91	15.859
571.25	14.765
571.59	14.855
571.92	15.081
572.26	15.217
572.60	15.597
572.93	15.532
573.27	14.953
573.61	15.215
573.95	14.719
574.28	14.778
574.62	14.594
574.96	14.660
575.29	14.917
575.63	14.382
575.97	14.855
576.30	15.406
576.64	14.358
576.98	15.161
577.31	14.942
577.65	14.748
577.98	14.603
578.32	14.307
578.66	14.227
578.99	14.389
579.33	14.539
579.67	14.686
580.00	14.608
580.34	14.254
580.67	14.120
581.01	14.697
581.35	14.599
581.68	14.348
582.02	14.204
582.35	14.002
582.69	14.375
583.02	14.527
583.36	14.786
583.70	14.823
584.03	14.735
584.37	15.556
584.70	15.275
585.04	14.326
585.37	15.111
585.71	14.910
586.04	14.776
586.38	14.591
586.72	14.892
587.05	15.020
587.39	14.929
587.72	15.473
588.06	14.669
588.39	15.266
588.73	15.018
589.06	15.949
589.40	15.451
589.73	16.137
590.07	15.748
590.40	16.215
590.73	16.722
591.07	15.946
591.40	15.939
591.74	16.063
592.07	16.605
592.41	15.901
592.74	15.651
593.08	15.438
593.41	15.519
593.75	15.473
594.08	15.620
594.41	15.539
594.75	15.344
595.08	16.080
595.42	15.900
595.75	15.772
596.09	15.911
596.42	15.750
596.75	16.252
597.09	16.856
597.42	16.034
597.75	16.720
598.09	15.754
598.42	15.569
598.76	15.959
599.09	15.705
599.42	15.309
599.76	15.914
600.09	15.799
600.42	15.770
600.76	15.565
601.09	15.458
601.42	15.315
601.76	15.641
602.09	15.883
602.42	16.554
602.76	16.171
603.09	16.071
603.42	16.597
603.76	15.524
604.09	15.472
604.42	16.159
604.76	16.555
605.09	16.316
605.42	16.840
605.75	16.200
606.09	16.136
606.42	16.055
606.75	16.234
607.09	16.659
607.42	15.330
607.75	16.341
608.08	16.307
608.42	16.674
608.75	16.578
609.08	16.891
609.41	16.548
609.75	16.583
610.08	16.176
610.41	16.473
610.74	16.480
611.07	16.951
611.41	17.125
611.74	17.751
612.07	16.167
612.40	16.575
612.73	16.215
613.07	16.760
613.40	17.287
613.73	16.228
614.06	16.528
614.39	16.244
614.72	16.359
615.06	16.313
615.39	16.758
615.72	16.362
616.05	16.983
616.38	16.296
616.71	17.003
617.05	17.356
617.38	16.970
617.71	17.044
618.04	17.651
618.37	17.844
618.70	17.954
619.03	19.167
619.36	17.221
619.69	18.726
620.03	18.846
620.36	17.811
620.69	18.701
621.02	17.661
621.35	19.253
621.68	18.112
622.01	17.583
622.34	19.393
622.67	18.612
623.00	18.147
623.33	17.378
623.66	20.120
623.99	17.776
624.32	17.338
624.65	17.744
624.99	17.908
625.32	18.120
625.65	18.617
625.98	19.017
626.31	18.537
626.64	19.151
626.97	19.895
627.30	19.002
627.63	19.757
627.96	19.317
628.29	20.074
628.62	20.452
628.95	20.641
629.28	20.262
629.61	19.940
629.94	21.114
630.26	18.577
630.59	22.060
630.92	20.000
631.25	18.769
631.58	21.366
631.91	19.298
632.24	19.839
632.57	21.818
632.90	21.471
633.23	20.824
633.56	21.285
633.89	19.605
634.22	22.963
634.55	21.093
634.88	18.135
635.20	21.154
635.53	21.200
635.86	20.546
636.19	22.510
636.52	20.918
636.85	22.581
637.18	20.755
637.51	19.874
637.83	20.368
638.16	23.329
638.49	21.390
638.82	22.237
639.15	21.167
639.48	21.458
639.81	21.339
640.13	21.356
640.46	21.283
640.79	22.975
641.12	21.418
641.45	20.420
641.77	22.370
642.10	23.697
642.43	20.900
642.76	22.772
643.09	21.325
643.41	21.521
