SpectraSuite Data File
++++++++++++++++++++++++++++++++++++
Date: Fri May 15 17:29:42 PDT 2015
User: schluterlab
Dark Spectrum Present: Yes
Reference Spectrum Present: Yes
Number of Sampled Component Spectra: 1
Spectrometers: USB2E3373
Integration Time (usec): 3000 (USB2E3373)
Spectra Averaged: 3 (USB2E3373)
Boxcar Smoothing: 0 (USB2E3373)
Correct for Electrical Dark: No (USB2E3373)
Strobe/Lamp Enabled: No (USB2E3373)
Correct for Detector Non-linearity: No (USB2E3373)
Correct for Stray Light: No (USB2E3373)
Number of Pixels in Processed Spectrum: 2048
>>>>>Begin Processed Spectral Data<<<<<
178.53	0.000
178.91	0.000
179.29	137.500
179.67	-150.000
180.04	-28.571
180.42	150.000
180.80	-1100.000
181.18	-133.333
181.56	600.000
181.94	100.000
182.31	1100.000
182.69	100.000
183.07	-33.333
183.45	-60.000
183.83	33.333
184.20	9.091
184.58	77.778
184.96	-0.000
185.34	166.667
185.72	-200.000
186.09	53.846
186.47	-600.000
186.85	133.333
187.23	33.333
187.61	100.000
187.98	-400.000
188.36	-33.333
188.74	100.000
189.12	70.588
189.49	55.556
189.87	0.000
190.25	100.000
190.63	-200.000
191.00	-100.000
191.38	21.053
191.76	500.000
192.14	50.000
192.51	-150.000
192.89	0.000
193.27	-42.857
193.65	133.333
194.02	109.091
194.40	-50.000
194.78	-62.500
195.15	33.333
195.53	-25.000
195.91	125.000
196.29	-200.000
196.66	107.692
197.04	200.000
197.42	-33.333
197.79	-466.667
198.17	-53.846
198.55	1300.000
198.92	-200.000
199.30	-500.000
199.68	-100.000
200.05	-433.333
200.43	0.000
200.81	-100.000
201.18	-33.333
201.56	-0.000
201.94	-300.000
202.31	-166.667
202.69	0.000
203.07	-0.000
203.44	200.000
203.82	0.000
204.19	57.143
204.57	-133.333
204.95	-50.000
205.32	50.000
205.70	28.571
206.08	-150.000
206.45	155.556
206.83	142.857
207.20	0.000
207.58	600.000
207.96	-300.000
208.33	-60.000
208.71	-175.000
209.08	-200.000
209.46	-300.000
209.84	20.000
210.21	-300.000
210.59	85.714
210.96	66.667
211.34	25.000
211.71	113.333
212.09	-100.000
212.46	-900.000
212.84	0.000
213.22	190.000
213.59	900.000
213.97	46.154
214.34	63.636
214.72	0.000
215.09	200.000
215.47	-7.692
215.84	27.273
216.22	200.000
216.59	37.500
216.97	500.000
217.34	125.000
217.72	-80.000
218.09	37.500
218.47	162.500
218.84	100.000
219.22	22.222
219.59	-80.000
219.97	233.333
220.34	100.000
220.72	0.000
221.09	-100.000
221.47	250.000
221.84	-100.000
222.22	-500.000
222.59	54.545
222.97	75.000
223.34	-133.333
223.72	50.000
224.09	57.143
224.46	-3.571
224.84	233.333
225.21	40.000
225.59	40.000
225.96	100.000
226.34	125.000
226.71	-28.571
227.08	116.667
227.46	-25.000
227.83	-200.000
228.21	22.222
228.58	127.273
228.95	37.500
229.33	40.000
229.70	-6.250
230.08	-100.000
230.45	-85.714
230.82	100.000
231.20	40.000
231.57	92.857
231.95	71.429
232.32	-80.000
232.69	35.714
233.07	233.333
233.44	20.000
233.81	0.000
234.19	-33.333
234.56	-11.765
234.93	250.000
235.31	25.000
235.68	-100.000
236.05	7.692
236.43	-35.000
236.80	23.529
237.17	34.375
237.55	-5.000
237.92	25.926
238.29	11.111
238.67	16.667
239.04	17.647
239.41	-4.878
239.79	-26.667
240.16	24.390
240.53	13.158
240.91	2.174
241.28	11.111
241.65	28.571
242.02	42.466
242.40	23.333
242.77	15.254
243.14	30.303
243.51	13.750
243.89	19.540
244.26	13.793
244.63	28.571
245.00	31.959
245.38	15.464
245.75	13.483
246.12	22.414
246.49	14.876
246.87	23.077
247.24	19.328
247.61	17.544
247.98	24.390
248.36	15.000
248.73	13.158
249.10	21.429
249.47	20.886
249.84	17.647
250.22	17.647
250.59	22.876
250.96	20.657
251.33	9.884
251.70	22.353
252.08	16.751
252.45	19.307
252.82	24.121
253.19	19.816
253.56	16.355
253.94	23.874
254.31	22.174
254.68	25.877
255.05	15.354
255.42	20.087
255.79	20.849
256.16	17.510
256.54	17.537
256.91	17.110
257.28	18.587
257.65	15.730
258.02	20.922
258.39	21.886
258.76	21.612
259.14	21.262
259.51	20.065
259.88	18.213
260.25	17.974
260.62	20.486
260.99	17.966
261.36	17.808
261.73	17.405
262.10	23.100
262.47	16.258
262.85	20.063
263.22	18.769
263.59	22.741
263.96	22.981
264.33	16.970
264.70	18.452
265.07	22.321
265.44	24.929
265.81	20.339
266.18	19.126
266.55	21.851
266.92	20.984
267.29	21.671
267.66	19.182
268.03	20.942
268.40	19.321
268.77	20.856
269.14	17.506
269.51	21.594
269.88	16.209
270.25	17.092
270.62	16.341
270.99	16.880
271.36	21.027
271.73	19.014
272.10	16.788
272.47	19.149
272.84	18.564
273.21	19.954
273.58	17.590
273.95	18.993
274.32	16.397
274.69	16.968
275.06	20.089
275.43	15.873
275.80	19.426
276.17	18.161
276.54	18.844
276.91	22.368
277.28	16.812
277.65	18.388
278.02	18.085
278.39	19.037
278.76	16.981
279.13	15.145
279.50	20.378
279.87	17.711
280.23	14.624
280.60	18.908
280.97	21.010
281.34	16.346
281.71	18.480
282.08	16.973
282.45	17.025
282.82	18.533
283.19	16.828
283.56	17.919
283.92	15.370
284.29	17.885
284.66	16.667
285.03	17.878
285.40	17.391
285.77	13.884
286.14	16.426
286.51	15.867
286.87	15.905
287.24	17.864
287.61	17.108
287.98	17.018
288.35	14.385
288.72	16.112
289.08	16.840
289.45	18.453
289.82	18.182
290.19	16.894
290.56	14.408
290.93	16.667
291.29	13.867
291.66	16.378
292.03	15.630
292.40	15.806
292.77	13.238
293.13	13.961
293.50	13.202
293.87	14.504
294.24	15.611
294.60	14.158
294.97	13.095
295.34	15.031
295.71	13.115
296.08	13.453
296.44	11.807
296.81	13.889
297.18	13.623
297.55	15.176
297.91	14.795
298.28	14.512
298.65	13.026
299.02	12.534
299.38	11.218
299.75	12.414
300.12	12.173
300.48	12.780
300.85	12.674
301.22	12.727
301.59	13.421
301.95	12.911
302.32	11.933
302.69	12.438
303.05	13.738
303.42	12.951
303.79	12.500
304.15	12.903
304.52	10.464
304.89	11.462
305.25	11.864
305.62	10.385
305.99	11.930
306.35	11.098
306.72	10.461
307.09	11.745
307.45	11.137
307.82	10.532
308.19	12.427
308.55	11.123
308.92	12.527
309.29	10.056
309.65	10.118
310.02	11.221
310.38	11.855
310.75	11.803
311.12	10.980
311.48	11.453
311.85	11.728
312.22	9.494
312.58	10.934
312.95	10.459
313.31	11.180
313.68	11.309
314.05	10.714
314.41	12.268
314.78	11.031
315.14	11.408
315.51	12.526
315.87	10.348
316.24	11.931
316.61	10.236
316.97	11.905
317.34	11.230
317.70	11.950
318.07	10.192
318.43	10.588
318.80	9.943
319.16	12.012
319.53	12.915
319.89	11.713
320.26	12.045
320.62	12.437
320.99	10.125
321.35	12.230
321.72	13.396
322.08	13.192
322.45	13.096
322.81	13.065
323.18	13.445
323.54	13.224
323.91	13.048
324.27	14.062
324.64	14.607
325.00	14.051
325.37	16.162
325.73	14.143
326.10	16.167
326.46	16.951
326.83	15.923
327.19	16.216
327.56	17.116
327.92	18.838
328.29	18.571
328.65	18.868
329.01	19.026
329.38	18.986
329.74	20.585
330.11	20.667
330.47	20.594
330.84	21.058
331.20	24.240
331.56	23.148
331.93	24.110
332.29	24.198
332.66	23.439
333.02	24.257
333.38	24.931
333.75	26.374
334.11	25.336
334.48	27.017
334.84	27.015
335.20	25.709
335.57	26.292
335.93	26.468
336.29	28.269
336.66	27.157
337.02	27.416
337.38	26.944
337.75	29.273
338.11	29.757
338.47	30.566
338.84	29.667
339.20	29.982
339.56	30.275
339.93	29.454
340.29	30.275
340.65	30.018
341.02	30.585
341.38	28.230
341.74	29.064
342.11	29.549
342.47	30.338
342.83	31.661
343.20	29.878
343.56	30.348
343.92	31.887
344.28	30.914
344.65	31.952
345.01	31.288
345.37	31.119
345.73	31.130
346.10	31.924
346.46	31.960
346.82	31.669
347.19	31.505
347.55	32.665
347.91	31.149
348.27	31.609
348.63	33.475
349.00	31.419
349.36	31.338
349.72	32.836
350.08	33.115
350.45	33.839
350.81	32.973
351.17	32.248
351.53	33.714
351.89	32.783
352.26	32.080
352.62	33.387
352.98	33.414
353.34	32.528
353.70	33.172
354.07	34.032
354.43	33.387
354.79	34.434
355.15	33.651
355.51	35.364
355.87	33.172
356.24	33.279
356.60	34.681
356.96	35.317
357.32	34.744
357.68	34.480
358.04	33.926
358.40	35.772
358.77	34.370
359.13	36.269
359.49	34.515
359.85	34.321
360.21	34.450
360.57	34.736
360.93	35.779
361.29	35.121
361.66	36.677
362.02	36.439
362.38	35.415
362.74	36.790
363.10	36.945
363.46	36.323
363.82	36.890
364.18	36.089
364.54	34.853
364.90	37.706
365.26	37.627
365.62	36.934
365.98	37.170
366.35	37.946
366.71	38.211
367.07	38.171
367.43	36.880
367.79	37.385
368.15	36.468
368.51	38.529
368.87	36.971
369.23	37.906
369.59	39.286
369.95	39.516
370.31	39.234
370.67	39.403
371.03	39.806
371.39	39.533
371.75	39.634
372.11	39.087
372.47	39.941
372.83	40.170
373.19	39.301
373.55	39.783
373.91	39.525
374.27	40.751
374.63	40.991
374.99	40.709
375.35	40.738
375.71	42.098
376.07	41.784
376.42	41.905
376.78	41.879
377.14	40.623
377.50	42.098
377.86	42.369
378.22	41.161
378.58	42.821
378.94	41.714
379.30	43.169
379.66	43.824
380.02	42.673
380.38	43.335
380.74	43.148
381.09	44.233
381.45	43.119
381.81	43.553
382.17	42.893
382.53	45.034
382.89	44.696
383.25	44.555
383.61	45.061
383.97	44.381
384.32	44.403
384.68	43.034
385.04	43.995
385.40	43.497
385.76	46.164
386.12	45.731
386.48	46.424
386.83	45.529
387.19	44.811
387.55	46.612
387.91	45.110
388.27	45.238
388.62	46.885
388.98	46.102
389.34	46.471
389.70	46.302
390.06	44.871
390.42	46.762
390.77	47.155
391.13	46.974
391.49	46.184
391.85	47.693
392.20	48.023
392.56	47.107
392.92	47.093
393.28	45.873
393.64	47.027
393.99	48.213
394.35	47.375
394.71	46.999
395.07	46.763
395.42	45.841
395.78	47.687
396.14	46.469
396.50	47.559
396.85	48.036
397.21	47.431
397.57	46.646
397.92	47.873
398.28	47.414
398.64	46.928
399.00	47.968
399.35	45.993
399.71	46.755
400.07	47.158
400.42	47.613
400.78	47.336
401.14	46.703
401.49	47.528
401.85	46.374
402.21	46.506
402.57	47.875
402.92	46.110
403.28	46.429
403.63	46.974
403.99	47.321
404.35	47.283
404.70	45.774
405.06	46.005
405.42	46.178
405.77	45.671
406.13	47.031
406.49	45.885
406.84	46.149
407.20	47.261
407.55	45.911
407.91	45.187
408.27	45.889
408.62	45.169
408.98	45.348
409.34	46.035
409.69	45.930
410.05	45.320
410.40	46.111
410.76	45.296
411.11	46.312
411.47	45.957
411.83	45.951
412.18	46.911
412.54	45.693
412.89	44.581
413.25	46.270
413.60	45.466
413.96	46.012
414.31	45.183
414.67	44.965
415.03	44.874
415.38	45.561
415.74	46.645
416.09	46.114
416.45	45.240
416.80	45.737
417.16	46.685
417.51	45.503
417.87	45.763
418.22	47.150
418.58	47.559
418.93	47.900
419.29	45.070
419.64	45.625
420.00	47.481
420.35	46.687
420.71	47.509
421.06	46.839
421.42	47.897
421.77	47.457
422.12	46.538
422.48	47.537
422.83	46.462
423.19	47.968
423.54	46.502
423.90	47.880
424.25	47.876
424.61	48.286
424.96	47.445
425.31	49.567
425.67	49.589
426.02	49.529
426.38	48.466
426.73	49.274
427.09	48.797
427.44	49.765
427.79	49.617
428.15	49.939
428.50	49.546
428.85	49.017
429.21	49.123
429.56	51.051
429.92	51.002
430.27	49.875
430.62	49.712
430.98	50.690
431.33	50.053
431.68	49.660
432.04	50.811
432.39	48.774
432.74	49.248
433.10	51.264
433.45	49.582
433.80	52.583
434.16	50.416
434.51	51.398
434.86	51.684
435.22	51.262
435.57	51.778
435.92	51.497
436.28	52.355
436.63	51.169
436.98	51.333
437.34	51.724
437.69	51.580
438.04	51.453
438.39	51.619
438.75	52.155
439.10	51.104
439.45	52.769
439.81	51.988
440.16	52.910
440.51	52.657
440.86	53.716
441.22	53.111
441.57	53.311
441.92	54.040
442.27	54.989
442.63	53.212
442.98	52.613
443.33	52.532
443.68	52.891
444.03	53.154
444.39	53.910
444.74	54.348
445.09	53.396
445.44	53.846
445.79	54.564
446.15	51.101
446.50	52.246
446.85	53.879
447.20	53.962
447.55	52.846
447.91	53.299
448.26	53.386
448.61	53.195
448.96	52.610
449.31	52.890
449.66	53.194
450.02	53.394
450.37	53.764
450.72	52.005
451.07	53.671
451.42	52.247
451.77	52.381
452.12	51.914
452.47	52.737
452.83	53.710
453.18	52.562
453.53	52.845
453.88	53.188
454.23	54.272
454.58	53.463
454.93	53.866
455.28	52.825
455.63	52.449
455.98	53.397
456.34	54.342
456.69	53.050
457.04	55.009
457.39	52.673
457.74	53.930
458.09	52.972
458.44	52.896
458.79	52.213
459.14	52.059
459.49	52.836
459.84	52.566
460.19	52.913
460.54	54.340
460.89	53.352
461.24	53.292
461.59	52.613
461.94	51.950
462.29	52.714
462.64	52.757
462.99	52.404
463.34	52.851
463.69	51.866
464.04	54.177
464.39	51.243
464.74	53.436
465.09	53.712
465.44	52.626
465.79	53.175
466.14	52.338
466.49	52.386
466.84	53.242
467.19	52.753
467.54	51.724
467.89	52.432
468.24	52.129
468.59	52.190
468.94	51.365
469.29	51.869
469.64	51.196
469.99	52.278
470.34	50.239
470.68	52.796
471.03	51.734
471.38	51.926
471.73	50.560
472.08	50.882
472.43	50.470
472.78	50.377
473.13	50.476
473.48	50.293
473.83	50.436
474.17	52.461
474.52	51.946
474.87	50.727
475.22	51.678
475.57	51.383
475.92	52.386
476.27	51.688
476.61	52.141
476.96	49.861
477.31	50.730
477.66	50.449
478.01	50.533
478.36	50.436
478.70	51.767
479.05	50.330
479.40	50.715
479.75	50.574
480.10	51.357
480.45	51.950
480.79	50.755
481.14	50.922
481.49	49.754
481.84	51.544
482.19	51.356
482.53	51.319
482.88	49.642
483.23	50.768
483.58	49.151
483.92	49.758
484.27	50.000
484.62	49.036
484.97	50.000
485.31	51.048
485.66	53.009
486.01	54.292
486.36	54.365
486.70	53.964
487.05	53.250
487.40	52.404
487.75	51.408
488.09	50.155
488.44	49.759
488.79	48.935
489.13	50.561
489.48	49.423
489.83	49.731
490.17	47.775
490.52	48.637
490.87	48.218
491.22	48.615
491.56	48.909
491.91	48.518
492.26	49.344
492.60	48.560
492.95	49.680
493.30	48.217
493.64	49.558
493.99	49.275
494.34	48.155
494.68	50.000
495.03	48.759
495.37	48.675
495.72	49.419
496.07	49.366
496.41	49.009
496.76	48.733
497.11	47.788
497.45	48.974
497.80	48.890
498.14	47.640
498.49	48.502
498.84	48.403
499.18	48.444
499.53	48.115
499.87	48.492
500.22	48.912
500.56	48.512
500.91	48.594
501.26	48.690
501.60	48.549
501.95	49.199
502.29	47.990
502.64	49.517
502.98	49.285
503.33	47.791
503.67	48.482
504.02	48.680
504.36	48.194
504.71	47.071
505.06	48.666
505.40	48.173
505.75	49.948
506.09	48.302
506.44	49.281
506.78	48.878
507.13	48.914
507.47	47.311
507.82	47.009
508.16	47.808
508.51	49.423
508.85	48.980
509.19	47.951
509.54	47.989
509.88	47.033
510.23	48.575
510.57	48.316
510.92	46.962
511.26	47.572
511.61	48.790
511.95	48.164
512.30	48.448
512.64	47.357
512.98	46.828
513.33	47.622
513.67	47.356
514.02	48.799
514.36	48.686
514.70	48.077
515.05	48.942
515.39	47.344
515.74	48.563
516.08	48.775
516.42	48.645
516.77	48.040
517.11	48.843
517.46	47.935
517.80	47.378
518.14	48.500
518.49	46.755
518.83	47.205
519.17	47.483
519.52	47.306
519.86	46.879
520.20	47.691
520.55	46.842
520.89	47.804
521.23	46.865
521.58	47.192
521.92	47.115
522.26	47.625
522.61	47.403
522.95	49.139
523.29	46.887
523.64	47.078
523.98	48.023
524.32	46.714
524.66	48.079
525.01	47.922
525.35	46.273
525.69	47.071
526.04	47.222
526.38	48.379
526.72	47.155
527.06	47.082
527.41	47.757
527.75	47.051
528.09	46.977
528.43	47.468
528.78	47.723
529.12	47.419
529.46	48.213
529.80	46.612
530.15	48.053
530.49	47.205
530.83	47.059
531.17	47.011
531.51	48.358
531.86	47.383
532.20	46.347
532.54	47.651
532.88	46.954
533.22	48.320
533.57	48.886
533.91	48.956
534.25	48.958
534.59	48.428
534.93	47.011
535.27	48.096
535.62	47.570
535.96	48.337
536.30	48.549
536.64	48.656
536.98	47.317
537.32	49.573
537.66	47.966
538.01	48.671
538.35	48.474
538.69	48.202
539.03	47.505
539.37	48.856
539.71	48.398
540.05	48.608
540.39	50.000
540.73	48.954
541.07	48.964
541.42	48.253
541.76	50.516
542.10	49.071
542.44	47.464
542.78	47.281
543.12	48.695
543.46	48.957
543.80	48.647
544.14	48.865
544.48	49.300
544.82	49.419
545.16	50.137
545.50	48.732
545.84	50.637
546.18	49.929
546.52	49.099
546.86	49.676
547.20	50.644
547.54	48.339
547.88	49.524
548.22	48.455
548.56	49.340
548.90	49.798
549.24	48.623
549.58	48.378
549.92	48.821
550.26	48.718
550.60	48.178
550.94	49.365
551.28	49.304
551.62	49.308
551.96	49.925
552.30	49.050
552.64	49.154
552.98	49.930
553.32	49.501
553.66	48.621
554.00	51.752
554.34	50.739
554.68	48.304
555.02	48.586
555.36	50.112
555.69	48.059
556.03	49.536
556.37	49.466
556.71	49.170
557.05	49.142
557.39	47.658
557.73	49.100
558.07	50.000
558.41	49.617
558.75	49.104
559.08	48.148
559.42	48.095
559.76	49.560
560.10	49.235
560.44	49.665
560.78	49.650
561.12	51.058
561.45	51.089
561.79	49.510
562.13	50.461
562.47	49.784
562.81	49.856
563.15	49.647
563.48	50.849
563.82	51.887
564.16	51.811
564.50	50.608
564.84	50.268
565.17	50.905
565.51	54.098
565.85	52.263
566.19	53.249
566.52	53.016
566.86	52.185
567.20	53.549
567.54	54.075
567.88	54.599
568.21	55.090
568.55	54.837
568.89	54.979
569.23	55.128
569.56	56.524
569.90	56.598
570.24	57.239
570.57	58.727
570.91	58.313
571.25	57.941
571.59	58.113
571.92	56.652
572.26	57.639
572.60	57.023
572.93	56.417
573.27	56.897
573.61	57.458
573.95	57.946
574.28	57.760
574.62	58.225
574.96	58.065
575.29	57.774
575.63	56.051
575.97	56.303
576.30	57.858
576.64	57.934
576.98	58.662
577.31	59.105
577.65	59.977
577.98	59.679
578.32	59.145
578.66	58.693
578.99	58.142
579.33	57.257
579.67	58.012
580.00	58.177
580.34	59.055
580.67	58.383
581.01	59.534
581.35	59.819
581.68	60.500
582.02	60.837
582.35	61.096
582.69	60.090
583.02	59.325
583.36	59.759
583.70	59.579
584.03	59.327
584.37	59.712
584.70	59.011
585.04	58.523
585.37	59.754
585.71	60.602
586.04	60.136
586.38	59.536
586.72	60.230
587.05	60.572
587.39	60.749
587.72	61.290
588.06	60.338
588.39	59.841
588.73	60.348
589.06	60.404
589.40	59.143
589.73	59.693
590.07	59.781
590.40	59.094
590.73	58.896
591.07	59.075
591.40	59.172
591.74	59.005
592.07	59.740
592.41	60.027
592.74	60.255
593.08	60.461
593.41	61.384
593.75	61.204
594.08	60.796
594.41	60.408
594.75	60.038
595.08	59.970
595.42	60.986
595.75	60.683
596.09	60.438
596.42	60.149
596.75	59.858
597.09	58.907
597.42	59.485
597.75	60.742
598.09	58.850
598.42	58.664
598.76	60.403
599.09	60.737
599.42	59.909
599.76	60.120
600.09	60.973
600.42	60.614
600.76	61.330
601.09	61.031
601.42	60.360
601.76	61.374
602.09	60.479
602.42	61.500
602.76	61.078
603.09	61.669
603.42	63.545
603.76	62.339
604.09	61.442
604.42	61.506
604.76	61.148
605.09	60.603
605.42	61.219
605.75	61.690
606.09	61.401
606.42	61.218
606.75	61.429
607.09	61.582
607.42	60.744
607.75	60.258
608.08	60.243
608.42	58.794
608.75	61.687
609.08	61.335
609.41	61.066
609.75	60.433
610.08	61.358
610.41	61.932
610.74	61.580
611.07	61.292
611.41	61.183
611.74	62.900
612.07	60.546
612.40	60.339
612.73	61.921
613.07	60.405
613.40	60.503
613.73	60.884
614.06	61.491
614.39	61.816
614.72	60.504
615.06	61.397
615.39	59.607
615.72	60.388
616.05	62.849
616.38	59.373
616.71	60.367
617.05	62.137
617.38	59.962
617.71	61.447
618.04	62.540
618.37	61.097
618.70	60.528
619.03	60.625
619.36	57.236
619.69	60.576
620.03	59.752
620.36	60.086
620.69	61.313
621.02	57.722
621.35	58.340
621.68	58.333
622.01	59.667
622.34	58.500
622.67	58.202
623.00	58.959
623.33	60.823
623.66	59.013
623.99	60.061
624.32	59.848
624.65	60.150
624.99	60.722
625.32	59.439
625.65	60.880
625.98	60.677
626.31	59.268
626.64	57.712
626.97	60.646
627.30	59.895
627.63	58.925
627.96	58.131
628.29	57.724
628.62	57.620
628.95	57.515
629.28	57.460
629.61	57.827
629.94	57.869
630.26	57.609
630.59	61.186
630.92	58.974
631.25	56.000
631.58	57.709
631.91	56.798
632.24	56.881
632.57	56.023
632.90	55.042
633.23	55.647
633.56	57.431
633.89	54.871
