SpectraSuite Data File
++++++++++++++++++++++++++++++++++++
Date: Fri May 15 20:16:47 PDT 2015
User: schluterlab
Dark Spectrum Present: Yes
Reference Spectrum Present: Yes
Number of Sampled Component Spectra: 1
Spectrometers: USB2E3373
Integration Time (usec): 3000 (USB2E3373)
Spectra Averaged: 3 (USB2E3373)
Boxcar Smoothing: 0 (USB2E3373)
Correct for Electrical Dark: No (USB2E3373)
Strobe/Lamp Enabled: No (USB2E3373)
Correct for Detector Non-linearity: No (USB2E3373)
Correct for Stray Light: No (USB2E3373)
Number of Pixels in Processed Spectrum: 2048
>>>>>Begin Processed Spectral Data<<<<<
178.53	0.000
178.91	0.000
179.29	-75.000
179.67	-800.000
180.04	-57.143
180.42	50.000
180.80	200.000
181.18	66.667
181.56	550.000
181.94	-150.000
182.31	-100.000
182.69	-240.000
183.07	-133.333
183.45	-40.000
183.83	216.667
184.20	0.000
184.58	100.000
184.96	-350.000
185.34	133.333
185.72	-250.000
186.09	46.154
186.47	-100.000
186.85	133.333
187.23	100.000
187.61	-300.000
187.98	-200.000
188.36	66.667
188.74	-366.667
189.12	47.059
189.49	55.556
189.87	0.000
190.25	50.000
190.63	-350.000
191.00	-500.000
191.38	36.842
191.76	250.000
192.14	350.000
192.51	250.000
192.89	-111.111
193.27	28.571
193.65	166.667
194.02	127.273
194.40	110.000
194.78	-275.000
195.15	50.000
195.53	-200.000
195.91	250.000
196.29	100.000
196.66	46.154
197.04	300.000
197.42	-66.667
197.79	-466.667
198.17	-100.000
198.55	1000.000
198.92	-133.333
199.30	-1000.000
199.68	-60.000
200.05	-533.333
200.43	0.000
200.81	-100.000
201.18	-200.000
201.56	1200.000
201.94	100.000
202.31	-66.667
202.69	-80.000
203.07	150.000
203.44	300.000
203.82	0.000
204.19	28.571
204.57	-200.000
204.95	125.000
205.32	60.000
205.70	14.286
206.08	-50.000
206.45	155.556
206.83	50.000
207.20	-142.857
207.58	800.000
207.96	-266.667
208.33	-80.000
208.71	-300.000
209.08	-66.667
209.46	-100.000
209.84	-60.000
210.21	-900.000
210.59	-42.857
210.96	-66.667
211.34	25.000
211.71	-26.667
212.09	-171.429
212.46	-1100.000
212.84	0.000
213.22	30.000
213.59	300.000
213.97	7.692
214.34	18.182
214.72	-100.000
215.09	350.000
215.47	-46.154
215.84	0.000
216.22	-300.000
216.59	-62.500
216.97	-550.000
217.34	-200.000
217.72	-240.000
218.09	0.000
218.47	125.000
218.84	-1100.000
219.22	33.333
219.59	60.000
219.97	366.667
220.34	200.000
220.72	-85.714
221.09	-225.000
221.47	150.000
221.84	100.000
222.22	-1050.000
222.59	9.091
222.97	-8.333
223.34	-100.000
223.72	-14.286
224.09	0.000
224.46	-7.143
224.84	666.667
225.21	20.000
225.59	6.667
225.96	-550.000
226.34	300.000
226.71	-100.000
227.08	-16.667
227.46	-62.500
227.83	-300.000
228.21	-88.889
228.58	18.182
228.95	-37.500
229.33	50.000
229.70	-56.250
230.08	-62.500
230.45	-28.571
230.82	71.429
231.20	-6.667
231.57	21.429
231.95	85.714
232.32	-50.000
232.69	21.429
233.07	0.000
233.44	-120.000
233.81	-130.000
234.19	66.667
234.56	-58.824
234.93	500.000
235.31	50.000
235.68	-20.000
236.05	-30.769
236.43	-15.000
236.80	23.529
237.17	9.375
237.55	20.000
237.92	22.222
238.29	-8.333
238.67	0.000
239.04	11.765
239.41	-26.829
239.79	-36.667
240.16	17.073
240.53	0.000
240.91	-15.217
241.28	9.524
241.65	16.071
242.02	13.699
242.40	6.667
242.77	10.169
243.14	6.061
243.51	1.250
243.89	29.885
244.26	14.943
244.63	11.905
245.00	5.155
245.38	12.371
245.75	6.742
246.12	2.586
246.49	10.744
246.87	19.231
247.24	13.445
247.61	15.789
247.98	13.821
248.36	15.000
248.73	11.184
249.10	14.935
249.47	13.924
249.84	15.033
250.22	14.118
250.59	16.993
250.96	18.310
251.33	11.628
251.70	14.118
252.08	19.797
252.45	19.802
252.82	15.075
253.19	18.433
253.56	15.888
253.94	19.820
254.31	19.565
254.68	19.737
255.05	21.654
255.42	22.271
255.79	19.691
256.16	16.732
256.54	19.030
256.91	17.871
257.28	16.357
257.65	16.854
258.02	18.085
258.39	17.845
258.76	18.681
259.14	17.276
259.51	16.828
259.88	15.808
260.25	16.013
260.62	20.486
260.99	16.271
261.36	20.205
261.73	15.823
262.10	19.757
262.47	14.724
262.85	18.495
263.22	16.000
263.59	17.134
263.96	20.807
264.33	16.061
264.70	16.369
265.07	18.155
265.44	15.864
265.81	14.972
266.18	18.033
266.55	19.023
266.92	21.244
267.29	20.104
267.66	17.391
268.03	19.110
268.40	18.277
268.77	21.123
269.14	20.144
269.51	17.738
269.88	20.698
270.25	16.582
270.62	16.341
270.99	17.136
271.36	16.870
271.73	18.075
272.10	17.275
272.47	20.804
272.84	18.317
273.21	18.561
273.58	19.036
273.95	18.307
274.32	16.628
274.69	15.611
275.06	19.866
275.43	19.274
275.80	19.868
276.17	17.471
276.54	17.987
276.91	17.763
277.28	18.559
277.65	19.835
278.02	19.149
278.39	17.287
278.76	20.545
279.13	14.730
279.50	16.387
279.87	20.086
280.23	17.849
280.60	18.129
280.97	19.192
281.34	17.500
281.71	21.355
282.08	19.836
282.45	16.047
282.82	16.023
283.19	18.569
283.56	17.341
283.92	17.647
284.29	16.346
284.66	16.085
285.03	15.128
285.40	17.013
285.77	16.872
286.14	17.690
286.51	18.819
286.87	17.733
287.24	15.285
287.61	16.931
287.98	17.544
288.35	15.598
288.72	16.813
289.08	15.972
289.45	15.993
289.82	18.182
290.19	15.358
290.56	14.923
290.93	14.815
291.29	14.638
291.66	15.906
292.03	14.673
292.40	14.516
292.77	14.035
293.13	13.312
293.50	14.416
293.87	13.893
294.24	13.601
294.60	15.201
294.97	14.881
295.34	12.883
295.71	11.923
296.08	14.200
296.44	11.807
296.81	13.889
297.18	13.188
297.55	13.821
297.91	14.658
298.28	13.456
298.65	12.619
299.02	13.612
299.38	12.038
299.75	13.103
300.12	12.173
300.48	12.516
300.85	13.688
301.22	13.636
301.59	12.632
301.95	14.557
302.32	13.230
302.69	12.687
303.05	11.634
303.42	13.076
303.79	13.084
304.15	12.784
304.52	12.366
304.89	11.696
305.25	12.470
305.62	11.085
305.99	11.228
306.35	11.445
306.72	11.136
307.09	12.885
307.45	10.907
307.82	11.111
308.19	12.776
308.55	11.668
308.92	12.636
309.29	12.067
309.65	11.302
310.02	10.231
310.38	11.416
310.75	11.257
311.12	10.764
311.48	10.923
311.85	11.099
312.22	12.236
312.58	10.828
312.95	10.459
313.31	10.973
313.68	11.309
314.05	10.408
314.41	11.031
314.78	12.165
315.14	11.614
315.51	11.698
315.87	11.066
316.24	11.830
316.61	11.909
316.97	11.310
317.34	10.742
317.70	11.185
318.07	11.058
318.43	10.686
318.80	11.080
319.16	11.816
319.53	11.206
319.89	11.319
320.26	11.235
320.62	12.337
320.99	11.587
321.35	10.689
321.72	10.592
322.08	11.380
322.45	11.777
322.81	12.181
323.18	10.304
323.54	10.521
323.91	10.906
324.27	10.254
324.64	11.610
325.00	11.496
325.37	12.213
325.73	11.151
326.10	11.353
326.46	11.570
326.83	11.899
327.19	10.811
327.56	10.773
327.92	12.588
328.29	9.732
328.65	10.943
329.01	11.397
329.38	11.336
329.74	11.048
330.11	11.956
330.47	11.781
330.84	10.385
331.20	12.167
331.56	10.648
331.93	11.507
332.29	12.374
332.66	11.584
333.02	11.431
333.38	9.624
333.75	10.714
334.11	10.564
334.48	11.695
334.84	12.179
335.20	11.802
335.57	11.061
335.93	10.840
336.29	11.602
336.66	10.808
337.02	10.688
337.38	11.204
337.75	11.455
338.11	10.640
338.47	11.679
338.84	10.074
339.20	11.517
339.56	11.835
339.93	11.459
340.29	11.101
340.65	10.932
341.02	10.461
341.38	10.796
341.74	9.717
342.11	9.792
342.47	9.875
342.83	11.592
343.20	9.930
343.56	11.913
343.92	9.300
344.28	10.504
344.65	10.276
345.01	10.631
345.37	10.093
345.73	10.711
346.10	10.181
346.46	11.186
346.82	9.984
347.19	10.058
347.55	11.028
347.91	10.518
348.27	10.186
348.63	10.733
349.00	10.254
349.36	9.726
349.72	10.365
350.08	10.574
350.45	11.413
350.81	9.718
351.17	10.179
351.53	10.286
351.89	10.322
352.26	9.760
352.62	9.758
352.98	10.924
353.34	9.984
353.70	10.113
354.07	10.645
354.43	9.768
354.79	9.909
355.15	10.952
355.51	10.997
355.87	10.032
356.24	9.625
356.60	10.752
356.96	10.714
357.32	10.942
357.68	10.321
358.04	9.532
358.40	9.887
358.77	10.207
359.13	9.207
359.49	10.632
359.85	9.906
360.21	10.128
360.57	10.329
360.93	9.607
361.29	9.743
361.66	10.658
362.02	10.530
362.38	9.216
362.74	10.144
363.10	10.534
363.46	11.490
363.82	11.645
364.18	9.963
364.54	9.706
364.90	9.534
365.26	9.898
365.62	10.584
365.98	10.557
366.35	10.051
366.71	10.273
367.07	10.305
367.43	9.849
367.79	8.834
368.15	10.266
368.51	10.269
368.87	9.620
369.23	10.397
369.59	9.767
369.95	10.777
370.31	10.188
370.67	10.075
371.03	9.186
371.39	9.482
371.75	10.183
372.11	10.628
372.47	10.577
372.83	10.007
373.19	10.485
373.55	10.108
373.91	9.431
374.27	10.843
374.63	10.840
374.99	10.142
375.35	10.515
375.71	10.210
376.07	9.972
376.42	9.388
376.78	10.067
377.14	11.510
377.50	11.155
377.86	11.245
378.22	9.636
378.58	10.064
378.94	9.893
379.30	10.293
379.66	11.097
380.02	9.442
380.38	9.799
380.74	10.353
381.09	10.798
381.45	10.765
381.81	11.104
382.17	10.025
382.53	9.931
382.89	9.981
383.25	9.832
383.61	10.427
383.97	9.651
384.32	10.694
384.68	10.279
385.04	9.498
385.40	10.205
385.76	11.006
386.12	11.061
386.48	10.920
386.83	10.590
387.19	10.745
387.55	10.853
387.91	10.575
388.27	10.623
388.62	11.265
388.98	10.129
389.34	10.806
389.70	10.938
390.06	9.943
390.42	10.363
390.77	10.595
391.13	9.899
391.49	10.285
391.85	10.656
392.20	10.860
392.56	10.299
392.92	11.274
393.28	10.790
393.64	10.330
393.99	10.909
394.35	9.930
394.71	11.303
395.07	10.937
395.42	10.140
395.78	10.489
396.14	10.845
396.50	10.907
396.85	11.333
397.21	11.216
397.57	11.223
397.92	10.845
398.28	10.977
398.64	10.181
399.00	11.456
399.35	10.158
399.71	10.856
400.07	10.641
400.42	10.955
400.78	11.513
401.14	11.010
401.49	10.780
401.85	10.420
402.21	11.325
402.57	10.625
402.92	11.292
403.28	11.028
403.63	10.593
403.99	10.778
404.35	11.805
404.70	10.952
405.06	10.576
405.42	10.317
405.77	10.285
406.13	10.594
406.49	11.664
406.84	10.758
407.20	11.017
407.55	10.882
407.91	10.896
408.27	10.835
408.62	11.877
408.98	11.152
409.34	10.657
409.69	11.111
410.05	10.961
410.40	11.173
410.76	11.339
411.11	11.250
411.47	10.980
411.83	10.986
412.18	11.390
412.54	11.111
412.89	10.899
413.25	11.071
413.60	11.180
413.96	11.411
414.31	11.646
414.67	11.353
415.03	10.919
415.38	11.162
415.74	11.596
416.09	11.692
416.45	11.141
416.80	11.368
417.16	10.843
417.51	11.992
417.87	10.691
418.22	11.593
418.58	11.037
418.93	11.599
419.29	9.795
419.64	10.693
420.00	12.594
420.35	11.522
420.71	11.604
421.06	11.602
421.42	11.959
421.77	11.214
422.12	11.294
422.48	11.478
422.83	11.833
423.19	11.456
423.54	10.582
423.90	11.366
424.25	11.137
424.61	10.832
424.96	11.672
425.31	11.323
425.67	12.148
426.02	12.073
426.38	11.522
426.73	12.167
427.09	12.152
427.44	11.941
427.79	11.078
428.15	12.379
428.50	11.448
428.85	10.504
429.21	12.337
429.56	11.914
429.92	11.813
430.27	12.130
430.62	10.925
430.98	11.677
431.33	11.514
431.68	11.460
432.04	10.732
432.39	10.724
432.74	11.245
433.10	12.356
433.45	11.470
433.80	11.608
434.16	11.690
434.51	12.097
434.86	12.195
435.22	11.778
435.57	10.792
435.92	11.796
436.28	11.330
436.63	10.782
436.98	11.703
437.34	10.950
437.69	12.642
438.04	11.567
438.39	10.690
438.75	11.840
439.10	11.488
439.45	11.929
439.81	12.477
440.16	11.639
440.51	12.418
440.86	12.810
441.22	11.934
441.57	11.865
441.92	12.539
442.27	11.918
442.63	12.741
442.98	11.775
443.33	11.853
443.68	11.671
444.03	12.668
444.39	12.297
444.74	11.873
445.09	12.249
445.44	11.567
445.79	12.481
446.15	12.775
446.50	12.035
446.85	12.168
447.20	12.148
447.55	11.998
447.91	11.675
448.26	12.123
448.61	12.550
448.96	12.106
449.31	12.081
449.66	11.963
450.02	12.265
450.37	12.092
450.72	11.913
451.07	12.722
451.42	11.860
451.77	12.899
452.12	11.782
452.47	11.590
452.83	12.544
453.18	11.891
453.53	11.757
453.88	12.265
454.23	12.784
454.58	11.776
454.93	13.015
455.28	11.429
455.63	12.585
455.98	12.447
456.34	13.091
456.69	12.262
457.04	13.359
457.39	12.940
457.74	11.729
458.09	12.478
458.44	12.405
458.79	12.045
459.14	13.444
459.49	13.134
459.84	13.198
460.19	12.318
460.54	13.386
460.89	12.216
461.24	12.484
461.59	13.183
461.94	11.761
462.29	13.872
462.64	13.355
462.99	12.458
463.34	11.822
463.69	12.806
464.04	12.954
464.39	13.038
464.74	12.638
465.09	12.913
465.44	13.791
465.79	12.812
466.14	12.771
466.49	12.536
466.84	12.255
467.19	13.329
467.54	12.835
467.89	12.634
468.24	11.861
468.59	12.952
468.94	13.079
469.29	13.508
469.64	13.671
469.99	12.754
470.34	11.741
470.68	13.647
471.03	13.447
471.38	13.552
471.73	14.216
472.08	12.754
472.43	12.752
472.78	12.063
473.13	12.993
473.48	12.704
473.83	12.453
474.17	12.953
474.52	13.019
474.87	13.758
475.22	13.362
475.57	13.552
475.92	13.933
476.27	13.679
476.61	13.484
476.96	12.828
477.31	13.575
477.66	13.652
478.01	13.700
478.36	12.527
478.70	13.322
479.05	14.505
479.40	13.302
479.75	12.826
480.10	12.801
480.45	13.000
480.79	13.897
481.14	13.422
481.49	12.759
481.84	13.272
482.19	13.143
482.53	12.950
482.88	13.795
483.23	13.100
483.58	13.255
483.92	12.197
484.27	13.263
484.62	13.626
484.97	13.184
485.31	13.078
485.66	12.225
486.01	12.512
486.36	12.936
486.70	12.649
487.05	13.000
487.40	12.849
487.75	13.127
488.09	12.608
488.44	12.758
488.79	12.925
489.13	13.862
489.48	13.467
489.83	13.587
490.17	13.034
490.52	13.072
490.87	13.373
491.22	13.754
491.56	13.947
491.91	13.384
492.26	13.418
492.60	13.772
492.95	14.265
493.30	13.483
493.64	13.556
493.99	13.913
494.34	13.107
494.68	14.048
495.03	12.993
495.37	13.494
495.72	13.781
496.07	14.293
496.41	13.679
496.76	13.358
497.11	13.507
497.45	15.036
497.80	14.884
498.14	13.264
498.49	13.357
498.84	13.922
499.18	14.056
499.53	14.087
499.87	13.765
500.22	13.897
500.56	13.918
500.91	14.157
501.26	14.039
501.60	13.871
501.95	14.022
502.29	14.189
502.64	13.176
502.98	14.060
503.33	13.881
503.67	13.880
504.02	14.663
504.36	14.003
504.71	13.737
505.06	14.092
505.40	14.112
505.75	14.072
506.09	13.989
506.44	14.374
506.78	14.694
507.13	14.529
507.47	14.047
507.82	13.301
508.16	13.893
508.51	14.428
508.85	14.495
509.19	13.784
509.54	14.209
509.88	13.430
510.23	15.169
510.57	14.965
510.92	13.220
511.26	13.693
511.61	14.466
511.95	13.973
512.30	14.967
512.64	14.302
512.98	13.700
513.33	14.550
513.67	14.781
514.02	15.217
514.36	15.714
514.70	15.559
515.05	15.041
515.39	14.227
515.74	15.509
516.08	14.764
516.42	14.782
516.77	14.862
517.11	14.777
517.46	14.363
517.80	14.601
518.14	15.126
518.49	14.123
518.83	14.095
519.17	14.251
519.52	14.387
519.86	14.646
520.20	15.492
520.55	14.447
520.89	15.496
521.23	14.630
521.58	16.467
521.92	15.769
522.26	14.509
522.61	16.039
522.95	16.358
523.29	15.057
523.64	15.438
523.98	16.332
524.32	14.755
524.66	15.813
525.01	15.714
525.35	15.619
525.69	15.488
526.04	15.278
526.38	17.121
526.72	15.108
527.06	15.045
527.41	15.303
527.75	15.147
528.09	14.817
528.43	16.678
528.78	15.380
529.12	15.226
529.46	15.465
529.80	16.086
530.15	15.776
530.49	15.690
530.83	15.595
531.17	15.917
531.51	15.663
531.86	14.956
532.20	14.335
532.54	15.997
532.88	16.427
533.22	15.524
533.57	16.579
533.91	15.927
534.25	14.909
534.59	15.394
534.93	15.544
535.27	15.799
535.62	15.230
535.96	16.243
536.30	15.699
536.64	15.644
536.98	16.237
537.32	16.856
537.66	16.339
538.01	16.853
538.35	15.465
538.69	16.045
539.03	15.038
539.37	16.285
539.71	16.292
540.05	15.275
540.39	15.997
540.73	16.039
541.07	15.746
541.42	16.935
541.76	16.311
542.10	15.967
542.44	15.497
542.78	14.591
543.12	14.286
543.46	16.273
543.80	14.643
544.14	14.686
544.48	14.923
544.82	15.038
545.16	15.984
545.50	16.155
545.84	16.431
546.18	16.454
546.52	15.934
546.86	15.888
547.20	15.808
547.54	15.265
547.88	15.693
548.22	15.122
548.56	15.831
548.90	16.442
549.24	15.152
549.58	16.079
549.92	16.011
550.26	15.604
550.60	16.803
550.94	16.729
551.28	15.765
551.62	17.077
551.96	16.767
552.30	14.985
552.64	16.150
552.98	16.596
553.32	15.621
553.66	15.385
554.00	15.182
554.34	17.134
554.68	14.749
555.02	16.220
555.36	15.632
555.69	16.117
556.03	15.346
556.37	15.374
556.71	15.957
557.05	15.436
557.39	15.836
557.73	16.117
558.07	17.421
558.41	15.926
558.75	15.433
559.08	16.391
559.42	15.952
559.76	15.612
560.10	15.520
560.44	15.413
560.78	16.434
561.12	16.432
561.45	16.655
561.79	16.036
562.13	17.104
562.47	15.108
562.81	15.994
563.15	16.784
563.48	16.761
563.82	17.296
564.16	16.365
564.50	16.554
564.84	16.667
565.17	15.828
565.51	16.940
565.85	15.706
566.19	16.313
566.52	16.287
566.86	16.324
567.20	15.878
567.54	15.450
567.88	16.403
568.21	16.233
568.55	14.348
568.89	15.657
569.23	15.262
569.56	14.930
569.90	14.901
570.24	14.626
570.57	14.582
570.91	14.674
571.25	14.272
571.59	13.672
571.92	14.193
572.26	13.527
572.60	14.109
572.93	14.371
573.27	13.856
573.61	13.962
573.95	13.845
574.28	13.904
574.62	13.476
574.96	13.513
575.29	13.503
575.63	13.475
575.97	13.337
576.30	13.804
576.64	13.377
576.98	14.080
577.31	14.033
577.65	13.968
577.98	13.926
578.32	13.556
578.66	13.368
578.99	13.407
579.33	13.640
579.67	13.323
580.00	13.823
580.34	13.483
580.67	13.675
581.01	13.713
581.35	13.953
581.68	13.127
582.02	13.012
582.35	13.445
582.69	13.946
583.02	13.672
583.36	13.532
583.70	14.071
584.03	13.789
584.37	14.314
584.70	14.231
585.04	13.446
585.37	13.956
585.71	13.848
586.04	13.288
586.38	13.390
586.72	14.146
587.05	14.154
587.39	14.174
587.72	14.215
588.06	13.507
588.39	13.956
588.73	14.164
589.06	14.155
589.40	14.414
589.73	15.078
590.07	15.181
590.40	14.474
590.73	14.827
591.07	14.970
591.40	14.826
591.74	14.842
592.07	14.703
592.41	15.680
592.74	14.496
593.08	13.692
593.41	14.366
593.75	14.197
594.08	13.869
594.41	15.029
594.75	14.237
595.08	14.340
595.42	14.354
595.75	14.232
596.09	14.034
596.42	14.800
596.75	15.187
597.09	15.216
597.42	15.718
597.75	15.208
598.09	14.124
598.42	14.892
598.76	14.801
599.09	14.463
599.42	14.096
599.76	14.296
600.09	13.914
600.42	14.481
600.76	13.893
601.09	13.855
601.42	13.944
601.76	14.728
602.09	14.604
602.42	14.996
602.76	14.643
603.09	15.116
603.42	15.301
603.76	13.750
604.09	14.621
604.42	15.017
604.76	14.686
605.09	15.174
605.42	15.034
605.75	13.748
606.09	14.225
606.42	14.345
606.75	14.848
607.09	15.604
607.42	14.222
607.75	14.121
608.08	14.286
608.42	14.207
608.75	15.518
609.08	14.898
609.41	15.025
609.75	14.315
610.08	14.928
610.41	15.411
610.74	15.066
611.07	14.574
611.41	15.049
611.74	15.725
612.07	14.615
612.40	15.317
612.73	15.085
613.07	14.736
613.40	14.880
613.73	14.997
614.06	15.526
614.39	15.623
614.72	14.454
615.06	15.475
615.39	15.120
615.72	15.447
616.05	14.804
616.38	14.986
616.71	14.312
617.05	14.392
617.38	15.399
617.71	15.723
618.04	16.127
618.37	17.087
618.70	15.842
619.03	16.319
619.36	15.051
619.69	16.528
620.03	16.947
620.36	15.451
620.69	15.418
621.02	15.673
621.35	16.266
621.68	16.327
622.01	16.917
622.34	17.079
622.67	16.956
623.00	16.233
623.33	16.540
623.66	16.006
623.99	16.112
624.32	16.426
624.65	14.586
624.99	16.554
625.32	15.542
625.65	17.046
625.98	17.083
626.31	15.794
626.64	16.378
626.97	16.928
627.30	16.550
627.63	17.158
627.96	16.891
628.29	16.281
628.62	17.011
628.95	17.936
629.28	16.431
629.61	16.451
629.94	18.084
630.26	16.206
630.59	17.794
630.92	17.641
631.25	18.051
631.58	17.070
631.91	17.105
632.24	16.858
632.57	18.523
632.90	16.133
633.23	17.176
633.56	17.632
633.89	17.509
634.22	18.025
634.55	18.806
