SpectraSuite Data File
++++++++++++++++++++++++++++++++++++
Date: Fri May 15 17:26:52 PDT 2015
User: schluterlab
Dark Spectrum Present: Yes
Reference Spectrum Present: Yes
Number of Sampled Component Spectra: 1
Spectrometers: USB2E3373
Integration Time (usec): 3000 (USB2E3373)
Spectra Averaged: 3 (USB2E3373)
Boxcar Smoothing: 0 (USB2E3373)
Correct for Electrical Dark: No (USB2E3373)
Strobe/Lamp Enabled: No (USB2E3373)
Correct for Detector Non-linearity: No (USB2E3373)
Correct for Stray Light: No (USB2E3373)
Number of Pixels in Processed Spectrum: 2048
>>>>>Begin Processed Spectral Data<<<<<
178.53	0.000
178.91	0.000
179.29	112.500
179.67	-100.000
180.04	-57.143
180.42	100.000
180.80	-900.000
181.18	100.000
181.56	-150.000
181.94	50.000
182.31	-0.000
182.69	-120.000
183.07	-266.667
183.45	-100.000
183.83	83.333
184.20	18.182
184.58	-0.000
184.96	-175.000
185.34	66.667
185.72	-700.000
186.09	76.923
186.47	-100.000
186.85	16.667
187.23	44.444
187.61	-500.000
187.98	-133.333
188.36	133.333
188.74	-66.667
189.12	29.412
189.49	16.667
189.87	0.000
190.25	14.286
190.63	450.000
191.00	33.333
191.38	15.789
191.76	650.000
192.14	175.000
192.51	50.000
192.89	88.889
193.27	14.286
193.65	33.333
194.02	154.545
194.40	100.000
194.78	-125.000
195.15	41.667
195.53	62.500
195.91	125.000
196.29	-100.000
196.66	107.692
197.04	185.714
197.42	-44.444
197.79	-466.667
198.17	-100.000
198.55	1000.000
198.92	-300.000
199.30	300.000
199.68	-100.000
200.05	-33.333
200.43	0.000
200.81	-66.667
201.18	100.000
201.56	1000.000
201.94	150.000
202.31	-166.667
202.69	-60.000
203.07	225.000
203.44	1300.000
203.82	0.000
204.19	14.286
204.57	-333.333
204.95	137.500
205.32	40.000
205.70	28.571
206.08	225.000
206.45	133.333
206.83	71.429
207.20	-42.857
207.58	-0.000
207.96	-66.667
208.33	-150.000
208.71	-100.000
209.08	-216.667
209.46	-400.000
209.84	-20.000
210.21	-200.000
210.59	142.857
210.96	-116.667
211.34	-50.000
211.71	13.333
212.09	85.714
212.46	-1200.000
212.84	0.000
213.22	190.000
213.59	250.000
213.97	15.385
214.34	63.636
214.72	-66.667
215.09	275.000
215.47	-46.154
215.84	-81.818
216.22	-100.000
216.59	-50.000
216.97	200.000
217.34	175.000
217.72	-120.000
218.09	50.000
218.47	112.500
218.84	-900.000
219.22	0.000
219.59	-40.000
219.97	533.333
220.34	75.000
220.72	100.000
221.09	-375.000
221.47	650.000
221.84	-550.000
222.22	-750.000
222.59	72.727
222.97	16.667
223.34	0.000
223.72	-7.143
224.09	28.571
224.46	39.286
224.84	-33.333
225.21	-40.000
225.59	60.000
225.96	-100.000
226.34	-25.000
226.71	14.286
227.08	-66.667
227.46	100.000
227.83	-550.000
228.21	11.111
228.58	0.000
228.95	-137.500
229.33	120.000
229.70	37.500
230.08	-25.000
230.45	-57.143
230.82	14.286
231.20	13.333
231.57	100.000
231.95	171.429
232.32	-90.000
232.69	-14.286
233.07	33.333
233.44	-80.000
233.81	-90.000
234.19	-11.111
234.56	-23.529
234.93	-0.000
235.31	50.000
235.68	-300.000
236.05	0.000
236.43	-35.000
236.80	-41.176
237.17	18.750
237.55	-20.000
237.92	-22.222
238.29	11.111
238.67	10.000
239.04	38.235
239.41	9.756
239.79	-23.333
240.16	24.390
240.53	-7.895
240.91	-4.348
241.28	12.698
241.65	19.643
242.02	16.438
242.40	13.333
242.77	6.780
243.14	-3.030
243.51	11.250
243.89	18.391
244.26	5.747
244.63	4.762
245.00	-3.093
245.38	17.526
245.75	-8.989
246.12	0.000
246.49	5.785
246.87	9.615
247.24	-5.042
247.61	-0.877
247.98	4.878
248.36	7.500
248.73	3.289
249.10	1.299
249.47	5.063
249.84	0.654
250.22	7.647
250.59	8.497
250.96	11.737
251.33	4.070
251.70	7.059
252.08	3.553
252.45	5.941
252.82	7.538
253.19	8.295
253.56	0.467
253.94	5.856
254.31	6.522
254.68	10.965
255.05	7.874
255.42	4.367
255.79	7.336
256.16	11.284
256.54	11.567
256.91	0.000
257.28	8.178
257.65	1.124
258.02	4.610
258.39	7.071
258.76	5.861
259.14	8.970
259.51	8.738
259.88	4.124
260.25	3.268
260.62	10.417
260.99	2.034
261.36	0.685
261.73	5.696
262.10	6.383
262.47	7.055
262.85	3.448
263.22	4.923
263.59	5.296
263.96	8.385
264.33	5.152
264.70	2.679
265.07	3.869
265.44	6.799
265.81	5.932
266.18	7.650
266.55	6.427
266.92	5.959
267.29	3.916
267.66	4.604
268.03	8.901
268.40	5.744
268.77	7.754
269.14	6.715
269.51	10.797
269.88	2.993
270.25	5.102
270.62	6.829
270.99	4.604
271.36	4.401
271.73	7.042
272.10	6.813
272.47	6.147
272.84	8.168
273.21	7.657
273.58	7.229
273.95	7.780
274.32	3.926
274.69	3.846
275.06	6.250
275.43	4.535
275.80	4.636
276.17	4.368
276.54	4.711
276.91	7.237
277.28	5.895
277.65	9.091
278.02	5.957
278.39	4.814
278.76	6.499
279.13	4.357
279.50	6.092
279.87	5.616
280.23	5.591
280.60	7.407
280.97	4.646
281.34	6.538
281.71	8.008
282.08	2.863
282.45	3.914
282.82	5.792
283.19	6.770
283.56	7.322
283.92	3.985
284.29	5.192
284.66	5.233
285.03	5.305
285.40	4.915
285.77	6.854
286.14	6.498
286.51	7.565
286.87	5.119
287.24	3.683
287.61	4.233
287.98	6.316
288.35	6.066
288.72	6.830
289.08	4.167
289.45	5.272
289.82	6.294
290.19	3.584
290.56	4.974
290.93	3.704
291.29	4.622
291.66	7.087
292.03	4.944
292.40	6.129
292.77	4.785
293.13	2.922
293.50	4.249
293.87	5.954
294.24	5.410
294.60	5.514
294.97	4.911
295.34	4.601
295.71	4.769
296.08	5.082
296.44	3.556
296.81	4.444
297.18	4.348
297.55	4.878
297.91	5.753
298.28	5.805
298.65	4.613
299.02	3.235
299.38	0.274
299.75	4.966
300.12	4.712
300.48	3.953
300.85	3.676
301.22	4.675
301.59	5.000
301.95	6.076
302.32	5.577
302.69	4.353
303.05	3.960
303.42	3.113
303.79	5.841
304.15	5.496
304.52	2.378
304.89	3.626
305.25	4.722
305.62	3.151
305.99	3.860
306.35	2.775
306.72	2.925
307.09	3.079
307.45	3.904
307.82	3.241
308.19	5.226
308.55	5.016
308.92	4.248
309.29	2.905
309.65	3.660
310.02	2.970
310.38	4.171
310.75	4.809
311.12	4.413
311.48	3.818
311.85	3.560
312.22	3.376
312.58	3.822
312.95	3.735
313.31	2.484
313.68	3.037
314.05	3.163
314.41	4.330
314.78	3.299
315.14	4.008
315.51	2.484
315.87	3.381
316.24	5.763
316.61	4.134
316.97	5.159
317.34	3.223
317.70	3.155
318.07	3.654
318.43	3.529
318.80	3.883
319.16	5.273
319.53	4.843
319.89	3.937
320.26	4.352
320.62	5.115
320.99	3.445
321.35	4.830
321.72	5.088
322.08	5.639
322.45	5.178
322.81	3.635
323.18	4.220
323.54	4.537
323.91	4.479
324.27	4.687
324.64	5.056
325.00	6.022
325.37	5.969
325.73	5.712
326.10	5.631
326.46	5.919
326.83	4.549
327.19	5.667
327.56	5.821
327.92	6.426
328.29	5.000
328.65	5.660
329.01	6.342
329.38	5.806
329.74	5.288
330.11	6.580
330.47	6.122
330.84	6.635
331.20	8.080
331.56	7.407
331.93	7.123
332.29	7.791
332.66	6.787
333.02	6.227
333.38	6.966
333.75	7.601
334.11	6.714
334.48	7.978
334.84	8.333
335.20	6.496
335.57	7.978
335.93	7.769
336.29	7.090
336.66	6.721
337.02	7.063
337.38	6.574
337.75	7.636
338.11	8.115
338.47	7.664
338.84	7.763
339.20	7.495
339.56	6.789
339.93	9.042
340.29	7.615
340.65	9.588
341.02	7.535
341.38	7.611
341.74	7.509
342.11	6.846
342.47	8.185
342.83	8.651
343.20	8.362
343.56	8.696
343.92	7.529
344.28	8.454
344.65	8.031
345.01	8.470
345.37	9.167
345.73	9.289
346.10	9.664
346.46	9.251
346.82	8.674
347.19	8.229
347.55	7.769
347.91	9.061
348.27	8.246
348.63	9.370
349.00	8.368
349.36	7.897
349.72	9.453
350.08	8.115
350.45	9.338
350.81	8.389
351.17	9.039
351.53	8.980
351.89	8.258
352.26	8.240
352.62	8.710
352.98	8.916
353.34	8.615
353.70	9.304
354.07	7.984
354.43	9.367
354.79	8.258
355.15	9.444
355.51	9.731
355.87	8.172
356.24	7.830
356.60	8.892
356.96	9.683
357.32	10.144
357.68	8.366
358.04	9.047
358.40	8.923
358.77	9.410
359.13	9.528
359.49	9.014
359.85	8.502
360.21	8.293
360.57	9.487
360.93	9.607
361.29	8.837
361.66	9.796
362.02	10.076
362.38	9.977
362.74	9.311
363.10	9.556
363.46	9.044
363.82	9.992
364.18	9.889
364.54	9.706
364.90	10.896
365.26	9.389
365.62	9.708
365.98	10.264
366.35	10.852
366.71	9.017
367.07	10.740
367.43	8.483
367.79	10.601
368.15	9.907
368.51	10.124
368.87	9.620
369.23	10.181
369.59	9.621
369.95	10.630
370.31	10.477
370.67	9.776
371.03	9.933
371.39	10.139
371.75	10.842
372.11	10.342
372.47	10.355
372.83	11.568
373.19	10.556
373.55	11.047
373.91	10.943
374.27	11.410
374.63	10.409
374.99	10.922
375.35	11.072
375.71	11.608
376.07	10.604
376.42	10.340
376.78	11.678
377.14	11.171
377.50	11.487
377.86	11.714
378.22	10.785
378.58	11.346
378.94	11.090
379.30	12.102
379.66	11.536
380.02	10.914
380.38	11.503
380.74	11.730
381.09	12.454
381.45	11.682
381.81	12.153
382.17	12.183
382.53	11.680
382.89	11.488
383.25	11.886
383.61	13.354
383.97	11.302
384.32	12.758
384.68	12.384
385.04	12.561
385.40	11.512
385.76	13.208
386.12	12.807
386.48	13.665
386.83	12.746
387.19	13.431
387.55	13.300
387.91	12.653
388.27	12.943
388.62	13.090
388.98	12.953
389.34	13.679
389.70	13.922
390.06	11.894
390.42	12.111
390.77	12.950
391.13	12.736
391.49	13.583
391.85	13.255
392.20	13.685
392.56	12.905
392.92	13.212
393.28	14.741
393.64	13.273
393.99	14.734
394.35	13.219
394.71	14.112
395.07	12.759
395.42	13.115
395.78	14.267
396.14	13.493
396.50	13.760
396.85	13.909
397.21	13.784
397.57	13.918
397.92	14.080
398.28	13.966
398.64	13.554
399.00	14.391
399.35	13.488
399.71	13.326
400.07	14.087
400.42	14.565
400.78	15.064
401.14	14.277
401.49	15.664
401.85	14.321
402.21	14.518
402.57	14.500
402.92	14.555
403.28	14.662
403.63	15.006
403.99	13.903
404.35	15.365
404.70	14.167
405.06	14.336
405.42	15.289
405.77	14.410
406.13	14.144
406.49	14.269
406.84	14.976
407.20	14.810
407.55	14.359
407.91	13.971
408.27	14.659
408.62	14.646
408.98	14.972
409.34	15.056
409.69	14.276
410.05	15.209
410.40	14.815
410.76	15.561
411.11	14.750
411.47	15.253
411.83	14.689
412.18	15.380
412.54	14.981
412.89	15.148
413.25	15.824
413.60	15.652
413.96	14.479
414.31	14.939
414.67	14.945
415.03	14.980
415.38	14.426
415.74	16.091
416.09	15.284
416.45	14.990
416.80	14.805
417.16	15.953
417.51	15.590
417.87	15.580
418.22	15.868
418.58	14.582
418.93	15.862
419.29	14.533
419.64	14.971
420.00	16.625
420.35	15.761
420.71	15.978
421.06	15.347
421.42	14.844
421.77	14.971
422.12	15.834
422.48	15.593
422.83	16.009
423.19	14.842
423.54	14.815
423.90	15.783
424.25	15.212
424.61	15.973
424.96	15.447
425.31	16.869
425.67	15.904
426.02	16.137
426.38	16.907
426.73	15.981
427.09	17.025
427.44	17.000
427.79	16.735
428.15	16.869
428.50	16.838
428.85	15.909
429.21	16.695
429.56	16.334
429.92	17.411
430.27	16.291
430.62	16.100
430.98	16.454
431.33	17.350
431.68	16.013
432.04	16.210
432.39	16.144
432.74	16.476
433.10	17.241
433.45	16.547
433.80	17.411
434.16	15.512
434.51	16.882
434.86	16.318
435.22	16.769
435.57	16.469
435.92	17.246
436.28	16.518
436.63	16.315
436.98	15.817
437.34	16.576
437.69	16.041
438.04	16.239
438.39	16.371
438.75	17.365
439.10	16.469
439.45	16.859
439.81	16.820
440.16	17.162
440.51	17.791
440.86	18.369
441.22	17.308
441.57	16.722
441.92	17.314
442.27	17.129
442.63	17.827
442.98	16.715
443.33	17.529
443.68	17.241
444.03	17.784
444.39	17.167
444.74	17.614
445.09	17.372
445.44	17.322
445.79	18.205
446.15	17.126
446.50	17.748
446.85	17.163
447.20	17.727
447.55	17.913
447.91	17.936
448.26	17.871
448.61	17.617
448.96	17.785
449.31	17.341
449.66	16.957
450.02	18.369
450.37	17.546
450.72	17.068
451.07	17.975
451.42	16.854
451.77	18.385
452.12	17.524
452.47	18.480
452.83	17.962
453.18	17.963
453.53	18.078
453.88	17.608
454.23	18.316
454.58	17.884
454.93	18.557
455.28	17.333
455.63	18.351
455.98	18.160
456.34	17.816
456.69	18.424
457.04	19.093
457.39	17.375
457.74	17.533
458.09	17.834
458.44	17.496
458.79	18.039
459.14	18.249
459.49	18.388
459.84	17.597
460.19	17.597
460.54	18.399
460.89	18.182
461.24	18.012
461.59	17.518
461.94	18.050
462.29	18.275
462.64	17.940
462.99	17.942
463.34	18.359
463.69	18.468
464.04	18.281
464.39	18.435
464.74	17.362
465.09	18.403
465.44	18.927
465.79	18.311
466.14	18.529
466.49	17.999
466.84	18.501
467.19	18.148
467.54	17.816
467.89	18.636
468.24	18.674
468.59	19.111
468.94	17.460
469.29	18.885
469.64	18.865
469.99	19.131
470.34	18.089
470.68	19.239
471.03	18.967
471.38	19.044
471.73	18.697
472.08	17.843
472.43	18.926
472.78	18.574
473.13	18.571
473.48	18.371
473.83	18.804
474.17	19.301
474.52	18.443
474.87	19.030
475.22	18.487
475.57	18.521
475.92	19.144
476.27	19.325
476.61	18.924
476.96	17.568
477.31	19.200
477.66	18.820
478.01	18.417
478.36	18.791
478.70	19.521
479.05	19.670
479.40	19.396
479.75	18.300
480.10	19.252
480.45	19.150
480.79	19.184
481.14	19.416
481.49	18.079
481.84	18.292
482.19	18.990
482.53	19.281
482.88	18.998
483.23	18.954
483.58	18.585
483.92	18.248
484.27	19.325
484.62	18.826
484.97	18.325
485.31	18.678
485.66	17.464
486.01	17.207
486.36	17.109
486.70	17.604
487.05	17.646
487.40	17.994
487.75	18.338
488.09	18.665
488.44	18.913
488.79	19.014
489.13	19.551
489.48	19.111
489.83	19.238
490.17	19.730
490.52	18.938
490.87	18.880
491.22	19.819
491.56	18.975
491.91	19.598
492.26	19.786
492.60	19.626
492.95	20.315
493.30	19.248
493.64	20.138
493.99	19.372
494.34	18.398
494.68	19.571
495.03	18.589
495.37	19.333
495.72	20.242
496.07	20.098
496.41	19.575
496.76	19.438
497.11	19.190
497.45	19.523
497.80	19.576
498.14	19.573
498.49	19.248
498.84	19.611
499.18	19.829
499.53	20.188
499.87	19.796
500.22	19.733
500.56	19.314
500.91	18.926
501.26	19.970
501.60	19.429
501.95	19.796
502.29	19.855
502.64	19.643
502.98	19.240
503.33	19.260
503.67	19.518
504.02	19.746
504.36	20.386
504.71	19.596
505.06	19.678
505.40	19.848
505.75	19.381
506.09	20.122
506.44	20.072
506.78	20.051
507.13	20.631
507.47	19.896
507.82	19.017
508.16	19.599
508.51	20.829
508.85	19.571
509.19	20.117
509.54	20.322
509.88	20.550
510.23	20.387
510.57	19.936
510.92	19.670
511.26	20.786
511.61	20.132
511.95	19.836
512.30	21.231
512.64	20.924
512.98	20.943
513.33	20.761
513.67	20.523
514.02	21.110
514.36	21.600
514.70	21.270
515.05	21.622
515.39	21.192
515.74	21.317
516.08	21.399
516.42	21.437
516.77	21.123
517.11	21.602
517.46	21.544
517.80	21.037
518.14	22.107
518.49	21.334
518.83	21.750
519.17	20.800
519.52	21.906
519.86	21.549
520.20	22.175
520.55	21.826
520.89	22.585
521.23	21.786
521.58	22.965
521.92	22.179
522.26	22.576
522.61	22.468
522.95	22.914
523.29	21.982
523.64	22.300
523.98	22.294
524.32	22.036
524.66	23.239
525.01	23.896
525.35	22.294
525.69	21.414
526.04	21.958
526.38	22.957
526.72	21.714
527.06	23.087
527.41	22.889
527.75	23.123
528.09	23.389
528.43	22.890
528.78	22.640
529.12	22.710
529.46	22.547
529.80	22.926
530.15	23.564
530.49	22.828
530.83	22.640
531.17	22.498
531.51	23.871
531.86	22.978
532.20	22.965
532.54	23.009
532.88	22.861
533.22	23.522
533.57	22.936
533.91	22.650
534.25	23.177
534.59	22.258
534.93	22.404
535.27	21.891
535.62	22.618
535.96	23.027
536.30	23.153
536.64	22.881
536.98	23.693
537.32	24.751
537.66	23.492
538.01	23.217
538.35	22.607
538.69	23.036
539.03	22.351
539.37	23.082
539.71	22.359
540.05	22.403
540.39	23.753
540.73	22.315
541.07	23.204
541.42	23.185
541.76	23.469
542.10	23.331
542.44	23.002
542.78	21.060
543.12	22.390
543.46	23.018
543.80	23.040
544.14	22.163
544.48	24.250
544.82	23.718
545.16	23.361
545.50	23.431
545.84	23.725
546.18	25.248
546.52	24.513
546.86	24.443
547.20	24.320
547.54	23.322
547.88	24.117
548.22	22.354
548.56	22.164
548.90	23.585
549.24	22.658
549.58	23.554
549.92	22.873
550.26	23.297
550.60	24.312
550.94	23.226
551.28	24.498
551.62	23.692
551.96	23.158
552.30	22.661
552.64	23.836
552.98	24.121
553.32	23.538
553.66	23.367
554.00	23.942
554.34	24.594
554.68	24.410
555.02	25.149
555.36	23.710
555.69	23.004
556.03	23.840
556.37	23.701
556.71	24.404
557.05	24.161
557.39	22.825
557.73	23.988
558.07	24.661
558.41	23.047
558.75	23.772
559.08	23.404
559.42	23.968
559.76	25.620
560.10	24.388
560.44	23.976
560.78	22.727
561.12	23.625
561.45	25.018
561.79	24.020
562.13	24.911
562.47	23.381
562.81	23.559
563.15	24.542
563.48	24.187
563.82	25.189
564.16	24.513
564.50	23.446
564.84	24.096
565.17	23.608
565.51	24.112
565.85	23.320
566.19	25.531
566.52	23.525
566.86	23.843
567.20	23.537
567.54	23.114
567.88	24.253
568.21	24.604
568.55	23.261
568.89	23.460
569.23	23.014
569.56	22.023
569.90	22.412
570.24	20.990
570.57	21.527
570.91	21.471
571.25	20.552
571.59	21.333
571.92	20.533
572.26	20.864
572.60	20.682
572.93	21.243
573.27	21.003
573.61	21.390
573.95	20.890
574.28	20.392
574.62	20.315
574.96	20.294
575.29	20.520
575.63	19.902
575.97	20.439
576.30	20.832
576.64	20.556
576.98	20.978
577.31	20.447
577.65	20.390
577.98	20.118
578.32	20.083
578.66	20.052
578.99	20.262
579.33	20.410
579.67	20.187
580.00	20.734
580.34	20.572
580.67	20.079
581.01	20.605
581.35	20.069
581.68	19.839
582.02	19.839
582.35	20.000
582.69	20.121
583.02	20.444
583.36	20.937
583.70	21.521
584.03	21.546
584.37	21.683
584.70	21.374
585.04	21.399
585.37	21.057
585.71	20.118
586.04	21.029
586.38	21.072
586.72	21.463
587.05	21.028
587.39	21.079
587.72	21.350
588.06	20.869
588.39	21.447
588.73	21.429
589.06	21.885
589.40	21.604
589.73	22.198
590.07	22.319
590.40	22.833
590.73	22.611
591.07	22.689
591.40	22.440
591.74	22.805
592.07	23.284
592.41	22.880
592.74	22.023
593.08	21.167
593.41	21.614
593.75	21.492
594.08	21.765
594.41	21.252
594.75	21.298
595.08	21.907
595.42	22.010
595.75	22.794
596.09	22.439
596.42	22.943
596.75	23.091
597.09	23.462
597.42	23.261
597.75	23.087
598.09	22.589
598.42	22.247
598.76	22.651
599.09	22.115
599.42	21.296
599.76	22.122
600.09	21.833
600.42	21.607
600.76	21.397
601.09	21.832
601.42	21.543
601.76	21.397
602.09	22.401
602.42	23.505
602.76	22.920
603.09	22.259
603.42	23.579
603.76	22.298
604.09	22.114
604.42	23.350
604.76	23.409
605.09	22.898
605.42	22.348
605.75	22.723
606.09	22.251
606.42	21.810
606.75	22.381
607.09	22.725
607.42	22.419
607.75	22.647
608.08	21.923
608.42	22.156
608.75	24.000
609.08	22.671
609.41	22.995
609.75	23.437
610.08	23.864
610.41	22.754
610.74	23.354
611.07	23.979
611.41	23.041
611.74	24.254
612.07	23.662
612.40	23.961
612.73	23.785
613.07	23.791
613.40	23.414
613.73	23.447
614.06	24.096
614.39	24.027
614.72	23.193
615.06	22.626
615.39	23.526
615.72	22.874
616.05	23.575
616.38	23.134
616.71	23.731
617.05	24.521
617.38	24.764
617.71	24.277
618.04	24.698
618.37	25.095
618.70	25.017
619.03	25.000
619.36	24.385
619.69	26.308
620.03	26.443
620.36	25.250
620.69	25.410
621.02	25.612
621.35	25.975
621.68	27.806
622.01	26.500
622.34	26.417
622.67	26.420
623.00	26.034
623.33	25.686
623.66	25.131
623.99	26.097
624.32	26.616
624.65	24.662
624.99	25.809
625.32	25.701
625.65	27.416
625.98	26.189
626.31	26.101
626.64	27.296
626.97	27.749
627.30	26.182
627.63	26.343
627.96	26.774
628.29	27.660
628.62	28.614
628.95	27.756
629.28	27.319
629.61	27.418
629.94	28.837
630.26	25.889
630.59	29.032
630.92	28.718
631.25	25.641
631.58	28.084
631.91	27.851
632.24	27.867
632.57	28.523
632.90	28.351
633.23	29.882
633.56	27.960
633.89	27.620
634.22	30.247
634.55	30.623
634.88	28.480
635.20	28.205
635.53	30.000
635.86	30.039
636.19	31.048
636.52	29.719
636.85	27.419
637.18	27.799
637.51	28.931
637.83	29.172
638.16	32.606
638.49	28.610
638.82	32.500
639.15	30.665
639.48	30.812
639.81	29.986
640.13	30.447
640.46	30.612
640.79	31.517
