SpectraSuite Data File
++++++++++++++++++++++++++++++++++++
Date: Fri May 15 20:17:18 PDT 2015
User: schluterlab
Dark Spectrum Present: Yes
Reference Spectrum Present: Yes
Number of Sampled Component Spectra: 1
Spectrometers: USB2E3373
Integration Time (usec): 3000 (USB2E3373)
Spectra Averaged: 3 (USB2E3373)
Boxcar Smoothing: 0 (USB2E3373)
Correct for Electrical Dark: No (USB2E3373)
Strobe/Lamp Enabled: No (USB2E3373)
Correct for Detector Non-linearity: No (USB2E3373)
Correct for Stray Light: No (USB2E3373)
Number of Pixels in Processed Spectrum: 2048
>>>>>Begin Processed Spectral Data<<<<<
178.53	0.000
178.91	0.000
179.29	25.000
179.67	-250.000
180.04	28.571
180.42	125.000
180.80	-500.000
181.18	300.000
181.56	50.000
181.94	-150.000
182.31	500.000
182.69	60.000
183.07	-100.000
183.45	-60.000
183.83	183.333
184.20	-9.091
184.58	77.778
184.96	100.000
185.34	-33.333
185.72	-400.000
186.09	123.077
186.47	-300.000
186.85	83.333
187.23	111.111
187.61	400.000
187.98	-133.333
188.36	11.111
188.74	-433.333
189.12	5.882
189.49	22.222
189.87	0.000
190.25	64.286
190.63	100.000
191.00	-400.000
191.38	15.789
191.76	350.000
192.14	175.000
192.51	-50.000
192.89	44.444
193.27	28.571
193.65	133.333
194.02	136.364
194.40	-10.000
194.78	-162.500
195.15	-100.000
195.53	-100.000
195.91	275.000
196.29	-50.000
196.66	161.538
197.04	114.286
197.42	66.667
197.79	-366.667
198.17	-84.615
198.55	-200.000
198.92	-266.667
199.30	200.000
199.68	-280.000
200.05	-233.333
200.43	0.000
200.81	-166.667
201.18	-100.000
201.56	1500.000
201.94	50.000
202.31	-0.000
202.69	100.000
203.07	375.000
203.44	-600.000
203.82	0.000
204.19	57.143
204.57	-566.667
204.95	100.000
205.32	10.000
205.70	28.571
206.08	100.000
206.45	233.333
206.83	92.857
207.20	-128.571
207.58	-500.000
207.96	-33.333
208.33	-50.000
208.71	-25.000
209.08	-183.333
209.46	0.000
209.84	-300.000
210.21	200.000
210.59	42.857
210.96	0.000
211.34	225.000
211.71	46.667
212.09	-57.143
212.46	-300.000
212.84	0.000
213.22	40.000
213.59	450.000
213.97	76.923
214.34	-36.364
214.72	-116.667
215.09	450.000
215.47	-7.692
215.84	27.273
216.22	-266.667
216.59	-12.500
216.97	-450.000
217.34	275.000
217.72	-220.000
218.09	-37.500
218.47	212.500
218.84	-1000.000
219.22	-55.556
219.59	-60.000
219.97	366.667
220.34	400.000
220.72	-42.857
221.09	75.000
221.47	0.000
221.84	-500.000
222.22	-350.000
222.59	18.182
222.97	108.333
223.34	-366.667
223.72	28.571
224.09	-19.048
224.46	42.857
224.84	266.667
225.21	-30.000
225.59	86.667
225.96	-300.000
226.34	325.000
226.71	28.571
227.08	-83.333
227.46	0.000
227.83	-450.000
228.21	44.444
228.58	72.727
228.95	-125.000
229.33	-10.000
229.70	-18.750
230.08	-12.500
230.45	-71.429
230.82	-85.714
231.20	60.000
231.57	7.143
231.95	-14.286
232.32	-150.000
232.69	0.000
233.07	-33.333
233.44	-140.000
233.81	-60.000
234.19	-22.222
234.56	5.882
234.93	650.000
235.31	125.000
235.68	-340.000
236.05	-30.769
236.43	-45.000
236.80	5.882
237.17	0.000
237.55	-40.000
237.92	-11.111
238.29	-2.778
238.67	0.000
239.04	-26.471
239.41	-19.512
239.79	13.333
240.16	-2.439
240.53	-5.263
240.91	-4.348
241.28	12.698
241.65	8.929
242.02	2.740
242.40	15.000
242.77	0.000
243.14	-6.061
243.51	0.000
243.89	9.195
244.26	-9.195
244.63	3.571
245.00	9.278
245.38	2.062
245.75	-10.112
246.12	-2.586
246.49	0.826
246.87	-1.923
247.24	-3.361
247.61	-21.053
247.98	0.000
248.36	-1.875
248.73	3.289
249.10	-5.195
249.47	1.266
249.84	-1.307
250.22	-0.588
250.59	-3.922
250.96	7.512
251.33	-4.070
251.70	-5.882
252.08	4.569
252.45	-6.931
252.82	0.503
253.19	-1.382
253.56	-2.804
253.94	2.252
254.31	-0.435
254.68	-1.754
255.05	-0.394
255.42	-6.114
255.79	-0.386
256.16	1.556
256.54	1.119
256.91	-0.380
257.28	-1.487
257.65	-1.124
258.02	-1.064
258.39	2.020
258.76	4.762
259.14	0.997
259.51	0.000
259.88	-1.031
260.25	0.000
260.62	1.042
260.99	-1.017
261.36	0.000
261.73	-3.797
262.10	3.343
262.47	-0.920
262.85	-0.313
263.22	0.308
263.59	-0.935
263.96	1.242
264.33	-1.818
264.70	-1.786
265.07	-2.083
265.44	1.700
265.81	-1.130
266.18	0.000
266.55	1.028
266.92	0.000
267.29	0.522
267.66	0.767
268.03	0.000
268.40	0.261
268.77	2.941
269.14	3.118
269.51	1.285
269.88	0.748
270.25	-2.551
270.62	-0.732
270.99	-2.302
271.36	-2.934
271.73	2.582
272.10	-0.730
272.47	-1.182
272.84	1.733
273.21	3.712
273.58	0.964
273.95	0.000
274.32	-1.848
274.69	-1.357
275.06	0.000
275.43	1.814
275.80	0.221
276.17	-0.920
276.54	3.212
276.91	0.219
277.28	-3.493
277.65	-1.033
278.02	0.213
278.39	-0.875
278.76	-1.887
279.13	-1.660
279.50	0.630
279.87	-0.432
280.23	-2.366
280.60	1.559
280.97	-0.606
281.34	-1.154
281.71	2.669
282.08	0.204
282.45	-2.348
282.82	-0.386
283.19	0.967
283.56	1.927
283.92	-2.467
284.29	0.000
284.66	-0.194
285.03	0.196
285.40	-0.945
285.77	-1.054
286.14	0.181
286.51	1.476
286.87	-0.366
287.24	-1.289
287.61	-2.646
287.98	1.579
288.35	0.000
288.72	1.226
289.08	-1.215
289.45	1.054
289.82	0.699
290.19	0.171
290.56	-1.201
290.93	-1.684
291.29	-0.154
291.66	1.260
292.03	0.957
292.40	-0.161
292.77	0.957
293.13	-1.461
293.50	0.152
293.87	2.595
294.24	-1.082
294.60	2.235
294.97	0.893
295.34	0.153
295.71	0.447
296.08	-0.598
296.44	-0.284
296.81	0.417
297.18	0.290
297.55	2.575
297.91	0.959
298.28	1.979
298.65	-0.271
299.02	-0.404
299.38	-1.368
299.75	-1.241
300.12	-0.131
300.48	0.000
300.85	0.507
301.22	-0.260
301.59	-0.395
301.95	0.380
302.32	1.556
302.69	1.244
303.05	-0.124
303.42	0.747
303.79	2.336
304.15	0.239
304.52	-1.070
304.89	0.585
305.25	0.363
305.62	-0.117
305.99	-0.936
306.35	1.156
306.72	0.337
307.09	1.026
307.45	1.607
307.82	0.694
308.19	1.742
308.55	0.545
308.92	1.416
309.29	0.112
309.65	-0.108
310.02	0.990
310.38	0.878
310.75	0.874
311.12	-0.646
311.48	1.379
311.85	1.675
312.22	1.160
312.58	1.592
312.95	1.067
313.31	0.828
313.68	1.047
314.05	1.429
314.41	2.062
314.78	2.371
315.14	2.364
315.51	3.934
315.87	2.049
316.24	4.550
316.61	4.331
316.97	4.563
317.34	4.102
317.70	3.728
318.07	4.231
318.43	4.314
318.80	4.451
319.16	5.859
319.53	6.933
319.89	6.693
320.26	6.478
320.62	8.425
320.99	7.516
321.35	7.400
321.72	10.384
322.08	10.171
322.45	10.152
322.81	11.493
323.18	10.599
323.54	11.583
323.91	12.074
324.27	14.160
324.64	17.603
325.00	16.606
325.37	17.447
325.73	16.682
326.10	19.074
326.46	21.883
326.83	22.835
327.19	24.673
327.56	24.848
327.92	24.912
328.29	25.893
328.65	28.774
329.01	29.412
329.38	30.507
329.74	30.689
330.11	31.047
330.47	32.560
330.84	33.173
331.20	36.787
331.56	36.296
331.93	37.352
332.29	38.313
332.66	38.371
333.02	37.639
333.38	39.780
333.75	39.652
334.11	40.466
334.48	41.070
334.84	41.575
335.20	43.458
335.57	41.342
335.93	42.186
336.29	42.449
336.66	43.415
337.02	44.424
337.38	43.704
337.75	45.364
338.11	45.176
338.47	46.624
338.84	46.118
339.20	44.698
339.56	45.138
339.93	45.748
340.29	46.055
340.65	46.774
341.02	46.454
341.38	46.372
341.74	47.173
342.11	44.714
342.47	47.153
342.83	46.453
343.20	47.735
343.56	48.000
343.92	48.539
344.28	48.506
344.65	46.632
345.01	48.833
345.37	47.519
345.73	49.038
346.10	49.439
346.46	49.453
346.82	47.791
347.19	48.047
347.55	49.290
347.91	49.919
348.27	48.019
348.63	48.807
349.00	48.646
349.36	49.543
349.72	51.078
350.08	50.984
350.45	50.279
350.81	50.166
351.17	48.860
351.53	51.184
351.89	49.463
352.26	49.920
352.62	51.048
352.98	50.281
353.34	49.517
353.70	51.052
354.07	50.161
354.43	49.960
354.79	51.363
355.15	51.587
355.51	51.108
355.87	51.294
356.24	50.082
356.60	52.708
356.96	51.508
357.32	51.038
357.68	51.525
358.04	52.342
358.40	50.965
358.77	52.313
359.13	52.682
359.49	51.233
359.85	51.794
360.21	51.276
360.57	51.109
360.93	51.891
361.29	52.190
361.66	53.762
362.02	53.182
362.38	53.846
362.74	53.974
363.10	53.123
363.46	53.002
363.82	52.141
364.18	53.432
364.54	52.868
364.90	52.186
365.26	53.348
365.62	54.599
365.98	52.859
366.35	54.406
366.71	55.432
367.07	54.790
367.43	55.068
367.79	54.205
368.15	54.487
368.51	55.499
368.87	54.343
369.23	53.718
369.59	55.248
369.95	54.765
370.31	55.275
370.67	54.776
371.03	54.892
371.39	54.705
371.75	55.604
372.11	54.779
372.47	56.879
372.83	56.636
373.19	55.920
373.55	54.874
373.91	55.004
374.27	56.627
374.63	56.210
374.99	56.525
375.35	56.616
375.71	56.643
376.07	56.812
376.42	56.735
376.78	56.980
377.14	56.940
377.50	58.898
377.86	57.697
378.22	57.371
378.58	57.885
378.94	57.593
379.30	56.644
379.66	57.931
380.02	57.082
380.38	56.786
380.74	56.493
381.09	58.589
381.45	57.920
381.81	57.927
382.17	58.503
382.53	58.713
382.89	58.883
383.25	59.179
383.61	58.659
383.97	58.095
384.32	57.536
384.68	57.523
385.04	58.027
385.40	58.867
385.76	59.623
386.12	58.862
386.48	60.792
386.83	58.656
387.19	57.326
387.55	59.536
387.91	59.780
388.27	56.654
388.62	59.786
388.98	58.257
389.34	57.714
389.70	59.478
390.06	57.143
390.42	59.780
390.77	59.385
391.13	58.890
391.49	59.250
391.85	58.804
392.20	57.690
392.56	58.360
392.92	58.191
393.28	58.844
393.64	58.198
393.99	59.875
394.35	58.444
394.71	60.153
395.07	58.014
395.42	58.288
395.78	58.371
396.14	59.142
396.50	58.022
396.85	59.433
397.21	58.396
397.57	58.307
397.92	58.119
398.28	58.736
398.64	57.711
399.00	59.029
399.35	57.619
399.71	57.209
400.07	57.195
400.42	56.120
400.78	57.624
401.14	56.745
401.49	56.700
401.85	57.282
402.21	55.843
402.57	59.000
402.92	56.023
403.28	57.769
403.63	57.692
403.99	57.717
404.35	57.214
404.70	55.417
405.06	56.698
405.42	56.743
405.77	56.246
406.13	55.006
406.49	55.477
406.84	57.335
407.20	55.870
407.55	56.085
407.91	56.684
408.27	55.959
408.62	55.077
408.98	55.453
409.34	54.833
409.69	54.457
410.05	54.126
410.40	55.432
410.76	56.031
411.11	55.875
411.47	55.753
411.83	55.367
412.18	56.371
412.54	53.745
412.89	53.941
413.25	55.776
413.60	53.913
413.96	54.969
414.31	53.841
414.67	56.126
415.03	54.993
415.38	53.851
415.74	54.267
416.09	55.127
416.45	55.030
416.80	55.188
417.16	55.180
417.51	54.430
417.87	54.107
418.22	55.894
418.58	54.783
418.93	55.674
419.29	54.353
419.64	56.254
420.00	55.730
420.35	53.851
420.71	55.893
421.06	55.249
421.42	56.190
421.77	55.376
422.12	54.540
422.48	55.604
422.83	53.828
423.19	54.853
423.54	55.085
423.90	56.125
424.25	56.716
424.61	56.671
424.96	56.098
425.31	56.615
425.67	56.749
426.02	56.066
426.38	56.731
426.73	57.748
427.09	57.468
427.44	56.647
427.79	55.922
428.15	56.371
428.50	56.996
428.85	56.634
429.21	57.329
429.56	57.951
429.92	57.319
430.27	55.489
430.62	55.776
430.98	57.749
431.33	56.572
431.68	55.887
432.04	57.574
432.39	56.418
432.74	57.366
433.10	58.678
433.45	57.228
433.80	56.703
434.16	57.507
434.51	56.667
434.86	57.201
435.22	58.441
435.57	58.266
435.92	58.563
436.28	56.828
436.63	57.102
436.98	56.895
437.34	58.863
437.69	58.736
438.04	57.550
438.39	58.949
438.75	60.170
439.10	57.725
439.45	59.830
439.81	58.838
440.16	59.798
440.51	59.343
440.86	60.967
441.22	58.541
441.57	59.713
441.92	59.129
442.27	59.867
442.63	59.529
442.98	59.621
443.33	59.377
443.68	59.204
444.03	59.116
444.39	58.583
444.74	59.866
445.09	58.241
445.44	58.405
445.79	60.444
446.15	58.315
446.50	59.013
446.85	60.414
447.20	58.498
447.55	58.371
447.91	59.560
448.26	59.419
448.61	58.607
448.96	58.233
449.31	58.902
449.66	58.304
450.02	58.471
450.37	60.166
450.72	59.049
451.07	59.241
451.42	58.614
451.77	58.710
452.12	58.433
452.47	59.691
452.83	58.775
453.18	58.444
453.53	59.735
453.88	59.684
454.23	57.959
454.58	59.446
454.93	60.374
455.28	58.857
455.63	60.074
455.98	59.771
456.34	59.515
456.69	58.704
457.04	59.168
457.39	58.262
457.74	59.855
458.09	58.211
458.44	58.572
458.79	58.263
459.14	58.753
459.49	59.403
459.84	58.770
460.19	59.527
460.54	60.330
460.89	60.227
461.24	58.571
461.59	58.907
461.94	58.742
462.29	59.771
462.64	60.598
462.99	59.986
463.34	58.832
463.69	59.266
464.04	58.838
464.39	58.460
464.74	58.160
465.09	59.014
465.44	59.261
465.79	57.086
466.14	58.723
466.49	57.332
466.84	58.894
467.19	58.260
467.54	57.918
467.89	58.497
468.24	57.238
468.59	60.063
468.94	57.524
469.29	57.967
469.64	57.758
469.99	59.776
470.34	58.430
470.68	59.284
471.03	60.722
471.38	57.917
471.73	59.524
472.08	57.259
472.43	58.322
472.78	56.751
473.13	57.959
473.48	58.436
473.83	57.721
474.17	58.808
474.52	56.733
474.87	56.727
475.22	58.877
475.57	57.651
475.92	58.091
476.27	57.974
476.61	59.259
476.96	57.111
477.31	57.923
477.66	57.079
478.01	57.945
478.36	57.789
478.70	58.347
479.05	56.538
479.40	57.870
479.75	56.986
480.10	57.092
480.45	57.600
480.79	58.510
481.14	58.863
481.49	56.650
481.84	58.301
482.19	58.045
482.53	57.554
482.88	56.993
483.23	56.766
483.58	57.123
483.92	56.147
484.27	56.381
484.62	56.298
484.97	56.716
485.31	55.347
485.66	53.815
486.01	54.881
486.36	54.832
486.70	55.604
487.05	55.752
487.40	55.869
487.75	55.127
488.09	54.883
488.44	54.952
488.79	55.771
489.13	55.809
489.48	56.178
489.83	55.247
490.17	56.000
490.52	55.889
490.87	55.669
491.22	57.163
491.56	56.025
491.91	55.019
492.26	56.198
492.60	56.382
492.95	56.272
493.30	56.033
493.64	57.171
493.99	55.459
494.34	55.874
494.68	55.000
495.03	55.864
495.37	57.360
495.72	55.225
496.07	56.927
496.41	56.651
496.76	55.596
497.11	56.265
497.45	55.800
497.80	56.559
498.14	56.533
498.49	56.171
498.84	56.387
499.18	55.873
499.53	55.704
499.87	55.691
500.22	56.330
500.56	55.825
500.91	54.970
501.26	55.907
501.60	54.993
501.95	55.410
502.29	56.077
502.64	55.454
502.98	56.685
503.33	54.611
503.67	54.651
504.02	56.207
504.36	55.517
504.71	56.162
505.06	54.857
505.40	54.619
505.75	54.691
506.09	55.651
506.44	56.211
506.78	55.561
507.13	55.533
507.47	54.047
507.82	54.808
508.16	55.996
508.51	56.243
508.85	55.259
509.19	54.763
509.54	55.228
509.88	55.609
510.23	55.998
510.57	55.104
510.92	53.198
511.26	55.865
511.61	55.556
511.95	55.014
512.30	55.155
512.64	55.815
512.98	55.643
513.33	55.232
513.67	55.088
514.02	56.693
514.36	56.457
514.70	56.177
515.05	57.814
515.39	54.427
515.74	56.826
516.08	56.366
516.42	56.655
516.77	54.769
517.11	56.558
517.46	55.655
517.80	56.675
518.14	56.338
518.49	54.447
518.83	55.893
519.17	54.882
519.52	54.648
519.86	54.802
520.20	56.258
520.55	55.097
520.89	55.458
521.23	56.301
521.58	57.539
521.92	55.641
522.26	55.368
522.61	55.844
522.95	56.821
523.29	55.337
523.64	55.909
523.98	56.773
524.32	54.768
524.66	56.594
525.01	55.649
525.35	55.800
525.69	55.758
526.04	54.630
526.38	56.680
526.72	54.218
527.06	54.540
527.41	55.079
527.75	54.826
528.09	55.083
528.43	56.786
528.78	55.446
529.12	55.806
529.46	54.841
529.80	54.338
530.15	56.304
530.49	55.892
530.83	55.472
531.17	55.205
531.51	55.746
531.86	55.133
532.20	54.280
532.54	54.595
532.88	55.784
533.22	54.772
533.57	53.080
533.91	54.634
534.25	55.208
534.59	54.586
534.93	53.682
535.27	52.982
535.62	53.402
535.96	53.816
536.30	53.892
536.64	54.859
536.98	53.868
537.32	54.765
537.66	55.610
538.01	55.105
538.35	53.675
538.69	53.063
539.03	53.383
539.37	55.653
539.71	53.851
540.05	54.650
540.39	54.432
540.73	53.417
541.07	54.972
541.42	53.898
541.76	53.476
542.10	55.196
542.44	53.301
542.78	52.787
543.12	53.846
543.46	55.146
543.80	54.615
544.14	52.270
544.48	53.364
544.82	54.887
545.16	54.372
545.50	52.537
545.84	54.108
546.18	53.617
546.52	53.208
546.86	53.702
547.20	53.863
547.54	52.297
547.88	54.144
548.22	52.728
548.56	52.243
548.90	54.111
549.24	52.342
549.58	52.186
549.92	52.109
550.26	53.333
550.60	52.639
550.94	52.950
551.28	53.323
551.62	54.692
551.96	53.233
552.30	52.997
552.64	51.763
552.98	52.954
553.32	54.066
553.66	52.758
554.00	53.796
554.34	53.914
554.68	51.770
555.02	54.315
555.36	52.356
555.69	52.088
556.03	52.891
556.37	52.740
556.71	51.625
557.05	54.139
557.39	51.599
557.73	53.673
558.07	55.053
558.41	53.139
558.75	52.923
559.08	53.743
559.42	52.698
559.76	54.524
560.10	52.523
560.44	53.537
560.78	52.727
561.12	53.456
561.45	53.338
561.79	53.431
562.13	52.945
562.47	53.669
562.81	53.026
563.15	53.244
563.48	52.122
563.82	54.564
564.16	53.621
564.50	50.811
564.84	52.610
565.17	52.180
565.51	53.279
565.85	54.047
566.19	52.984
566.52	53.686
566.86	53.728
567.20	51.557
567.54	51.946
567.88	53.310
568.21	53.111
568.55	51.739
568.89	51.386
569.23	52.143
569.56	50.088
569.90	51.523
570.24	49.609
570.57	50.655
570.91	50.331
571.25	49.622
571.59	49.362
571.92	49.333
572.26	49.064
572.60	49.271
572.93	49.200
573.27	48.715
573.61	48.866
573.95	48.607
574.28	48.570
574.62	48.411
574.96	47.918
575.29	47.577
575.63	47.396
575.97	47.899
576.30	47.737
576.64	47.550
576.98	48.777
577.31	48.194
577.65	49.060
577.98	48.331
578.32	47.862
578.66	47.367
578.99	47.567
579.33	47.439
579.67	46.884
580.00	47.899
580.34	47.587
580.67	47.552
581.01	47.815
581.35	47.136
581.68	47.353
582.02	47.660
582.35	47.298
582.69	47.974
583.02	47.362
583.36	48.001
583.70	48.079
584.03	48.374
584.37	48.447
584.70	47.500
585.04	47.098
585.37	47.568
585.71	47.914
586.04	47.680
586.38	48.093
586.72	48.350
587.05	48.267
587.39	48.588
587.72	48.824
588.06	47.634
588.39	47.935
588.73	48.199
589.06	48.663
589.40	48.254
589.73	48.521
590.07	48.754
590.40	48.916
590.73	50.412
591.07	49.194
591.40	49.466
591.74	48.824
592.07	49.814
592.41	49.735
592.74	48.626
593.08	48.341
593.41	49.226
593.75	48.021
594.08	47.820
594.41	48.544
594.75	48.511
595.08	48.165
595.42	48.730
595.75	49.118
596.09	49.179
596.42	48.863
596.75	49.822
597.09	48.884
597.42	48.735
597.75	49.519
598.09	48.710
598.42	48.827
598.76	48.777
599.09	48.317
599.42	47.442
599.76	47.517
600.09	48.605
600.42	48.143
600.76	47.697
601.09	48.282
601.42	47.552
601.76	48.233
602.09	48.886
602.42	49.663
602.76	48.345
603.09	49.668
603.42	50.125
603.76	48.750
604.09	47.874
604.42	49.027
604.76	49.355
605.09	49.543
605.42	48.081
605.75	48.774
606.09	48.875
606.42	48.040
606.75	48.745
607.09	48.703
607.42	49.136
607.75	48.979
608.08	47.889
608.42	47.328
608.75	49.976
609.08	50.872
609.41	48.782
609.75	49.194
610.08	49.326
610.41	48.357
610.74	48.854
611.07	49.612
611.41	49.092
611.74	49.467
612.07	48.394
612.40	49.179
612.73	49.492
613.07	48.988
613.40	49.836
613.73	48.909
614.06	49.972
614.39	49.746
614.72	48.459
615.06	49.665
615.39	48.308
615.72	48.762
616.05	48.436
616.38	48.547
616.71	49.847
617.05	50.401
617.38	50.094
617.71	48.553
618.04	50.413
618.37	51.450
618.70	50.759
619.03	52.014
619.36	50.072
619.69	51.175
620.03	51.059
620.36	50.572
620.69	50.178
621.02	51.223
621.35	52.282
621.68	51.701
622.01	51.417
622.34	52.035
622.67	51.972
623.00	51.072
623.33	50.991
623.66	49.738
623.99	50.983
624.32	50.951
624.65	50.075
624.99	51.994
625.32	50.341
625.65	52.553
625.98	52.458
626.31	50.457
626.64	52.686
626.97	50.611
627.30	52.277
627.63	52.686
627.96	54.358
628.29	53.469
628.62	54.474
628.95	52.405
629.28	53.831
629.61	51.446
629.94	52.297
630.26	50.791
630.59	54.318
630.92	53.333
631.25	51.590
631.58	53.304
631.91	52.851
632.24	53.784
632.57	55.341
632.90	53.737
633.23	52.824
633.56	55.164
633.89	54.994
634.22	56.296
634.55	54.511
634.88	55.811
635.20	52.308
635.53	58.400
635.86	52.796
636.19	54.722
