SpectraSuite Data File
++++++++++++++++++++++++++++++++++++
Date: Fri May 15 20:11:34 PDT 2015
User: schluterlab
Dark Spectrum Present: Yes
Reference Spectrum Present: Yes
Number of Sampled Component Spectra: 1
Spectrometers: USB2E3373
Integration Time (usec): 3000 (USB2E3373)
Spectra Averaged: 3 (USB2E3373)
Boxcar Smoothing: 0 (USB2E3373)
Correct for Electrical Dark: No (USB2E3373)
Strobe/Lamp Enabled: No (USB2E3373)
Correct for Detector Non-linearity: No (USB2E3373)
Correct for Stray Light: No (USB2E3373)
Number of Pixels in Processed Spectrum: 2048
>>>>>Begin Processed Spectral Data<<<<<
178.53	0.000
178.91	0.000
179.29	12.500
179.67	-350.000
180.04	42.857
180.42	175.000
180.80	0.000
181.18	-233.333
181.56	-50.000
181.94	50.000
182.31	800.000
182.69	-120.000
183.07	-200.000
183.45	-100.000
183.83	116.667
184.20	18.182
184.58	66.667
184.96	-175.000
185.34	-366.667
185.72	150.000
186.09	69.231
186.47	-800.000
186.85	150.000
187.23	88.889
187.61	-1000.000
187.98	100.000
188.36	111.111
188.74	266.667
189.12	52.941
189.49	38.889
189.87	0.000
190.25	71.429
190.63	450.000
191.00	33.333
191.38	42.105
191.76	200.000
192.14	-50.000
192.51	-50.000
192.89	-22.222
193.27	-71.429
193.65	150.000
194.02	63.636
194.40	60.000
194.78	-100.000
195.15	41.667
195.53	62.500
195.91	400.000
196.29	25.000
196.66	100.000
197.04	-14.286
197.42	-44.444
197.79	-66.667
198.17	-69.231
198.55	300.000
198.92	100.000
199.30	-300.000
199.68	-60.000
200.05	100.000
200.43	0.000
200.81	33.333
201.18	33.333
201.56	600.000
201.94	-100.000
202.31	-200.000
202.69	-240.000
203.07	125.000
203.44	600.000
203.82	0.000
204.19	64.286
204.57	-433.333
204.95	87.500
205.32	50.000
205.70	-114.286
206.08	75.000
206.45	144.444
206.83	42.857
207.20	14.286
207.58	-0.000
207.96	-133.333
208.33	-30.000
208.71	-50.000
209.08	-33.333
209.46	-200.000
209.84	-80.000
210.21	300.000
210.59	71.429
210.96	0.000
211.34	-200.000
211.71	66.667
212.09	-42.857
212.46	-1000.000
212.84	0.000
213.22	110.000
213.59	100.000
213.97	23.077
214.34	0.000
214.72	0.000
215.09	350.000
215.47	-30.769
215.84	-109.091
216.22	-100.000
216.59	12.500
216.97	400.000
217.34	0.000
217.72	-240.000
218.09	112.500
218.47	62.500
218.84	-500.000
219.22	-22.222
219.59	-40.000
219.97	100.000
220.34	100.000
220.72	128.571
221.09	25.000
221.47	-250.000
221.84	-500.000
222.22	-300.000
222.59	45.455
222.97	75.000
223.34	0.000
223.72	-64.286
224.09	-14.286
224.46	17.857
224.84	266.667
225.21	-50.000
225.59	33.333
225.96	550.000
226.34	375.000
226.71	157.143
227.08	-16.667
227.46	-50.000
227.83	-400.000
228.21	55.556
228.58	-9.091
228.95	125.000
229.33	100.000
229.70	75.000
230.08	-100.000
230.45	-85.714
230.82	-42.857
231.20	-40.000
231.57	21.429
231.95	-71.429
232.32	-70.000
232.69	28.571
233.07	-66.667
233.44	20.000
233.81	-60.000
234.19	11.111
234.56	23.529
234.93	350.000
235.31	-150.000
235.68	-240.000
236.05	-100.000
236.43	-20.000
236.80	0.000
237.17	12.500
237.55	-15.000
237.92	3.704
238.29	25.000
238.67	20.000
239.04	5.882
239.41	-34.146
239.79	-13.333
240.16	17.073
240.53	-13.158
240.91	-8.696
241.28	-4.762
241.65	17.857
242.02	19.178
242.40	8.333
242.77	13.559
243.14	1.515
243.51	6.250
243.89	17.241
244.26	-5.747
244.63	5.952
245.00	13.402
245.38	3.093
245.75	-5.618
246.12	7.759
246.49	9.091
246.87	5.769
247.24	-2.521
247.61	-8.772
247.98	-7.317
248.36	9.375
248.73	12.500
249.10	5.844
249.47	10.127
249.84	4.575
250.22	5.882
250.59	2.614
250.96	11.268
251.33	-2.326
251.70	7.059
252.08	10.660
252.45	3.465
252.82	6.030
253.19	8.756
253.56	1.869
253.94	11.261
254.31	4.348
254.68	8.772
255.05	4.724
255.42	3.057
255.79	4.633
256.16	3.113
256.54	11.194
256.91	8.365
257.28	4.089
257.65	4.869
258.02	2.482
258.39	6.734
258.76	6.593
259.14	5.980
259.51	4.531
259.88	4.811
260.25	4.575
260.62	7.292
260.99	3.051
261.36	2.740
261.73	7.278
262.10	9.119
262.47	4.601
262.85	2.821
263.22	5.538
263.59	5.296
263.96	8.385
264.33	5.152
264.70	5.655
265.07	3.571
265.44	5.382
265.81	3.955
266.18	6.011
266.55	9.769
266.92	4.922
267.29	7.050
267.66	4.092
268.03	6.021
268.40	4.439
268.77	8.824
269.14	4.556
269.51	7.712
269.88	2.993
270.25	4.082
270.62	3.902
270.99	3.581
271.36	5.379
271.73	6.103
272.10	7.786
272.47	4.965
272.84	5.198
273.21	7.657
273.58	6.747
273.95	4.577
274.32	4.157
274.69	4.299
275.06	7.366
275.43	6.803
275.80	6.181
276.17	5.287
276.54	6.424
276.91	8.114
277.28	6.114
277.65	6.198
278.02	5.319
278.39	7.440
278.76	7.338
279.13	3.942
279.50	6.513
279.87	6.479
280.23	5.376
280.60	7.407
280.97	7.879
281.34	5.962
281.71	6.982
282.08	5.930
282.45	4.892
282.82	5.405
283.19	7.157
283.56	7.129
283.92	3.795
284.29	5.000
284.66	3.876
285.03	4.715
285.40	5.482
285.77	4.745
286.14	6.318
286.51	6.827
286.87	3.473
287.24	4.604
287.61	4.409
287.98	7.018
288.35	4.333
288.72	6.305
289.08	5.035
289.45	5.448
289.82	6.119
290.19	3.754
290.56	3.945
290.93	2.862
291.29	4.314
291.66	3.937
292.03	5.582
292.40	4.032
292.77	3.828
293.13	2.110
293.50	2.731
293.87	3.053
294.24	3.555
294.60	5.067
294.97	5.506
295.34	4.755
295.71	3.726
296.08	4.634
296.44	2.560
296.81	4.167
297.18	4.638
297.55	5.691
297.91	4.795
298.28	3.166
298.65	3.121
299.02	4.852
299.38	1.778
299.75	4.000
300.12	4.712
300.48	4.216
300.85	5.196
301.22	3.766
301.59	4.474
301.95	4.557
302.32	4.540
302.69	2.736
303.05	2.970
303.42	4.608
303.79	5.374
304.15	5.376
304.52	3.092
304.89	3.392
305.25	2.421
305.62	1.867
305.99	3.158
306.35	3.353
306.72	2.362
307.09	3.649
307.45	4.707
307.82	2.662
308.19	3.949
308.55	2.508
308.92	4.575
309.29	2.793
309.65	3.229
310.02	3.300
310.38	3.622
310.75	4.699
311.12	2.799
311.48	3.924
311.85	4.712
312.22	2.848
312.58	3.397
312.95	3.202
313.31	3.934
313.68	2.513
314.05	2.959
314.41	3.402
314.78	3.093
315.14	3.700
315.51	4.658
315.87	3.484
316.24	4.752
316.61	4.724
316.97	3.274
317.34	3.125
317.70	4.207
318.07	3.846
318.43	3.824
318.80	4.261
319.16	4.004
319.53	5.888
319.89	4.035
320.26	4.049
320.62	4.012
320.99	3.758
321.35	3.803
321.72	4.465
322.08	3.625
322.45	3.147
322.81	4.322
323.18	4.024
323.54	2.799
323.91	3.408
324.27	4.785
324.64	4.588
325.00	4.927
325.37	4.316
325.73	2.811
326.10	4.269
326.46	4.664
326.83	4.549
327.19	4.446
327.56	3.997
327.92	4.842
328.29	3.482
328.65	3.962
329.01	4.412
329.38	3.410
329.74	4.155
330.11	4.356
330.47	2.783
330.84	2.885
331.20	4.848
331.56	3.981
331.93	5.114
332.29	4.675
332.66	4.706
333.02	4.182
333.38	3.850
333.75	5.495
334.11	4.297
334.48	4.714
334.84	4.487
335.20	4.941
335.57	3.626
335.93	4.065
336.29	5.064
336.66	3.633
337.02	3.996
337.38	3.981
337.75	4.545
338.11	3.877
338.47	4.015
338.84	4.898
339.20	4.205
339.56	4.862
339.93	4.029
340.29	4.679
340.65	4.480
341.02	4.521
341.38	4.159
341.74	4.947
342.11	3.726
342.47	3.381
342.83	4.758
343.20	4.355
343.56	3.826
343.92	3.986
344.28	4.611
344.65	2.677
345.01	4.235
345.37	4.205
345.73	6.192
346.10	4.142
346.46	4.626
346.82	3.928
347.19	3.741
347.55	3.592
347.91	4.126
348.27	4.123
348.63	3.066
349.00	4.266
349.36	4.489
349.72	4.146
350.08	4.918
350.45	4.549
350.81	3.488
351.17	3.420
351.53	5.224
351.89	3.551
352.26	4.080
352.62	4.435
352.98	3.936
353.34	3.060
353.70	5.259
354.07	5.403
354.43	3.763
354.79	4.707
355.15	4.762
355.51	5.222
355.87	4.531
356.24	3.426
356.60	4.446
356.96	4.921
357.32	3.914
357.68	3.518
358.04	3.069
358.40	4.582
358.77	4.147
359.13	3.843
359.49	3.929
359.85	3.744
360.21	2.951
360.57	3.749
360.93	4.463
361.29	3.097
361.66	5.016
362.02	4.545
362.38	3.884
362.74	3.709
363.10	4.515
363.46	4.003
363.82	5.109
364.18	3.838
364.54	3.676
364.90	3.584
365.26	4.803
365.62	4.964
365.98	4.106
366.35	5.098
366.71	3.991
367.07	3.846
367.43	4.170
367.79	4.240
368.15	3.733
368.51	4.370
368.87	4.164
369.23	4.043
369.59	3.499
369.95	4.179
370.31	4.408
370.67	3.731
371.03	3.809
371.39	4.303
371.75	4.176
372.11	4.351
372.47	4.216
372.83	4.258
373.19	5.136
373.55	3.610
373.91	4.464
374.27	4.111
374.63	5.384
374.99	4.255
375.35	4.387
375.71	4.895
376.07	4.003
376.42	3.537
376.78	4.094
377.14	5.078
377.50	4.714
377.86	4.083
378.22	4.340
378.58	3.590
378.94	3.592
379.30	4.429
379.66	4.828
380.02	3.924
380.38	2.921
380.74	4.428
381.09	5.031
381.45	4.709
381.81	4.442
382.17	4.442
382.53	4.247
382.89	4.269
383.25	4.231
383.61	4.817
383.97	3.746
384.32	4.315
384.68	4.149
385.04	4.473
385.40	4.356
385.76	5.157
386.12	5.886
386.48	4.342
386.83	4.566
387.19	5.128
387.55	5.019
387.91	4.462
388.27	5.250
388.62	4.594
388.98	5.095
389.34	5.559
389.70	6.029
390.06	4.657
390.42	4.663
390.77	5.232
391.13	4.855
391.49	4.334
391.85	5.263
392.20	4.457
392.56	4.768
392.92	6.342
393.28	4.658
393.64	5.045
393.99	6.144
394.35	4.491
394.71	5.364
395.07	5.531
395.42	5.343
395.78	4.560
396.14	5.549
396.50	5.327
396.85	4.958
397.21	5.952
397.57	5.016
397.92	5.932
398.28	5.747
398.64	5.000
399.00	5.248
399.35	4.740
399.71	5.744
400.07	6.167
400.42	5.753
400.78	6.062
401.14	5.566
401.49	6.552
401.85	5.850
402.21	5.904
402.57	6.125
402.92	5.395
403.28	5.576
403.63	5.422
403.99	5.548
404.35	5.434
404.70	6.726
405.06	5.699
405.42	5.594
405.77	4.765
406.13	5.413
406.49	5.743
406.84	5.623
407.20	6.382
407.55	5.344
407.91	5.749
408.27	5.736
408.62	6.523
408.98	6.038
409.34	5.328
409.69	5.814
410.05	6.281
410.40	6.235
410.76	5.790
411.11	5.688
411.47	5.260
411.83	5.712
412.18	5.534
412.54	6.554
412.89	5.357
413.25	5.535
413.60	5.901
413.96	5.460
414.31	6.098
414.67	5.709
415.03	5.659
415.38	6.266
415.74	6.254
416.09	7.054
416.45	5.739
416.80	6.543
417.16	6.561
417.51	6.262
417.87	5.671
418.22	7.124
418.58	5.953
418.93	6.708
419.29	5.762
419.64	5.962
420.00	6.549
420.35	6.746
420.71	6.440
421.06	6.384
421.42	6.911
421.77	6.301
422.12	6.300
422.48	6.226
422.83	6.845
423.19	5.982
423.54	5.526
423.90	7.067
424.25	6.774
424.61	6.304
424.96	6.504
425.31	6.817
425.67	6.279
426.02	6.890
426.38	5.886
426.73	7.385
427.09	7.215
427.44	6.882
427.79	6.718
428.15	6.493
428.50	6.239
428.85	6.450
429.21	6.508
429.56	6.739
429.92	6.934
430.27	7.268
430.62	6.900
430.98	6.794
431.33	7.308
431.68	7.012
432.04	6.316
432.39	6.674
432.74	6.554
433.10	7.701
433.45	6.153
433.80	6.790
434.16	6.593
434.51	6.452
434.86	6.969
435.22	7.123
435.57	6.737
435.92	6.707
436.28	7.335
436.63	7.473
436.98	6.721
437.34	6.836
437.69	7.752
438.04	6.382
438.39	6.720
438.75	7.225
439.10	7.131
439.45	7.060
439.81	7.217
440.16	7.245
440.51	8.119
440.86	7.311
441.22	7.127
441.57	7.340
441.92	8.027
442.27	7.705
442.63	8.084
442.98	8.271
443.33	7.401
443.68	6.897
444.03	7.104
444.39	7.182
444.74	6.968
445.09	7.739
445.44	7.293
445.79	8.097
446.15	7.434
446.50	6.933
446.85	7.067
447.20	7.769
447.55	7.980
447.91	7.614
448.26	8.537
448.61	8.117
448.96	7.573
449.31	7.630
449.66	7.782
450.02	7.074
450.37	7.469
450.72	7.274
451.07	7.025
451.42	8.427
451.77	7.896
452.12	6.519
452.47	7.469
452.83	7.538
453.18	7.337
453.53	8.028
453.88	7.650
454.23	7.929
454.58	8.186
454.93	7.861
455.28	7.238
455.63	8.122
455.98	8.358
456.34	8.110
456.69	8.069
457.04	8.003
457.39	7.837
457.74	7.618
458.09	7.122
458.44	7.899
458.79	7.115
459.14	8.524
459.49	8.119
459.84	8.347
460.19	7.949
460.54	8.007
460.89	7.955
461.24	8.137
461.59	8.729
461.94	7.736
462.29	8.444
462.64	7.973
462.99	8.666
463.34	7.302
463.69	8.044
464.04	7.990
464.39	8.065
464.74	8.037
465.09	8.546
465.44	8.540
465.79	8.673
466.14	8.381
466.49	8.338
466.84	7.674
467.19	8.636
467.54	8.301
467.89	7.391
468.24	8.394
468.59	8.571
468.94	7.556
469.29	8.787
469.64	8.544
469.99	8.479
470.34	6.758
470.68	9.993
471.03	7.573
471.38	8.060
471.73	7.773
472.08	8.752
472.43	7.584
472.78	8.225
473.13	8.980
473.48	8.013
473.83	8.717
474.17	9.067
474.52	7.466
474.87	8.848
475.22	8.176
475.57	7.849
475.92	8.722
476.27	8.789
476.61	8.623
476.96	7.808
477.31	7.896
477.66	7.528
478.01	8.029
478.36	8.007
478.70	8.265
479.05	8.791
479.40	8.214
479.75	8.186
480.10	8.141
480.45	8.300
480.79	8.661
481.14	8.504
481.49	8.227
481.84	8.639
482.19	7.998
482.53	8.489
482.88	8.687
483.23	8.733
483.58	8.679
483.92	8.083
484.27	8.387
484.62	8.606
484.97	7.794
485.31	8.345
485.66	7.845
486.01	7.916
486.36	7.962
486.70	8.072
487.05	7.952
487.40	8.170
487.75	8.169
488.09	7.880
488.44	8.528
488.79	8.517
489.13	8.734
489.48	8.465
489.83	8.789
490.17	8.494
490.52	8.268
490.87	8.885
491.22	8.262
491.56	9.108
491.91	7.839
492.26	9.188
492.60	8.397
492.95	8.903
493.30	8.109
493.64	8.153
493.99	8.551
494.34	8.010
494.68	8.238
495.03	7.981
495.37	8.587
495.72	8.632
496.07	8.195
496.41	8.160
496.76	7.969
497.11	8.151
497.45	9.308
497.80	8.628
498.14	8.793
498.49	8.228
498.84	8.283
499.18	8.534
499.53	8.581
499.87	8.171
500.22	8.309
500.56	8.422
500.91	7.932
501.26	7.909
501.60	8.214
501.95	9.558
502.29	8.620
502.64	8.687
502.98	8.140
503.33	7.973
503.67	8.096
504.02	8.944
504.36	9.649
504.71	7.778
505.06	8.103
505.40	8.528
505.75	8.299
506.09	9.123
506.44	9.240
506.78	8.776
507.13	9.307
507.47	8.512
507.82	8.173
508.16	8.875
508.51	8.499
508.85	8.948
509.19	8.356
509.54	8.150
509.88	8.630
510.23	9.414
510.57	8.284
510.92	7.996
511.26	8.238
511.61	8.031
511.95	8.932
512.30	8.758
512.64	9.071
512.98	8.703
513.33	8.898
513.67	8.300
514.02	9.211
514.36	9.600
514.70	9.674
515.05	9.224
515.39	8.619
515.74	9.521
516.08	8.846
516.42	9.600
516.77	9.479
517.11	9.199
517.46	8.558
517.80	8.999
518.14	8.328
518.49	8.293
518.83	8.688
519.17	8.672
519.52	8.999
519.86	9.004
520.20	9.235
520.55	8.818
520.89	9.410
521.23	8.550
521.58	9.905
521.92	9.359
522.26	9.109
522.61	8.831
522.95	9.669
523.29	9.657
523.64	9.339
523.98	9.981
524.32	8.247
524.66	9.027
525.01	9.221
525.35	9.916
525.69	7.946
526.04	7.804
526.38	10.441
526.72	7.979
527.06	9.533
527.41	8.971
527.75	9.383
528.09	9.037
528.43	10.196
528.78	8.647
529.12	9.677
529.46	9.162
529.80	9.310
530.15	10.495
530.49	8.956
530.83	9.439
531.17	9.066
531.51	9.508
531.86	9.109
532.20	9.255
532.54	9.258
532.88	9.103
533.22	9.073
533.57	9.109
533.91	8.420
534.25	10.417
534.59	8.788
534.93	8.559
535.27	8.756
535.62	8.814
535.96	9.980
536.30	10.422
536.64	9.786
536.98	9.268
537.32	9.957
537.66	10.028
538.01	9.790
538.35	8.738
538.69	9.387
539.03	8.954
539.37	9.152
539.71	9.543
540.05	8.554
540.39	9.903
540.73	9.344
541.07	8.909
541.42	10.349
541.76	9.566
542.10	8.603
542.44	9.590
542.78	8.878
543.12	8.448
543.46	9.944
543.80	8.813
544.14	8.745
544.48	9.327
544.82	8.339
545.16	10.178
545.50	9.880
545.84	8.711
546.18	9.929
546.52	9.445
546.86	9.202
547.20	8.727
547.54	8.127
547.88	9.715
548.22	9.270
548.56	9.169
548.90	9.501
549.24	9.091
549.58	10.085
549.92	8.649
550.26	8.864
550.60	9.591
550.94	9.559
551.28	9.274
551.62	9.769
551.96	9.699
552.30	8.406
552.64	9.379
552.98	9.916
553.32	9.486
553.66	8.345
554.00	10.000
554.34	9.749
554.68	10.029
555.02	8.929
555.36	9.648
555.69	8.278
556.03	8.708
556.37	9.395
556.71	10.253
557.05	8.874
557.39	8.476
557.73	8.996
558.07	10.709
558.41	8.652
558.75	8.574
559.08	9.141
559.42	8.571
559.76	9.047
560.10	9.557
560.44	8.116
560.78	9.371
561.12	9.732
561.45	9.276
561.79	9.734
562.13	9.865
562.47	8.849
562.81	9.078
563.15	9.591
563.48	8.628
563.82	9.609
564.16	7.869
564.50	9.324
564.84	9.304
565.17	9.390
565.51	9.085
565.85	10.082
566.19	9.549
566.52	9.115
566.86	9.704
567.20	8.842
567.54	9.063
567.88	8.846
568.21	9.389
568.55	8.696
568.89	9.138
569.23	8.907
569.56	9.151
569.90	8.892
570.24	8.969
570.57	8.945
570.91	9.132
571.25	8.057
571.59	8.191
571.92	8.415
572.26	8.092
572.60	8.682
572.93	8.911
573.27	8.119
573.61	8.741
573.95	8.738
574.28	8.501
574.62	8.289
574.96	8.651
575.29	8.279
575.63	8.085
575.97	8.458
576.30	8.378
576.64	8.000
576.98	8.623
577.31	8.307
577.65	8.647
577.98	8.580
578.32	8.238
578.66	7.887
578.99	8.493
579.33	8.544
579.67	8.605
580.00	8.785
580.34	8.433
580.67	8.234
581.01	8.405
581.35	8.613
581.68	8.384
582.02	7.983
582.35	8.189
582.69	8.337
583.02	8.267
583.36	8.280
583.70	8.723
584.03	8.702
584.37	8.752
584.70	8.819
585.04	8.238
585.37	8.182
585.71	8.270
586.04	8.245
586.38	7.895
586.72	8.723
587.05	8.608
587.39	8.694
587.72	8.967
588.06	8.248
588.39	8.573
588.73	8.730
589.06	8.937
589.40	8.676
589.73	9.456
590.07	9.026
590.40	9.133
590.73	8.855
591.07	9.033
591.40	8.549
591.74	8.733
592.07	9.462
592.41	9.364
592.74	8.483
593.08	8.802
593.41	8.171
593.75	8.669
594.08	8.239
594.41	8.734
594.75	8.435
595.08	9.270
595.42	8.060
595.75	9.087
596.09	8.483
596.42	9.177
596.75	9.059
597.09	9.476
597.42	9.350
597.75	8.887
598.09	8.918
598.42	8.980
598.76	8.923
599.09	8.934
599.42	8.450
599.76	8.540
600.09	8.673
600.42	8.795
600.76	8.432
601.09	8.397
601.42	8.892
601.76	7.582
602.09	8.911
602.42	9.141
602.76	9.083
603.09	8.846
603.42	9.197
603.76	8.508
604.09	7.979
604.42	8.503
604.76	8.767
605.09	8.912
605.42	8.939
605.75	8.363
606.09	8.662
606.42	8.549
606.75	9.004
607.09	9.363
607.42	8.197
607.75	8.304
608.08	7.907
608.42	8.451
608.75	9.349
609.08	8.969
609.41	8.731
609.75	8.720
610.08	9.436
610.41	8.502
610.74	8.776
611.07	8.837
611.41	8.718
611.74	9.435
612.07	8.512
612.40	9.081
612.73	9.322
613.07	8.943
613.40	8.862
613.73	8.898
614.06	9.794
614.39	9.024
614.72	8.683
615.06	9.218
615.39	8.242
615.72	8.827
616.05	8.994
616.38	8.376
616.71	8.746
617.05	9.203
617.38	8.548
617.71	7.987
618.04	9.460
618.37	8.953
618.70	9.967
619.03	9.444
619.36	8.538
619.69	9.325
620.03	10.080
620.36	8.798
620.69	9.065
621.02	9.098
621.35	8.797
621.68	8.844
622.01	9.000
622.34	9.737
622.67	9.385
623.00	9.342
623.33	8.841
623.66	8.601
623.99	9.077
624.32	8.365
624.65	8.947
624.99	9.029
625.32	7.885
625.65	9.112
625.98	9.186
626.31	8.313
626.64	9.965
626.97	10.646
627.30	9.895
627.63	10.312
627.96	9.434
628.29	9.528
628.62	10.718
628.95	9.319
629.28	9.173
629.61	8.674
629.94	9.971
630.26	8.794
630.59	10.094
630.92	10.154
631.25	9.641
631.58	8.700
631.91	9.211
632.24	8.830
632.57	8.977
632.90	9.371
633.23	9.294
633.56	9.572
633.89	9.248
634.22	9.753
634.55	8.132
634.88	8.940
635.20	9.744
635.53	10.400
635.86	9.363
636.19	9.314
636.52	9.566
636.85	8.313
637.18	8.302
637.51	9.308
637.83	8.804
638.16	10.778
638.49	7.902
638.82	11.316
639.15	10.041
639.48	9.766
639.81	10.460
640.13	9.812
640.46	9.329
640.79	9.573
641.12	9.749
641.45	8.859
641.77	9.333
642.10	11.690
642.43	9.807
642.76	10.726
643.09	11.632
643.41	8.738
643.74	11.862
644.07	8.867
644.40	10.135
644.73	9.457
645.05	10.570
645.38	11.111
645.71	8.511
646.04	11.490
646.36	11.348
646.69	9.532
647.02	9.641
647.35	10.075
647.67	11.152
648.00	12.873
648.33	10.410
648.66	8.136
648.98	7.203
649.31	7.769
649.64	8.791
649.96	9.076
650.29	10.392
650.62	9.060
650.94	9.259
651.27	9.311
651.60	10.090
651.92	11.538
652.25	9.769
652.58	8.667
652.90	9.777
653.23	8.739
653.56	8.460
653.88	10.481
654.21	7.005
654.54	9.677
654.86	12.224
655.19	8.918
655.52	8.901
655.84	7.775
656.17	8.090
656.49	11.093
656.82	11.959
657.15	9.099
657.47	7.001
657.80	5.181
658.13	5.196
658.45	8.275
