SpectraSuite Data File
++++++++++++++++++++++++++++++++++++
Date: Fri May 15 20:11:56 PDT 2015
User: schluterlab
Dark Spectrum Present: Yes
Reference Spectrum Present: Yes
Number of Sampled Component Spectra: 1
Spectrometers: USB2E3373
Integration Time (usec): 3000 (USB2E3373)
Spectra Averaged: 3 (USB2E3373)
Boxcar Smoothing: 0 (USB2E3373)
Correct for Electrical Dark: No (USB2E3373)
Strobe/Lamp Enabled: No (USB2E3373)
Correct for Detector Non-linearity: No (USB2E3373)
Correct for Stray Light: No (USB2E3373)
Number of Pixels in Processed Spectrum: 2048
>>>>>Begin Processed Spectral Data<<<<<
178.53	0.000
178.91	0.000
179.29	12.500
179.67	-100.000
180.04	-85.714
180.42	0.000
180.80	-500.000
181.18	-100.000
181.56	100.000
181.94	0.000
182.31	-400.000
182.69	-20.000
183.07	-233.333
183.45	100.000
183.83	116.667
184.20	27.273
184.58	100.000
184.96	-100.000
185.34	-166.667
185.72	-150.000
186.09	30.769
186.47	-600.000
186.85	-16.667
187.23	144.444
187.61	-800.000
187.98	-266.667
188.36	88.889
188.74	-200.000
189.12	29.412
189.49	66.667
189.87	0.000
190.25	21.429
190.63	600.000
191.00	-100.000
191.38	21.053
191.76	-500.000
192.14	-0.000
192.51	350.000
192.89	0.000
193.27	-100.000
193.65	-0.000
194.02	45.455
194.40	80.000
194.78	-62.500
195.15	16.667
195.53	-50.000
195.91	325.000
196.29	-125.000
196.66	76.923
197.04	-28.571
197.42	-77.778
197.79	-366.667
198.17	-61.538
198.55	100.000
198.92	33.333
199.30	1100.000
199.68	40.000
200.05	-133.333
200.43	0.000
200.81	33.333
201.18	-66.667
201.56	400.000
201.94	200.000
202.31	100.000
202.69	-160.000
203.07	-0.000
203.44	-400.000
203.82	0.000
204.19	57.143
204.57	-500.000
204.95	25.000
205.32	80.000
205.70	-42.857
206.08	0.000
206.45	200.000
206.83	128.571
207.20	-28.571
207.58	100.000
207.96	-133.333
208.33	-40.000
208.71	-25.000
209.08	-50.000
209.46	-1400.000
209.84	40.000
210.21	-400.000
210.59	114.286
210.96	166.667
211.34	-100.000
211.71	20.000
212.09	-42.857
212.46	-800.000
212.84	0.000
213.22	120.000
213.59	100.000
213.97	53.846
214.34	127.273
214.72	16.667
215.09	200.000
215.47	46.154
215.84	9.091
216.22	0.000
216.59	0.000
216.97	50.000
217.34	-150.000
217.72	-140.000
218.09	100.000
218.47	100.000
218.84	-1000.000
219.22	-88.889
219.59	20.000
219.97	100.000
220.34	200.000
220.72	-57.143
221.09	-125.000
221.47	0.000
221.84	-250.000
222.22	-500.000
222.59	81.818
222.97	58.333
223.34	33.333
223.72	35.714
224.09	23.810
224.46	53.571
224.84	100.000
225.21	-60.000
225.59	86.667
225.96	600.000
226.34	175.000
226.71	0.000
227.08	16.667
227.46	-37.500
227.83	-750.000
228.21	122.222
228.58	72.727
228.95	-50.000
229.33	70.000
229.70	25.000
230.08	-25.000
230.45	71.429
230.82	114.286
231.20	-66.667
231.57	35.714
231.95	57.143
232.32	40.000
232.69	28.571
233.07	133.333
233.44	140.000
233.81	-10.000
234.19	33.333
234.56	23.529
234.93	400.000
235.31	325.000
235.68	-140.000
236.05	-38.462
236.43	-55.000
236.80	-17.647
237.17	3.125
237.55	20.000
237.92	7.407
238.29	0.000
238.67	6.667
239.04	8.824
239.41	-4.878
239.79	3.333
240.16	24.390
240.53	10.526
240.91	2.174
241.28	15.873
241.65	35.714
242.02	15.068
242.40	10.000
242.77	25.424
243.14	12.121
243.51	1.250
243.89	13.793
244.26	8.046
244.63	4.762
245.00	13.402
245.38	11.340
245.75	0.000
246.12	5.172
246.49	9.091
246.87	10.577
247.24	-0.840
247.61	-8.772
247.98	1.626
248.36	6.250
248.73	12.500
249.10	6.494
249.47	6.329
249.84	12.418
250.22	0.000
250.59	2.614
250.96	10.329
251.33	1.163
251.70	4.118
252.08	5.584
252.45	8.416
252.82	7.035
253.19	5.991
253.56	1.402
253.94	8.559
254.31	8.696
254.68	8.333
255.05	4.724
255.42	3.057
255.79	7.336
256.16	7.393
256.54	6.716
256.91	3.422
257.28	3.346
257.65	2.996
258.02	3.901
258.39	9.764
258.76	8.059
259.14	4.983
259.51	7.443
259.88	8.247
260.25	8.824
260.62	8.681
260.99	5.085
261.36	2.740
261.73	6.013
262.10	5.167
262.47	3.681
262.85	2.821
263.22	4.308
263.59	4.984
263.96	7.143
264.33	5.758
264.70	3.571
265.07	4.167
265.44	4.816
265.81	6.780
266.18	7.377
266.55	8.226
266.92	6.218
267.29	3.916
267.66	7.417
268.03	4.450
268.40	4.961
268.77	5.615
269.14	3.597
269.51	5.913
269.88	4.738
270.25	3.571
270.62	4.146
270.99	1.279
271.36	5.623
271.73	4.930
272.10	4.623
272.47	4.728
272.84	5.693
273.21	6.265
273.58	6.747
273.95	6.178
274.32	4.850
274.69	3.167
275.06	7.589
275.43	2.721
275.80	4.415
276.17	4.828
276.54	7.495
276.91	4.825
277.28	5.022
277.65	7.231
278.02	4.681
278.39	5.252
278.76	3.564
279.13	2.905
279.50	6.513
279.87	2.592
280.23	3.656
280.60	6.628
280.97	5.859
281.34	4.231
281.71	6.366
282.08	3.272
282.45	3.327
282.82	3.668
283.19	4.255
283.56	4.624
283.92	3.416
284.29	2.885
284.66	3.488
285.03	5.501
285.40	4.726
285.77	2.636
286.14	4.874
286.51	4.982
286.87	5.302
287.24	5.525
287.61	5.467
287.98	5.965
288.35	5.893
288.72	5.429
289.08	3.472
289.45	4.745
289.82	4.021
290.19	2.389
290.56	4.803
290.93	5.051
291.29	5.393
291.66	4.724
292.03	4.306
292.40	4.677
292.77	2.871
293.13	2.273
293.50	2.731
293.87	4.885
294.24	3.400
294.60	3.577
294.97	4.167
295.34	3.221
295.71	4.471
296.08	4.335
296.44	2.987
296.81	2.917
297.18	3.043
297.55	5.827
297.91	4.658
298.28	5.145
298.65	5.020
299.02	3.369
299.38	1.642
299.75	3.310
300.12	2.618
300.48	3.821
300.85	4.309
301.22	3.636
301.59	3.816
301.95	4.810
302.32	4.021
302.69	5.100
303.05	3.342
303.42	5.230
303.79	4.439
304.15	4.421
304.52	3.092
304.89	4.678
305.25	3.269
305.62	2.917
305.99	4.327
306.35	4.624
306.72	1.912
307.09	3.079
307.45	4.707
307.82	3.241
308.19	5.575
308.55	4.471
308.92	4.793
309.29	3.128
309.65	3.767
310.02	3.850
310.38	4.171
310.75	4.699
311.12	4.844
311.48	4.560
311.85	5.445
312.22	3.797
312.58	4.989
312.95	4.696
313.31	4.555
313.68	4.712
314.05	5.000
314.41	5.876
314.78	5.876
315.14	7.297
315.51	6.004
315.87	6.455
316.24	8.291
316.61	7.972
316.97	8.234
317.34	7.422
317.70	7.935
318.07	9.135
318.43	9.706
318.80	8.807
319.16	10.840
319.53	11.301
319.89	10.433
320.26	11.943
320.62	12.939
320.99	12.630
321.35	13.052
321.72	14.123
322.08	15.005
322.45	17.157
322.81	17.191
323.18	17.664
323.54	18.533
323.91	17.819
324.27	21.289
324.64	22.191
325.00	23.814
325.37	25.895
325.73	25.657
326.10	27.157
326.46	29.417
326.83	30.096
327.19	31.997
327.56	33.102
327.92	34.419
328.29	34.464
328.65	37.642
329.01	37.316
329.38	40.369
329.74	39.377
330.11	40.871
330.47	41.651
330.84	43.365
331.20	45.057
331.56	41.852
331.93	45.205
332.29	46.196
332.66	46.244
333.02	46.190
333.38	46.838
333.75	48.535
334.11	46.285
334.48	50.136
334.84	49.267
335.20	50.595
335.57	48.776
335.93	50.768
336.29	50.737
336.66	50.409
337.02	51.394
337.38	49.074
337.75	51.364
338.11	53.291
338.47	52.372
338.84	53.050
339.20	53.656
339.56	51.651
339.93	51.298
340.29	53.853
340.65	53.763
341.02	54.876
341.38	53.628
341.74	52.915
342.11	52.513
342.47	54.004
342.83	54.498
343.20	53.223
343.56	55.130
343.92	55.182
344.28	54.569
344.65	53.972
345.01	55.488
345.37	53.070
345.73	54.310
346.10	56.255
346.46	54.500
346.82	53.682
347.19	54.697
347.55	54.637
347.91	53.074
348.27	53.274
348.63	55.451
349.00	54.553
349.36	56.276
349.72	55.887
350.08	54.262
350.45	54.669
350.81	54.817
351.17	55.130
351.53	56.000
351.89	54.253
352.26	55.280
352.62	55.403
352.98	54.779
353.34	54.670
353.70	55.825
354.07	55.968
354.43	55.404
354.79	55.244
355.15	55.635
355.51	55.142
355.87	56.311
356.24	55.383
356.60	56.184
356.96	56.508
357.32	55.351
357.68	55.278
358.04	56.543
358.40	56.592
358.77	57.018
359.13	57.486
359.49	55.162
359.85	55.304
360.21	56.619
360.57	55.164
360.93	56.051
361.29	55.891
361.66	58.072
362.02	58.485
362.38	56.740
362.74	57.154
363.10	57.111
363.46	58.191
363.82	58.152
364.18	56.458
364.54	57.206
364.90	58.638
365.26	58.734
365.62	59.927
365.98	59.604
366.35	59.650
366.71	59.128
367.07	59.434
367.43	57.513
367.79	58.799
368.15	58.579
368.51	59.141
368.87	59.153
369.23	58.339
369.59	60.350
369.95	60.997
370.31	59.465
370.67	60.522
371.03	60.119
371.39	60.832
371.75	61.392
372.11	59.344
372.47	60.281
372.83	60.752
373.19	60.057
373.55	60.578
373.91	60.187
374.27	62.013
374.63	61.019
374.99	60.851
375.35	61.769
375.71	62.517
376.07	62.149
376.42	61.633
376.78	63.020
377.14	61.408
377.50	63.347
377.86	62.249
378.22	62.476
378.58	63.269
378.94	62.256
379.30	62.570
379.66	64.639
380.02	62.293
380.38	62.325
380.74	63.734
381.09	64.110
381.45	64.159
381.81	62.739
382.17	63.832
382.53	65.209
382.89	64.909
383.25	65.401
383.61	64.207
383.97	65.714
384.32	64.415
384.68	65.139
385.04	64.461
385.40	64.779
385.76	66.855
386.12	68.241
386.48	67.241
386.83	66.265
387.19	64.957
387.55	66.688
387.91	66.320
388.27	66.300
388.62	66.331
388.98	65.991
389.34	65.522
389.70	68.055
390.06	65.953
390.42	66.451
390.77	67.299
391.13	65.385
391.49	66.300
391.85	67.381
392.20	66.855
392.56	66.942
392.92	67.704
393.28	67.276
393.64	67.147
393.99	68.652
394.35	68.121
394.71	67.880
395.07	66.310
395.42	65.999
395.78	68.078
396.14	68.033
396.50	68.928
396.85	67.804
397.21	68.421
397.57	66.332
397.92	66.327
398.28	68.333
398.64	66.325
399.00	67.212
399.35	67.720
399.71	66.456
400.07	68.682
400.42	65.545
400.78	67.361
401.14	66.485
401.49	66.468
401.85	68.434
402.21	66.506
402.57	67.625
402.92	67.315
403.28	67.481
403.63	68.916
403.99	66.135
404.35	66.896
404.70	66.131
405.06	67.626
405.42	66.439
405.77	66.938
406.13	67.520
406.49	66.489
406.84	67.971
407.20	67.610
407.55	67.032
407.91	67.380
408.27	67.368
408.62	66.523
408.98	66.667
409.34	67.906
409.69	65.310
410.05	65.456
410.40	66.975
410.76	67.973
411.11	66.687
411.47	67.061
411.83	66.729
412.18	68.211
412.54	66.167
412.89	66.318
413.25	65.945
413.60	68.323
413.96	66.626
414.31	66.159
414.67	64.336
415.03	67.377
415.38	65.339
415.74	67.622
416.09	67.080
416.45	66.239
416.80	67.019
417.16	69.337
417.51	67.488
417.87	67.275
418.22	68.005
418.58	66.890
418.93	68.339
419.29	66.581
419.64	67.077
420.00	68.199
420.35	67.343
420.71	68.955
421.06	68.201
421.42	68.690
421.77	69.249
422.12	67.196
422.48	68.273
422.83	67.749
423.19	68.059
423.54	68.901
423.90	67.256
424.25	67.681
424.61	69.033
424.96	68.177
425.31	69.786
425.67	70.540
426.02	69.670
426.38	71.697
426.73	70.763
427.09	70.696
427.44	71.176
427.79	69.534
428.15	69.296
428.50	69.897
428.85	69.717
429.21	69.553
429.56	70.782
429.92	69.492
430.27	70.376
430.62	69.890
430.98	70.170
431.33	70.347
431.68	69.283
432.04	70.542
432.39	70.508
432.74	68.010
433.10	70.632
433.45	70.848
433.80	72.200
434.16	71.967
434.51	71.613
434.86	70.209
435.22	71.228
435.57	72.988
435.92	71.796
436.28	70.066
436.63	71.078
436.98	70.510
437.34	71.083
437.69	71.974
438.04	71.282
438.39	71.839
438.75	72.435
439.10	70.968
439.45	72.855
439.81	71.437
440.16	72.565
440.51	72.119
440.86	74.502
441.22	70.871
441.57	73.510
441.92	74.082
442.27	73.226
442.63	72.056
442.98	72.659
443.33	71.619
443.68	71.512
444.03	73.224
444.39	71.667
444.74	74.693
445.09	73.330
445.44	73.390
445.79	74.420
446.15	71.806
446.50	71.825
446.85	74.017
447.20	72.054
447.55	72.824
447.91	72.702
448.26	73.478
448.61	73.345
448.96	73.896
449.31	74.162
449.66	73.926
450.02	73.360
450.37	73.681
450.72	72.852
451.07	73.165
451.42	73.346
451.77	71.851
452.12	71.531
452.47	72.118
452.83	71.614
453.18	72.612
453.53	73.767
453.88	73.710
454.23	73.387
454.58	74.118
454.93	73.905
455.28	72.889
455.63	74.458
455.98	73.903
456.34	73.819
456.69	72.236
457.04	72.653
457.39	73.208
457.74	73.216
458.09	71.572
458.44	72.323
458.79	73.557
459.14	72.712
459.49	73.254
459.84	72.927
460.19	73.483
460.54	73.839
460.89	73.466
461.24	72.671
461.59	73.990
461.94	72.767
462.29	73.221
462.64	73.688
462.99	73.460
463.34	72.392
463.69	72.716
464.04	73.668
464.39	73.196
464.74	72.270
465.09	73.986
465.44	73.918
465.79	72.052
466.14	73.603
466.49	72.398
466.84	73.885
467.19	71.965
467.54	72.669
467.89	73.342
468.24	72.384
468.59	74.032
468.94	72.317
469.29	73.246
469.64	74.231
469.99	72.810
470.34	72.696
470.68	73.154
471.03	73.319
471.38	71.969
471.73	72.059
472.08	71.777
472.43	73.154
472.78	71.693
473.13	74.490
473.48	71.401
473.83	71.731
474.17	73.057
474.52	72.431
474.87	73.030
475.22	73.826
475.57	72.897
475.92	72.353
476.27	72.817
476.61	73.206
476.96	71.946
477.31	72.904
477.66	72.247
478.01	72.993
478.36	71.569
478.70	74.171
479.05	71.923
479.40	74.139
479.75	71.741
480.10	71.992
480.45	73.800
480.79	73.313
481.14	73.514
481.49	71.429
481.84	73.263
482.19	72.357
482.53	71.415
482.88	72.411
483.23	72.217
483.58	71.509
483.92	71.975
484.27	71.240
484.62	72.075
484.97	71.808
485.31	71.604
485.66	72.703
486.01	72.500
486.36	72.659
486.70	72.036
487.05	72.080
487.40	72.156
487.75	71.070
488.09	71.570
488.44	70.495
488.79	70.788
489.13	71.194
489.48	71.655
489.83	71.256
490.17	71.640
490.52	71.594
490.87	69.875
491.22	72.636
491.56	72.011
491.91	69.981
492.26	72.825
492.60	70.873
492.95	72.602
493.30	71.764
493.64	72.692
493.99	72.126
494.34	72.233
494.68	70.857
495.03	72.944
495.37	72.130
495.72	71.479
496.07	72.293
496.41	72.028
496.76	71.442
497.11	70.703
497.45	73.222
497.80	72.301
498.14	71.684
498.49	72.575
498.84	71.008
499.18	72.892
499.53	72.073
499.87	72.033
500.22	70.673
500.56	72.769
500.91	72.440
501.26	71.923
501.60	71.913
501.95	71.179
502.29	71.622
502.64	72.442
502.98	71.288
503.33	71.326
503.67	70.265
504.02	71.994
504.36	72.439
504.71	71.566
505.06	72.974
505.40	71.218
505.75	72.680
506.09	70.907
506.44	71.458
506.78	71.786
507.13	71.923
507.47	69.765
507.82	71.528
508.16	70.259
508.51	72.770
508.85	72.475
509.19	72.432
509.54	71.903
509.88	70.928
510.23	72.351
510.57	71.726
510.92	69.723
511.26	71.959
511.61	72.332
511.95	71.014
512.30	72.062
512.64	71.508
512.98	72.150
513.33	72.244
513.67	70.893
514.02	72.883
514.36	72.686
514.70	73.893
515.05	73.502
515.39	72.314
515.74	74.251
516.08	72.923
516.42	72.556
516.77	73.084
517.11	72.997
517.46	73.369
517.80	72.229
518.14	73.974
518.49	71.815
518.83	72.418
519.17	71.255
519.52	71.048
519.86	71.729
520.20	73.329
520.55	71.357
520.89	72.836
521.23	71.691
521.58	74.069
521.92	73.205
522.26	72.869
522.61	74.156
522.95	75.364
523.29	72.554
523.64	73.189
523.98	73.688
524.32	73.518
524.66	72.919
525.01	71.753
525.35	73.882
525.69	73.603
526.04	72.751
526.38	73.930
526.72	71.942
527.06	72.114
527.41	71.504
527.75	73.190
528.09	72.625
528.43	73.464
528.78	73.729
529.12	73.613
529.46	74.204
529.80	70.741
530.15	74.389
530.49	72.727
530.83	73.529
531.17	73.069
531.51	73.324
531.86	72.604
532.20	73.069
532.54	72.634
532.88	73.169
533.22	73.656
533.57	72.674
533.91	73.564
534.25	73.633
534.59	71.456
534.93	70.925
535.27	71.954
535.62	73.428
535.96	73.320
536.30	72.164
536.64	72.502
536.98	71.080
537.32	73.400
537.66	73.072
538.01	72.448
538.35	73.440
538.69	71.305
539.03	72.044
539.37	72.409
539.71	72.597
540.05	72.166
540.39	72.992
540.73	71.897
541.07	73.412
541.42	72.110
541.76	73.572
542.10	70.819
542.44	73.662
542.78	69.993
543.12	70.879
543.46	73.435
543.80	72.311
544.14	71.696
544.48	72.685
544.82	73.684
545.16	73.839
545.50	72.029
545.84	72.946
546.18	73.262
546.52	72.314
546.86	71.891
547.20	71.602
547.54	72.721
547.88	72.351
548.22	72.124
548.56	72.691
548.90	73.585
549.24	72.796
549.58	72.355
549.92	71.408
550.26	71.355
550.60	73.457
550.94	70.948
551.28	72.952
551.62	73.846
551.96	72.331
552.30	73.538
552.64	73.131
552.98	71.800
553.32	72.896
553.66	71.843
554.00	73.650
554.34	73.117
554.68	71.460
555.02	72.396
555.36	72.550
555.69	71.136
556.03	72.591
556.37	72.100
556.71	72.708
557.05	73.229
557.39	71.896
557.73	72.939
558.07	73.831
558.41	72.052
558.75	74.045
559.08	73.759
559.42	72.778
559.76	73.739
560.10	73.930
560.44	73.864
560.78	72.448
561.12	73.343
561.45	74.842
561.79	73.459
562.13	73.811
562.47	72.374
562.81	73.127
563.15	73.131
563.48	73.550
563.82	73.164
564.16	72.911
564.50	73.176
564.84	72.155
565.17	71.898
565.51	75.205
565.85	73.594
566.19	73.077
566.52	73.324
566.86	73.586
567.20	72.478
567.54	74.878
567.88	73.404
568.21	74.491
568.55	74.130
568.89	72.998
569.23	72.942
569.56	74.168
569.90	74.381
570.24	72.646
570.57	72.691
570.91	74.695
571.25	72.706
571.59	72.470
571.92	70.933
572.26	72.192
572.60	71.070
572.93	71.698
573.27	71.944
573.61	72.136
573.95	72.174
574.28	71.716
574.62	71.065
574.96	70.855
575.29	71.100
575.63	70.070
575.97	70.453
576.30	71.071
576.64	70.781
576.98	71.506
577.31	72.303
577.65	71.904
577.98	72.210
578.32	70.824
578.66	70.170
578.99	69.911
579.33	70.822
579.67	70.502
580.00	70.506
580.34	71.020
580.67	70.846
581.01	71.854
581.35	71.059
581.68	71.403
582.02	71.518
582.35	71.588
582.69	72.166
583.02	71.203
583.36	71.162
583.70	70.145
584.03	72.255
584.37	71.824
584.70	70.742
585.04	70.466
585.37	70.934
585.71	70.921
586.04	71.281
586.38	70.926
586.72	72.023
587.05	72.675
587.39	72.211
587.72	73.592
588.06	71.243
588.39	71.176
588.73	71.886
589.06	72.570
589.40	71.137
589.73	71.961
590.07	71.903
590.40	71.633
590.73	73.888
591.07	72.519
591.40	71.995
591.74	71.855
592.07	71.707
592.41	71.378
592.74	71.963
593.08	71.359
593.41	72.718
593.75	71.868
594.08	70.683
594.41	70.852
594.75	71.221
595.08	72.153
595.42	71.513
595.75	72.212
596.09	72.361
596.42	72.179
596.75	70.737
597.09	71.754
597.42	71.906
597.75	73.110
598.09	70.937
598.42	70.578
598.76	72.287
599.09	72.035
599.42	70.784
599.76	71.633
600.09	70.965
600.42	71.911
600.76	70.914
601.09	71.565
601.42	70.819
601.76	71.894
602.09	71.328
602.42	73.252
602.76	72.199
603.09	72.965
603.42	73.202
603.76	72.056
604.09	71.891
604.42	70.643
604.76	72.897
605.09	72.121
605.42	70.700
605.75	71.673
606.09	71.168
606.42	70.767
606.75	71.472
607.09	71.253
607.42	71.555
607.75	72.247
608.08	70.665
608.42	71.540
608.75	73.735
609.08	73.543
609.41	72.437
609.75	71.069
610.08	72.841
610.41	71.884
610.74	72.843
611.07	73.385
611.41	71.977
611.74	72.388
612.07	72.216
612.40	72.812
612.73	74.124
613.07	72.441
613.40	71.772
613.73	73.419
614.06	72.120
614.39	72.532
614.72	72.885
615.06	73.464
615.39	70.742
615.72	71.044
616.05	72.793
616.38	71.339
616.71	73.272
617.05	72.946
617.38	73.287
617.71	73.082
618.04	74.286
618.37	74.590
618.70	74.191
619.03	74.861
619.36	72.793
619.69	74.526
620.03	75.383
620.36	73.605
620.69	73.876
621.02	74.083
621.35	75.851
621.68	75.425
622.01	76.417
622.34	74.222
622.67	73.817
623.00	74.426
623.33	73.933
623.66	75.318
623.99	75.113
624.32	75.513
624.65	73.684
624.99	74.868
625.32	73.237
625.65	74.470
625.98	74.940
626.31	73.400
626.64	75.477
626.97	74.869
627.30	76.007
627.63	74.437
627.96	75.202
628.29	72.895
628.62	75.418
628.95	75.050
629.28	75.806
629.61	76.869
629.94	74.487
630.26	75.000
630.59	76.275
630.92	75.897
631.25	72.103
631.58	76.652
631.91	76.425
632.24	75.459
632.57	77.500
632.90	76.038
633.23	75.529
633.56	77.834
633.89	75.832
634.22	78.025
634.55	77.764
634.88	77.267
635.20	80.000
635.53	77.333
635.86	76.853
636.19	79.690
636.52	76.403
636.85	76.303
637.18	76.101
637.51	75.220
637.83	74.639
638.16	78.035
638.49	72.752
