SpectraSuite Data File
++++++++++++++++++++++++++++++++++++
Date: Fri May 15 17:25:25 PDT 2015
User: schluterlab
Dark Spectrum Present: Yes
Reference Spectrum Present: Yes
Number of Sampled Component Spectra: 1
Spectrometers: USB2E3373
Integration Time (usec): 3000 (USB2E3373)
Spectra Averaged: 3 (USB2E3373)
Boxcar Smoothing: 0 (USB2E3373)
Correct for Electrical Dark: No (USB2E3373)
Strobe/Lamp Enabled: No (USB2E3373)
Correct for Detector Non-linearity: No (USB2E3373)
Correct for Stray Light: No (USB2E3373)
Number of Pixels in Processed Spectrum: 2048
>>>>>Begin Processed Spectral Data<<<<<
178.53	0.000
178.91	0.000
179.29	50.000
179.67	-250.000
180.04	-28.571
180.42	0.000
180.80	-400.000
181.18	33.333
181.56	200.000
181.94	0.000
182.31	-100.000
182.69	60.000
183.07	-233.333
183.45	-40.000
183.83	16.667
184.20	9.091
184.58	66.667
184.96	-225.000
185.34	-400.000
185.72	300.000
186.09	76.923
186.47	-100.000
186.85	66.667
187.23	33.333
187.61	-400.000
187.98	-300.000
188.36	88.889
188.74	66.667
189.12	35.294
189.49	38.889
189.87	0.000
190.25	71.429
190.63	350.000
191.00	-200.000
191.38	-5.263
191.76	200.000
192.14	-200.000
192.51	200.000
192.89	66.667
193.27	-157.143
193.65	150.000
194.02	109.091
194.40	60.000
194.78	-62.500
195.15	-8.333
195.53	-37.500
195.91	300.000
196.29	125.000
196.66	76.923
197.04	14.286
197.42	22.222
197.79	-333.333
198.17	23.077
198.55	1000.000
198.92	66.667
199.30	300.000
199.68	-120.000
200.05	100.000
200.43	0.000
200.81	66.667
201.18	-100.000
201.56	200.000
201.94	-50.000
202.31	-166.667
202.69	-40.000
203.07	-125.000
203.44	1100.000
203.82	0.000
204.19	114.286
204.57	-300.000
204.95	-25.000
205.32	70.000
205.70	142.857
206.08	-100.000
206.45	133.333
206.83	135.714
207.20	-100.000
207.58	400.000
207.96	0.000
208.33	-70.000
208.71	125.000
209.08	-33.333
209.46	200.000
209.84	-20.000
210.21	-500.000
210.59	214.286
210.96	83.333
211.34	-125.000
211.71	40.000
212.09	-28.571
212.46	-800.000
212.84	0.000
213.22	70.000
213.59	650.000
213.97	92.308
214.34	27.273
214.72	-116.667
215.09	100.000
215.47	7.692
215.84	-27.273
216.22	-166.667
216.59	-12.500
216.97	400.000
217.34	225.000
217.72	-80.000
218.09	37.500
218.47	150.000
218.84	800.000
219.22	33.333
219.59	240.000
219.97	300.000
220.34	75.000
220.72	-14.286
221.09	150.000
221.47	-50.000
221.84	-400.000
222.22	-100.000
222.59	109.091
222.97	75.000
223.34	33.333
223.72	14.286
224.09	38.095
224.46	28.571
224.84	266.667
225.21	90.000
225.59	60.000
225.96	-200.000
226.34	400.000
226.71	-28.571
227.08	-83.333
227.46	0.000
227.83	-150.000
228.21	111.111
228.58	72.727
228.95	62.500
229.33	-40.000
229.70	37.500
230.08	-137.500
230.45	28.571
230.82	-28.571
231.20	6.667
231.57	85.714
231.95	100.000
232.32	-70.000
232.69	85.714
233.07	166.667
233.44	20.000
233.81	100.000
234.19	44.444
234.56	17.647
234.93	350.000
235.31	175.000
235.68	-220.000
236.05	-7.692
236.43	55.000
236.80	58.824
237.17	43.750
237.55	55.000
237.92	29.630
238.29	30.556
238.67	33.333
239.04	26.471
239.41	36.585
239.79	36.667
240.16	53.659
240.53	36.842
240.91	41.304
241.28	31.746
241.65	41.071
242.02	57.534
242.40	38.333
242.77	47.458
243.14	33.333
243.51	47.500
243.89	51.724
244.26	39.080
244.63	29.762
245.00	46.392
245.38	55.670
245.75	28.090
246.12	39.655
246.49	47.934
246.87	49.038
247.24	46.218
247.61	34.211
247.98	51.220
248.36	35.625
248.73	43.421
249.10	40.260
249.47	48.101
249.84	43.791
250.22	41.176
250.59	43.791
250.96	47.887
251.33	40.698
251.70	43.529
252.08	47.716
252.45	41.584
252.82	44.724
253.19	38.710
253.56	46.729
253.94	43.243
254.31	42.174
254.68	47.368
255.05	39.764
255.42	44.105
255.79	41.313
256.16	38.911
256.54	40.672
256.91	43.726
257.28	40.149
257.65	42.697
258.02	43.617
258.39	44.781
258.76	45.788
259.14	45.183
259.51	39.806
259.88	41.237
260.25	43.791
260.62	43.403
260.99	41.017
261.36	42.123
261.73	42.405
262.10	43.769
262.47	41.411
262.85	40.125
263.22	42.769
263.59	42.679
263.96	46.894
264.33	44.545
264.70	42.857
265.07	42.857
265.44	45.042
265.81	40.960
266.18	40.437
266.55	44.216
266.92	42.746
267.29	42.820
267.66	43.478
268.03	44.241
268.40	42.820
268.77	45.989
269.14	42.446
269.51	42.931
269.88	40.399
270.25	39.286
270.62	39.268
270.99	42.199
271.36	41.320
271.73	42.254
272.10	43.309
272.47	42.080
272.84	40.099
273.21	38.515
273.58	41.687
273.95	40.732
274.32	41.570
274.69	36.878
275.06	47.321
275.43	38.322
275.80	40.397
276.17	42.069
276.54	39.400
276.91	39.693
277.28	41.266
277.65	41.529
278.02	37.872
278.39	40.481
278.76	42.348
279.13	38.797
279.50	42.227
279.87	38.877
280.23	38.495
280.60	38.012
280.97	42.424
281.34	41.538
281.71	42.710
282.08	37.628
282.45	37.769
282.82	37.452
283.19	39.845
283.56	39.114
283.92	38.330
284.29	39.231
284.66	38.372
285.03	37.328
285.40	38.752
285.77	35.677
286.14	38.628
286.51	40.221
286.87	34.735
287.24	37.569
287.61	34.215
287.98	37.719
288.35	36.742
288.72	36.077
289.08	37.153
289.45	37.258
289.82	36.189
290.19	32.594
290.56	34.991
290.93	38.552
291.29	31.895
291.66	34.331
292.03	31.419
292.40	35.968
292.77	33.333
293.13	32.305
293.50	30.804
293.87	31.298
294.24	32.767
294.60	30.402
294.97	32.143
295.34	32.362
295.71	34.277
296.08	30.792
296.44	29.445
296.81	31.944
297.18	29.420
297.55	31.978
297.91	30.822
298.28	30.475
298.65	29.172
299.02	30.593
299.38	29.001
299.75	30.207
300.12	27.618
300.48	27.273
300.85	28.771
301.22	29.091
301.59	28.158
301.95	26.456
302.32	28.794
302.69	27.985
303.05	27.599
303.42	27.646
303.79	27.570
304.15	27.240
304.52	27.467
304.89	26.784
305.25	26.392
305.62	26.488
305.99	26.433
306.35	25.896
306.72	24.859
307.09	25.542
307.45	27.095
307.82	25.694
308.19	27.178
308.55	25.518
308.92	27.015
309.29	26.704
309.65	27.018
310.02	25.523
310.38	26.454
310.75	28.634
311.12	26.157
311.48	25.981
311.85	24.921
312.22	24.789
312.58	22.930
312.95	23.693
313.31	24.224
313.68	25.864
314.05	24.490
314.41	25.773
314.78	24.845
315.14	25.488
315.51	25.052
315.87	24.180
316.24	26.593
316.61	24.803
316.97	24.206
317.34	25.781
317.70	25.430
318.07	25.865
318.43	25.490
318.80	25.000
319.16	25.977
319.53	26.591
319.89	25.886
320.26	27.328
320.62	27.583
320.99	24.635
321.35	26.824
321.72	27.518
322.08	26.989
322.45	27.614
322.81	28.291
323.18	27.576
323.54	27.896
323.91	28.724
324.27	30.371
324.64	30.337
325.00	30.566
325.37	32.231
325.73	30.916
326.10	32.062
326.46	32.466
326.83	33.508
327.19	34.176
327.56	34.492
327.92	34.771
328.29	35.804
328.65	36.226
329.01	38.787
329.38	38.157
329.74	37.960
330.11	39.481
330.47	39.796
330.84	39.904
331.20	42.966
331.56	42.963
331.93	42.922
332.29	44.180
332.66	43.167
333.02	44.052
333.38	43.721
333.75	47.161
334.11	45.121
334.48	47.325
334.84	46.612
335.20	47.850
335.57	46.600
335.93	49.051
336.29	49.263
336.66	47.502
337.02	49.442
337.38	48.056
337.75	50.091
338.11	50.676
338.47	51.277
338.84	51.479
339.20	48.812
339.56	50.642
339.93	51.209
340.29	50.826
340.65	51.792
341.02	51.773
341.38	51.327
341.74	50.530
342.11	50.433
342.47	51.246
342.83	50.173
343.20	50.784
343.56	51.130
343.92	51.461
344.28	51.665
344.65	50.950
345.01	51.253
345.37	50.463
345.73	51.548
346.10	52.718
346.46	51.472
346.82	50.000
347.19	50.457
347.55	51.629
347.91	52.104
348.27	50.202
348.63	51.193
349.00	50.369
349.36	51.455
349.72	52.902
350.08	53.279
350.45	52.195
350.81	51.495
351.17	50.326
351.53	50.531
351.89	50.206
352.26	51.280
352.62	52.581
352.98	50.442
353.34	49.919
353.70	51.214
354.07	50.161
354.43	50.600
354.79	52.271
355.15	51.270
355.51	51.108
355.87	50.566
356.24	50.163
356.60	50.768
356.96	51.429
357.32	50.080
357.68	49.414
358.04	51.050
358.40	51.045
358.77	51.116
359.13	51.561
359.49	49.461
359.85	51.404
360.21	51.754
360.57	50.268
360.93	49.773
361.29	48.943
361.66	51.489
362.02	50.985
362.38	50.724
362.74	51.249
363.10	51.242
363.46	51.001
363.82	51.766
364.18	50.849
364.54	49.706
364.90	50.323
365.26	51.092
365.62	51.825
365.98	50.660
366.35	51.566
366.71	50.998
367.07	50.653
367.43	51.042
367.79	50.035
368.15	49.964
368.51	50.546
368.87	49.821
369.23	50.253
369.59	52.332
369.95	51.026
370.31	51.301
370.67	51.940
371.03	49.813
371.39	50.255
371.75	51.136
372.11	50.499
372.47	52.071
372.83	50.816
373.19	51.213
373.55	50.830
373.91	50.540
374.27	52.303
374.63	51.113
374.99	50.780
375.35	52.159
375.71	51.958
376.07	52.458
376.42	52.993
376.78	51.611
377.14	51.794
377.50	50.531
377.86	51.406
378.22	50.287
378.58	50.962
378.94	51.103
379.30	51.591
379.66	51.097
380.02	51.012
380.38	50.943
380.74	52.065
381.09	52.147
381.45	50.703
381.81	51.450
382.17	50.698
382.53	51.280
382.89	51.726
383.25	51.338
383.61	52.073
383.97	52.127
384.32	51.907
384.68	51.579
385.04	52.206
385.40	51.649
385.76	52.830
386.12	53.040
386.48	53.576
386.83	52.378
387.19	53.724
387.55	53.137
387.91	51.528
388.27	52.808
388.62	52.171
388.98	51.811
389.34	51.843
389.70	53.449
390.06	51.101
390.42	51.684
390.77	51.668
391.13	51.576
391.49	53.234
391.85	51.787
392.20	52.040
392.56	53.020
392.92	51.791
393.28	51.769
393.64	51.712
393.99	53.856
394.35	52.245
394.71	52.618
395.07	52.168
395.42	50.820
395.78	52.508
396.14	51.639
396.50	52.568
396.85	52.479
397.21	53.509
397.57	52.414
397.92	51.348
398.28	52.241
398.64	50.843
399.00	51.411
399.35	51.185
399.71	50.775
400.07	51.753
400.42	51.652
400.78	52.480
401.14	51.361
401.49	50.923
401.85	50.457
402.21	50.663
402.57	51.250
402.92	50.188
403.28	51.003
403.63	51.639
403.99	51.722
404.35	51.843
404.70	49.940
405.06	50.999
405.42	51.398
405.77	51.075
406.13	51.513
406.49	50.503
406.84	51.161
407.20	52.137
407.55	49.581
407.91	51.537
408.27	50.287
408.62	50.400
408.98	50.400
409.34	50.867
409.69	49.612
410.05	49.384
410.40	49.691
410.76	49.698
411.11	49.250
411.47	51.151
411.83	49.843
412.18	51.544
412.54	49.563
412.89	48.645
413.25	50.421
413.60	50.186
413.96	48.896
414.31	50.488
414.67	50.289
415.03	50.666
415.38	50.587
415.74	50.619
416.09	51.274
416.45	51.587
416.80	49.901
417.16	51.727
417.51	50.833
417.87	50.065
418.22	50.972
418.58	51.104
418.93	51.160
419.29	50.896
419.64	52.430
420.00	53.338
420.35	51.224
420.71	50.911
421.06	51.565
421.42	52.464
421.77	51.792
422.12	52.157
422.48	52.301
422.83	52.088
423.19	51.862
423.54	52.087
423.90	51.649
424.25	52.526
424.61	52.509
424.96	52.381
425.31	53.899
425.67	53.228
426.02	54.064
426.38	53.976
426.73	54.782
427.09	53.481
427.44	54.000
427.79	53.624
428.15	53.398
428.50	53.180
428.85	53.071
429.21	54.782
429.56	54.663
429.92	53.929
430.27	53.835
430.62	53.685
430.98	54.565
431.33	53.628
431.68	54.474
432.04	55.115
432.39	53.565
432.74	54.600
433.10	55.805
433.45	55.615
433.80	56.239
434.16	55.956
434.51	55.538
434.86	55.517
435.22	55.749
435.57	56.831
435.92	56.826
436.28	56.589
436.63	57.616
436.98	55.678
437.34	57.229
437.69	58.318
438.04	57.721
438.39	58.033
438.75	58.956
439.10	57.499
439.45	58.734
439.81	58.349
440.16	57.660
440.51	59.284
440.86	59.396
441.22	58.088
441.57	58.278
441.92	59.706
442.27	59.479
442.63	59.261
442.98	60.023
443.33	57.986
443.68	59.841
444.03	60.457
444.39	58.780
444.74	60.033
445.09	60.189
445.44	60.741
445.79	62.094
446.15	59.141
446.50	59.956
446.85	61.105
447.20	60.375
447.55	60.714
447.91	60.350
448.26	60.501
448.61	60.967
448.96	60.643
449.31	61.503
449.66	62.137
450.02	61.380
450.37	63.248
450.72	60.939
451.07	62.722
451.42	61.486
451.77	61.905
452.12	61.184
452.47	61.429
452.83	62.780
453.18	61.290
453.53	62.263
453.88	62.842
454.23	62.323
454.58	64.295
454.93	62.758
455.28	62.095
455.63	64.104
455.98	62.658
456.34	62.580
456.69	64.485
457.04	64.146
457.39	63.670
457.74	63.906
458.09	62.213
458.44	63.663
458.79	63.754
459.14	64.874
459.49	64.537
459.84	63.959
460.19	64.442
460.54	63.753
460.89	65.227
461.24	66.211
461.59	64.311
461.94	62.956
462.29	65.802
462.64	66.047
462.99	65.132
463.34	64.395
463.69	64.865
464.04	66.344
464.39	65.070
464.74	65.706
465.09	66.625
465.44	66.647
465.79	64.966
466.14	66.249
466.49	65.210
466.84	65.318
467.19	66.521
467.54	65.709
467.89	66.709
468.24	67.518
468.59	66.921
468.94	67.111
469.29	68.918
469.64	66.781
469.99	69.166
470.34	66.348
470.68	69.575
471.03	68.365
471.38	69.044
471.73	68.417
472.08	66.418
472.43	68.255
472.78	66.827
473.13	69.320
473.48	68.664
473.83	67.870
474.17	70.402
474.52	67.773
474.87	68.545
475.22	69.555
475.57	68.041
475.92	68.623
476.27	69.383
476.61	70.255
476.96	68.321
477.31	69.227
477.66	68.764
478.01	70.185
478.36	68.954
478.70	71.071
479.05	69.945
479.40	69.634
479.75	69.395
480.10	69.483
480.45	70.000
480.79	71.047
481.14	72.131
481.49	70.591
481.84	71.236
482.19	70.253
482.53	71.559
482.88	70.358
483.23	69.434
483.58	69.670
483.92	70.281
484.27	69.827
484.62	71.224
484.97	69.859
485.31	70.014
485.66	70.339
486.01	72.265
486.36	71.073
486.70	70.883
487.05	69.667
487.40	70.424
487.75	70.141
488.09	68.820
488.44	69.498
488.79	70.228
489.13	69.712
489.48	71.013
489.83	71.390
490.17	70.652
490.52	71.963
490.87	70.430
491.22	72.588
491.56	72.249
491.91	71.845
492.26	74.672
492.60	72.457
492.95	74.127
493.30	72.252
493.64	73.723
493.99	72.657
494.34	73.204
494.68	72.476
495.03	73.187
495.37	74.681
495.72	74.356
496.07	74.049
496.41	73.868
496.76	73.699
497.11	72.660
497.45	73.174
497.80	75.782
498.14	73.025
498.49	73.591
498.84	73.253
499.18	74.799
499.53	73.958
499.87	73.735
500.22	74.184
500.56	75.088
500.91	74.950
501.26	74.197
501.60	75.406
501.95	75.934
502.29	75.109
502.64	74.807
502.98	77.306
503.33	74.159
503.67	74.554
504.02	75.415
504.36	75.161
504.71	74.899
505.06	74.182
505.40	75.888
505.75	76.649
506.09	74.658
506.44	76.489
506.78	77.398
507.13	74.405
507.47	74.517
507.82	75.748
508.16	75.700
508.51	76.915
508.85	76.609
509.19	76.903
509.54	77.373
509.88	75.890
510.23	77.999
510.57	75.521
510.92	75.640
511.26	76.923
511.61	77.228
511.95	77.260
512.30	76.829
512.64	76.071
512.98	77.709
513.33	77.896
513.67	77.658
514.02	77.803
514.36	79.029
514.70	78.380
515.05	78.731
515.39	78.099
515.74	80.419
516.08	78.960
516.42	78.563
516.77	78.994
517.11	81.721
517.46	79.653
517.80	77.950
518.14	79.669
518.49	77.945
518.83	78.676
519.17	78.836
519.52	77.205
519.86	77.551
520.20	78.190
520.55	78.862
520.89	78.419
521.23	79.291
521.58	80.883
521.92	79.615
522.26	79.180
522.61	79.286
522.95	80.861
523.29	80.496
523.64	79.161
523.98	80.428
524.32	80.155
524.66	79.962
525.01	79.416
525.35	79.132
525.69	81.145
526.04	80.754
526.38	81.323
526.72	81.295
527.06	79.507
527.41	79.881
527.75	79.759
528.09	80.532
528.43	80.621
528.78	80.924
529.12	79.677
529.46	82.326
529.80	78.911
530.15	81.518
530.49	82.155
530.83	82.216
531.17	79.852
531.51	82.969
531.86	80.421
532.20	81.628
532.54	82.369
532.88	80.835
533.22	81.653
533.57	80.210
533.91	82.637
534.25	83.529
534.59	80.244
534.93	79.862
535.27	78.934
535.62	82.437
535.96	81.018
536.30	80.409
536.64	82.219
536.98	80.906
537.32	81.721
537.66	81.276
538.01	82.238
538.35	83.564
538.69	79.427
539.03	82.365
539.37	82.100
539.71	82.072
540.05	80.448
540.39	81.094
540.73	81.799
541.07	81.975
541.42	81.048
541.76	81.487
542.10	82.175
542.44	82.418
542.78	80.592
543.12	82.486
543.46	81.711
543.80	82.859
544.14	80.641
544.48	80.746
544.82	83.595
545.16	84.631
545.50	82.043
545.84	82.153
546.18	82.128
546.52	82.336
546.86	82.531
547.20	82.117
547.54	81.908
547.88	81.046
548.22	81.394
548.56	82.586
548.90	82.278
549.24	82.438
549.58	81.312
549.92	81.487
550.26	81.245
550.60	83.717
550.94	84.765
551.28	83.308
551.62	83.769
551.96	84.436
552.30	83.626
552.64	81.876
552.98	82.138
553.32	82.739
553.66	83.019
554.00	83.577
554.34	82.939
554.68	82.375
555.02	82.738
555.36	83.770
555.69	82.344
556.03	82.227
556.37	82.349
556.71	84.621
557.05	83.743
557.39	82.007
557.73	82.759
558.07	83.937
558.41	84.303
558.75	84.178
559.08	82.348
559.42	83.968
559.76	86.389
560.10	84.327
560.44	82.949
560.78	83.497
561.12	85.402
561.45	85.453
561.79	84.034
562.13	84.741
562.47	83.525
562.81	84.654
563.15	82.087
563.48	84.158
563.82	84.626
564.16	84.331
564.50	82.568
564.84	83.936
565.17	83.501
565.51	87.568
565.85	87.174
566.19	85.279
566.52	84.383
566.86	86.054
567.20	82.628
567.54	86.253
567.88	85.706
568.21	85.633
568.55	86.033
568.89	86.910
569.23	86.230
569.56	85.289
569.90	86.602
570.24	83.997
570.57	85.782
570.91	85.396
571.25	83.986
571.59	83.027
571.92	82.311
572.26	82.790
572.60	81.178
572.93	82.491
573.27	82.665
573.61	83.711
573.95	83.725
574.28	83.607
574.62	82.253
574.96	82.772
575.29	81.954
575.63	79.813
575.97	81.648
576.30	82.232
576.64	81.828
576.98	82.934
577.31	82.502
577.65	83.234
577.98	83.305
578.32	82.795
578.66	81.625
578.99	81.329
579.33	80.789
579.67	80.469
580.00	82.329
580.34	81.791
580.67	80.811
581.01	82.757
581.35	82.580
581.68	83.251
582.02	82.529
582.35	82.377
582.69	83.015
583.02	81.500
583.36	81.831
583.70	82.373
584.03	83.514
584.37	84.020
584.70	83.434
585.04	81.166
585.37	82.826
585.71	83.337
586.04	82.678
586.38	82.822
586.72	83.960
587.05	83.449
587.39	82.947
587.72	84.527
588.06	83.753
588.39	83.053
588.73	83.578
589.06	84.899
589.40	82.475
589.73	83.753
590.07	84.630
590.40	84.598
590.73	85.338
591.07	83.800
591.40	84.728
591.74	85.023
592.07	84.462
592.41	84.806
592.74	84.667
593.08	83.549
593.41	84.481
593.75	83.775
594.08	82.973
594.41	83.261
594.75	83.321
595.08	83.882
595.42	84.873
595.75	84.416
596.09	82.995
596.42	84.002
596.75	83.703
597.09	84.237
597.42	84.372
597.75	85.158
598.09	83.160
598.42	83.755
598.76	84.856
599.09	85.216
599.42	83.516
599.76	83.935
600.09	83.748
600.42	82.638
600.76	81.761
601.09	84.504
601.42	82.883
601.76	82.890
602.09	83.127
602.42	84.625
602.76	84.380
603.09	84.801
603.42	86.497
603.76	85.363
604.09	83.840
604.42	85.279
604.76	85.180
605.09	84.095
605.42	84.605
605.75	84.413
606.09	84.756
606.42	83.987
606.75	84.372
607.09	84.000
607.42	83.651
607.75	85.036
608.08	83.648
608.42	83.508
608.75	85.542
609.08	84.255
609.41	84.924
609.75	85.131
610.08	85.122
610.41	83.382
610.74	83.667
611.07	85.375
611.41	86.144
611.74	85.874
612.07	84.797
612.40	85.558
612.73	86.384
613.07	85.658
613.40	84.464
613.73	84.779
614.06	84.585
614.39	86.238
614.72	85.378
615.06	85.028
615.39	85.317
615.72	85.038
616.05	84.860
616.38	82.393
616.71	84.893
617.05	85.238
617.38	85.607
617.71	85.723
618.04	85.778
618.37	87.957
618.70	86.799
619.03	86.528
619.36	86.107
619.69	88.173
620.03	87.217
620.36	87.768
620.69	85.510
621.02	85.015
621.35	87.220
621.68	88.776
622.01	86.917
622.34	86.672
622.67	85.410
623.00	84.839
623.33	86.433
623.66	85.864
623.99	85.401
624.32	87.833
624.65	86.165
624.99	86.832
625.32	85.898
625.65	85.860
625.98	88.074
626.31	87.531
626.64	85.789
626.97	87.435
627.30	87.303
627.63	86.915
627.96	89.398
628.29	87.327
628.62	87.512
628.95	87.575
629.28	89.919
629.61	87.836
629.94	90.225
630.26	87.549
630.59	92.196
630.92	89.436
631.25	86.256
631.58	91.850
631.91	89.145
632.24	89.564
632.57	90.795
632.90	91.103
633.23	88.588
633.56	91.310
633.89	89.273
