SpectraSuite Data File
++++++++++++++++++++++++++++++++++++
Date: Fri May 15 17:16:04 PDT 2015
User: schluterlab
Dark Spectrum Present: Yes
Reference Spectrum Present: Yes
Number of Sampled Component Spectra: 1
Spectrometers: USB2E3373
Integration Time (usec): 3000 (USB2E3373)
Spectra Averaged: 3 (USB2E3373)
Boxcar Smoothing: 0 (USB2E3373)
Correct for Electrical Dark: No (USB2E3373)
Strobe/Lamp Enabled: No (USB2E3373)
Correct for Detector Non-linearity: No (USB2E3373)
Correct for Stray Light: No (USB2E3373)
Number of Pixels in Processed Spectrum: 2048
>>>>>Begin Processed Spectral Data<<<<<
178.53	0.000
178.91	0.000
179.29	75.000
179.67	250.000
180.04	-0.000
180.42	75.000
180.80	1000.000
181.18	-66.667
181.56	-200.000
181.94	450.000
182.31	-800.000
182.69	400.000
183.07	-66.667
183.45	-40.000
183.83	183.333
184.20	9.091
184.58	55.556
184.96	-225.000
185.34	-166.667
185.72	300.000
186.09	30.769
186.47	-200.000
186.85	100.000
187.23	-11.111
187.61	-600.000
187.98	-300.000
188.36	0.000
188.74	266.667
189.12	88.235
189.49	105.556
189.87	0.000
190.25	128.571
190.63	250.000
191.00	400.000
191.38	57.895
191.76	250.000
192.14	-25.000
192.51	550.000
192.89	100.000
193.27	71.429
193.65	250.000
194.02	36.364
194.40	90.000
194.78	12.500
195.15	108.333
195.53	62.500
195.91	-0.000
196.29	-250.000
196.66	138.462
197.04	-14.286
197.42	66.667
197.79	-266.667
198.17	-76.923
198.55	800.000
198.92	-33.333
199.30	300.000
199.68	-60.000
200.05	-133.333
200.43	0.000
200.81	300.000
201.18	100.000
201.56	-300.000
201.94	-400.000
202.31	-133.333
202.69	-180.000
203.07	-175.000
203.44	-200.000
203.82	0.000
204.19	64.286
204.57	-433.333
204.95	100.000
205.32	40.000
205.70	100.000
206.08	250.000
206.45	177.778
206.83	135.714
207.20	-42.857
207.58	-200.000
207.96	266.667
208.33	10.000
208.71	-200.000
209.08	-33.333
209.46	-800.000
209.84	40.000
210.21	-300.000
210.59	114.286
210.96	300.000
211.34	100.000
211.71	40.000
212.09	57.143
212.46	-1200.000
212.84	0.000
213.22	60.000
213.59	100.000
213.97	38.462
214.34	45.455
214.72	100.000
215.09	200.000
215.47	30.769
215.84	0.000
216.22	-133.333
216.59	-25.000
216.97	600.000
217.34	75.000
217.72	140.000
218.09	125.000
218.47	112.500
218.84	200.000
219.22	-66.667
219.59	-40.000
219.97	200.000
220.34	325.000
220.72	128.571
221.09	150.000
221.47	300.000
221.84	200.000
222.22	-150.000
222.59	81.818
222.97	16.667
223.34	-300.000
223.72	35.714
224.09	47.619
224.46	17.857
224.84	333.333
225.21	50.000
225.59	113.333
225.96	600.000
226.34	225.000
226.71	28.571
227.08	16.667
227.46	200.000
227.83	-150.000
228.21	88.889
228.58	145.455
228.95	37.500
229.33	-0.000
229.70	-6.250
230.08	62.500
230.45	0.000
230.82	214.286
231.20	20.000
231.57	57.143
231.95	185.714
232.32	-50.000
232.69	71.429
233.07	100.000
233.44	200.000
233.81	-10.000
234.19	88.889
234.56	58.824
234.93	200.000
235.31	-50.000
235.68	-40.000
236.05	-30.769
236.43	10.000
236.80	35.294
237.17	21.875
237.55	-20.000
237.92	11.111
238.29	25.000
238.67	53.333
239.04	26.471
239.41	12.195
239.79	3.333
240.16	4.878
240.53	-7.895
240.91	-2.174
241.28	9.524
241.65	8.929
242.02	13.699
242.40	3.333
242.77	6.780
243.14	-4.545
243.51	13.750
243.89	18.391
244.26	14.943
244.63	9.524
245.00	11.340
245.38	18.557
245.75	-7.865
246.12	6.897
246.49	12.397
246.87	5.769
247.24	-4.202
247.61	-4.386
247.98	-3.252
248.36	7.500
248.73	6.579
249.10	-1.948
249.47	8.228
249.84	2.614
250.22	10.000
250.59	5.229
250.96	13.146
251.33	3.488
251.70	7.647
252.08	4.061
252.45	1.485
252.82	6.533
253.19	5.530
253.56	3.271
253.94	5.856
254.31	5.652
254.68	3.509
255.05	3.543
255.42	4.367
255.79	6.950
256.16	3.891
256.54	6.716
256.91	6.844
257.28	5.948
257.65	2.996
258.02	3.191
258.39	6.734
258.76	8.059
259.14	7.309
259.51	3.236
259.88	6.529
260.25	4.248
260.62	8.681
260.99	0.678
261.36	2.397
261.73	3.165
262.10	2.128
262.47	3.988
262.85	6.270
263.22	5.538
263.59	6.854
263.96	7.453
264.33	5.152
264.70	5.060
265.07	0.893
265.44	5.382
265.81	3.955
266.18	4.645
266.55	7.712
266.92	5.181
267.29	6.266
267.66	3.581
268.03	4.974
268.40	4.178
268.77	4.813
269.14	5.516
269.51	6.170
269.88	4.738
270.25	-0.255
270.62	2.683
270.99	1.535
271.36	2.445
271.73	4.930
272.10	5.839
272.47	4.728
272.84	2.228
273.21	9.049
273.58	5.060
273.95	5.034
274.32	3.233
274.69	2.489
275.06	6.027
275.43	4.762
275.80	1.987
276.17	3.678
276.54	5.139
276.91	5.044
277.28	4.148
277.65	5.372
278.02	4.255
278.39	1.969
278.76	1.887
279.13	0.830
279.50	5.042
279.87	5.184
280.23	4.516
280.60	3.899
280.97	4.444
281.34	1.731
281.71	5.339
282.08	1.431
282.45	2.348
282.82	3.282
283.19	3.482
283.56	3.661
283.92	1.708
284.29	2.885
284.66	3.682
285.03	4.912
285.40	2.457
285.77	3.866
286.14	3.971
286.51	4.797
286.87	2.194
287.24	4.604
287.61	2.998
287.98	5.263
288.35	3.120
288.72	2.977
289.08	4.340
289.45	4.218
289.82	3.671
290.19	1.877
290.56	3.087
290.93	4.209
291.29	2.157
291.66	4.409
292.03	2.871
292.40	1.452
292.77	2.552
293.13	0.487
293.50	2.580
293.87	3.817
294.24	3.555
294.60	2.832
294.97	2.530
295.34	1.380
295.71	3.875
296.08	4.036
296.44	1.707
296.81	3.750
297.18	2.609
297.55	5.420
297.91	3.699
298.28	4.617
298.65	5.427
299.02	2.561
299.38	0.958
299.75	2.345
300.12	1.832
300.48	1.713
300.85	3.802
301.22	3.377
301.59	2.368
301.95	3.924
302.32	5.966
302.69	3.980
303.05	3.342
303.42	1.619
303.79	3.388
304.15	3.943
304.52	2.616
304.89	4.678
305.25	2.421
305.62	2.800
305.99	1.637
306.35	1.734
306.72	2.362
307.09	2.965
307.45	4.707
307.82	3.125
308.19	3.717
308.55	3.599
308.92	3.813
309.29	0.894
309.65	2.368
310.02	2.530
310.38	4.171
310.75	2.623
311.12	2.906
311.48	3.287
311.85	3.979
312.22	2.848
312.58	2.017
312.95	2.134
313.31	3.313
313.68	3.560
314.05	3.571
314.41	3.814
314.78	3.402
315.14	4.522
315.51	4.348
315.87	3.381
316.24	6.168
316.61	5.315
316.97	5.655
317.34	5.078
317.70	5.163
318.07	5.288
318.43	6.078
318.80	5.966
319.16	6.641
319.53	7.692
319.89	6.890
320.26	6.781
320.62	7.222
320.99	6.785
321.35	8.633
321.72	9.761
322.08	9.466
322.45	9.645
322.81	9.823
323.18	10.206
323.54	11.776
323.91	12.269
324.27	12.500
324.64	14.045
325.00	15.328
325.37	16.345
325.73	15.231
326.10	17.257
326.46	18.296
326.83	18.985
327.19	19.529
327.56	18.940
327.92	21.215
328.29	22.589
328.65	22.453
329.01	22.978
329.38	25.161
329.74	24.646
330.11	26.228
330.47	25.974
330.84	26.250
331.20	28.802
331.56	27.500
331.93	29.772
332.29	29.973
332.66	29.774
333.02	30.576
333.38	31.347
333.75	33.333
334.11	32.498
334.48	33.726
334.84	35.531
335.20	34.950
335.57	35.177
335.93	35.501
336.29	35.727
336.66	36.512
337.02	36.059
337.38	37.037
337.75	35.818
338.11	37.872
338.47	38.869
338.84	37.800
339.20	38.026
339.56	39.817
339.93	38.138
340.29	39.083
340.65	37.993
341.02	39.096
341.38	37.522
341.74	39.576
342.11	38.995
342.47	39.235
342.83	39.792
343.20	39.895
343.56	40.870
343.92	41.010
344.28	40.222
344.65	40.674
345.01	40.104
345.37	40.202
345.73	40.586
346.10	42.019
346.46	40.286
346.82	40.671
347.19	40.565
347.55	40.434
347.91	40.696
348.27	41.229
348.63	42.675
349.00	40.525
349.36	42.145
349.72	42.537
350.08	41.066
350.45	40.623
350.81	41.362
351.17	40.228
351.53	42.041
351.89	40.297
352.26	41.600
352.62	40.968
352.98	41.124
353.34	41.224
353.70	41.909
354.07	41.855
354.43	42.034
354.79	42.940
355.15	42.143
355.51	42.959
355.87	42.152
356.24	42.414
356.60	42.926
356.96	42.937
357.32	41.613
357.68	40.891
358.04	42.407
358.40	42.524
358.77	42.982
359.13	43.074
359.49	41.834
359.85	42.824
360.21	44.338
360.57	42.770
360.93	43.495
361.29	42.900
361.66	44.592
362.02	44.318
362.38	43.869
362.74	45.117
363.10	45.297
363.46	43.810
363.82	44.929
364.18	44.133
364.54	42.279
364.90	44.444
365.26	43.450
365.62	44.745
365.98	44.795
366.35	46.613
366.71	45.233
367.07	44.485
367.43	43.781
367.79	45.724
368.15	44.652
368.51	45.594
368.87	45.441
369.23	45.704
369.59	45.773
369.95	46.188
370.31	46.676
370.67	47.239
371.03	45.631
371.39	44.493
371.75	46.667
372.11	46.648
372.47	46.080
372.83	46.700
373.19	47.218
373.55	45.632
373.91	47.012
374.27	48.760
374.63	48.385
374.99	47.518
375.35	45.961
375.71	48.252
376.07	47.963
376.42	47.075
376.78	47.248
377.14	47.190
377.50	48.008
377.86	47.189
378.22	48.373
378.58	48.974
378.94	48.645
379.30	49.407
379.66	50.721
380.02	48.804
380.38	48.022
380.74	48.654
381.09	50.736
381.45	48.869
381.81	49.167
382.17	50.000
382.53	49.594
382.89	51.664
383.25	51.089
383.61	50.915
383.97	50.159
384.32	49.406
384.68	51.455
385.04	50.674
385.40	51.151
385.76	51.509
386.12	51.746
386.48	51.341
386.83	51.046
387.19	51.465
387.55	52.196
387.91	51.956
388.27	51.221
388.62	53.241
388.98	51.197
389.34	50.781
389.70	52.144
390.06	51.857
390.42	52.267
390.77	53.172
391.13	51.765
391.49	52.458
391.85	53.086
392.20	51.224
392.56	52.384
392.92	52.437
393.28	51.887
393.64	51.952
393.99	53.542
394.35	52.751
394.71	53.959
395.07	51.603
395.42	51.609
395.78	52.638
396.14	51.955
396.50	53.393
396.85	53.960
397.21	52.632
397.57	53.166
397.92	52.726
398.28	54.310
398.64	51.325
399.00	54.515
399.35	51.467
399.71	52.728
400.07	52.842
400.42	51.714
400.78	51.990
401.14	52.269
401.49	53.961
401.85	52.285
402.21	52.711
402.57	53.125
402.92	52.635
403.28	52.444
403.63	53.405
403.99	52.423
404.35	53.841
404.70	50.298
405.06	51.058
405.42	50.839
405.77	51.656
406.13	52.503
406.49	52.575
406.84	52.323
407.20	52.619
407.55	51.706
407.91	53.275
408.27	51.307
408.62	52.677
408.98	51.818
409.34	52.974
409.69	50.840
410.05	51.355
410.40	51.667
410.76	52.292
411.11	51.688
411.47	52.926
411.83	51.538
412.18	53.153
412.54	51.498
412.89	51.663
413.25	53.069
413.60	51.615
413.96	50.798
414.31	51.951
414.67	51.828
415.03	52.130
415.38	52.285
415.74	52.443
416.09	54.213
416.45	52.262
416.80	50.958
417.16	53.591
417.51	52.032
417.87	52.412
418.22	54.210
418.58	53.913
418.93	53.480
419.29	51.857
419.64	52.236
420.00	55.038
420.35	52.597
420.71	53.645
421.06	53.775
421.42	53.425
421.77	53.757
422.12	54.313
422.48	52.897
422.83	54.292
423.19	53.555
423.54	54.556
423.90	53.769
424.25	54.191
424.61	54.712
424.96	54.239
425.31	55.979
425.67	55.282
426.02	55.477
426.38	57.295
426.73	56.235
427.09	56.392
427.44	56.647
427.79	55.922
428.15	56.553
428.50	55.239
428.85	55.958
429.21	57.499
429.56	57.305
429.92	56.600
430.27	56.040
430.62	57.763
430.98	57.909
431.33	56.993
431.68	54.736
432.04	57.183
432.39	57.273
432.74	55.622
433.10	58.218
433.45	57.527
433.80	57.922
434.16	57.784
434.51	57.473
434.86	57.782
435.22	58.160
435.57	59.201
435.92	58.563
436.28	57.484
436.63	57.616
436.98	57.764
437.34	59.044
437.69	58.736
438.04	58.234
438.39	57.239
438.75	60.170
439.10	58.970
439.45	59.951
439.81	59.694
440.16	59.798
440.51	59.403
440.86	60.483
441.22	58.824
441.57	60.486
441.92	61.805
442.27	62.195
442.63	61.028
442.98	60.942
443.33	60.545
443.68	59.841
444.03	60.457
444.39	61.682
444.74	62.263
445.09	61.915
445.44	62.051
445.79	62.403
446.15	60.848
446.50	60.455
446.85	63.018
447.20	62.774
447.55	61.775
447.91	61.816
448.26	62.322
448.61	62.579
448.96	62.937
449.31	62.139
449.66	60.627
450.02	62.293
450.37	61.055
450.72	62.371
451.07	63.165
451.42	60.612
451.77	61.724
452.12	61.244
452.47	63.941
452.83	62.780
453.18	62.239
453.53	63.085
453.88	63.024
454.23	61.278
454.58	62.783
454.93	61.920
455.28	61.143
455.63	62.182
455.98	63.860
456.34	63.538
456.69	62.834
457.04	64.020
457.39	63.123
457.74	63.059
458.09	62.213
458.44	63.195
458.79	63.305
459.14	64.073
459.49	63.284
459.84	63.508
460.19	62.439
460.54	64.120
460.89	64.432
461.24	62.795
461.59	64.905
461.94	63.019
462.29	64.596
462.64	63.721
462.99	62.627
463.34	63.491
463.69	63.449
464.04	64.165
464.39	63.493
464.74	63.742
465.09	64.317
465.44	65.205
465.79	62.868
466.14	64.538
466.49	64.347
466.84	64.485
467.19	62.954
467.54	62.708
467.89	63.740
468.24	63.443
468.59	65.143
468.94	63.556
469.29	63.934
469.64	63.910
469.99	63.910
470.34	64.232
470.68	64.579
471.03	64.897
471.38	63.409
471.73	62.815
472.08	63.501
472.43	65.235
472.78	63.537
473.13	64.014
473.48	64.560
473.83	63.636
474.17	65.868
474.52	63.944
474.87	64.000
475.22	64.735
475.57	65.387
475.92	64.344
476.27	65.250
476.61	64.757
476.96	63.358
477.31	63.818
477.66	63.596
478.01	64.570
478.36	64.597
478.70	66.069
479.05	65.055
479.40	65.766
479.75	63.660
480.10	63.850
480.45	64.100
480.79	66.616
481.14	65.779
481.49	64.236
481.84	65.106
482.19	64.827
482.53	64.844
482.88	63.866
483.23	64.203
483.58	64.481
483.92	63.988
484.27	64.540
484.62	64.993
484.97	64.842
485.31	65.571
485.66	66.658
486.01	68.120
486.36	67.952
486.70	66.721
487.05	66.406
487.40	65.383
487.75	66.113
488.09	64.030
488.44	63.721
488.79	64.176
489.13	65.264
489.48	63.873
489.83	64.260
490.17	63.146
490.52	63.880
490.87	63.443
491.22	65.473
491.56	64.421
491.91	63.623
492.26	65.095
492.60	62.764
492.95	64.289
493.30	62.531
493.64	65.128
493.99	63.961
494.34	64.466
494.68	63.857
495.03	63.163
495.37	64.426
495.72	66.229
496.07	65.707
496.41	65.189
496.76	64.993
497.11	64.043
497.45	65.155
497.80	65.288
498.14	64.481
498.49	64.297
498.84	64.721
499.18	65.010
499.53	64.881
499.87	63.813
500.22	64.590
500.56	66.162
500.91	64.859
501.26	63.866
501.60	63.847
501.95	64.774
502.29	65.182
502.64	65.058
502.98	65.170
503.33	64.265
503.67	64.578
504.02	64.712
504.36	64.523
504.71	64.343
505.06	64.469
505.40	64.670
505.75	65.412
506.09	65.180
506.44	66.170
506.78	64.796
507.13	64.271
507.47	63.133
507.82	64.103
508.16	64.395
508.51	64.376
508.85	64.469
509.19	64.822
509.54	65.094
509.88	63.700
510.23	64.927
510.57	64.671
510.92	62.154
511.26	64.375
511.61	65.402
511.95	64.493
512.30	64.246
512.64	64.274
512.98	64.290
513.33	64.466
513.67	64.355
514.02	64.760
514.36	65.600
514.70	64.918
515.05	66.157
515.39	63.577
515.74	64.072
516.08	63.837
516.42	65.312
516.77	64.599
517.11	65.401
517.46	65.470
517.80	64.779
518.14	64.789
518.49	63.341
518.83	64.216
519.17	62.765
519.52	63.647
519.86	62.305
520.20	63.791
520.55	63.540
520.89	63.112
521.23	63.838
521.58	64.164
521.92	64.551
522.26	64.476
522.61	64.416
522.95	65.762
523.29	63.596
523.64	64.104
523.98	64.290
524.32	63.466
524.66	64.149
525.01	64.221
525.35	64.226
525.69	64.175
526.04	64.286
526.38	65.305
526.72	63.636
527.06	62.840
527.41	64.644
527.75	62.802
528.09	63.123
528.43	64.078
528.78	63.894
529.12	64.903
529.46	64.977
529.80	62.381
530.15	65.017
530.49	65.320
530.83	65.390
531.17	64.003
531.51	63.406
531.86	63.834
532.20	63.535
532.54	63.172
532.88	65.435
533.22	64.382
533.57	65.531
533.91	64.883
534.25	66.276
534.59	64.913
534.93	63.814
535.27	64.277
535.62	65.327
535.96	63.992
536.30	64.908
536.64	63.680
536.98	63.554
537.32	64.438
537.66	64.727
538.01	64.965
538.35	64.771
538.69	64.115
539.03	65.003
539.37	64.334
539.71	66.462
540.05	64.902
540.39	65.512
540.73	64.993
541.07	63.881
541.42	63.911
541.76	64.143
542.10	64.556
542.44	64.072
542.78	62.973
543.12	65.041
543.46	63.908
543.80	64.400
544.14	62.817
544.48	63.091
544.82	66.781
545.16	66.052
545.50	63.818
545.84	65.652
546.18	66.950
546.52	64.384
546.86	65.421
547.20	65.451
547.54	64.382
547.88	64.334
548.22	65.023
548.56	64.776
548.90	65.162
549.24	63.430
549.58	63.611
549.92	64.332
550.26	64.322
550.60	65.651
550.94	64.152
551.28	65.070
551.62	65.308
551.96	64.962
552.30	64.547
552.64	62.976
552.98	64.065
553.32	62.981
553.66	64.731
554.00	64.891
554.34	65.510
554.68	63.643
555.02	63.988
555.36	65.071
555.69	64.689
556.03	64.811
556.37	64.982
556.71	64.693
557.05	65.548
557.39	62.528
557.73	65.517
558.07	65.611
558.41	65.161
558.75	65.238
559.08	63.751
559.42	66.111
559.76	65.813
560.10	64.373
560.44	65.674
560.78	64.476
561.12	67.560
561.45	67.182
561.79	65.476
562.13	65.224
562.47	64.964
562.81	65.346
563.15	64.598
563.48	65.842
563.82	67.056
564.16	66.365
564.50	65.000
564.84	66.265
565.17	65.526
565.51	67.623
565.85	67.764
566.19	66.645
566.52	68.164
566.86	67.031
567.20	68.120
567.54	67.822
567.88	69.127
568.21	68.382
568.55	67.826
568.89	69.610
569.23	69.283
569.56	69.177
569.90	71.376
570.24	69.185
570.57	71.418
570.91	71.314
571.25	70.602
571.59	69.231
571.92	67.941
572.26	70.562
572.60	69.116
572.93	68.466
573.27	69.091
573.61	69.600
573.95	69.798
574.28	69.836
574.62	69.616
574.96	69.658
575.29	69.738
575.63	67.634
575.97	67.390
576.30	68.878
576.64	69.510
576.98	70.039
577.31	70.804
577.65	71.078
577.98	70.964
578.32	71.303
578.66	68.816
578.99	68.928
579.33	68.823
579.67	67.928
580.00	69.772
580.34	70.373
580.67	69.238
581.01	70.293
581.35	70.435
581.68	70.321
582.02	71.224
582.35	70.975
582.69	70.413
583.02	69.643
583.36	69.458
583.70	69.730
584.03	70.781
584.37	71.485
584.70	70.110
585.04	69.456
585.37	69.803
585.71	70.995
586.04	70.020
586.38	69.965
586.72	70.674
587.05	71.346
587.39	71.121
587.72	72.936
588.06	70.551
588.39	70.806
588.73	70.238
589.06	71.102
589.40	69.202
589.73	70.208
590.07	71.110
590.40	69.466
590.73	70.511
591.07	69.720
591.40	69.234
591.74	70.543
592.07	70.315
592.41	70.186
592.74	70.331
593.08	69.892
593.41	71.071
593.75	69.905
594.08	69.825
594.41	70.815
594.75	70.840
595.08	70.261
595.42	70.556
595.75	72.512
596.09	70.602
596.42	69.492
596.75	69.716
597.09	68.975
597.42	69.738
597.75	70.637
598.09	68.719
598.42	69.179
598.76	69.713
599.09	69.631
599.42	70.140
599.76	70.128
600.09	70.023
600.42	70.318
600.76	69.762
601.09	70.267
601.42	69.174
601.76	69.353
602.09	69.142
602.42	71.567
602.76	71.095
603.09	71.346
603.42	72.617
603.76	71.492
604.09	69.218
604.42	70.601
604.76	70.583
605.09	69.333
605.42	69.571
605.75	70.797
606.09	69.766
606.42	69.683
606.75	70.000
607.09	70.286
607.42	69.207
607.75	69.716
608.08	68.958
608.42	67.063
608.75	70.265
609.08	69.108
609.41	69.848
609.75	68.750
610.08	70.245
610.41	69.420
610.74	71.136
611.07	70.388
611.41	70.524
611.74	70.789
612.07	68.683
612.40	69.147
612.73	71.073
613.07	69.741
613.40	68.381
613.73	70.006
614.06	68.893
614.39	70.107
614.72	69.076
615.06	70.279
615.39	67.904
615.72	68.299
616.05	69.385
616.38	68.604
616.71	69.297
617.05	68.623
617.38	68.259
617.71	70.063
618.04	71.238
618.37	70.429
618.70	69.901
619.03	68.750
619.36	67.294
619.69	68.992
620.03	71.293
620.36	69.242
620.69	68.665
621.02	68.196
621.35	67.718
621.68	67.687
622.01	68.250
622.34	68.555
622.67	67.429
623.00	68.453
623.33	68.216
623.66	67.539
623.99	68.533
624.32	67.909
624.65	67.895
624.99	68.924
625.32	68.688
625.65	66.929
625.98	69.299
626.31	67.249
626.64	68.891
626.97	68.935
627.30	67.951
627.63	68.458
627.96	67.206
628.29	66.512
628.62	67.650
628.95	65.832
629.28	68.246
629.61	68.295
629.94	68.231
630.26	66.700
630.59	68.158
630.92	66.256
631.25	64.308
631.58	68.392
631.91	66.228
632.24	67.431
632.57	67.159
632.90	67.616
633.23	64.941
633.56	66.247
633.89	65.351
634.22	68.148
634.55	66.455
634.88	63.729
635.20	64.615
635.53	65.733
635.86	65.800
636.19	66.624
636.52	67.347
636.85	68.114
637.18	67.296
637.51	65.031
637.83	63.863
638.16	66.576
638.49	64.033
