SpectraSuite Data File
++++++++++++++++++++++++++++++++++++
Date: Fri May 15 17:30:36 PDT 2015
User: schluterlab
Dark Spectrum Present: Yes
Reference Spectrum Present: Yes
Number of Sampled Component Spectra: 1
Spectrometers: USB2E3373
Integration Time (usec): 3000 (USB2E3373)
Spectra Averaged: 3 (USB2E3373)
Boxcar Smoothing: 0 (USB2E3373)
Correct for Electrical Dark: No (USB2E3373)
Strobe/Lamp Enabled: No (USB2E3373)
Correct for Detector Non-linearity: No (USB2E3373)
Correct for Stray Light: No (USB2E3373)
Number of Pixels in Processed Spectrum: 2048
>>>>>Begin Processed Spectral Data<<<<<
178.53	0.000
178.91	0.000
179.29	25.000
179.67	-100.000
180.04	-128.571
180.42	300.000
180.80	100.000
181.18	-200.000
181.56	-300.000
181.94	50.000
182.31	-200.000
182.69	120.000
183.07	-66.667
183.45	-200.000
183.83	133.333
184.20	72.727
184.58	-11.111
184.96	-25.000
185.34	-466.667
185.72	-50.000
186.09	115.385
186.47	100.000
186.85	133.333
187.23	22.222
187.61	-400.000
187.98	-166.667
188.36	44.444
188.74	-100.000
189.12	5.882
189.49	77.778
189.87	0.000
190.25	71.429
190.63	50.000
191.00	133.333
191.38	47.368
191.76	450.000
192.14	-200.000
192.51	200.000
192.89	144.444
193.27	0.000
193.65	166.667
194.02	109.091
194.40	20.000
194.78	-87.500
195.15	41.667
195.53	-50.000
195.91	25.000
196.29	-100.000
196.66	130.769
197.04	57.143
197.42	66.667
197.79	-233.333
198.17	-100.000
198.55	100.000
198.92	-166.667
199.30	400.000
199.68	100.000
200.05	-233.333
200.43	0.000
200.81	266.667
201.18	200.000
201.56	600.000
201.94	-100.000
202.31	-0.000
202.69	-60.000
203.07	200.000
203.44	1300.000
203.82	0.000
204.19	92.857
204.57	-266.667
204.95	100.000
205.32	20.000
205.70	100.000
206.08	150.000
206.45	233.333
206.83	64.286
207.20	-85.714
207.58	500.000
207.96	33.333
208.33	-30.000
208.71	-75.000
209.08	-66.667
209.46	200.000
209.84	40.000
210.21	-800.000
210.59	114.286
210.96	0.000
211.34	225.000
211.71	13.333
212.09	-128.571
212.46	-500.000
212.84	0.000
213.22	10.000
213.59	650.000
213.97	69.231
214.34	9.091
214.72	16.667
215.09	250.000
215.47	-15.385
215.84	36.364
216.22	-333.333
216.59	-150.000
216.97	200.000
217.34	0.000
217.72	-180.000
218.09	125.000
218.47	50.000
218.84	100.000
219.22	-33.333
219.59	40.000
219.97	-66.667
220.34	-125.000
220.72	185.714
221.09	25.000
221.47	400.000
221.84	50.000
222.22	-150.000
222.59	54.545
222.97	33.333
223.34	-133.333
223.72	14.286
224.09	4.762
224.46	67.857
224.84	166.667
225.21	40.000
225.59	33.333
225.96	100.000
226.34	-75.000
226.71	-42.857
227.08	133.333
227.46	162.500
227.83	-250.000
228.21	66.667
228.58	90.909
228.95	12.500
229.33	10.000
229.70	75.000
230.08	-25.000
230.45	-114.286
230.82	0.000
231.20	26.667
231.57	28.571
231.95	71.429
232.32	-30.000
232.69	71.429
233.07	366.667
233.44	-180.000
233.81	-30.000
234.19	100.000
234.56	29.412
234.93	500.000
235.31	200.000
235.68	-100.000
236.05	-53.846
236.43	50.000
236.80	29.412
237.17	50.000
237.55	35.000
237.92	40.741
238.29	11.111
238.67	53.333
239.04	38.235
239.41	7.317
239.79	36.667
240.16	46.341
240.53	7.895
240.91	41.304
241.28	26.984
241.65	62.500
242.02	41.096
242.40	46.667
242.77	42.373
243.14	33.333
243.51	52.500
243.89	66.667
244.26	33.333
244.63	27.381
245.00	42.268
245.38	45.361
245.75	37.079
246.12	43.103
246.49	39.669
246.87	55.769
247.24	35.294
247.61	35.088
247.98	41.463
248.36	41.250
248.73	46.053
249.10	44.805
249.47	41.139
249.84	41.830
250.22	38.824
250.59	42.484
250.96	42.723
251.33	43.023
251.70	49.412
252.08	41.117
252.45	34.653
252.82	43.216
253.19	46.083
253.56	45.794
253.94	42.793
254.31	40.000
254.68	51.316
255.05	43.701
255.42	43.231
255.79	42.085
256.16	41.634
256.54	44.776
256.91	41.065
257.28	39.405
257.65	43.820
258.02	43.617
258.39	43.098
258.76	41.026
259.14	43.522
259.51	42.071
259.88	39.863
260.25	40.523
260.62	45.139
260.99	43.051
261.36	43.151
261.73	43.671
262.10	37.994
262.47	44.785
262.85	41.066
263.22	36.615
263.59	40.498
263.96	44.720
264.33	42.121
264.70	44.048
265.07	43.452
265.44	42.210
265.81	43.785
266.18	40.984
266.55	42.159
266.92	44.819
267.29	43.081
267.66	44.246
268.03	42.147
268.40	39.426
268.77	45.722
269.14	40.288
269.51	42.674
269.88	41.147
270.25	38.520
270.62	42.195
270.99	39.642
271.36	38.386
271.73	41.315
272.10	38.686
272.47	38.771
272.84	39.109
273.21	39.443
273.58	41.205
273.95	39.817
274.32	40.416
274.69	38.009
275.06	41.295
275.43	38.549
275.80	41.280
276.17	43.218
276.54	39.829
276.91	42.325
277.28	39.301
277.65	39.876
278.02	38.723
278.39	39.825
278.76	39.623
279.13	36.307
279.50	40.336
279.87	36.933
280.23	39.355
280.60	38.791
280.97	42.626
281.34	39.423
281.71	40.862
282.08	39.877
282.45	39.139
282.82	39.961
283.19	40.232
283.56	36.416
283.92	39.848
284.29	38.077
284.66	37.791
285.03	40.079
285.40	37.618
285.77	38.664
286.14	36.282
286.51	38.930
286.87	35.649
287.24	38.122
287.61	37.037
287.98	37.193
288.35	35.875
288.72	34.851
289.08	37.153
289.45	39.016
289.82	35.664
290.19	35.495
290.56	35.163
290.93	34.848
291.29	32.820
291.66	34.331
292.03	34.609
292.40	34.839
292.77	31.260
293.13	31.494
293.50	33.080
293.87	32.366
294.24	31.685
294.60	30.849
294.97	30.208
295.34	31.288
295.71	30.551
296.08	29.895
296.44	28.876
296.81	29.861
297.18	29.130
297.55	32.249
297.91	28.904
298.28	29.420
298.65	30.258
299.02	29.650
299.38	26.949
299.75	29.241
300.12	27.487
300.48	30.303
300.85	28.264
301.22	29.870
301.59	28.816
301.95	27.342
302.32	29.442
302.69	27.861
303.05	26.361
303.42	27.148
303.79	24.883
304.15	27.479
304.52	26.278
304.89	27.018
305.25	25.545
305.62	26.604
305.99	26.667
306.35	26.012
306.72	25.534
307.09	28.278
307.45	26.406
307.82	25.926
308.19	27.642
308.55	26.827
308.92	26.362
309.29	26.704
309.65	26.265
310.02	25.743
310.38	25.906
310.75	26.230
311.12	26.588
311.48	25.239
311.85	26.073
312.22	25.422
312.58	26.008
312.95	24.867
313.31	23.499
313.68	25.864
314.05	23.776
314.41	25.155
314.78	24.948
315.14	26.002
315.51	24.431
315.87	25.307
316.24	25.076
316.61	24.803
316.97	25.794
317.34	24.414
317.70	24.761
318.07	24.519
318.43	24.706
318.80	23.769
319.16	24.902
319.53	25.641
319.89	24.311
320.26	24.494
320.62	23.972
320.99	23.800
321.35	26.310
321.72	25.441
322.08	24.673
322.45	24.365
322.81	23.969
323.18	24.730
323.54	23.938
323.91	23.661
324.27	24.219
324.64	24.625
325.00	23.905
325.37	25.344
325.73	24.207
326.10	23.978
326.46	23.229
326.83	24.759
327.19	24.499
327.56	23.284
327.92	23.856
328.29	24.196
328.65	23.962
329.01	24.449
329.38	23.594
329.74	21.907
330.11	24.745
330.47	22.263
330.84	21.538
331.20	25.190
331.56	22.500
331.93	24.018
332.29	24.106
332.66	22.624
333.02	22.491
333.38	22.640
333.75	24.634
334.11	22.650
334.48	23.753
334.84	23.535
335.20	22.873
335.57	21.940
335.93	23.397
336.29	23.297
336.66	23.070
337.02	22.119
337.38	22.593
337.75	22.273
338.11	23.354
338.47	22.993
338.84	22.828
339.20	22.669
339.56	22.294
339.93	23.814
340.29	21.560
340.65	23.297
341.02	23.050
341.38	23.009
341.74	20.848
342.11	22.184
342.47	22.776
342.83	22.751
343.20	22.822
343.56	23.217
343.92	21.878
344.28	22.459
344.65	22.193
345.01	21.867
345.37	22.540
345.73	22.762
346.10	23.123
346.46	21.615
346.82	21.686
347.19	21.031
347.55	21.972
347.91	22.087
348.27	21.827
348.63	21.295
349.00	21.493
349.36	22.195
349.72	22.471
350.08	21.475
350.45	22.825
350.81	21.512
351.17	20.277
351.53	22.204
351.89	21.470
352.26	21.200
352.62	21.774
352.98	20.482
353.34	21.417
353.70	22.654
354.07	21.290
354.43	20.897
354.79	20.727
355.15	22.460
355.51	21.598
355.87	21.521
356.24	20.147
356.60	21.665
356.96	21.587
357.32	21.326
357.68	20.876
358.04	21.809
358.40	21.222
358.77	22.089
359.13	20.336
359.49	20.570
359.85	20.671
360.21	20.415
360.57	20.964
360.93	20.272
361.29	19.940
361.66	21.708
362.02	21.667
362.38	21.325
362.74	21.120
363.10	21.520
363.46	20.608
363.82	21.938
364.18	21.033
364.54	20.735
364.90	20.645
365.26	20.888
365.62	21.314
365.98	20.455
366.35	21.340
366.71	21.212
367.07	20.972
367.43	20.345
367.79	20.777
368.15	21.034
368.51	21.340
368.87	20.531
369.23	20.794
369.59	20.481
369.95	20.235
370.31	20.592
370.67	20.821
371.03	19.866
371.39	20.058
371.75	19.853
372.11	21.041
372.47	20.710
372.83	20.298
373.19	21.969
373.55	19.495
373.91	21.166
374.27	20.269
374.63	21.106
374.99	20.213
375.35	20.961
375.71	20.909
376.07	19.874
376.42	20.204
376.78	20.738
377.14	19.973
377.50	19.655
377.86	20.415
378.22	19.528
378.58	20.192
378.94	19.849
379.30	20.524
379.66	20.752
380.02	20.049
380.38	20.146
380.74	19.210
381.09	20.613
381.45	19.694
381.81	19.803
382.17	20.178
382.53	20.737
382.89	19.460
383.25	20.784
383.61	21.341
383.97	19.746
384.32	19.450
384.68	20.186
385.04	19.730
385.40	19.851
385.76	20.440
386.12	20.246
386.48	20.754
386.83	19.404
387.19	20.513
387.55	20.013
387.91	20.293
388.27	19.475
388.62	20.013
388.98	20.012
389.34	19.550
389.70	20.634
390.06	19.132
390.42	19.754
390.77	19.751
391.13	19.924
391.49	19.858
391.85	20.728
392.20	19.711
392.56	19.453
392.92	19.965
393.28	19.458
393.64	20.360
393.99	20.878
394.35	19.798
394.71	19.796
395.07	19.862
395.42	19.733
395.78	19.479
396.14	19.609
396.50	20.419
396.85	20.992
397.21	19.361
397.57	19.624
397.92	19.593
398.28	20.115
398.64	18.795
399.00	19.470
399.35	18.736
399.71	19.816
400.07	20.133
400.42	20.563
400.78	19.780
401.14	19.540
401.49	20.965
401.85	19.988
402.21	19.940
402.57	19.938
402.92	19.511
403.28	20.489
403.63	18.916
403.99	19.196
404.35	20.237
404.70	19.821
405.06	19.565
405.42	19.702
405.77	19.117
406.13	19.499
406.49	19.538
406.84	20.477
407.20	19.868
407.55	19.511
407.91	19.385
408.27	19.949
408.62	20.246
408.98	19.470
409.34	19.393
409.69	19.444
410.05	19.212
410.40	20.432
410.76	20.084
411.11	19.875
411.47	20.513
411.83	19.021
412.18	20.013
412.54	19.600
412.89	19.458
413.25	20.999
413.60	19.814
413.96	19.325
414.31	20.183
414.67	19.307
415.03	19.241
415.38	19.713
415.74	20.782
416.09	20.314
416.45	20.459
416.80	20.026
417.16	20.028
417.51	18.987
417.87	19.687
418.22	20.272
418.58	19.532
418.93	20.502
419.29	19.974
419.64	20.026
420.00	21.725
420.35	18.985
420.71	19.502
421.06	20.135
421.42	20.974
421.77	20.116
422.12	19.977
422.48	19.870
422.83	19.780
423.19	20.824
423.54	19.518
423.90	19.022
424.25	19.920
424.61	21.114
424.96	20.151
425.31	20.277
425.67	19.308
426.02	20.318
426.38	20.601
426.73	20.097
427.09	21.013
427.44	20.176
427.79	20.507
428.15	20.024
428.50	20.291
428.85	19.779
429.21	20.147
429.56	20.593
429.92	19.671
430.27	20.551
430.62	19.550
430.98	20.435
431.33	20.189
431.68	19.309
432.04	19.508
432.39	19.966
432.74	19.603
433.10	20.805
433.45	20.430
433.80	20.371
434.16	19.391
434.51	20.054
434.86	20.325
435.22	20.359
435.57	20.274
435.92	20.778
436.28	20.930
436.63	19.738
436.98	19.641
437.34	19.661
437.69	20.394
438.04	20.228
438.39	19.731
438.75	19.794
439.10	20.487
439.45	20.268
439.81	20.550
440.16	20.249
440.51	20.478
440.86	21.631
441.22	20.136
441.57	19.757
441.92	20.409
442.27	20.067
442.63	21.146
442.98	20.620
443.33	19.978
443.68	20.477
444.03	20.964
444.39	20.610
444.74	21.405
445.09	20.713
445.44	20.912
445.79	21.970
446.15	20.264
446.50	19.190
446.85	20.616
447.20	20.647
447.55	20.759
447.91	20.812
448.26	21.571
448.61	20.956
448.96	21.113
449.31	20.520
449.66	21.080
450.02	20.821
450.37	21.280
450.72	20.790
451.07	21.013
451.42	22.035
451.77	20.494
452.12	19.318
452.47	20.090
452.83	20.554
453.18	20.683
453.53	21.492
453.88	21.251
454.23	21.266
454.58	21.222
454.93	21.972
455.28	20.698
455.63	21.265
455.98	21.587
456.34	21.520
456.69	21.537
457.04	21.361
457.39	21.446
457.74	21.100
458.09	19.541
458.44	21.065
458.79	21.232
459.14	21.911
459.49	21.791
459.84	21.376
460.19	21.602
460.54	21.577
460.89	22.443
461.24	20.807
461.59	22.209
461.94	20.755
462.29	22.014
462.64	21.927
462.99	21.530
463.34	21.140
463.69	21.879
464.04	21.610
464.39	21.528
464.74	20.798
465.09	21.460
465.44	21.408
465.79	20.465
466.14	21.152
466.49	21.277
466.84	22.368
467.19	21.089
467.54	21.201
467.89	21.415
468.24	22.202
468.59	21.587
468.94	21.968
469.29	21.902
469.64	21.394
469.99	22.425
470.34	21.638
470.68	22.595
471.03	22.788
471.38	22.753
471.73	22.899
472.08	22.999
472.43	21.879
472.78	22.138
473.13	22.041
473.48	21.694
473.83	22.291
474.17	22.409
474.52	22.336
474.87	22.545
475.22	22.453
475.57	21.513
475.92	22.381
476.27	21.944
476.61	22.917
476.96	21.695
477.31	22.499
477.66	22.191
478.01	21.729
478.36	21.187
478.70	22.132
479.05	22.967
479.40	22.840
479.75	22.054
480.10	21.608
480.45	21.700
480.79	22.558
481.14	23.053
481.49	21.281
481.84	22.587
482.19	21.703
482.53	22.926
482.88	22.053
483.23	22.169
483.58	22.547
483.92	21.781
484.27	21.285
484.62	21.784
484.97	21.434
485.31	21.604
485.66	21.010
486.01	20.409
486.36	19.663
486.70	19.892
487.05	20.907
487.40	20.217
487.75	21.239
488.09	21.261
488.44	21.596
488.79	21.778
489.13	22.596
489.48	21.975
489.83	22.691
490.17	21.663
490.52	22.263
490.87	22.258
491.22	23.591
491.56	22.628
491.91	22.467
492.26	23.043
492.60	23.321
492.95	23.610
493.30	22.325
493.64	22.839
493.99	22.850
494.34	22.087
494.68	22.476
495.03	22.725
495.37	23.160
495.72	22.312
496.07	23.756
496.41	22.830
496.76	22.616
497.11	22.636
497.45	23.675
497.80	23.360
498.14	22.206
498.49	22.651
498.84	23.004
499.18	23.193
499.53	22.817
499.87	23.152
500.22	23.145
500.56	23.500
500.91	22.088
501.26	22.837
501.60	23.315
501.95	22.465
502.29	23.293
502.64	22.780
502.98	22.694
503.33	22.719
503.67	23.277
504.02	23.558
504.36	23.998
504.71	23.384
505.06	23.654
505.40	23.147
505.75	23.454
506.09	23.315
506.44	23.614
506.78	23.827
507.13	23.371
507.47	22.977
507.82	22.917
508.16	22.979
508.51	23.557
508.85	23.129
509.19	23.736
509.54	23.592
509.88	23.679
510.23	23.669
510.57	24.532
510.92	23.401
511.26	23.841
511.61	24.257
511.95	24.164
512.30	24.002
512.64	24.318
512.98	23.751
513.33	25.294
513.67	24.787
514.02	25.343
514.36	25.771
514.70	25.117
515.05	25.793
515.39	25.384
515.74	25.269
516.08	25.284
516.42	26.090
516.77	25.688
517.11	24.332
517.46	25.314
517.80	25.507
518.14	24.923
518.49	24.459
518.83	24.727
519.17	24.500
519.52	24.571
519.86	24.610
520.20	25.334
520.55	24.390
520.89	25.345
521.23	26.092
521.58	25.300
521.92	26.154
522.26	25.114
522.61	25.844
522.95	26.556
523.29	25.667
523.64	25.286
523.98	26.377
524.32	24.871
524.66	26.056
525.01	26.948
525.35	25.405
525.69	25.926
526.04	25.265
526.38	27.562
526.72	25.114
527.06	25.292
527.41	26.451
527.75	25.134
528.09	25.980
528.43	26.941
528.78	25.611
529.12	25.677
529.46	25.146
529.80	25.522
530.15	25.545
530.49	25.589
530.83	26.265
531.17	25.453
531.51	26.197
531.86	25.697
532.20	25.678
532.54	26.208
532.88	26.557
533.22	25.202
533.57	25.229
533.91	24.608
534.25	25.846
534.59	26.427
534.93	25.236
535.27	24.937
535.62	24.951
535.96	26.288
536.30	25.726
536.64	25.362
536.98	25.505
537.32	26.743
537.66	25.806
538.01	24.825
538.35	25.659
538.69	25.632
539.03	24.744
539.37	26.245
539.71	25.835
540.05	25.730
540.39	25.554
540.73	25.732
541.07	26.243
541.42	26.075
541.76	26.290
542.10	25.052
542.44	25.782
542.78	23.675
543.12	24.519
543.46	26.356
543.80	25.260
544.14	23.899
544.48	24.917
544.82	25.769
545.16	26.298
545.50	25.567
545.84	24.788
546.18	26.738
546.52	25.090
546.86	24.802
547.20	25.680
547.54	25.300
547.88	25.815
548.22	24.195
548.56	24.472
548.90	24.394
549.24	25.413
549.58	24.824
549.92	25.018
550.26	25.714
550.60	26.766
550.94	26.960
551.28	26.816
551.62	26.231
551.96	25.489
552.30	26.096
552.64	25.317
552.98	25.457
553.32	26.248
553.66	25.109
554.00	25.474
554.34	26.071
554.68	25.885
555.02	26.637
555.36	25.430
555.69	24.615
556.03	24.554
556.37	24.840
556.71	25.487
557.05	25.652
557.39	24.610
557.73	25.262
558.07	25.716
558.41	26.570
558.75	26.189
559.08	26.005
559.42	27.143
559.76	25.861
560.10	25.153
560.44	26.433
560.78	26.573
561.12	26.164
561.45	26.072
561.79	24.790
562.13	27.253
562.47	25.612
562.81	25.000
563.15	26.164
563.48	25.884
563.82	25.738
564.16	25.209
564.50	25.676
564.84	25.502
565.17	25.017
565.51	25.888
565.85	25.171
566.19	25.597
566.52	26.273
566.86	25.000
567.20	24.533
567.54	25.912
567.88	24.077
568.21	23.925
568.55	23.750
568.89	25.000
569.23	23.544
569.56	22.942
569.90	23.549
570.24	22.702
570.57	23.236
570.91	22.098
571.25	21.769
571.59	21.769
571.92	21.778
572.26	21.407
572.60	21.240
572.93	22.090
573.27	21.473
573.61	21.987
573.95	21.764
574.28	21.690
574.62	20.849
574.96	21.117
575.29	21.454
575.63	20.808
575.97	21.415
576.30	20.888
576.64	20.848
576.98	21.338
577.31	21.037
577.65	20.688
577.98	20.541
578.32	20.959
578.66	20.266
578.99	20.847
579.33	20.834
579.67	20.742
580.00	20.861
580.34	21.095
580.67	20.722
581.01	21.254
581.35	20.887
581.68	20.193
582.02	20.095
582.35	20.130
582.69	20.841
583.02	20.081
583.36	21.173
583.70	21.340
584.03	21.796
584.37	21.316
584.70	21.374
585.04	20.725
585.37	20.835
585.71	20.612
586.04	20.676
586.38	20.912
586.72	21.980
587.05	21.462
587.39	21.275
587.72	21.870
588.06	21.118
588.39	21.789
588.73	21.398
589.06	22.048
589.40	21.569
589.73	22.234
590.07	22.583
590.40	22.601
590.73	23.270
591.07	22.774
591.40	23.241
591.74	23.258
592.07	23.377
592.41	22.792
592.74	22.461
593.08	21.306
593.41	22.142
593.75	21.721
594.08	21.559
594.41	22.052
594.75	21.641
595.08	21.945
595.42	22.598
595.75	22.080
596.09	22.088
596.42	22.323
596.75	22.780
597.09	22.506
597.42	23.397
597.75	23.271
598.09	21.775
598.42	21.886
598.76	21.750
599.09	21.755
599.42	21.106
599.76	21.369
600.09	21.456
600.42	21.342
600.76	20.728
601.09	21.641
601.42	21.974
601.76	21.874
602.09	22.607
602.42	22.831
602.76	22.156
603.09	22.633
603.42	22.575
603.76	21.815
604.09	22.195
604.42	22.589
604.76	23.498
605.09	22.898
605.42	22.302
605.75	22.373
606.09	22.420
606.42	22.185
606.75	22.424
607.09	22.286
607.42	22.109
607.75	21.581
608.08	22.552
608.42	22.293
608.75	22.988
609.08	22.870
609.41	23.553
609.75	23.437
610.08	22.317
610.41	21.691
610.74	23.306
611.07	23.307
611.41	23.768
611.74	23.241
612.07	23.233
612.40	22.867
612.73	24.068
613.07	22.947
613.40	23.414
613.73	23.335
614.06	23.595
614.39	23.125
614.72	24.034
615.06	23.911
615.39	23.253
615.72	22.551
616.05	23.520
616.38	23.818
616.71	23.609
617.05	23.039
617.38	24.576
617.71	23.836
618.04	24.190
618.37	25.221
618.70	25.281
619.03	25.069
619.36	24.168
619.69	25.474
620.03	25.931
620.36	24.821
620.69	25.553
621.02	25.535
621.35	26.888
621.68	26.616
622.01	24.500
622.34	25.858
622.67	23.975
623.00	25.498
623.33	25.610
623.66	23.785
623.99	24.962
624.32	26.464
624.65	24.962
624.99	26.411
625.32	24.792
625.65	27.180
625.98	24.738
626.31	25.935
626.64	25.563
626.97	26.876
627.30	26.532
627.63	26.690
627.96	26.685
628.29	27.660
628.62	26.647
628.95	27.054
629.28	28.931
629.61	27.119
629.94	27.957
630.26	26.680
630.59	27.471
630.92	28.308
631.25	28.308
631.58	27.753
631.91	26.206
632.24	28.670
632.57	30.114
632.90	28.707
633.23	28.235
633.56	30.227
633.89	28.360
