SpectraSuite Data File
++++++++++++++++++++++++++++++++++++
Date: Fri May 15 20:17:21 PDT 2015
User: schluterlab
Dark Spectrum Present: Yes
Reference Spectrum Present: Yes
Number of Sampled Component Spectra: 1
Spectrometers: USB2E3373
Integration Time (usec): 3000 (USB2E3373)
Spectra Averaged: 3 (USB2E3373)
Boxcar Smoothing: 0 (USB2E3373)
Correct for Electrical Dark: No (USB2E3373)
Strobe/Lamp Enabled: No (USB2E3373)
Correct for Detector Non-linearity: No (USB2E3373)
Correct for Stray Light: No (USB2E3373)
Number of Pixels in Processed Spectrum: 2048
>>>>>Begin Processed Spectral Data<<<<<
178.53	0.000
178.91	0.000
179.29	-37.500
179.67	-550.000
180.04	157.143
180.42	0.000
180.80	400.000
181.18	-33.333
181.56	200.000
181.94	-200.000
182.31	1000.000
182.69	-20.000
183.07	-100.000
183.45	-120.000
183.83	216.667
184.20	-72.727
184.58	155.556
184.96	-175.000
185.34	133.333
185.72	-350.000
186.09	130.769
186.47	-800.000
186.85	150.000
187.23	188.889
187.61	-200.000
187.98	-166.667
188.36	66.667
188.74	-266.667
189.12	17.647
189.49	11.111
189.87	0.000
190.25	-7.143
190.63	250.000
191.00	-200.000
191.38	5.263
191.76	400.000
192.14	125.000
192.51	150.000
192.89	-22.222
193.27	-171.429
193.65	83.333
194.02	190.909
194.40	-50.000
194.78	-125.000
195.15	-8.333
195.53	-175.000
195.91	275.000
196.29	300.000
196.66	53.846
197.04	85.714
197.42	33.333
197.79	-233.333
198.17	-69.231
198.55	700.000
198.92	-133.333
199.30	-300.000
199.68	-200.000
200.05	0.000
200.43	0.000
200.81	-133.333
201.18	0.000
201.56	1500.000
201.94	-200.000
202.31	266.667
202.69	-260.000
203.07	275.000
203.44	-600.000
203.82	0.000
204.19	-14.286
204.57	-600.000
204.95	62.500
205.32	40.000
205.70	14.286
206.08	-175.000
206.45	100.000
206.83	7.143
207.20	28.571
207.58	500.000
207.96	-433.333
208.33	-60.000
208.71	-75.000
209.08	-183.333
209.46	-400.000
209.84	200.000
210.21	-700.000
210.59	-14.286
210.96	0.000
211.34	-200.000
211.71	0.000
212.09	-71.429
212.46	-1200.000
212.84	0.000
213.22	30.000
213.59	500.000
213.97	46.154
214.34	27.273
214.72	-116.667
215.09	275.000
215.47	-53.846
215.84	-81.818
216.22	-466.667
216.59	-137.500
216.97	-50.000
217.34	-100.000
217.72	-200.000
218.09	-12.500
218.47	100.000
218.84	-900.000
219.22	-44.444
219.59	-40.000
219.97	333.333
220.34	175.000
220.72	-85.714
221.09	-100.000
221.47	150.000
221.84	-400.000
222.22	-200.000
222.59	45.455
222.97	58.333
223.34	-33.333
223.72	-35.714
224.09	23.810
224.46	14.286
224.84	500.000
225.21	-70.000
225.59	-13.333
225.96	0.000
226.34	350.000
226.71	-28.571
227.08	0.000
227.46	-12.500
227.83	-550.000
228.21	155.556
228.58	45.455
228.95	-50.000
229.33	90.000
229.70	25.000
230.08	-125.000
230.45	-200.000
230.82	128.571
231.20	-86.667
231.57	35.714
231.95	71.429
232.32	-80.000
232.69	-28.571
233.07	-200.000
233.44	160.000
233.81	10.000
234.19	22.222
234.56	-11.765
234.93	650.000
235.31	-25.000
235.68	-180.000
236.05	30.769
236.43	-30.000
236.80	23.529
237.17	59.375
237.55	20.000
237.92	3.704
238.29	27.778
238.67	13.333
239.04	44.118
239.41	2.439
239.79	33.333
240.16	56.098
240.53	42.105
240.91	45.652
241.28	53.968
241.65	58.929
242.02	45.205
242.40	38.333
242.77	66.102
243.14	50.000
243.51	52.500
243.89	67.816
244.26	42.529
244.63	53.571
245.00	42.268
245.38	52.577
245.75	42.697
246.12	51.724
246.49	49.587
246.87	50.962
247.24	47.059
247.61	39.474
247.98	52.846
248.36	43.750
248.73	56.579
249.10	49.351
249.47	55.696
249.84	58.170
250.22	52.941
250.59	56.863
250.96	46.948
251.33	48.837
251.70	50.588
252.08	51.269
252.45	48.020
252.82	56.281
253.19	54.839
253.56	45.794
253.94	52.252
254.31	51.739
254.68	57.456
255.05	52.756
255.42	51.528
255.79	52.896
256.16	50.584
256.54	50.746
256.91	53.612
257.28	50.929
257.65	49.813
258.02	51.064
258.39	53.199
258.76	57.509
259.14	53.821
259.51	51.456
259.88	54.983
260.25	51.961
260.62	53.819
260.99	51.525
261.36	52.397
261.73	53.797
262.10	54.711
262.47	55.215
262.85	53.918
263.22	53.231
263.59	52.648
263.96	54.658
264.33	52.121
264.70	54.167
265.07	51.190
265.44	55.807
265.81	53.390
266.18	57.923
266.55	50.900
266.92	54.663
267.29	54.047
267.66	52.174
268.03	55.236
268.40	52.219
268.77	56.150
269.14	51.079
269.51	56.812
269.88	50.125
270.25	50.765
270.62	50.976
270.99	53.197
271.36	49.878
271.73	48.357
272.10	53.285
272.47	52.719
272.84	52.475
273.21	50.116
273.58	51.566
273.95	51.030
274.32	51.732
274.69	49.548
275.06	52.902
275.43	49.206
275.80	52.539
276.17	50.575
276.54	51.178
276.91	51.974
277.28	51.528
277.65	49.380
278.02	51.915
278.39	50.985
278.76	51.153
279.13	48.548
279.50	50.630
279.87	47.732
280.23	48.817
280.60	49.123
280.97	50.303
281.34	49.038
281.71	52.772
282.08	51.534
282.45	46.967
282.82	47.683
283.19	49.323
283.56	49.326
283.92	51.613
284.29	48.077
284.66	49.612
285.03	48.330
285.40	49.527
285.77	44.640
286.14	48.375
286.51	49.077
286.87	48.080
287.24	48.987
287.61	44.974
287.98	47.193
288.35	47.314
288.72	46.935
289.08	44.965
289.45	45.518
289.82	45.629
290.19	43.003
290.56	44.940
290.93	44.613
291.29	40.832
291.66	41.260
292.03	40.510
292.40	40.806
292.77	42.743
293.13	37.500
293.50	39.605
293.87	39.847
294.24	40.958
294.60	39.642
294.97	39.286
295.34	41.104
295.71	39.344
296.08	38.117
296.44	37.696
296.81	37.639
297.18	36.522
297.55	40.244
297.91	39.452
298.28	37.731
298.65	33.514
299.02	35.445
299.38	34.200
299.75	35.448
300.12	34.948
300.48	37.022
300.85	36.122
301.22	36.364
301.59	35.658
301.95	36.076
302.32	35.279
302.69	35.075
303.05	34.158
303.42	34.122
303.79	33.762
304.15	34.886
304.52	34.364
304.89	34.503
305.25	34.140
305.62	33.022
305.99	31.696
306.35	33.526
306.72	32.846
307.09	33.865
307.45	34.902
307.82	33.912
308.19	32.753
308.55	33.043
308.92	32.789
309.29	31.620
309.65	32.723
310.02	32.893
310.38	31.284
310.75	32.678
311.12	34.123
311.48	31.707
311.85	32.670
312.22	32.068
312.58	33.546
312.95	32.337
313.31	32.298
313.68	32.984
314.05	31.531
314.41	32.784
314.78	32.990
315.14	33.402
315.51	33.851
315.87	33.607
316.24	32.760
316.61	33.169
316.97	33.036
317.34	33.008
317.70	32.792
318.07	33.173
318.43	33.529
318.80	32.102
319.16	33.887
319.53	34.568
319.89	33.661
320.26	34.413
320.62	33.902
320.99	33.820
321.35	34.532
321.72	35.306
322.08	34.038
322.45	35.939
322.81	35.658
323.18	34.347
323.54	34.846
323.91	37.196
324.27	38.086
324.64	36.985
325.00	38.047
325.37	38.200
325.73	37.353
326.10	40.418
326.46	40.448
326.83	40.245
327.19	42.720
327.56	41.703
327.92	42.077
328.29	42.857
328.65	42.453
329.01	43.107
329.38	42.212
329.74	43.437
330.11	43.281
330.47	43.506
330.84	43.173
331.20	45.152
331.56	42.870
331.93	45.662
332.29	44.546
332.66	44.706
333.02	44.424
333.38	43.813
333.75	46.886
334.11	42.704
334.48	45.331
334.84	45.788
335.20	44.922
335.57	44.424
335.93	45.980
336.29	46.593
336.66	44.323
337.02	43.866
337.38	43.056
337.75	43.727
338.11	45.446
338.47	45.073
338.84	46.303
339.20	45.887
339.56	46.147
339.93	43.509
340.29	46.239
340.65	46.147
341.02	45.833
341.38	44.071
341.74	44.700
342.11	44.454
342.47	45.374
342.83	46.107
343.20	45.383
343.56	44.522
343.92	45.881
344.28	45.687
344.65	45.682
345.01	44.166
345.37	43.230
345.73	45.774
346.10	44.780
346.46	44.323
346.82	44.354
347.19	44.472
347.55	44.277
347.91	44.903
348.27	43.897
348.63	45.145
349.00	44.381
349.36	44.805
349.72	45.025
350.08	44.262
350.45	44.214
350.81	44.020
351.17	43.322
351.53	44.816
351.89	43.931
352.26	44.800
352.62	44.758
352.98	43.936
353.34	43.156
353.70	44.175
354.07	44.113
354.43	43.155
354.79	44.591
355.15	43.333
355.51	44.778
355.87	44.822
356.24	42.904
356.60	43.088
356.96	45.159
357.32	44.569
357.68	43.550
358.04	44.346
358.40	44.453
358.77	44.498
359.13	42.834
359.49	42.835
359.85	44.150
360.21	44.179
360.57	43.229
360.93	43.116
361.29	42.900
361.66	43.966
362.02	45.152
362.38	44.631
362.74	44.436
363.10	44.244
363.46	43.810
363.82	45.004
364.18	43.985
364.54	43.309
364.90	44.373
365.26	44.323
365.62	45.693
365.98	45.821
366.35	45.885
366.71	45.011
367.07	44.993
367.43	44.644
367.79	44.594
368.15	44.939
368.51	44.574
368.87	44.293
369.23	44.404
369.59	45.262
369.95	43.402
370.31	44.075
370.67	44.403
371.03	43.316
371.39	44.128
371.75	44.615
372.11	44.151
372.47	45.118
372.83	45.564
373.19	44.936
373.55	43.394
373.91	43.772
374.27	44.791
374.63	45.729
374.99	44.468
375.35	44.429
375.71	44.895
376.07	45.154
376.42	44.558
376.78	45.168
377.14	45.024
377.50	44.954
377.86	43.976
378.22	45.054
378.58	46.026
378.94	44.991
379.30	44.230
379.66	45.956
380.02	46.352
380.38	45.344
380.74	45.721
381.09	46.442
381.45	45.688
381.81	44.911
382.17	45.114
382.53	46.346
382.89	48.148
383.25	46.297
383.61	45.793
383.97	45.143
384.32	45.341
384.68	44.892
385.04	45.527
385.40	45.737
385.76	47.233
386.12	47.671
386.48	47.765
386.83	46.607
387.19	46.459
387.55	46.926
387.91	46.455
388.27	45.421
388.62	47.577
388.98	45.488
389.34	47.033
389.70	46.489
390.06	47.011
390.42	46.956
390.77	47.090
391.13	45.649
391.49	47.801
391.85	46.589
392.20	47.395
392.56	45.836
392.92	47.387
393.28	46.934
393.64	46.126
393.99	47.900
394.35	46.679
394.71	47.382
395.07	46.135
395.42	45.052
395.78	45.863
396.14	47.226
396.50	47.242
396.85	46.877
397.21	45.739
397.57	46.144
397.92	45.956
398.28	46.839
398.64	45.241
399.00	45.598
399.35	45.880
399.71	45.032
400.07	46.070
400.42	45.043
400.78	46.846
401.14	44.828
401.49	45.563
401.85	45.399
402.21	45.241
402.57	46.437
402.92	44.040
403.28	46.679
403.63	46.154
403.99	44.260
404.35	47.220
404.70	46.071
405.06	44.477
405.42	44.189
405.77	44.974
406.13	44.354
406.49	43.635
406.84	45.538
407.20	46.237
407.55	43.271
407.91	44.853
408.27	45.124
408.62	43.815
408.98	44.424
409.34	44.796
409.69	44.315
410.05	44.212
410.40	44.074
410.76	45.778
411.11	44.687
411.47	45.365
411.83	44.005
412.18	44.595
412.54	44.507
412.89	43.288
413.25	45.187
413.60	43.789
413.96	43.988
414.31	43.049
414.67	43.810
415.03	44.474
415.38	43.016
415.74	45.212
416.09	44.611
416.45	44.227
416.80	43.886
417.16	45.097
417.51	44.037
417.87	43.220
418.22	44.365
418.58	44.080
418.93	45.705
419.29	43.982
419.64	44.394
420.00	45.088
420.35	42.507
420.71	43.803
421.06	44.076
421.42	44.111
421.77	44.566
422.12	43.644
422.48	43.909
422.83	44.374
423.19	44.074
423.54	43.092
423.90	44.052
424.25	44.719
424.61	43.880
424.96	44.483
425.31	44.714
425.67	44.542
426.02	45.053
426.38	44.458
426.73	45.218
427.09	45.633
427.44	44.529
427.79	45.610
428.15	43.993
428.50	44.882
428.85	43.735
429.21	44.765
429.56	43.827
429.92	44.325
430.27	44.511
430.62	43.335
430.98	44.692
431.33	45.373
431.68	44.061
432.04	45.333
432.39	44.096
432.74	42.694
433.10	44.598
433.45	44.205
433.80	43.993
434.16	45.374
434.51	43.710
434.86	45.645
435.22	45.205
435.57	45.103
435.92	43.353
436.28	44.425
436.63	44.952
436.98	43.395
437.34	44.344
437.69	44.365
438.04	43.704
438.39	43.861
438.75	45.902
439.10	44.652
439.45	46.013
439.81	45.138
440.16	45.606
440.51	44.896
440.86	46.163
441.22	44.796
441.57	46.799
441.92	45.645
442.27	45.676
442.63	45.503
442.98	45.319
443.33	44.240
443.68	45.093
444.03	45.604
444.39	45.450
444.74	46.265
445.09	46.047
445.44	45.698
445.79	46.209
446.15	45.870
446.50	44.870
446.85	46.227
447.20	45.516
447.55	46.205
447.91	44.670
448.26	45.646
448.61	45.769
448.96	45.611
449.31	45.434
449.66	45.238
450.02	45.351
450.37	45.999
450.72	44.845
451.07	46.266
451.42	45.069
451.77	45.389
452.12	44.199
452.47	45.267
452.83	45.936
453.18	46.300
453.53	45.322
453.88	44.566
454.23	43.946
454.58	46.348
454.93	44.459
455.28	43.873
455.63	45.381
455.98	46.001
456.34	45.147
456.69	45.362
457.04	46.566
457.39	45.200
457.74	44.921
458.09	44.202
458.44	44.587
458.79	45.770
459.14	45.938
459.49	46.209
459.84	45.854
460.19	45.085
460.54	44.621
460.89	44.716
461.24	45.776
461.59	45.071
461.94	44.717
462.29	45.597
462.64	44.585
462.99	44.482
463.34	45.132
463.69	45.174
464.04	44.068
464.39	45.240
464.74	43.497
465.09	44.604
465.44	46.105
465.79	44.104
466.14	45.268
466.49	43.588
466.84	44.795
467.19	44.556
467.54	43.997
467.89	45.357
468.24	43.613
468.59	45.016
468.94	43.619
469.29	45.115
469.64	43.062
469.99	44.849
470.34	43.754
470.68	43.699
471.03	44.161
471.38	43.581
471.73	44.188
472.08	44.098
472.43	44.698
472.78	43.249
473.13	44.830
473.48	43.453
473.83	43.088
474.17	45.531
474.52	44.161
474.87	44.303
475.22	43.929
475.57	43.986
475.92	44.652
476.27	44.005
476.61	44.329
476.96	44.060
477.31	43.862
477.66	43.820
478.01	44.357
478.36	43.246
478.70	43.828
479.05	44.066
479.40	42.978
479.75	43.691
480.10	43.062
480.45	44.300
480.79	44.914
481.14	44.980
481.49	43.350
481.84	44.112
482.19	44.761
482.53	43.933
482.88	43.341
483.23	43.282
483.58	42.972
483.92	43.611
484.27	43.254
484.62	43.165
484.97	43.367
485.31	43.895
485.66	44.035
486.01	45.551
486.36	45.852
486.70	45.730
487.05	45.879
487.40	44.881
487.75	43.972
488.09	43.758
488.44	42.985
488.79	42.959
489.13	43.109
489.48	43.865
489.83	43.498
490.17	42.382
490.52	41.755
490.87	42.064
491.22	43.840
491.56	42.979
491.91	41.444
492.26	43.218
492.60	42.610
492.95	43.384
493.30	42.843
493.64	43.910
493.99	42.995
494.34	42.961
494.68	43.381
495.03	41.995
495.37	43.327
495.72	42.908
496.07	43.415
496.41	42.028
496.76	42.515
497.11	43.223
497.45	42.721
497.80	43.189
498.14	41.828
498.49	42.153
498.84	42.066
499.18	42.821
499.53	43.452
499.87	41.148
500.22	42.433
500.56	43.722
500.91	41.165
501.26	41.226
501.60	42.400
501.95	43.231
502.29	42.228
502.64	43.002
502.98	43.266
503.33	41.451
503.67	42.747
504.02	43.011
504.36	43.048
504.71	42.071
505.06	42.174
505.40	41.827
505.75	42.113
506.09	41.510
506.44	43.121
506.78	42.245
507.13	41.572
507.47	41.044
507.82	41.400
508.16	41.521
508.51	41.553
508.85	42.125
509.19	41.458
509.54	40.965
509.88	41.370
510.23	42.550
510.57	42.437
510.92	40.085
511.26	41.408
511.61	41.749
511.95	41.479
512.30	41.630
512.64	41.736
512.98	40.764
513.33	42.082
513.67	42.013
514.02	43.307
514.36	41.086
514.70	42.774
515.05	42.127
515.39	41.854
515.74	42.455
516.08	42.439
516.42	41.991
516.77	41.194
517.11	41.365
517.46	41.173
517.80	41.716
518.14	41.090
518.49	40.745
518.83	42.102
519.17	40.267
519.52	40.853
519.86	41.897
520.20	41.009
520.55	41.088
520.89	42.346
521.23	41.799
521.58	41.325
521.92	40.192
522.26	40.208
522.61	41.948
522.95	42.119
523.29	40.724
523.64	42.440
523.98	41.218
524.32	40.464
524.66	41.549
525.01	41.364
525.35	40.765
525.69	42.020
526.04	40.807
526.38	42.153
526.72	41.203
527.06	40.208
527.41	41.425
527.75	41.019
528.09	41.196
528.43	41.931
528.78	40.528
529.12	41.226
529.46	40.416
529.80	40.215
530.15	42.046
530.49	40.943
530.83	41.860
531.17	40.430
531.51	40.903
531.86	39.837
532.20	39.457
532.54	40.300
532.88	40.931
533.22	41.263
533.57	40.760
533.91	41.384
534.25	41.667
534.59	40.090
534.93	40.843
535.27	40.228
535.62	40.311
535.96	41.748
536.30	41.425
536.64	41.075
536.98	39.443
537.32	40.256
537.66	41.515
538.01	42.168
538.35	41.193
538.69	40.413
539.03	41.080
539.37	41.925
539.71	40.559
540.05	40.869
540.39	39.751
540.73	41.004
541.07	40.746
541.42	40.457
541.76	41.776
542.10	40.262
542.44	40.792
542.78	39.436
543.12	40.522
543.46	40.403
543.80	41.846
544.14	39.653
544.48	40.440
544.82	40.123
545.16	41.120
545.50	41.255
545.84	40.439
546.18	40.851
546.52	40.735
546.86	40.187
547.20	39.986
547.54	40.424
547.88	41.168
548.22	41.486
548.56	40.963
548.90	40.701
549.24	39.738
549.58	40.268
549.92	39.743
550.26	40.440
550.60	39.926
550.94	40.702
551.28	39.645
551.62	40.769
551.96	40.226
552.30	40.863
552.64	40.268
552.98	40.366
553.32	40.300
553.66	40.711
554.00	41.533
554.34	40.842
554.68	39.749
555.02	39.732
555.36	39.716
555.69	40.733
556.03	40.542
556.37	40.569
556.71	40.578
557.05	40.268
557.39	39.554
557.73	40.405
558.07	40.498
558.41	40.123
558.75	38.504
559.08	39.480
559.42	40.556
559.76	41.233
560.10	40.520
560.44	40.730
560.78	40.350
561.12	40.339
561.45	41.883
561.79	41.457
562.13	40.667
562.47	40.216
562.81	40.202
563.15	40.973
563.48	40.523
563.82	41.524
564.16	40.877
564.50	40.068
564.84	41.031
565.17	39.571
565.51	41.462
565.85	41.632
566.19	40.385
566.52	41.153
566.86	42.288
567.20	40.100
567.54	40.572
567.88	42.062
568.21	41.912
568.55	42.283
568.89	42.813
569.23	43.043
569.56	42.863
569.90	43.971
570.24	43.245
570.57	43.564
570.91	43.709
571.25	42.519
571.59	43.133
571.92	42.696
572.26	42.663
572.60	42.884
572.93	42.014
573.27	41.975
573.61	42.959
573.95	43.364
574.28	43.379
574.62	42.487
574.96	43.057
575.29	42.529
575.63	41.747
575.97	41.773
576.30	42.367
576.64	42.596
576.98	43.501
577.31	43.303
577.65	43.853
577.98	43.724
578.32	43.024
578.66	42.747
578.99	42.770
579.33	41.944
579.67	42.165
580.00	42.861
580.34	42.861
580.67	42.681
581.01	42.939
581.35	43.475
581.68	43.771
582.02	43.604
582.35	43.603
582.69	43.670
583.02	43.175
583.36	43.175
583.70	43.120
584.03	42.925
584.37	43.309
584.70	42.885
585.04	42.565
585.37	43.317
585.71	42.952
586.04	42.385
586.38	42.678
586.72	43.185
587.05	43.010
587.39	43.472
587.72	43.439
588.06	42.956
588.39	43.520
588.73	42.735
589.06	42.694
589.40	42.344
589.73	42.278
590.07	43.467
590.40	42.763
590.73	43.781
591.07	43.172
591.40	41.585
591.74	42.217
592.07	42.440
592.41	43.286
592.74	42.772
593.08	41.879
593.41	42.603
593.75	43.147
594.08	42.053
594.41	42.831
594.75	42.405
595.08	42.452
595.42	42.952
595.75	43.485
596.09	42.924
596.42	41.877
596.75	43.162
597.09	41.139
597.42	41.283
597.75	42.464
598.09	42.191
598.42	41.652
598.76	42.385
599.09	42.388
599.42	42.023
599.76	42.363
600.09	42.798
600.42	42.532
600.76	42.088
601.09	41.718
601.42	41.911
601.76	41.921
602.09	42.120
602.42	42.165
602.76	42.827
603.09	42.733
603.42	43.520
603.76	41.774
604.09	41.960
604.42	42.386
604.76	42.501
605.09	43.236
605.42	42.032
605.75	41.637
606.09	42.038
606.42	42.577
606.75	42.208
607.09	42.418
607.42	41.471
607.75	41.430
608.08	41.959
608.42	41.206
608.75	42.361
609.08	42.152
609.41	42.081
609.75	41.734
610.08	41.887
610.41	41.691
610.74	40.956
611.07	42.326
611.41	42.916
611.74	42.058
612.07	41.274
612.40	41.794
612.73	41.582
613.07	40.045
613.40	40.864
613.73	40.907
614.06	42.293
614.39	41.004
614.72	40.840
615.06	41.620
615.39	41.921
615.72	40.797
616.05	41.397
616.38	40.798
616.71	41.284
617.05	41.754
617.38	42.175
617.71	42.201
618.04	40.825
618.37	40.858
618.70	40.792
619.03	42.500
619.36	40.810
619.69	40.940
620.03	41.417
620.36	40.916
620.69	39.971
621.02	39.908
621.35	39.834
621.68	41.071
622.01	40.417
622.34	40.144
622.67	40.536
623.00	40.658
623.33	40.015
623.66	41.137
623.99	38.654
624.32	40.304
624.65	39.850
624.99	40.707
625.32	39.955
625.65	41.791
625.98	40.774
626.31	39.734
626.64	40.208
626.97	40.925
627.30	40.893
627.63	41.161
627.96	40.521
628.29	39.038
628.62	39.430
628.95	38.477
629.28	40.423
629.61	40.279
629.94	40.665
630.26	40.514
630.59	38.918
630.92	38.256
631.25	38.051
631.58	39.648
631.91	37.939
632.24	37.959
632.57	38.523
632.90	38.671
633.23	38.706
