SpectraSuite Data File
++++++++++++++++++++++++++++++++++++
Date: Fri May 15 17:03:29 PDT 2015
User: schluterlab
Dark Spectrum Present: Yes
Reference Spectrum Present: Yes
Number of Sampled Component Spectra: 1
Spectrometers: USB2E3373
Integration Time (usec): 3000 (USB2E3373)
Spectra Averaged: 3 (USB2E3373)
Boxcar Smoothing: 0 (USB2E3373)
Correct for Electrical Dark: No (USB2E3373)
Strobe/Lamp Enabled: No (USB2E3373)
Correct for Detector Non-linearity: No (USB2E3373)
Correct for Stray Light: No (USB2E3373)
Number of Pixels in Processed Spectrum: 2048
>>>>>Begin Processed Spectral Data<<<<<
178.53	0.000
178.91	0.000
179.29	50.000
179.67	0.000
180.04	-57.143
180.42	275.000
180.80	800.000
181.18	-133.333
181.56	300.000
181.94	100.000
182.31	-700.000
182.69	40.000
183.07	-66.667
183.45	80.000
183.83	33.333
184.20	-27.273
184.58	-11.111
184.96	-100.000
185.34	-500.000
185.72	450.000
186.09	30.769
186.47	-500.000
186.85	-83.333
187.23	100.000
187.61	-600.000
187.98	300.000
188.36	111.111
188.74	-33.333
189.12	88.235
189.49	88.889
189.87	0.000
190.25	21.429
190.63	100.000
191.00	300.000
191.38	15.789
191.76	450.000
192.14	-0.000
192.51	100.000
192.89	0.000
193.27	-28.571
193.65	-0.000
194.02	127.273
194.40	10.000
194.78	12.500
195.15	25.000
195.53	0.000
195.91	250.000
196.29	-25.000
196.66	69.231
197.04	-100.000
197.42	44.444
197.79	-200.000
198.17	-46.154
198.55	500.000
198.92	133.333
199.30	1000.000
199.68	40.000
200.05	166.667
200.43	0.000
200.81	66.667
201.18	233.333
201.56	800.000
201.94	50.000
202.31	-200.000
202.69	-120.000
203.07	-150.000
203.44	800.000
203.82	0.000
204.19	78.571
204.57	-100.000
204.95	100.000
205.32	70.000
205.70	100.000
206.08	300.000
206.45	211.111
206.83	135.714
207.20	-85.714
207.58	-500.000
207.96	166.667
208.33	20.000
208.71	225.000
209.08	0.000
209.46	-500.000
209.84	40.000
210.21	200.000
210.59	200.000
210.96	33.333
211.34	275.000
211.71	73.333
212.09	114.286
212.46	-1200.000
212.84	0.000
213.22	140.000
213.59	-150.000
213.97	23.077
214.34	100.000
214.72	-16.667
215.09	200.000
215.47	53.846
215.84	18.182
216.22	133.333
216.59	75.000
216.97	800.000
217.34	225.000
217.72	-60.000
218.09	112.500
218.47	87.500
218.84	-200.000
219.22	11.111
219.59	60.000
219.97	66.667
220.34	25.000
220.72	-14.286
221.09	200.000
221.47	650.000
221.84	-250.000
222.22	-250.000
222.59	100.000
222.97	16.667
223.34	33.333
223.72	28.571
224.09	28.571
224.46	39.286
224.84	-133.333
225.21	160.000
225.59	46.667
225.96	900.000
226.34	100.000
226.71	28.571
227.08	83.333
227.46	12.500
227.83	-100.000
228.21	-11.111
228.58	90.909
228.95	162.500
229.33	60.000
229.70	50.000
230.08	-62.500
230.45	142.857
230.82	85.714
231.20	26.667
231.57	50.000
231.95	0.000
232.32	-60.000
232.69	114.286
233.07	-133.333
233.44	60.000
233.81	-50.000
234.19	22.222
234.56	64.706
234.93	-50.000
235.31	175.000
235.68	-320.000
236.05	7.692
236.43	-20.000
236.80	29.412
237.17	25.000
237.55	-5.000
237.92	22.222
238.29	5.556
238.67	3.333
239.04	-11.765
239.41	-9.756
239.79	-6.667
240.16	19.512
240.53	28.947
240.91	2.174
241.28	12.698
241.65	39.286
242.02	28.767
242.40	8.333
242.77	16.949
243.14	12.121
243.51	22.500
243.89	21.839
244.26	5.747
244.63	2.381
245.00	3.093
245.38	17.526
245.75	-3.371
246.12	1.724
246.49	14.876
246.87	15.385
247.24	0.000
247.61	7.895
247.98	4.878
248.36	9.375
248.73	9.868
249.10	4.545
249.47	10.759
249.84	3.922
250.22	12.353
250.59	2.614
250.96	12.207
251.33	5.233
251.70	11.176
252.08	7.614
252.45	4.950
252.82	13.065
253.19	8.756
253.56	1.869
253.94	4.955
254.31	7.391
254.68	7.895
255.05	3.937
255.42	7.424
255.79	6.950
256.16	8.560
256.54	10.075
256.91	6.084
257.28	9.665
257.65	4.869
258.02	8.511
258.39	11.448
258.76	11.722
259.14	9.967
259.51	6.796
259.88	5.498
260.25	4.902
260.62	7.639
260.99	-0.678
261.36	3.425
261.73	8.544
262.10	8.207
262.47	7.362
262.85	6.270
263.22	8.000
263.59	10.280
263.96	8.385
264.33	5.455
264.70	4.762
265.07	4.464
265.44	7.082
265.81	9.040
266.18	7.104
266.55	5.913
266.92	11.140
267.29	6.527
267.66	6.905
268.03	7.592
268.40	4.439
268.77	6.684
269.14	8.873
269.51	4.627
269.88	5.486
270.25	5.357
270.62	6.098
270.99	4.859
271.36	6.112
271.73	7.512
272.10	7.056
272.47	7.565
272.84	6.436
273.21	7.889
273.58	5.783
273.95	6.178
274.32	5.312
274.69	5.204
275.06	9.598
275.43	6.803
275.80	6.843
276.17	7.126
276.54	6.210
276.91	5.702
277.28	7.424
277.65	5.165
278.02	5.106
278.39	5.033
278.76	5.241
279.13	4.772
279.50	7.563
279.87	6.479
280.23	4.731
280.60	8.772
280.97	6.869
281.34	5.385
281.71	7.392
282.08	6.135
282.45	5.284
282.82	6.178
283.19	5.222
283.56	5.780
283.92	5.313
284.29	5.962
284.66	6.977
285.03	4.519
285.40	4.915
285.77	5.272
286.14	6.498
286.51	7.011
286.87	7.678
287.24	4.236
287.61	4.586
287.98	6.140
288.35	4.506
288.72	6.130
289.08	5.729
289.45	7.557
289.82	4.895
290.19	5.290
290.56	7.376
290.93	7.071
291.29	5.701
291.66	6.929
292.03	3.828
292.40	5.645
292.77	3.828
293.13	3.084
293.50	5.311
293.87	5.344
294.24	6.491
294.60	5.961
294.97	5.655
295.34	4.601
295.71	4.471
296.08	4.036
296.44	4.552
296.81	4.028
297.18	4.638
297.55	5.420
297.91	4.521
298.28	5.409
298.65	6.377
299.02	6.739
299.38	2.462
299.75	5.379
300.12	4.581
300.48	3.426
300.85	4.436
301.22	4.416
301.59	3.421
301.95	5.570
302.32	5.966
302.69	4.602
303.05	4.703
303.42	5.479
303.79	5.607
304.15	5.854
304.52	3.567
304.89	4.094
305.25	4.237
305.62	3.151
305.99	4.094
306.35	4.277
306.72	4.162
307.09	2.737
307.45	5.052
307.82	4.745
308.19	4.413
308.55	4.471
308.92	4.575
309.29	5.251
309.65	4.306
310.02	5.501
310.38	3.952
310.75	5.464
311.12	5.597
311.48	3.924
311.85	4.503
312.22	3.481
312.58	4.352
312.95	2.348
313.31	4.244
313.68	4.712
314.05	4.592
314.41	5.361
314.78	4.433
315.14	4.522
315.51	5.383
315.87	4.816
316.24	5.865
316.61	4.429
316.97	5.357
317.34	4.004
317.70	5.163
318.07	5.288
318.43	5.588
318.80	5.398
319.16	5.273
319.53	5.128
319.89	5.610
320.26	6.073
320.62	6.018
320.99	4.802
321.35	5.653
321.72	6.438
322.08	7.049
322.45	6.396
322.81	7.466
323.18	5.103
323.54	7.915
323.91	6.037
324.27	8.008
324.64	7.397
325.00	8.485
325.37	9.458
325.73	8.160
326.10	8.719
326.46	10.045
326.83	10.586
327.19	10.898
327.56	11.381
327.92	11.708
328.29	12.946
328.65	13.019
329.01	14.522
329.38	14.101
329.74	13.881
330.11	16.033
330.47	15.863
330.84	14.712
331.20	18.916
331.56	17.037
331.93	19.361
332.29	19.432
332.66	19.367
333.02	19.052
333.38	20.623
333.75	21.429
334.11	20.412
334.48	22.303
334.84	24.451
335.20	23.147
335.57	22.756
335.93	24.119
336.29	26.243
336.66	24.796
337.02	24.071
337.38	25.463
337.75	26.273
338.11	27.863
338.47	27.464
338.84	28.096
339.20	27.788
339.56	27.064
339.93	28.559
340.29	28.899
340.65	28.405
341.02	28.989
341.38	28.850
341.74	28.534
342.11	27.816
342.47	29.626
342.83	30.450
343.20	29.268
343.56	30.522
343.92	29.141
344.28	31.426
344.65	30.570
345.01	31.547
345.37	30.698
345.73	32.720
346.10	32.097
346.46	31.203
346.82	32.160
347.19	30.341
347.55	32.080
347.91	32.686
348.27	32.498
348.63	33.135
349.00	31.337
349.36	33.001
349.72	33.665
350.08	32.459
350.45	33.360
350.81	32.973
351.17	32.248
351.53	33.714
351.89	33.361
352.26	33.600
352.62	33.548
352.98	33.574
353.34	34.300
353.70	34.466
354.07	33.548
354.43	33.947
354.79	35.673
355.15	34.444
355.51	34.494
355.87	34.628
356.24	33.931
356.60	34.923
356.96	36.349
357.32	35.224
357.68	35.575
358.04	35.784
358.40	34.968
358.77	36.443
359.13	34.508
359.49	35.978
359.85	36.739
360.21	37.321
360.57	36.343
360.93	36.536
361.29	36.405
361.66	37.069
362.02	37.424
362.38	37.395
362.74	37.623
363.10	37.923
363.46	37.806
363.82	38.918
364.18	37.638
364.54	37.574
364.90	38.710
365.26	38.210
365.62	40.876
365.98	39.516
366.35	40.058
366.71	39.024
367.07	38.824
367.43	39.180
367.79	39.717
368.15	39.770
368.51	40.350
368.87	39.986
369.23	40.000
369.59	40.306
369.95	41.349
370.31	40.029
370.67	40.896
371.03	41.225
371.39	40.992
371.75	41.465
372.11	40.942
372.47	42.973
372.83	42.370
373.19	41.512
373.55	42.310
373.91	42.045
374.27	42.877
374.63	43.288
374.99	42.128
375.35	42.688
375.71	43.706
376.07	43.820
376.42	43.741
376.78	43.826
377.14	42.519
377.50	44.157
377.86	43.307
378.22	44.608
378.58	43.462
378.94	43.793
379.30	44.479
379.66	45.517
380.02	44.329
380.38	44.431
380.74	44.764
381.09	44.785
381.45	45.382
381.81	46.021
382.17	43.718
382.53	45.909
382.89	45.888
383.25	46.111
383.61	45.610
383.97	46.540
384.32	46.592
384.68	46.563
385.04	45.282
385.40	45.862
385.76	47.233
386.12	47.801
386.48	46.679
386.83	47.051
387.19	47.741
387.55	48.808
387.91	48.472
388.27	47.070
388.62	48.962
388.98	47.391
389.34	47.783
389.70	47.856
390.06	46.444
390.42	47.280
390.77	48.201
391.13	48.045
391.49	48.577
391.85	47.693
392.20	48.336
392.56	49.396
392.92	49.207
393.28	48.644
393.64	46.967
393.99	48.527
394.35	47.502
394.71	48.595
395.07	48.209
395.42	47.177
395.78	47.687
396.14	48.045
396.50	49.588
396.85	49.066
397.21	47.494
397.57	47.085
397.92	48.173
398.28	48.391
398.64	46.325
399.00	48.758
399.35	47.348
399.71	47.674
400.07	47.703
400.42	46.940
400.78	48.683
401.14	48.155
401.49	47.886
401.85	47.898
402.21	48.012
402.57	48.312
402.92	47.365
403.28	47.807
403.63	48.108
403.99	47.321
404.35	47.470
404.70	46.190
405.06	47.297
405.42	46.240
405.77	47.647
406.13	47.206
406.49	46.181
406.84	46.760
407.20	47.261
407.55	46.362
407.91	45.655
408.27	46.781
408.62	47.077
408.98	45.841
409.34	46.654
409.69	46.512
410.05	45.382
410.40	46.420
410.76	46.200
411.11	45.625
411.47	45.957
411.83	45.888
412.18	46.268
412.54	46.692
412.89	45.567
413.25	46.510
413.60	45.963
413.96	45.399
414.31	46.280
414.67	44.580
415.03	45.606
415.38	44.909
415.74	45.472
416.09	47.420
416.45	46.117
416.80	44.746
417.16	46.961
417.51	45.769
417.87	46.480
418.22	46.438
418.58	46.555
418.93	47.273
419.29	45.455
419.64	46.338
420.00	47.670
420.35	46.866
420.71	46.598
421.06	46.961
421.42	46.815
421.77	47.052
422.12	46.027
422.48	46.833
422.83	46.868
423.19	46.727
423.54	47.031
423.90	46.938
424.25	46.785
424.61	47.552
424.96	47.329
425.31	48.527
425.67	47.300
426.02	48.233
426.38	46.963
426.73	47.760
427.09	49.810
427.44	46.765
427.79	47.024
428.15	46.602
428.50	48.516
428.85	46.622
429.21	48.331
429.56	48.679
429.92	48.331
430.27	48.471
430.62	47.883
430.98	48.355
431.33	48.896
431.68	48.456
432.04	48.519
432.39	47.062
432.74	49.429
433.10	48.621
433.45	48.327
433.80	49.216
434.16	48.366
434.51	49.032
434.86	49.071
435.22	48.906
435.57	49.407
435.92	49.341
436.28	48.181
436.63	48.716
436.98	47.567
437.34	49.728
437.69	50.030
438.04	49.801
438.39	50.458
438.75	51.366
439.10	50.538
439.45	50.883
439.81	49.786
440.16	52.019
440.51	52.478
440.86	52.085
441.22	51.357
441.57	51.104
441.92	51.731
442.27	51.663
442.63	51.713
442.98	51.867
443.33	50.250
443.68	50.769
444.03	51.316
444.39	50.566
444.74	53.122
445.09	50.780
445.44	51.396
445.79	52.553
446.15	51.487
446.50	50.638
446.85	51.594
447.20	50.104
447.55	51.172
447.91	52.002
448.26	50.882
448.61	51.007
448.96	52.610
449.31	51.387
449.66	50.697
450.02	51.055
450.37	52.993
450.72	52.291
451.07	51.519
451.42	50.811
451.77	51.899
452.12	50.778
452.47	50.354
452.83	51.767
453.18	51.107
453.53	52.528
453.88	52.580
454.23	52.182
454.58	52.708
454.93	51.740
455.28	50.159
455.63	51.023
455.98	51.112
456.34	50.319
456.69	52.541
457.04	50.725
457.39	51.337
457.74	52.418
458.09	50.971
458.44	50.848
458.79	50.532
459.14	51.945
459.49	51.284
459.84	50.705
460.19	51.820
460.54	52.200
460.89	51.648
461.24	51.801
461.59	52.197
461.94	51.258
462.29	51.086
462.64	53.023
462.99	51.388
463.34	51.669
463.69	51.223
464.04	51.574
464.39	50.515
464.74	51.288
465.09	52.464
465.44	50.721
465.79	51.077
466.14	51.197
466.49	50.949
466.84	52.112
467.19	51.314
467.54	49.553
467.89	51.232
468.24	50.791
468.59	50.794
468.94	50.032
469.29	52.459
469.64	52.290
469.99	52.207
470.34	50.034
470.68	51.752
471.03	52.017
471.38	51.284
471.73	51.120
472.08	51.696
472.43	51.477
472.78	50.514
473.13	51.905
473.48	51.857
473.83	50.809
474.17	52.720
474.52	51.691
474.87	51.394
475.22	50.885
475.57	50.028
475.92	51.509
476.27	51.455
476.61	51.505
476.96	49.637
477.31	50.622
477.66	51.011
478.01	51.263
478.36	51.634
478.70	51.495
479.05	51.538
479.40	51.828
479.75	51.043
480.10	50.845
480.45	51.200
480.79	51.561
481.14	52.203
481.49	50.296
481.84	51.641
482.19	50.608
482.53	51.127
482.88	49.833
483.23	50.192
483.58	50.236
483.92	50.726
484.27	50.729
484.62	50.202
484.97	50.124
485.31	49.603
485.66	50.000
486.01	50.147
486.36	49.174
486.70	49.009
487.05	49.296
487.40	49.535
487.75	49.775
488.09	49.475
488.44	49.725
488.79	51.251
489.13	51.803
489.48	51.432
489.83	49.865
490.17	50.112
490.52	50.346
490.87	49.607
491.22	50.812
491.56	50.474
491.91	50.096
492.26	51.386
492.60	49.664
492.95	51.303
493.30	51.343
493.64	52.358
493.99	51.063
494.34	50.388
494.68	51.810
495.03	49.392
495.37	51.079
495.72	52.044
496.07	52.195
496.41	50.425
496.76	51.082
497.11	50.116
497.45	51.169
497.80	50.605
498.14	50.969
498.49	50.990
498.84	50.798
499.18	51.104
499.53	51.885
499.87	50.584
500.22	51.187
500.56	51.689
500.91	51.205
501.26	49.580
501.60	52.091
501.95	50.946
502.29	51.041
502.64	51.110
502.98	51.801
503.33	49.856
503.67	50.554
504.02	50.880
504.36	53.043
504.71	50.404
505.06	51.283
505.40	51.675
505.75	52.474
506.09	50.836
506.44	52.156
506.78	52.041
507.13	52.585
507.47	51.279
507.82	52.083
508.16	52.139
508.51	52.256
508.85	52.433
509.19	52.155
509.54	51.957
509.88	51.456
510.23	51.856
510.57	51.523
510.92	51.279
511.26	51.555
511.61	52.970
511.95	52.384
512.30	52.384
512.64	52.254
512.98	52.499
513.33	52.434
513.67	53.667
514.02	53.146
514.36	53.486
514.70	53.030
515.05	53.760
515.39	53.837
515.74	54.910
516.08	54.214
516.42	53.239
516.77	54.769
517.11	53.531
517.46	54.997
517.80	53.933
518.14	54.011
518.49	53.666
518.83	53.341
519.17	53.608
519.52	53.523
519.86	52.881
520.20	55.286
520.55	54.597
520.89	55.144
521.23	55.225
521.58	53.754
521.92	55.128
522.26	55.042
522.61	54.416
522.95	55.430
523.29	54.956
523.64	54.574
523.98	54.180
524.32	53.479
524.66	55.378
525.01	55.130
525.35	54.634
525.69	55.084
526.04	54.696
526.38	56.096
526.72	53.761
527.06	55.188
527.41	56.069
527.75	54.826
528.09	55.216
528.43	56.516
528.78	55.578
529.12	55.032
529.46	55.750
529.80	55.225
530.15	56.106
530.49	55.892
530.83	56.977
531.17	55.473
531.51	56.430
531.86	55.337
532.20	54.767
532.54	56.501
532.88	56.194
533.22	55.780
533.57	55.374
533.91	56.070
534.25	55.469
534.59	55.677
534.93	54.185
535.27	55.457
535.62	55.282
535.96	55.969
536.30	56.530
536.64	56.444
536.98	54.216
537.32	56.543
537.66	57.223
538.01	57.622
538.35	56.241
538.69	55.659
539.03	57.826
539.37	56.797
539.71	56.101
540.05	55.465
540.39	56.510
540.73	56.974
541.07	55.594
541.42	56.116
541.76	57.467
542.10	56.297
542.44	56.915
542.78	54.921
543.12	55.495
543.46	57.163
543.80	58.154
544.14	55.874
544.48	55.763
544.82	56.801
545.16	57.582
545.50	55.607
545.84	57.224
546.18	57.447
546.52	56.453
546.86	57.800
547.20	56.867
547.54	56.466
547.88	56.386
548.22	56.279
548.56	55.673
548.90	56.941
549.24	56.543
549.58	56.488
549.92	57.041
550.26	56.557
550.60	57.621
550.94	57.954
551.28	57.496
551.62	58.692
551.96	57.669
552.30	58.845
552.64	57.052
552.98	58.158
553.32	57.703
553.66	56.821
554.00	58.394
554.34	58.124
554.68	57.006
555.02	59.003
555.36	58.489
555.69	57.363
556.03	57.959
556.37	59.146
556.71	57.690
557.05	59.284
557.39	57.175
557.73	57.946
558.07	59.653
558.41	58.423
558.75	58.145
559.08	59.023
559.42	58.254
559.76	58.767
560.10	58.333
560.44	58.153
560.78	57.133
561.12	58.322
561.45	59.944
561.79	58.123
562.13	60.256
562.47	58.058
562.81	58.501
563.15	58.181
563.48	59.406
563.82	60.055
564.16	59.192
564.50	57.770
564.84	58.835
565.17	58.216
565.51	60.383
565.85	58.711
566.19	59.682
566.52	58.579
566.86	58.098
567.20	59.340
567.54	60.645
567.88	60.047
568.21	58.428
568.55	59.728
568.89	59.548
569.23	59.461
569.56	57.093
569.90	57.775
570.24	56.457
570.57	58.000
570.91	57.930
571.25	56.495
571.59	56.587
571.92	56.622
572.26	57.156
572.60	56.682
572.93	56.574
573.27	57.179
573.61	58.115
573.95	57.946
574.28	56.886
574.62	56.395
574.96	56.220
575.29	56.790
575.63	55.584
575.97	56.574
576.30	57.408
576.64	56.503
576.98	57.555
577.31	57.606
577.65	57.867
577.98	57.544
578.32	56.976
578.66	56.415
578.99	57.113
579.33	56.583
579.67	56.826
580.00	57.924
580.34	57.736
580.67	57.591
581.01	57.901
581.35	57.450
581.68	57.390
582.02	57.937
582.35	57.474
582.69	57.343
583.02	56.569
583.36	57.866
583.70	58.593
584.03	58.465
584.37	60.446
584.70	58.379
585.04	57.435
585.37	57.518
585.71	57.764
586.04	58.371
586.38	57.615
586.72	58.508
587.05	59.619
587.39	58.513
587.72	59.732
588.06	59.258
588.39	58.616
588.73	59.096
589.06	59.589
589.40	59.316
589.73	59.657
590.07	60.272
590.40	60.255
590.73	60.708
591.07	61.026
591.40	60.018
591.74	60.543
592.07	60.343
592.41	60.071
592.74	60.215
593.08	59.169
593.41	59.572
593.75	60.124
594.08	58.874
594.41	59.898
594.75	59.924
595.08	60.499
595.42	60.582
595.75	61.097
596.09	60.047
596.42	62.009
596.75	61.812
597.09	61.822
597.42	60.388
597.75	61.475
598.09	59.620
598.42	60.875
598.76	61.433
599.09	61.498
599.42	58.772
599.76	60.647
600.09	60.520
600.42	60.500
600.76	59.658
601.09	59.542
601.42	60.948
601.76	60.699
602.09	61.304
602.42	62.890
602.76	61.757
603.09	62.915
603.42	63.587
603.76	60.968
604.09	61.442
604.42	62.606
604.76	62.661
605.09	62.980
605.42	61.670
605.75	62.215
606.09	62.803
606.42	61.551
606.75	62.857
607.09	62.418
607.42	62.251
607.75	61.901
608.08	61.096
608.42	61.581
608.75	62.699
609.08	64.275
609.41	63.452
609.75	63.508
610.08	63.754
610.41	62.850
610.74	62.750
611.07	63.618
611.41	63.882
611.74	64.925
612.07	63.704
612.40	64.004
612.73	63.955
613.07	63.611
613.40	65.481
613.73	64.354
614.06	63.606
614.39	64.523
614.72	63.529
615.06	65.028
615.39	63.373
615.72	63.832
616.05	65.419
616.38	63.362
616.71	65.933
617.05	66.028
617.38	65.556
617.71	66.038
618.04	66.286
618.37	66.898
618.70	65.743
619.03	67.083
619.36	68.958
619.69	69.295
620.03	68.444
620.36	67.597
620.69	67.666
621.02	67.125
621.35	71.037
621.68	70.068
622.01	69.500
622.34	69.912
622.67	67.114
623.00	66.845
623.33	68.445
623.66	68.586
623.99	68.079
624.32	69.506
624.65	69.023
624.99	69.676
625.32	66.869
625.65	70.463
625.98	69.460
626.31	69.327
626.64	70.624
626.97	71.640
627.30	70.315
627.63	69.497
627.96	70.081
628.29	72.988
628.62	71.190
628.95	70.441
629.28	72.278
629.61	71.984
629.94	70.186
630.26	72.530
630.59	73.049
630.92	72.103
631.25	70.154
631.58	75.000
631.91	73.026
632.24	72.936
632.57	73.182
632.90	73.191
633.23	72.000
633.56	74.181
633.89	75.956
634.22	76.543
634.55	75.604
634.88	74.074
635.20	72.949
635.53	73.333
635.86	72.042
636.19	76.197
636.52	74.362
636.85	72.953
637.18	74.214
637.51	71.824
637.83	75.690
638.16	78.172
638.49	73.706
638.82	75.395
