SpectraSuite Data File
++++++++++++++++++++++++++++++++++++
Date: Fri May 15 17:11:49 PDT 2015
User: schluterlab
Dark Spectrum Present: Yes
Reference Spectrum Present: Yes
Number of Sampled Component Spectra: 1
Spectrometers: USB2E3373
Integration Time (usec): 3000 (USB2E3373)
Spectra Averaged: 3 (USB2E3373)
Boxcar Smoothing: 0 (USB2E3373)
Correct for Electrical Dark: No (USB2E3373)
Strobe/Lamp Enabled: No (USB2E3373)
Correct for Detector Non-linearity: No (USB2E3373)
Correct for Stray Light: No (USB2E3373)
Number of Pixels in Processed Spectrum: 2048
>>>>>Begin Processed Spectral Data<<<<<
178.53	0.000
178.91	0.000
179.29	87.500
179.67	-450.000
180.04	28.571
180.42	250.000
180.80	-100.000
181.18	-0.000
181.56	200.000
181.94	250.000
182.31	-300.000
182.69	-60.000
183.07	133.333
183.45	180.000
183.83	200.000
184.20	54.545
184.58	88.889
184.96	-250.000
185.34	-100.000
185.72	-500.000
186.09	38.462
186.47	-100.000
186.85	133.333
187.23	-44.444
187.61	-1300.000
187.98	-233.333
188.36	55.556
188.74	233.333
189.12	70.588
189.49	55.556
189.87	0.000
190.25	28.571
190.63	550.000
191.00	100.000
191.38	31.579
191.76	200.000
192.14	25.000
192.51	900.000
192.89	-22.222
193.27	-42.857
193.65	33.333
194.02	72.727
194.40	140.000
194.78	-50.000
195.15	50.000
195.53	-75.000
195.91	250.000
196.29	-75.000
196.66	46.154
197.04	42.857
197.42	-11.111
197.79	-233.333
198.17	-69.231
198.55	800.000
198.92	-233.333
199.30	900.000
199.68	-80.000
200.05	400.000
200.43	0.000
200.81	333.333
201.18	-66.667
201.56	1200.000
201.94	0.000
202.31	-500.000
202.69	-240.000
203.07	-25.000
203.44	1300.000
203.82	0.000
204.19	71.429
204.57	-200.000
204.95	-37.500
205.32	10.000
205.70	71.429
206.08	-50.000
206.45	211.111
206.83	121.429
207.20	71.429
207.58	-100.000
207.96	-233.333
208.33	-150.000
208.71	175.000
209.08	-66.667
209.46	0.000
209.84	-140.000
210.21	0.000
210.59	128.571
210.96	50.000
211.34	-100.000
211.71	-33.333
212.09	71.429
212.46	-1100.000
212.84	0.000
213.22	90.000
213.59	400.000
213.97	15.385
214.34	9.091
214.72	-83.333
215.09	250.000
215.47	-46.154
215.84	0.000
216.22	-300.000
216.59	12.500
216.97	350.000
217.34	-150.000
217.72	20.000
218.09	12.500
218.47	200.000
218.84	100.000
219.22	55.556
219.59	60.000
219.97	200.000
220.34	100.000
220.72	114.286
221.09	225.000
221.47	0.000
221.84	-50.000
222.22	-650.000
222.59	54.545
222.97	41.667
223.34	133.333
223.72	42.857
224.09	-14.286
224.46	85.714
224.84	266.667
225.21	20.000
225.59	26.667
225.96	400.000
226.34	325.000
226.71	0.000
227.08	183.333
227.46	262.500
227.83	-250.000
228.21	33.333
228.58	90.909
228.95	25.000
229.33	170.000
229.70	37.500
230.08	37.500
230.45	28.571
230.82	28.571
231.20	40.000
231.57	121.429
231.95	0.000
232.32	-80.000
232.69	28.571
233.07	100.000
233.44	80.000
233.81	-60.000
234.19	55.556
234.56	0.000
234.93	150.000
235.31	-125.000
235.68	20.000
236.05	-15.385
236.43	-10.000
236.80	-11.765
237.17	21.875
237.55	20.000
237.92	0.000
238.29	16.667
238.67	-6.667
239.04	5.882
239.41	7.317
239.79	0.000
240.16	36.585
240.53	-15.789
240.91	8.696
241.28	19.048
241.65	37.500
242.02	30.137
242.40	11.667
242.77	0.000
243.14	4.545
243.51	2.500
243.89	12.644
244.26	10.345
244.63	22.619
245.00	11.340
245.38	15.464
245.75	-8.989
246.12	10.345
246.49	13.223
246.87	5.769
247.24	0.000
247.61	2.632
247.98	4.878
248.36	8.125
248.73	8.553
249.10	8.442
249.47	7.595
249.84	3.268
250.22	11.765
250.59	7.190
250.96	16.432
251.33	2.907
251.70	12.353
252.08	5.584
252.45	5.446
252.82	8.040
253.19	9.217
253.56	6.542
253.94	5.405
254.31	6.957
254.68	9.211
255.05	11.024
255.42	6.987
255.79	5.019
256.16	7.782
256.54	8.955
256.91	9.125
257.28	7.063
257.65	0.375
258.02	3.191
258.39	9.091
258.76	4.396
259.14	9.302
259.51	6.472
259.88	4.124
260.25	10.784
260.62	8.681
260.99	3.390
261.36	3.082
261.73	4.747
262.10	6.687
262.47	6.442
262.85	8.777
263.22	9.538
263.59	5.296
263.96	5.590
264.33	8.485
264.70	1.488
265.07	6.548
265.44	9.632
265.81	3.107
266.18	7.377
266.55	9.769
266.92	8.290
267.29	8.355
267.66	6.394
268.03	7.068
268.40	7.833
268.77	9.358
269.14	9.832
269.51	6.941
269.88	7.481
270.25	3.827
270.62	5.122
270.99	5.371
271.36	5.868
271.73	6.808
272.10	5.596
272.47	7.329
272.84	7.426
273.21	6.729
273.58	8.916
273.95	5.721
274.32	5.312
274.69	5.656
275.06	7.589
275.43	7.483
275.80	8.389
276.17	7.126
276.54	7.709
276.91	5.921
277.28	7.424
277.65	7.438
278.02	5.106
278.39	5.252
278.76	3.564
279.13	4.357
279.50	8.613
279.87	5.832
280.23	6.237
280.60	9.357
280.97	6.263
281.34	4.808
281.71	7.392
282.08	5.726
282.45	7.045
282.82	5.985
283.19	6.383
283.56	5.780
283.92	5.313
284.29	6.154
284.66	7.364
285.03	6.876
285.40	5.293
285.77	5.448
286.14	7.040
286.51	7.934
286.87	6.947
287.24	6.630
287.61	3.351
287.98	8.596
288.35	3.466
288.72	5.429
289.08	6.597
289.45	6.854
289.82	6.469
290.19	6.314
290.56	3.945
290.93	5.219
291.29	4.931
291.66	6.614
292.03	4.466
292.40	5.323
292.77	5.263
293.13	4.545
293.50	3.187
293.87	6.412
294.24	4.946
294.60	6.557
294.97	5.952
295.34	2.914
295.71	6.110
296.08	4.783
296.44	3.841
296.81	5.000
297.18	5.652
297.55	5.285
297.91	6.849
298.28	6.464
298.65	4.613
299.02	3.504
299.38	4.788
299.75	4.000
300.12	3.927
300.48	3.030
300.85	4.563
301.22	4.935
301.59	5.658
301.95	5.316
302.32	5.447
302.69	4.104
303.05	5.074
303.42	5.230
303.79	5.491
304.15	5.974
304.52	3.567
304.89	4.795
305.25	4.722
305.62	5.018
305.99	4.561
306.35	3.468
306.72	3.825
307.09	3.307
307.45	4.937
307.82	3.356
308.19	4.297
308.55	4.689
308.92	5.120
309.29	3.575
309.65	3.767
310.02	5.281
310.38	3.842
310.75	5.792
311.12	2.799
311.48	2.969
311.85	4.607
312.22	3.481
312.58	4.246
312.95	4.482
313.31	3.209
313.68	3.874
314.05	4.694
314.41	5.258
314.78	4.742
315.14	5.653
315.51	4.244
315.87	5.225
316.24	5.865
316.61	5.217
316.97	5.556
317.34	4.883
317.70	5.449
318.07	4.615
318.43	5.588
318.80	5.303
319.16	5.664
319.53	6.268
319.89	5.413
320.26	6.073
320.62	6.419
320.99	5.846
321.35	6.680
321.72	7.061
322.08	7.855
322.45	7.919
322.81	7.859
323.18	7.949
323.54	6.950
323.91	8.958
324.27	9.961
324.64	9.363
325.00	11.131
325.37	11.938
325.73	10.245
326.10	12.352
326.46	12.915
326.83	12.598
327.19	13.949
327.56	12.858
327.92	15.141
328.29	14.196
328.65	15.377
329.01	15.901
329.38	16.313
329.74	17.092
330.11	16.404
330.47	16.698
330.84	16.827
331.20	18.536
331.56	17.315
331.93	19.178
332.29	20.257
332.66	19.457
333.02	19.981
333.38	19.707
333.75	20.879
334.11	19.427
334.48	22.847
334.84	21.245
335.20	21.592
335.57	21.759
335.93	22.313
336.29	22.744
336.66	22.707
337.02	22.212
337.38	20.648
337.75	22.727
338.11	23.895
338.47	23.266
338.84	24.492
339.20	23.400
339.56	23.119
339.93	24.530
340.29	24.862
340.65	24.821
341.02	24.113
341.38	23.894
341.74	23.587
342.11	23.484
342.47	24.110
342.83	25.000
343.20	22.822
343.56	24.348
343.92	24.624
344.28	25.363
344.65	23.489
345.01	24.373
345.37	23.717
345.73	25.188
346.10	24.935
346.46	23.549
346.82	24.304
347.19	23.857
347.55	24.896
347.91	24.757
348.27	23.929
348.63	24.020
349.00	25.267
349.36	25.686
349.72	24.793
350.08	25.656
350.45	24.501
350.81	24.502
351.17	23.697
351.53	24.327
351.89	23.865
352.26	24.880
352.62	25.323
352.98	23.293
353.34	25.121
353.70	25.566
354.07	22.903
354.43	24.660
354.79	25.351
355.15	24.603
355.51	26.028
355.87	25.081
356.24	25.775
356.60	25.303
356.96	24.921
357.32	25.559
357.68	25.410
358.04	25.121
358.40	25.482
358.77	26.396
359.13	25.460
359.49	26.656
359.85	25.117
360.21	26.077
360.57	25.249
360.93	25.946
361.29	25.453
361.66	25.940
362.02	26.970
362.38	26.200
362.74	25.662
363.10	26.938
363.46	25.797
363.82	27.498
364.18	26.125
364.54	25.368
364.90	26.093
365.26	26.419
365.62	27.518
365.98	27.346
366.35	27.312
366.71	28.381
367.07	27.504
367.43	26.815
367.79	28.127
368.15	27.997
368.51	27.531
368.87	27.351
369.23	27.148
369.59	27.551
369.95	27.273
370.31	27.890
370.67	27.537
371.03	27.184
371.39	28.228
371.75	28.938
372.11	27.960
372.47	28.254
372.83	28.247
373.19	28.531
373.55	28.809
373.91	28.726
374.27	29.412
374.63	30.151
374.99	29.433
375.35	29.944
375.71	30.979
376.07	30.056
376.42	30.544
376.78	30.268
377.14	29.858
377.50	30.744
377.86	30.790
378.22	30.504
378.58	31.154
378.94	30.246
379.30	30.755
379.66	31.787
380.02	30.227
380.38	31.345
380.74	30.999
381.09	32.270
381.45	32.416
381.81	32.634
382.17	32.360
382.53	32.667
382.89	33.396
383.25	33.416
383.61	32.744
383.97	33.333
384.32	32.333
384.68	32.941
385.04	33.027
385.40	33.665
385.76	33.836
386.12	33.700
386.48	34.100
386.83	35.384
387.19	34.982
387.55	34.504
387.91	34.046
388.27	33.761
388.62	34.550
388.98	34.991
389.34	35.228
389.70	35.674
390.06	33.480
390.42	34.974
390.77	35.710
391.13	34.678
391.49	35.446
391.85	35.867
392.20	35.028
392.56	35.664
392.92	36.465
393.28	35.554
393.64	36.036
393.99	37.868
394.35	35.737
394.71	36.782
395.07	36.455
395.42	36.794
395.78	37.980
396.14	35.939
396.50	36.081
396.85	36.059
397.21	37.030
397.57	35.674
397.92	36.369
398.28	38.103
398.64	35.542
399.00	37.528
399.35	35.892
399.71	36.186
400.07	35.732
400.42	34.761
400.78	37.416
401.14	36.237
401.49	35.795
401.85	36.868
402.21	36.867
402.57	37.375
402.92	36.073
403.28	36.842
403.63	37.390
403.99	36.097
404.35	36.790
404.70	35.536
405.06	36.251
405.42	36.420
405.77	35.735
406.13	37.369
406.49	35.879
406.84	37.103
407.20	37.086
407.55	37.540
407.91	36.631
408.27	36.584
408.62	36.800
408.98	36.599
409.34	37.113
409.69	36.886
410.05	36.207
410.40	36.173
410.76	37.937
411.11	37.375
411.47	37.936
411.83	36.786
412.18	37.194
412.54	37.703
412.89	36.084
413.25	37.124
413.60	37.267
413.96	36.442
414.31	36.341
414.67	36.305
415.03	36.951
415.38	36.488
415.74	37.720
416.09	38.210
416.45	38.285
416.80	36.616
417.16	37.707
417.51	38.308
417.87	36.701
418.22	38.342
418.58	38.261
418.93	38.683
419.29	36.748
419.64	38.172
420.00	38.665
420.35	38.567
420.71	40.158
421.06	37.815
421.42	38.522
421.77	38.092
422.12	38.422
422.48	38.008
422.83	38.109
423.19	38.657
423.54	38.154
423.90	38.575
424.25	39.782
424.61	39.229
424.96	39.489
425.31	40.670
425.67	40.669
426.02	39.929
426.38	39.825
426.73	39.588
427.09	40.506
427.44	40.706
427.79	41.308
428.15	40.959
428.50	40.097
428.85	38.698
429.21	41.087
429.56	42.372
429.92	40.883
430.27	40.652
430.62	40.199
430.98	41.348
431.33	41.535
431.68	40.345
432.04	41.699
432.39	40.502
432.74	40.349
433.10	42.759
433.45	42.174
433.80	42.484
434.16	41.108
434.51	41.935
434.86	42.044
435.22	42.625
435.57	42.795
435.92	42.455
436.28	42.815
436.63	42.384
436.98	41.367
437.34	43.557
437.69	44.186
438.04	43.020
438.39	43.067
438.75	43.534
439.10	42.558
439.45	43.274
439.81	43.609
440.16	45.190
440.51	44.119
440.86	45.619
441.22	44.683
441.57	44.868
441.92	45.226
442.27	45.067
442.63	44.807
442.98	45.376
443.33	44.463
443.68	44.191
444.03	44.560
444.39	45.253
444.74	45.151
445.09	45.768
445.44	45.242
445.79	46.055
446.15	44.934
446.50	44.648
446.85	46.546
447.20	45.308
447.55	46.317
447.91	45.347
448.26	46.500
448.61	46.632
448.96	47.103
449.31	46.994
449.66	45.645
450.02	46.492
450.37	46.236
450.72	46.850
451.07	47.468
451.42	46.130
451.77	45.690
452.12	45.993
452.47	46.491
452.83	45.995
453.18	45.604
453.53	46.839
453.88	46.691
454.23	46.404
454.58	46.725
454.93	46.714
455.28	44.889
455.63	46.001
455.98	47.384
456.34	47.893
456.69	47.967
457.04	47.070
457.39	47.084
457.74	47.037
458.09	45.792
458.44	46.870
458.79	46.106
459.14	47.883
459.49	47.463
459.84	46.588
460.19	46.966
460.54	48.839
460.89	47.955
461.24	48.447
461.59	46.971
461.94	46.730
462.29	47.949
462.64	48.040
462.99	47.664
463.34	48.261
463.69	47.040
464.04	48.184
464.39	48.332
464.74	46.994
465.09	46.974
465.44	47.721
465.79	47.109
466.14	48.062
466.49	47.384
466.84	48.483
467.19	48.561
467.54	48.084
467.89	49.147
468.24	48.114
468.59	48.952
468.94	48.508
469.29	47.344
469.64	49.146
469.99	49.755
470.34	48.191
470.68	49.142
471.03	49.611
471.38	47.789
471.73	48.319
472.08	47.829
472.43	47.852
472.78	47.498
473.13	48.844
473.48	48.860
473.83	48.506
474.17	48.834
474.52	48.500
474.87	48.788
475.22	48.139
475.57	47.939
475.92	48.327
476.27	49.534
476.61	49.942
476.96	46.793
477.31	49.432
477.66	47.753
478.01	48.344
478.36	47.767
478.70	50.082
479.05	48.681
479.40	48.967
479.75	48.332
480.10	48.848
480.45	48.550
480.79	49.899
481.14	49.693
481.49	48.768
481.84	50.097
482.19	49.065
482.53	49.736
482.88	48.687
483.23	48.848
483.58	48.160
483.92	48.500
484.27	48.040
484.62	48.050
484.97	47.595
485.31	48.121
485.66	47.501
486.01	48.419
486.36	47.555
486.70	48.090
487.05	47.845
487.40	48.113
487.75	47.831
488.09	48.239
488.44	47.799
488.79	47.740
489.13	49.159
489.48	49.081
489.83	49.372
490.17	48.270
490.52	48.499
490.87	47.524
491.22	49.475
491.56	49.336
491.91	48.662
492.26	49.246
492.60	48.800
492.95	49.631
493.30	48.705
493.64	50.196
493.99	48.841
494.34	49.078
494.68	49.857
495.03	48.710
495.37	49.313
495.72	48.713
496.07	49.268
496.41	49.245
496.76	49.839
497.11	49.837
497.45	49.881
497.80	49.697
498.14	48.485
498.49	49.873
498.84	49.401
499.18	50.201
499.53	49.355
499.87	48.833
500.22	50.000
500.56	49.269
500.91	49.147
501.26	49.629
501.60	49.877
501.95	50.509
502.29	49.298
502.64	49.903
502.98	50.370
503.33	49.472
503.67	49.012
504.02	50.293
504.36	50.767
504.71	48.939
505.06	49.321
505.40	49.594
505.75	49.485
506.09	49.924
506.44	51.283
506.78	50.459
507.13	50.362
507.47	49.922
507.82	50.214
508.16	49.076
508.51	49.738
508.85	50.654
509.19	50.399
509.54	50.617
509.88	50.162
510.23	51.856
510.57	50.668
510.92	49.360
511.26	51.227
511.61	51.100
511.95	49.589
512.30	50.499
512.64	50.584
512.98	50.926
513.33	50.588
513.67	50.540
514.02	52.346
514.36	52.571
514.70	51.515
515.05	52.115
515.39	51.771
515.74	51.617
516.08	51.345
516.42	51.943
516.77	51.258
517.11	52.107
517.46	50.987
517.80	51.311
518.14	51.929
518.49	50.421
518.83	51.397
519.17	50.576
519.52	50.681
519.86	50.900
520.20	51.701
520.55	50.344
520.89	52.070
521.23	51.362
521.58	52.303
521.92	52.115
522.26	51.139
522.61	51.104
522.95	53.179
523.29	50.508
523.64	51.652
523.98	51.847
524.32	51.611
524.66	53.265
525.01	51.558
525.35	51.458
525.69	52.458
526.04	51.389
526.38	52.464
526.72	50.883
527.06	50.778
527.41	52.111
527.75	51.072
528.09	51.827
528.43	52.937
528.78	51.287
529.12	51.871
529.46	51.592
529.80	51.742
530.15	51.881
530.49	51.717
530.83	52.668
531.17	50.034
531.51	52.531
531.86	51.530
532.20	51.635
532.54	52.008
532.88	52.225
533.22	52.621
533.57	52.294
533.91	51.175
534.25	52.604
534.59	53.303
534.93	49.843
535.27	50.190
535.62	51.588
535.96	52.577
536.30	51.781
536.64	52.791
536.98	52.195
537.32	52.560
537.66	53.647
538.01	51.958
538.35	51.664
538.69	52.064
539.03	50.171
539.37	52.692
539.71	50.920
540.05	51.120
540.39	52.493
540.73	53.068
541.07	52.348
541.42	51.344
541.76	52.925
542.10	52.787
542.44	51.981
542.78	51.342
543.12	51.854
543.46	51.808
543.80	51.561
544.14	50.601
544.48	51.299
544.82	51.675
545.16	52.801
545.50	52.069
545.84	54.391
546.18	52.766
546.52	51.334
546.86	52.049
547.20	52.647
547.54	51.661
547.88	51.087
548.22	51.151
548.56	50.792
548.90	52.830
549.24	51.171
549.58	51.269
549.92	51.608
550.26	51.282
550.60	53.086
550.94	52.502
551.28	53.014
551.62	54.000
551.96	52.932
552.30	53.728
552.64	51.340
552.98	51.828
553.32	51.355
553.66	52.467
554.00	53.869
554.34	53.545
554.68	51.696
555.02	52.902
555.36	52.281
555.69	51.136
556.03	51.677
556.37	52.456
556.71	53.069
557.05	53.318
557.39	51.747
557.73	51.424
558.07	53.394
558.41	53.292
558.75	52.377
559.08	53.507
559.42	53.254
559.76	54.444
560.10	52.141
560.44	52.867
560.78	51.748
561.12	53.808
561.45	53.197
561.79	53.011
562.13	53.300
562.47	53.669
562.81	52.954
563.15	51.763
563.48	52.475
563.82	53.741
564.16	52.368
564.50	51.486
564.84	51.606
565.17	52.716
565.51	54.030
565.85	53.498
566.19	52.851
566.52	52.547
566.86	52.314
567.20	51.494
567.54	52.798
567.88	53.427
568.21	52.376
568.55	51.576
568.89	52.669
569.23	53.250
569.56	52.233
569.90	53.025
570.24	51.247
570.57	52.327
570.91	51.969
571.25	51.398
571.59	51.168
571.92	49.926
572.26	50.332
572.60	50.388
572.93	50.486
573.27	49.687
573.61	50.567
573.95	51.147
574.28	50.132
574.62	50.470
574.96	49.414
575.29	49.722
575.63	49.443
575.97	48.902
576.30	50.098
576.64	49.192
576.98	49.807
577.31	50.184
577.65	49.839
577.98	49.387
578.32	49.489
578.66	49.173
578.99	49.041
579.33	49.113
579.67	49.079
580.00	50.329
580.34	50.249
580.67	49.258
581.01	50.144
581.35	50.452
581.68	50.207
582.02	49.881
582.35	50.102
582.69	50.058
583.02	49.284
583.36	50.248
583.70	51.220
584.03	50.570
584.37	51.976
584.70	50.769
585.04	49.689
585.37	49.926
585.71	50.160
586.04	49.849
586.38	50.067
586.72	50.875
587.05	51.242
587.39	51.216
587.72	51.886
588.06	51.010
588.39	50.584
588.73	51.099
589.06	51.663
589.40	51.676
589.73	51.041
590.07	52.304
590.40	51.664
590.73	52.595
591.07	51.824
591.40	52.137
591.74	52.443
592.07	52.829
592.41	51.899
592.74	51.493
593.08	50.856
593.41	51.631
593.75	51.194
594.08	51.699
594.41	51.201
594.75	51.374
595.08	51.495
595.42	51.307
595.75	51.746
596.09	51.837
596.42	51.716
596.75	53.108
597.09	51.617
597.42	51.220
597.75	52.176
598.09	51.290
598.42	50.587
598.76	51.609
599.09	50.962
599.42	50.208
599.76	51.129
600.09	50.415
600.42	50.682
600.76	50.520
601.09	50.611
601.42	50.881
601.76	51.409
602.09	51.114
602.42	51.685
602.76	52.207
603.09	51.993
603.42	53.344
603.76	51.290
604.09	51.397
604.42	51.650
604.76	52.692
605.09	52.102
605.42	51.377
605.75	51.839
606.09	52.569
606.42	50.792
606.75	51.991
607.09	52.044
607.42	50.687
607.75	51.110
608.08	50.988
608.42	50.434
608.75	52.916
609.08	52.965
609.41	51.624
609.75	51.109
610.08	52.471
610.41	51.159
610.74	51.975
611.07	52.610
611.41	51.583
611.74	52.452
612.07	51.392
612.40	51.860
612.73	52.712
613.07	51.350
613.40	51.696
613.73	52.154
614.06	51.809
614.39	52.566
614.72	51.709
615.06	51.676
615.39	51.037
615.72	51.238
616.05	50.391
616.38	51.453
616.71	52.049
617.05	51.699
617.38	52.797
617.71	53.396
618.04	53.841
618.37	53.153
618.70	52.673
619.03	54.444
619.36	53.039
619.69	53.829
620.03	54.638
620.36	51.645
620.69	51.677
621.02	52.523
621.35	53.029
621.68	54.167
622.01	53.167
622.34	51.955
622.67	53.076
623.00	54.594
623.33	53.354
623.66	53.403
623.99	51.967
624.32	54.068
624.65	51.955
624.99	52.596
625.32	51.403
625.65	54.595
625.98	54.311
626.31	53.117
626.64	54.419
626.97	54.188
627.30	53.327
627.63	52.773
627.96	53.729
628.29	53.284
628.62	55.064
628.95	54.008
629.28	55.040
629.61	53.938
629.94	54.741
630.26	54.051
630.59	55.671
630.92	56.410
631.25	52.205
631.58	54.846
631.91	52.961
632.24	54.243
632.57	55.341
632.90	55.279
633.23	55.412
633.56	56.171
633.89	53.884
634.22	54.938
634.55	56.798
634.88	55.045
635.20	54.872
635.53	56.533
635.86	52.926
636.19	54.851
636.52	54.847
636.85	55.211
637.18	54.843
637.51	53.585
637.83	56.242
638.16	56.753
638.49	55.177
638.82	56.579
