SpectraSuite Data File
++++++++++++++++++++++++++++++++++++
Date: Fri May 15 20:10:31 PDT 2015
User: schluterlab
Dark Spectrum Present: Yes
Reference Spectrum Present: Yes
Number of Sampled Component Spectra: 1
Spectrometers: USB2E3373
Integration Time (usec): 3000 (USB2E3373)
Spectra Averaged: 3 (USB2E3373)
Boxcar Smoothing: 0 (USB2E3373)
Correct for Electrical Dark: No (USB2E3373)
Strobe/Lamp Enabled: No (USB2E3373)
Correct for Detector Non-linearity: No (USB2E3373)
Correct for Stray Light: No (USB2E3373)
Number of Pixels in Processed Spectrum: 2048
>>>>>Begin Processed Spectral Data<<<<<
178.53	0.000
178.91	0.000
179.29	-87.500
179.67	-400.000
180.04	-28.571
180.42	-100.000
180.80	-100.000
181.18	166.667
181.56	-100.000
181.94	300.000
182.31	-200.000
182.69	40.000
183.07	100.000
183.45	0.000
183.83	16.667
184.20	72.727
184.58	122.222
184.96	-100.000
185.34	133.333
185.72	-150.000
186.09	61.538
186.47	-900.000
186.85	233.333
187.23	111.111
187.61	-600.000
187.98	133.333
188.36	11.111
188.74	-33.333
189.12	64.706
189.49	55.556
189.87	0.000
190.25	78.571
190.63	300.000
191.00	166.667
191.38	52.632
191.76	350.000
192.14	-0.000
192.51	-250.000
192.89	-44.444
193.27	42.857
193.65	50.000
194.02	118.182
194.40	70.000
194.78	0.000
195.15	75.000
195.53	50.000
195.91	75.000
196.29	25.000
196.66	69.231
197.04	57.143
197.42	66.667
197.79	-300.000
198.17	-53.846
198.55	-100.000
198.92	-266.667
199.30	400.000
199.68	60.000
200.05	266.667
200.43	0.000
200.81	566.667
201.18	-33.333
201.56	900.000
201.94	-200.000
202.31	-400.000
202.69	20.000
203.07	75.000
203.44	100.000
203.82	0.000
204.19	14.286
204.57	-200.000
204.95	100.000
205.32	30.000
205.70	28.571
206.08	275.000
206.45	222.222
206.83	85.714
207.20	-57.143
207.58	-0.000
207.96	66.667
208.33	-90.000
208.71	175.000
209.08	-266.667
209.46	-600.000
209.84	-100.000
210.21	-300.000
210.59	171.429
210.96	16.667
211.34	150.000
211.71	40.000
212.09	85.714
212.46	-1100.000
212.84	0.000
213.22	110.000
213.59	-50.000
213.97	92.308
214.34	72.727
214.72	150.000
215.09	275.000
215.47	53.846
215.84	9.091
216.22	-200.000
216.59	12.500
216.97	150.000
217.34	150.000
217.72	60.000
218.09	87.500
218.47	50.000
218.84	-700.000
219.22	-22.222
219.59	-40.000
219.97	300.000
220.34	150.000
220.72	171.429
221.09	100.000
221.47	400.000
221.84	-250.000
222.22	-350.000
222.59	109.091
222.97	75.000
223.34	166.667
223.72	0.000
224.09	47.619
224.46	21.429
224.84	166.667
225.21	80.000
225.59	40.000
225.96	-50.000
226.34	25.000
226.71	71.429
227.08	0.000
227.46	0.000
227.83	150.000
228.21	11.111
228.58	63.636
228.95	125.000
229.33	10.000
229.70	6.250
230.08	62.500
230.45	171.429
230.82	171.429
231.20	60.000
231.57	100.000
231.95	142.857
232.32	-10.000
232.69	42.857
233.07	366.667
233.44	20.000
233.81	0.000
234.19	66.667
234.56	76.471
234.93	-650.000
235.31	125.000
235.68	-40.000
236.05	61.538
236.43	45.000
236.80	141.176
237.17	100.000
237.55	75.000
237.92	59.259
238.29	61.111
238.67	76.667
239.04	91.176
239.41	68.293
239.79	123.333
240.16	65.854
240.53	102.632
240.91	56.522
241.28	79.365
241.65	82.143
242.02	71.233
242.40	90.000
242.77	89.831
243.14	89.394
243.51	86.250
243.89	87.356
244.26	85.057
244.63	75.000
245.00	79.381
245.38	91.753
245.75	73.034
246.12	78.448
246.49	89.256
246.87	92.308
247.24	82.353
247.61	88.596
247.98	90.244
248.36	85.000
248.73	84.211
249.10	79.870
249.47	87.975
249.84	78.431
250.22	84.118
250.59	83.660
250.96	77.934
251.33	81.977
251.70	92.353
252.08	82.234
252.45	84.158
252.82	82.412
253.19	78.802
253.56	80.374
253.94	81.081
254.31	84.783
254.68	87.719
255.05	83.465
255.42	84.279
255.79	86.486
256.16	82.101
256.54	80.597
256.91	83.650
257.28	81.784
257.65	78.277
258.02	81.206
258.39	81.481
258.76	84.982
259.14	83.721
259.51	77.994
259.88	85.567
260.25	81.046
260.62	86.458
260.99	80.339
261.36	82.877
261.73	81.329
262.10	81.155
262.47	80.368
262.85	82.759
263.22	84.308
263.59	85.047
263.96	84.783
264.33	80.303
264.70	84.226
265.07	82.143
265.44	83.569
265.81	80.226
266.18	85.519
266.55	76.607
266.92	80.570
267.29	79.112
267.66	80.818
268.03	81.152
268.40	79.112
268.77	83.957
269.14	76.499
269.51	80.977
269.88	80.299
270.25	77.296
270.62	79.756
270.99	81.330
271.36	77.995
271.73	80.751
272.10	81.752
272.47	77.778
272.84	79.455
273.21	76.334
273.58	81.446
273.95	75.973
274.32	72.517
274.69	76.697
275.06	77.455
275.43	77.551
275.80	77.704
276.17	80.000
276.54	72.805
276.91	78.289
277.28	75.983
277.65	73.967
278.02	71.702
278.39	74.836
278.76	77.778
279.13	70.332
279.50	76.050
279.87	76.890
280.23	74.409
280.60	74.074
280.97	75.960
281.34	72.500
281.71	76.181
282.08	74.847
282.45	71.624
282.82	74.324
283.19	72.147
283.56	75.723
283.92	72.106
284.29	70.962
284.66	72.674
285.03	70.923
285.40	68.431
285.77	68.893
286.14	68.773
286.51	74.723
286.87	68.921
287.24	70.902
287.61	68.607
287.98	70.351
288.35	69.497
288.72	68.126
289.08	67.535
289.45	66.960
289.82	66.608
290.19	66.382
290.56	67.581
290.93	65.488
291.29	60.247
291.66	65.197
292.03	64.753
292.40	64.355
292.77	62.201
293.13	60.714
293.50	60.091
293.87	60.916
294.24	59.351
294.60	59.165
294.97	61.458
295.34	59.509
295.71	58.569
296.08	59.492
296.44	56.472
296.81	58.194
297.18	58.986
297.55	56.911
297.91	57.123
298.28	55.673
298.65	56.309
299.02	56.199
299.38	54.036
299.75	56.138
300.12	54.712
300.48	54.677
300.85	53.105
301.22	54.545
301.59	54.868
301.95	54.177
302.32	53.437
302.69	54.353
303.05	54.950
303.42	53.300
303.79	53.505
304.15	54.600
304.52	51.724
304.89	51.228
305.25	52.906
305.62	51.575
305.99	52.047
306.35	54.220
306.72	51.519
307.09	52.680
307.45	52.583
307.82	52.083
308.19	53.078
308.55	52.890
308.92	53.377
309.29	51.620
309.65	51.668
310.02	54.015
310.38	52.799
310.75	55.082
311.12	54.575
311.48	51.962
311.85	51.518
312.22	52.532
312.58	51.168
312.95	52.295
313.31	53.313
313.68	54.660
314.05	54.388
314.41	56.082
314.78	52.268
315.14	56.732
315.51	54.762
315.87	54.201
316.24	55.612
316.61	54.823
316.97	55.258
317.34	54.102
317.70	54.398
318.07	54.808
318.43	57.451
318.80	54.261
319.16	58.105
319.53	55.935
319.89	56.201
320.26	57.591
320.62	58.576
320.99	56.472
321.35	58.479
321.72	58.982
322.08	57.805
322.45	58.680
322.81	59.627
323.18	59.176
323.54	60.714
323.91	60.175
324.27	63.574
324.64	61.985
325.00	62.682
325.37	63.177
325.73	63.554
326.10	63.488
326.46	64.126
326.83	65.529
327.19	66.696
327.56	68.028
327.92	67.606
328.29	68.661
328.65	70.000
329.01	70.037
329.38	71.152
329.74	72.993
330.11	73.031
330.47	72.171
330.84	72.404
331.20	77.091
331.56	73.519
331.93	75.799
332.29	75.252
332.66	76.290
333.02	74.907
333.38	76.352
333.75	77.564
334.11	74.575
334.48	78.513
334.84	77.564
335.20	77.676
335.57	74.343
335.93	77.687
336.29	78.913
336.66	77.293
337.02	78.625
337.38	77.222
337.75	78.909
338.11	79.351
338.47	79.380
338.84	80.684
339.20	78.428
339.56	79.817
339.93	78.335
340.29	79.633
340.65	79.480
341.02	79.876
341.38	79.558
341.74	78.357
342.11	77.210
342.47	81.139
342.83	81.055
343.20	79.181
343.56	81.130
343.92	79.185
344.28	81.213
344.65	78.497
345.01	80.294
345.37	77.712
345.73	80.586
346.10	81.018
346.46	78.301
346.82	79.542
347.19	78.803
347.55	80.368
347.91	80.421
348.27	79.628
348.63	80.835
349.00	80.722
349.36	82.377
349.72	81.177
350.08	80.738
350.45	80.128
350.81	80.399
351.17	79.153
351.53	80.571
351.89	79.026
352.26	79.360
352.62	81.532
352.98	78.956
353.34	79.871
353.70	81.149
354.07	79.677
354.43	77.342
354.79	81.338
355.15	79.048
355.51	78.718
355.87	79.773
356.24	80.098
356.60	81.407
356.96	81.349
357.32	81.310
357.68	81.704
358.04	81.664
358.40	79.743
358.77	81.659
359.13	81.665
359.49	79.892
359.85	81.513
360.21	80.542
360.57	78.730
360.93	81.165
361.29	79.230
361.66	82.524
362.02	82.348
362.38	82.559
362.74	81.605
363.10	82.995
363.46	84.433
363.82	83.696
364.18	81.476
364.54	82.647
364.90	82.796
365.26	82.460
365.62	84.161
365.98	84.311
366.35	84.268
366.71	83.888
367.07	81.930
367.43	83.825
367.79	84.523
368.15	83.274
368.51	83.758
368.87	82.627
369.23	82.455
369.59	84.840
369.95	83.431
370.31	85.116
370.67	85.597
371.03	85.437
371.39	82.713
371.75	85.568
372.11	83.666
372.47	86.538
372.83	85.664
373.19	84.665
373.55	83.899
373.91	84.305
374.27	86.676
374.63	84.494
374.99	86.383
375.35	85.515
375.71	87.343
376.07	87.149
376.42	87.619
376.78	88.054
377.14	86.324
377.50	87.716
377.86	88.019
378.22	86.599
378.58	87.949
378.94	88.154
379.30	88.334
379.66	88.715
380.02	87.492
380.38	87.766
380.74	88.330
381.09	89.202
381.45	87.829
381.81	89.019
382.17	90.609
382.53	88.944
382.89	91.525
383.25	90.853
383.61	90.793
383.97	90.730
384.32	90.494
384.68	90.155
385.04	89.216
385.40	91.039
385.76	92.390
386.12	92.820
386.48	93.934
386.83	92.898
387.19	92.308
387.55	93.852
387.91	92.604
388.27	93.162
388.62	94.525
388.98	92.634
389.34	93.129
389.70	95.339
390.06	90.938
390.42	92.811
390.77	95.814
391.13	93.190
391.49	94.955
391.85	95.906
392.20	94.852
392.56	94.851
392.92	94.422
393.28	95.342
393.64	92.913
393.99	96.928
394.35	97.217
394.71	96.424
395.07	94.783
395.42	93.443
395.78	97.003
396.14	94.641
396.50	96.703
396.85	96.716
397.21	95.301
397.57	97.367
397.92	95.267
398.28	97.529
398.64	93.976
399.00	96.388
399.35	96.953
399.71	93.682
400.07	98.247
400.42	94.737
400.78	96.265
401.14	95.402
401.49	97.260
401.85	97.319
402.21	95.361
402.57	97.000
402.92	93.977
403.28	98.496
403.63	97.982
403.99	96.811
404.35	98.376
404.70	95.536
405.06	96.533
405.42	95.649
405.77	96.572
406.13	98.428
406.49	96.566
406.84	97.738
407.20	97.953
407.55	97.102
407.91	98.128
408.27	98.853
408.62	97.908
408.98	96.488
409.34	97.274
409.69	97.868
410.05	96.182
410.40	98.025
410.76	95.899
411.11	96.375
411.47	97.239
411.83	97.615
412.18	100.257
412.54	94.819
412.89	95.567
413.25	97.112
413.60	98.820
413.96	94.233
414.31	97.500
414.67	96.344
415.03	96.738
415.38	95.692
415.74	96.352
416.09	96.799
416.45	98.987
416.80	96.233
417.16	98.964
417.51	97.402
417.87	96.349
418.22	98.769
418.58	98.595
418.93	99.122
419.29	96.287
419.64	99.093
420.00	99.748
420.35	97.672
420.71	98.663
421.06	99.448
421.42	98.858
421.77	100.578
422.12	97.730
422.48	98.105
422.83	100.000
423.19	99.097
423.54	99.295
423.90	98.351
424.25	98.967
424.61	99.266
424.96	97.619
425.31	97.920
425.67	98.944
426.02	100.589
426.38	100.313
426.73	99.637
427.09	100.696
427.44	99.412
427.79	98.763
428.15	99.454
428.50	99.334
428.85	98.157
429.21	100.226
429.56	101.078
429.92	97.946
430.27	98.546
430.62	99.320
430.98	98.567
431.33	98.791
431.68	99.686
432.04	98.547
432.39	98.859
432.74	97.174
433.10	99.080
433.45	100.538
433.80	98.955
434.16	98.947
434.51	99.086
434.86	100.581
435.22	98.934
435.57	101.123
435.92	99.341
436.28	98.569
436.63	99.144
436.98	100.174
437.34	100.544
437.69	100.358
438.04	97.835
438.39	99.389
438.75	101.457
439.10	98.812
439.45	101.400
439.81	99.144
440.16	101.010
440.51	99.284
440.86	100.906
441.22	99.378
441.57	100.993
441.92	101.731
442.27	102.494
442.63	100.696
442.98	101.321
443.33	99.444
443.68	100.849
444.03	98.957
444.39	100.049
444.74	102.007
445.09	100.724
445.44	101.937
445.79	102.114
446.15	98.733
446.50	98.724
446.85	100.797
447.20	99.583
447.55	99.777
447.91	100.790
448.26	99.032
448.61	98.676
448.96	100.115
449.31	101.387
449.66	100.639
450.02	99.943
450.37	102.786
450.72	99.370
451.07	100.316
451.42	100.375
451.77	99.397
452.12	97.847
452.47	99.485
452.83	99.293
453.18	98.861
453.53	98.925
453.88	100.243
454.23	99.939
454.58	100.756
454.93	99.742
455.28	96.254
455.63	100.124
455.98	99.399
456.34	99.617
456.69	100.127
457.04	99.559
457.39	101.883
457.74	101.209
458.09	96.645
458.44	100.234
458.79	99.888
459.14	100.400
459.49	99.522
459.84	99.662
460.19	99.150
460.54	101.161
460.89	99.716
461.24	101.615
461.59	98.456
461.94	98.679
462.29	98.733
462.64	98.140
462.99	98.443
463.34	98.679
463.69	99.550
464.04	98.245
464.39	99.454
464.74	97.546
465.09	99.501
465.44	100.058
465.79	97.166
466.14	99.658
466.49	98.332
466.84	98.394
467.19	98.123
467.54	96.679
467.89	99.621
468.24	97.263
468.59	98.222
468.94	97.587
469.29	99.148
469.64	97.813
469.99	101.472
470.34	98.635
470.68	99.627
471.03	97.594
471.38	99.001
471.73	98.459
472.08	97.693
472.43	98.725
472.78	98.561
473.13	100.204
473.48	97.590
473.83	97.136
474.17	100.130
474.52	98.724
474.87	99.030
475.22	99.268
475.57	98.363
475.92	99.067
476.27	99.069
476.61	100.116
476.96	96.207
477.31	98.053
477.66	98.483
478.01	98.316
478.36	97.331
478.70	100.272
479.05	99.011
479.40	99.205
479.75	96.246
480.10	97.286
480.45	99.400
480.79	100.906
481.14	100.000
481.49	97.833
481.84	99.662
482.19	97.007
482.53	99.568
482.88	97.184
483.23	97.505
483.58	97.028
483.92	96.709
484.27	96.718
484.62	97.848
484.97	97.803
485.31	98.121
485.66	97.716
486.01	100.314
486.36	100.067
486.70	99.063
487.05	99.017
487.40	97.880
487.75	97.070
488.09	95.241
488.44	95.014
488.79	96.003
489.13	95.713
489.48	95.682
489.83	95.695
490.17	94.831
490.52	96.351
490.87	94.817
491.22	97.708
491.56	95.731
491.91	94.790
492.26	97.083
492.60	94.674
492.95	98.082
493.30	95.115
493.64	96.906
493.99	95.652
494.34	96.942
494.68	95.619
495.03	95.231
495.37	96.124
495.72	97.375
496.07	96.878
496.41	96.557
496.76	96.914
497.11	96.320
497.45	95.895
497.80	97.175
498.14	94.685
498.49	95.582
498.84	94.860
499.18	95.683
499.53	96.280
499.87	94.018
500.22	96.785
500.56	97.428
500.91	95.030
501.26	94.810
501.60	95.524
501.95	96.070
502.29	95.593
502.64	96.815
502.98	96.744
503.33	95.197
503.67	94.795
504.02	96.530
504.36	96.388
504.71	95.404
505.06	93.357
505.40	96.548
505.75	96.546
506.09	94.678
506.44	95.380
506.78	97.500
507.13	95.708
507.47	93.838
507.82	95.459
508.16	93.819
508.51	95.750
508.85	94.662
509.19	94.838
509.54	95.979
509.88	94.444
510.23	95.858
510.57	96.419
510.92	93.017
511.26	97.109
511.61	96.425
511.95	94.301
512.30	95.122
512.64	93.100
512.98	95.677
513.33	94.460
513.67	94.827
514.02	97.197
514.36	95.086
514.70	96.911
515.05	96.651
515.39	94.982
515.74	97.605
516.08	96.653
516.42	98.410
516.77	95.377
517.11	97.685
517.46	97.187
517.80	94.815
518.14	95.652
518.49	95.252
518.83	95.565
519.17	94.239
519.52	94.553
519.86	95.618
520.20	95.322
520.55	95.497
520.89	95.232
521.23	94.680
521.58	94.953
521.92	96.474
522.26	96.226
522.61	95.974
522.95	96.821
523.29	95.616
523.64	95.553
523.98	96.565
524.32	95.683
524.66	95.839
525.01	97.013
525.35	94.102
525.69	96.768
526.04	94.841
526.38	96.174
526.72	94.441
527.06	95.071
527.41	94.591
527.75	93.767
528.09	94.286
528.43	97.569
528.78	95.776
529.12	95.677
529.46	97.336
529.80	94.617
530.15	96.634
530.49	96.633
530.83	97.538
531.17	94.896
531.51	96.717
531.86	96.057
532.20	95.546
532.54	95.303
532.88	96.167
533.22	94.825
533.57	95.806
533.91	97.781
534.25	98.698
534.59	98.012
534.93	94.902
535.27	95.558
535.62	95.982
535.96	96.477
536.30	97.757
536.64	96.278
536.98	95.540
537.32	97.653
537.66	96.213
538.01	96.573
538.35	96.394
538.69	95.340
539.03	97.266
539.37	96.635
539.71	96.728
540.05	95.791
540.39	96.953
540.73	97.141
541.07	95.787
541.42	96.237
541.76	98.073
542.10	96.146
542.44	98.680
542.78	94.425
543.12	96.841
543.46	95.202
543.80	97.641
544.14	95.127
544.48	96.469
544.82	97.266
545.16	97.541
545.50	96.395
545.84	98.371
546.18	97.518
546.52	95.386
546.86	95.758
547.20	97.353
547.54	96.396
547.88	97.418
548.22	95.726
548.56	96.834
548.90	97.574
549.24	95.248
549.58	96.121
549.92	94.067
550.26	94.725
550.60	96.877
550.94	94.772
551.28	94.590
551.62	99.231
551.96	97.669
552.30	98.319
552.64	95.134
552.98	96.273
553.32	95.720
553.66	97.823
554.00	98.029
554.34	94.978
554.68	96.386
555.02	97.024
555.36	97.457
555.69	94.652
556.03	96.003
556.37	95.658
556.71	98.195
557.05	96.943
557.39	94.498
557.73	97.676
558.07	96.154
558.41	97.167
558.75	96.960
559.08	96.612
559.42	96.190
559.76	97.278
560.10	97.324
560.44	96.128
560.78	96.434
561.12	98.025
561.45	98.454
561.79	98.459
562.13	97.658
562.47	98.273
562.81	95.893
563.15	94.640
563.48	97.313
563.82	97.941
564.16	97.911
564.50	97.297
564.84	97.590
565.17	96.110
565.51	99.932
565.85	100.343
566.19	98.674
566.52	98.324
566.86	98.136
567.20	97.821
567.54	100.669
567.88	100.820
568.21	99.152
568.55	100.707
568.89	100.975
569.23	101.011
569.56	101.270
569.90	102.680
570.24	100.186
570.57	102.400
570.91	100.837
571.25	100.164
571.59	100.062
571.92	97.719
572.26	99.306
572.60	99.132
572.93	98.745
573.27	99.561
573.61	99.851
573.95	101.092
574.28	100.185
574.62	99.568
574.96	99.177
575.29	99.596
575.63	96.657
575.97	96.991
576.30	99.691
576.64	98.543
576.98	99.794
577.31	100.197
577.65	99.839
577.98	100.359
578.32	99.312
578.66	97.765
578.99	98.971
579.33	97.452
579.67	97.300
580.00	98.430
580.34	99.129
580.67	96.909
581.01	99.111
581.35	98.966
581.68	99.547
582.02	100.642
582.35	99.740
582.69	99.844
583.02	99.167
583.36	97.918
583.70	98.910
584.03	99.472
584.37	100.339
584.70	99.093
585.04	97.642
585.37	98.452
585.71	99.284
586.04	98.865
586.38	98.906
586.72	99.627
587.05	101.300
587.39	100.811
587.72	101.039
588.06	100.581
588.39	98.747
588.73	98.810
589.06	99.641
589.40	98.652
589.73	98.065
590.07	99.471
590.40	98.336
590.73	99.547
591.07	96.692
591.40	99.955
591.74	98.688
592.07	99.304
592.41	99.956
592.74	99.920
593.08	98.952
593.41	99.671
593.75	101.178
594.08	98.387
594.41	98.617
594.75	98.053
595.08	99.243
595.42	99.485
595.75	101.502
596.09	101.212
596.42	99.049
596.75	99.378
597.09	98.314
597.42	98.148
597.75	99.679
598.09	95.020
598.42	96.977
598.76	99.828
599.09	98.758
599.42	98.674
599.76	98.269
600.09	97.624
600.42	99.090
600.76	97.957
601.09	100.267
601.42	97.532
601.76	99.206
602.09	99.134
602.42	99.916
602.76	100.042
603.09	98.796
603.42	101.798
603.76	99.476
604.09	99.311
604.42	99.239
604.76	99.822
605.09	99.406
605.42	97.156
605.75	100.000
606.09	99.915
606.42	98.499
606.75	98.312
607.09	98.198
607.42	98.449
607.75	99.067
608.08	97.350
608.42	95.295
608.75	100.819
609.08	100.399
609.41	98.934
609.75	98.841
610.08	100.349
610.41	98.164
610.74	99.415
611.07	99.897
611.41	99.481
611.74	99.947
612.07	99.518
612.40	99.070
612.73	100.395
613.07	98.706
613.40	97.538
613.73	99.328
614.06	98.664
614.39	100.338
614.72	97.311
615.06	99.106
615.39	97.380
615.72	97.578
616.05	98.715
616.38	97.037
616.71	97.492
617.05	97.591
617.38	99.120
617.71	99.748
618.04	100.317
618.37	98.676
618.70	99.934
619.03	99.375
619.36	99.711
619.69	100.076
620.03	99.854
620.36	99.428
620.69	98.787
621.02	97.783
621.35	100.000
621.68	99.575
622.01	100.167
622.34	98.085
622.67	97.161
623.00	98.086
623.33	101.905
623.66	98.728
623.99	99.924
624.32	100.989
624.65	98.722
624.99	100.527
625.32	99.697
625.65	100.786
625.98	100.000
626.31	97.672
626.64	102.253
626.97	98.778
627.30	98.599
627.63	97.747
627.96	100.809
628.29	100.278
628.62	97.542
628.95	98.998
629.28	100.806
629.61	100.499
629.94	100.880
630.26	99.308
630.59	102.081
630.92	99.282
631.25	96.615
631.58	100.110
631.91	100.329
