SpectraSuite Data File
++++++++++++++++++++++++++++++++++++
Date: Fri May 15 20:08:51 PDT 2015
User: schluterlab
Dark Spectrum Present: Yes
Reference Spectrum Present: Yes
Number of Sampled Component Spectra: 1
Spectrometers: USB2E3373
Integration Time (usec): 3000 (USB2E3373)
Spectra Averaged: 3 (USB2E3373)
Boxcar Smoothing: 0 (USB2E3373)
Correct for Electrical Dark: No (USB2E3373)
Strobe/Lamp Enabled: No (USB2E3373)
Correct for Detector Non-linearity: No (USB2E3373)
Correct for Stray Light: No (USB2E3373)
Number of Pixels in Processed Spectrum: 2048
>>>>>Begin Processed Spectral Data<<<<<
178.53	0.000
178.91	0.000
179.29	150.000
179.67	-250.000
180.04	-14.286
180.42	150.000
180.80	-300.000
181.18	-33.333
181.56	500.000
181.94	-200.000
182.31	400.000
182.69	-160.000
183.07	-66.667
183.45	-40.000
183.83	183.333
184.20	-36.364
184.58	155.556
184.96	-50.000
185.34	33.333
185.72	50.000
186.09	92.308
186.47	400.000
186.85	50.000
187.23	122.222
187.61	-0.000
187.98	-166.667
188.36	100.000
188.74	-100.000
189.12	-11.765
189.49	-27.778
189.87	0.000
190.25	28.571
190.63	150.000
191.00	-66.667
191.38	15.789
191.76	900.000
192.14	-125.000
192.51	250.000
192.89	-55.556
193.27	-57.143
193.65	216.667
194.02	136.364
194.40	30.000
194.78	-12.500
195.15	-8.333
195.53	-25.000
195.91	325.000
196.29	50.000
196.66	38.462
197.04	114.286
197.42	0.000
197.79	-66.667
198.17	-92.308
198.55	1000.000
198.92	-100.000
199.30	-100.000
199.68	60.000
200.05	-333.333
200.43	0.000
200.81	166.667
201.18	-166.667
201.56	1100.000
201.94	100.000
202.31	-100.000
202.69	-100.000
203.07	100.000
203.44	-100.000
203.82	0.000
204.19	50.000
204.57	-633.333
204.95	137.500
205.32	80.000
205.70	42.857
206.08	50.000
206.45	166.667
206.83	57.143
207.20	-171.429
207.58	100.000
207.96	33.333
208.33	-10.000
208.71	50.000
209.08	-133.333
209.46	200.000
209.84	-20.000
210.21	-1000.000
210.59	28.571
210.96	-116.667
211.34	-100.000
211.71	73.333
212.09	-57.143
212.46	-1000.000
212.84	0.000
213.22	10.000
213.59	400.000
213.97	23.077
214.34	63.636
214.72	16.667
215.09	300.000
215.47	-53.846
215.84	-18.182
216.22	-166.667
216.59	-87.500
216.97	650.000
217.34	50.000
217.72	-240.000
218.09	112.500
218.47	162.500
218.84	-600.000
219.22	-111.111
219.59	40.000
219.97	33.333
220.34	325.000
220.72	0.000
221.09	-25.000
221.47	150.000
221.84	0.000
222.22	-550.000
222.59	27.273
222.97	66.667
223.34	-200.000
223.72	14.286
224.09	52.381
224.46	35.714
224.84	466.667
225.21	-50.000
225.59	106.667
225.96	-200.000
226.34	150.000
226.71	-142.857
227.08	-50.000
227.46	-12.500
227.83	100.000
228.21	55.556
228.58	-9.091
228.95	87.500
229.33	-20.000
229.70	0.000
230.08	-62.500
230.45	-157.143
230.82	157.143
231.20	26.667
231.57	92.857
231.95	71.429
232.32	10.000
232.69	7.143
233.07	66.667
233.44	100.000
233.81	-90.000
234.19	133.333
234.56	5.882
234.93	-300.000
235.31	100.000
235.68	-40.000
236.05	-7.692
236.43	-45.000
236.80	-11.765
237.17	25.000
237.55	0.000
237.92	0.000
238.29	11.111
238.67	10.000
239.04	-38.235
239.41	-34.146
239.79	-23.333
240.16	24.390
240.53	-15.789
240.91	-8.696
241.28	-11.111
241.65	7.143
242.02	19.178
242.40	-5.000
242.77	-8.475
243.14	-1.515
243.51	7.500
243.89	0.000
244.26	0.000
244.63	-3.571
245.00	5.155
245.38	12.371
245.75	-2.247
246.12	-10.345
246.49	3.306
246.87	4.808
247.24	-2.521
247.61	-14.035
247.98	3.252
248.36	-0.625
248.73	-3.947
249.10	-3.247
249.47	1.899
249.84	-1.961
250.22	3.529
250.59	5.229
250.96	9.390
251.33	-4.070
251.70	0.000
252.08	1.523
252.45	0.495
252.82	1.005
253.19	3.226
253.56	-1.869
253.94	3.604
254.31	0.000
254.68	3.509
255.05	1.575
255.42	-2.183
255.79	2.317
256.16	1.167
256.54	5.970
256.91	3.802
257.28	1.115
257.65	0.000
258.02	-1.773
258.39	3.704
258.76	3.297
259.14	3.654
259.51	0.647
259.88	2.405
260.25	3.268
260.62	4.514
260.99	-2.034
261.36	1.027
261.73	0.949
262.10	1.824
262.47	2.761
262.85	0.627
263.22	0.615
263.59	-0.935
263.96	4.658
264.33	1.515
264.70	-0.595
265.07	-1.488
265.44	2.266
265.81	3.390
266.18	1.366
266.55	4.113
266.92	2.591
267.29	1.305
267.66	2.302
268.03	1.047
268.40	2.089
268.77	2.674
269.14	0.480
269.51	1.799
269.88	1.995
270.25	0.255
270.62	0.244
270.99	0.000
271.36	-0.244
271.73	2.817
272.10	0.973
272.47	2.837
272.84	1.980
273.21	3.016
273.58	3.614
273.95	4.805
274.32	0.924
274.69	0.679
275.06	2.679
275.43	3.628
275.80	1.325
276.17	1.379
276.54	1.927
276.91	0.877
277.28	2.838
277.65	2.686
278.02	-0.213
278.39	0.000
278.76	0.210
279.13	-0.830
279.50	1.050
279.87	3.456
280.23	-0.215
280.60	1.559
280.97	2.020
281.34	-0.192
281.71	4.312
282.08	0.000
282.45	0.783
282.82	-0.193
283.19	1.547
283.56	1.927
283.92	1.518
284.29	0.962
284.66	1.550
285.03	0.196
285.40	1.323
285.77	0.703
286.14	1.625
286.51	2.030
286.87	3.473
287.24	0.368
287.61	0.882
287.98	3.333
288.35	2.600
288.72	1.401
289.08	2.083
289.45	4.042
289.82	1.399
290.19	0.341
290.56	0.686
290.93	0.673
291.29	1.079
291.66	-0.472
292.03	0.957
292.40	1.129
292.77	0.159
293.13	1.136
293.50	-0.910
293.87	1.374
294.24	2.164
294.60	2.086
294.97	2.530
295.34	-0.920
295.71	-0.298
296.08	0.598
296.44	0.711
296.81	0.694
297.18	0.435
297.55	2.575
297.91	2.603
298.28	3.430
298.65	2.578
299.02	1.213
299.38	-0.274
299.75	-0.138
300.12	1.309
300.48	0.659
300.85	2.788
301.22	0.260
301.59	1.447
301.95	1.772
302.32	3.502
302.69	2.488
303.05	0.866
303.42	1.121
303.79	1.986
304.15	2.987
304.52	0.713
304.89	2.690
305.25	1.090
305.62	1.050
305.99	1.287
306.35	1.040
306.72	1.575
307.09	1.482
307.45	1.033
307.82	1.042
308.19	1.510
308.55	1.418
308.92	2.288
309.29	0.894
309.65	1.722
310.02	1.760
310.38	3.183
310.75	0.874
311.12	1.292
311.48	2.015
311.85	1.361
312.22	2.110
312.58	1.168
312.95	1.387
313.31	1.449
313.68	0.314
314.05	1.327
314.41	2.887
314.78	2.062
315.14	3.186
315.51	2.381
315.87	3.484
316.24	2.730
316.61	3.150
316.97	3.770
317.34	3.516
317.70	3.728
318.07	3.654
318.43	4.020
318.80	3.883
319.16	3.027
319.53	4.463
319.89	4.331
320.26	4.656
320.62	4.915
320.99	4.802
321.35	5.858
321.72	5.919
322.08	6.344
322.45	5.279
322.81	6.974
323.18	5.692
323.54	5.888
323.91	7.303
324.27	7.715
324.64	9.176
325.00	8.942
325.37	11.846
325.73	10.154
326.10	11.081
326.46	11.749
326.83	11.636
327.19	11.944
327.56	14.075
327.92	13.820
328.29	14.464
328.65	14.623
329.01	15.165
329.38	16.313
329.74	15.203
330.11	17.238
330.47	15.955
330.84	16.827
331.20	19.582
331.56	19.167
331.93	19.087
332.29	19.982
332.66	18.824
333.02	19.517
333.38	20.623
333.75	21.612
334.11	19.964
334.48	21.940
334.84	21.886
335.20	21.409
335.57	21.487
335.93	23.126
336.29	23.297
336.66	22.888
337.02	21.840
337.38	21.667
337.75	23.636
338.11	23.264
338.47	23.540
338.84	24.399
339.20	23.400
339.56	23.761
339.93	24.261
340.29	24.679
340.65	25.269
341.02	23.138
341.38	23.097
341.74	22.880
342.11	24.350
342.47	25.445
342.83	26.644
343.20	24.739
343.56	24.957
343.92	25.598
344.28	26.302
344.65	25.820
345.01	24.892
345.37	24.474
345.73	25.858
346.10	26.661
346.46	24.390
346.82	25.532
347.19	25.436
347.55	26.232
347.91	25.809
348.27	25.384
348.63	25.980
349.00	25.759
349.36	25.436
349.72	27.114
350.08	25.820
350.45	26.097
350.81	25.000
351.17	24.674
351.53	26.939
351.89	26.094
352.26	25.280
352.62	26.129
352.98	26.747
353.34	25.604
353.70	26.942
354.07	26.290
354.43	24.820
354.79	25.681
355.15	27.222
355.51	26.108
355.87	27.913
356.24	26.183
356.60	26.031
356.96	26.825
357.32	26.917
357.68	26.583
358.04	26.414
358.40	26.849
358.77	27.671
359.13	28.022
359.49	27.042
359.85	26.755
360.21	26.555
360.57	27.085
360.93	26.929
361.29	26.737
361.66	27.665
362.02	27.273
362.38	27.799
362.74	27.176
363.10	29.195
363.46	27.947
363.82	28.249
364.18	28.118
364.54	27.941
364.90	28.530
365.26	27.438
365.62	29.343
365.98	28.226
366.35	29.133
366.71	28.012
367.07	28.592
367.43	29.260
367.79	28.834
368.15	29.505
368.51	29.934
368.87	28.356
369.23	28.953
369.59	29.155
369.95	30.132
370.31	30.058
370.67	29.254
371.03	30.172
371.39	28.884
371.75	29.817
372.11	29.458
372.47	29.512
372.83	30.873
373.19	31.098
373.55	29.675
373.91	29.950
374.27	29.837
374.63	31.299
374.99	29.929
375.35	30.292
375.71	30.070
376.07	30.758
376.42	31.905
376.78	30.940
377.14	31.686
377.50	31.541
377.86	31.392
378.22	30.696
378.58	32.372
378.94	30.624
379.30	31.753
379.66	32.351
380.02	32.250
380.38	31.102
380.74	32.196
381.09	32.209
381.45	31.070
381.81	32.634
382.17	31.916
382.53	32.417
382.89	32.580
383.25	33.727
383.61	32.866
383.97	32.190
384.32	31.957
384.68	32.570
385.04	31.740
385.40	32.732
385.76	33.899
386.12	32.406
386.48	33.078
386.83	32.657
387.19	32.845
387.55	33.375
387.91	33.680
388.27	33.028
388.62	33.543
388.98	32.474
389.34	32.792
389.70	33.748
390.06	33.103
390.42	34.326
390.77	34.336
391.13	33.544
391.49	33.635
391.85	33.008
392.20	33.208
392.56	33.884
392.92	33.529
393.28	33.785
393.64	33.514
393.99	33.918
394.35	33.523
394.71	34.994
395.07	32.935
395.42	32.848
395.78	34.853
396.14	33.733
396.50	33.481
396.85	34.321
397.21	34.586
397.57	33.605
397.92	33.553
398.28	34.080
398.64	32.530
399.00	33.465
399.35	32.844
399.71	33.027
400.07	34.099
400.42	34.088
400.78	33.680
401.14	32.970
401.49	33.472
401.85	33.455
402.21	34.036
402.57	32.438
402.92	33.250
403.28	33.897
403.63	33.733
403.99	33.355
404.35	34.791
404.70	33.155
405.06	33.431
405.42	32.629
405.77	32.365
406.13	33.469
406.49	32.860
406.84	34.597
407.20	34.196
407.55	33.290
407.91	32.620
408.27	33.461
408.62	34.462
408.98	32.964
409.34	34.325
409.69	32.946
410.05	32.882
410.40	32.778
410.76	33.293
411.11	34.000
411.47	33.991
411.83	33.459
412.18	34.234
412.54	33.396
412.89	33.005
413.25	33.514
413.60	34.224
413.96	33.252
414.31	34.451
414.67	33.932
415.03	33.888
415.38	33.616
415.74	34.788
416.09	35.010
416.45	35.111
416.80	33.972
417.16	36.464
417.51	35.843
417.87	34.615
418.22	35.104
418.58	35.652
418.93	35.674
419.29	34.379
419.64	35.969
420.00	36.146
420.35	35.642
420.71	36.330
421.06	36.403
421.42	36.358
421.77	36.301
422.12	35.812
422.48	36.925
422.83	37.065
423.19	37.190
423.54	36.743
423.90	36.749
424.25	37.773
424.61	37.944
424.96	36.934
425.31	38.417
425.67	38.322
426.02	38.575
426.38	39.825
426.73	38.801
427.09	39.684
427.44	40.118
427.79	38.303
428.15	39.442
428.50	39.188
428.85	39.312
429.21	38.993
429.56	40.377
429.92	39.034
430.27	39.298
430.62	40.512
430.98	40.446
431.33	40.063
431.68	39.613
432.04	40.134
432.39	39.875
432.74	39.868
433.10	42.011
433.45	40.203
433.80	41.439
434.16	40.499
434.51	41.559
434.86	41.463
435.22	42.232
435.57	41.984
435.92	42.275
436.28	41.741
436.63	42.270
436.98	42.178
437.34	42.589
437.69	43.292
438.04	42.336
438.39	42.822
438.75	44.202
439.10	42.841
439.45	43.335
439.81	42.997
440.16	44.596
440.51	44.597
440.86	44.713
441.22	43.495
441.57	45.364
441.92	44.596
442.27	45.067
442.63	44.914
442.98	45.606
443.33	43.461
443.68	44.032
444.03	44.461
444.39	43.581
444.74	45.318
445.09	44.265
445.44	46.211
445.79	45.848
446.15	44.879
446.50	45.036
446.85	45.855
447.20	45.203
447.55	45.926
447.91	45.911
448.26	44.963
448.61	45.193
448.96	46.873
449.31	45.491
449.66	45.528
450.02	47.062
450.37	46.532
450.72	46.048
451.07	46.392
451.42	45.194
451.77	45.268
452.12	45.993
452.47	46.684
452.83	46.113
453.18	46.806
453.53	47.472
453.88	46.752
454.23	45.974
454.58	46.788
454.93	46.198
455.28	46.667
455.63	46.683
455.98	48.166
456.34	46.743
456.69	46.442
457.04	48.393
457.39	46.719
457.74	46.735
458.09	46.792
458.44	46.635
458.79	47.171
459.14	47.941
459.49	47.403
459.84	47.659
460.19	47.269
460.54	47.555
460.89	46.932
461.24	48.882
461.59	48.278
461.94	47.044
462.29	48.794
462.64	48.771
462.99	46.852
463.34	47.705
463.69	47.362
464.04	48.487
464.39	48.150
464.74	47.914
465.09	48.160
465.44	48.182
465.79	46.769
466.14	48.404
466.49	48.016
466.84	48.899
467.19	48.310
467.54	48.148
467.89	48.136
468.24	48.175
468.59	48.952
468.94	48.698
469.29	48.590
469.64	48.735
469.99	50.526
470.34	48.396
470.68	49.739
471.03	47.841
471.38	49.501
471.73	49.090
472.08	48.779
472.43	50.336
472.78	48.938
473.13	50.884
473.48	48.730
473.83	48.941
474.17	49.223
474.52	49.521
474.87	50.424
475.22	49.359
475.57	49.407
475.92	50.027
476.27	49.884
476.61	50.694
476.96	48.466
477.31	49.919
477.66	49.101
478.01	50.253
478.36	49.129
478.70	50.843
479.05	51.593
479.40	50.450
479.75	48.697
480.10	49.565
480.45	50.050
480.79	50.806
481.14	50.922
481.49	49.704
481.84	49.855
482.19	49.813
482.53	50.600
482.88	49.928
483.23	50.768
483.58	49.953
483.92	50.145
484.27	49.362
484.62	50.560
484.97	49.337
485.31	49.783
485.66	47.609
486.01	48.104
486.36	48.206
486.70	48.649
487.05	49.207
487.40	49.405
487.75	49.268
488.09	49.475
488.44	49.415
488.79	50.243
489.13	49.960
489.48	49.979
489.83	49.596
490.17	49.663
490.52	50.023
490.87	49.931
491.22	51.289
491.56	50.617
491.91	49.761
492.26	51.483
492.60	50.432
492.95	52.582
493.30	49.780
493.64	52.505
493.99	49.952
494.34	51.990
494.68	51.095
495.03	50.949
495.37	51.325
495.72	51.439
496.07	52.293
496.41	51.415
496.76	50.806
497.11	50.582
497.45	51.551
497.80	52.674
498.14	51.316
498.49	51.854
498.84	51.697
499.18	52.410
499.53	52.927
499.87	51.702
500.22	51.682
500.56	52.446
500.91	52.159
501.26	52.743
501.60	51.943
501.95	52.693
502.29	51.671
502.64	52.413
502.98	53.379
503.33	51.873
503.67	52.289
504.02	53.617
504.36	53.686
504.71	53.333
505.06	52.994
505.40	54.772
505.75	53.608
506.09	52.965
506.44	53.183
506.78	53.265
507.13	53.930
507.47	53.525
507.82	53.686
508.16	52.615
508.51	53.778
508.85	53.741
509.19	53.539
509.54	54.638
509.88	56.203
510.23	56.267
510.57	55.852
510.92	53.305
511.26	56.628
511.61	55.776
511.95	55.397
512.30	55.044
512.64	55.537
512.98	56.204
513.33	56.240
513.67	55.145
514.02	57.265
514.36	57.543
514.70	57.809
515.05	58.284
515.39	58.028
515.74	58.443
516.08	58.936
516.42	58.598
516.77	57.870
517.11	59.585
517.46	59.605
517.80	58.343
518.14	58.543
518.49	57.031
518.83	59.356
519.17	58.763
519.52	59.088
519.86	59.544
520.20	60.024
520.55	59.725
520.89	59.975
521.23	60.481
521.58	62.082
521.92	61.731
522.26	59.922
522.61	60.974
522.95	61.987
523.29	59.975
523.64	62.325
523.98	63.318
524.32	61.662
524.66	62.036
525.01	61.948
525.35	62.605
525.69	62.963
526.04	62.566
526.38	63.424
526.72	62.263
527.06	61.868
527.41	63.127
527.75	62.802
528.09	62.924
528.43	64.551
528.78	63.036
529.12	63.677
529.46	63.678
529.80	62.255
530.15	64.620
530.49	64.377
530.83	66.005
531.17	63.667
531.51	65.458
531.86	64.242
532.20	63.953
532.54	62.423
532.88	65.092
533.22	65.054
533.57	63.761
533.91	65.078
534.25	65.169
534.59	63.117
534.93	62.492
535.27	62.754
535.62	63.772
535.96	64.644
536.30	64.314
536.64	65.059
536.98	67.178
537.32	66.643
537.66	66.760
538.01	65.315
538.35	65.811
538.69	64.381
539.03	64.115
539.37	64.939
539.71	65.303
540.05	65.513
540.39	64.751
540.73	65.342
541.07	64.434
541.42	65.659
541.76	66.896
542.10	66.621
542.44	65.740
542.78	63.317
543.12	64.835
543.46	66.273
543.80	67.245
544.14	64.553
544.48	65.223
544.82	66.097
545.16	67.077
545.50	67.023
545.84	66.289
546.18	67.943
546.52	66.835
546.86	67.218
547.20	66.881
547.54	66.007
547.88	65.014
548.22	65.089
548.56	65.633
548.90	66.712
549.24	65.427
549.58	67.207
549.92	66.619
550.26	67.473
550.60	68.625
550.94	67.662
551.28	69.011
551.62	69.538
551.96	69.624
552.30	69.079
552.64	65.726
552.98	66.526
553.32	67.832
553.66	67.925
554.00	69.343
554.34	69.055
554.68	67.404
555.02	68.824
555.36	68.212
555.69	68.278
556.03	66.381
556.37	67.402
556.71	67.942
557.05	68.084
557.39	67.807
557.73	67.991
558.07	68.778
558.41	68.453
558.75	69.680
559.08	69.661
559.42	69.127
559.76	71.337
560.10	69.037
560.44	69.471
560.78	67.203
561.12	69.605
561.45	68.939
561.79	68.697
562.13	69.695
562.47	69.281
562.81	69.308
563.15	67.983
563.48	69.165
563.82	70.556
564.16	69.290
564.50	67.095
564.84	68.942
565.17	67.807
565.51	69.672
565.85	68.999
566.19	70.093
566.52	69.973
566.86	70.051
567.20	67.933
567.54	71.229
567.88	70.650
568.21	69.457
568.55	67.337
568.89	67.967
569.23	68.079
569.56	65.937
569.90	66.261
570.24	65.538
570.57	66.218
570.91	66.783
571.25	66.294
571.59	64.497
571.92	64.296
572.26	64.312
572.60	64.217
572.93	64.198
573.27	64.545
573.61	64.857
573.95	64.555
574.28	63.533
574.62	64.683
574.96	62.877
575.29	64.059
575.63	63.151
575.97	63.351
576.30	64.071
576.64	64.026
576.98	64.530
577.31	63.333
577.65	63.899
577.98	63.187
578.32	63.483
578.66	62.949
578.99	63.594
579.33	63.153
579.67	62.806
580.00	64.456
580.34	64.129
580.67	62.710
581.01	64.673
581.35	63.178
581.68	63.531
582.02	64.122
582.35	63.565
582.69	63.751
583.02	63.747
583.36	64.869
583.70	65.888
584.03	65.860
584.37	66.940
584.70	65.495
585.04	64.249
585.37	64.939
585.71	64.725
586.04	64.750
586.38	65.164
586.72	65.222
587.05	66.869
587.39	66.089
587.72	66.867
588.06	66.039
588.39	66.277
588.73	66.667
589.06	67.091
589.40	67.853
589.73	68.127
590.07	67.976
590.40	67.067
590.73	69.440
591.07	69.211
591.40	66.963
591.74	68.959
592.07	69.852
592.41	68.772
592.74	67.224
593.08	65.700
593.41	67.150
593.75	67.092
594.08	67.010
594.41	67.103
594.75	66.565
595.08	67.310
595.42	68.568
595.75	68.344
596.09	68.530
596.42	68.747
596.75	69.316
597.09	68.519
597.42	68.428
597.75	69.950
598.09	68.130
598.42	68.141
598.76	66.881
599.09	67.748
599.42	67.450
599.76	67.043
600.09	66.554
600.42	67.627
600.76	66.865
601.09	67.405
601.42	67.607
601.76	68.400
602.09	67.987
602.42	69.503
602.76	68.124
603.09	69.352
603.42	70.527
603.76	68.065
604.09	67.558
604.42	69.797
604.76	69.025
605.09	69.241
605.42	68.623
605.75	69.046
606.09	69.766
606.42	68.807
606.75	68.961
607.09	68.791
607.42	68.365
607.75	68.872
608.08	68.284
608.42	68.661
608.75	69.735
609.08	70.852
609.41	68.985
609.75	69.103
610.08	70.344
610.41	69.420
610.74	70.453
611.07	71.525
611.41	70.109
611.74	72.335
612.07	69.647
612.40	71.007
612.73	71.582
613.07	71.147
613.40	71.225
613.73	71.293
614.06	70.729
614.39	71.630
614.72	70.364
615.06	71.676
615.39	69.814
615.72	69.645
616.05	71.229
616.38	69.459
616.71	70.275
617.05	71.711
617.38	71.213
617.71	72.013
618.04	73.905
618.37	72.446
618.70	74.257
619.03	74.097
619.36	72.865
619.69	75.967
620.03	73.484
620.36	74.034
620.69	73.305
621.02	75.535
621.35	76.515
621.68	76.531
622.01	75.917
622.34	74.940
622.67	74.369
623.00	74.273
623.33	75.000
623.66	74.346
623.99	74.433
624.32	76.122
624.65	74.436
624.99	75.621
625.32	73.541
625.65	76.355
625.98	75.907
626.31	75.229
626.64	76.603
626.97	74.695
627.30	78.284
627.63	76.083
627.96	77.987
628.29	76.596
628.62	78.663
628.95	78.657
629.28	80.645
629.61	78.564
629.94	79.961
630.26	78.557
630.59	81.165
630.92	80.103
631.25	77.641
631.58	80.176
631.91	78.399
632.24	81.193
632.57	80.682
632.90	82.444
633.23	81.059
633.56	84.131
633.89	82.367
634.22	83.210
634.55	83.863
634.88	82.631
635.20	80.128
635.53	84.667
635.86	78.153
636.19	81.889
636.52	83.418
636.85	83.127
637.18	82.893
637.51	81.258
637.83	83.311
