SpectraSuite Data File
++++++++++++++++++++++++++++++++++++
Date: Fri May 15 17:14:27 PDT 2015
User: schluterlab
Dark Spectrum Present: Yes
Reference Spectrum Present: Yes
Number of Sampled Component Spectra: 1
Spectrometers: USB2E3373
Integration Time (usec): 3000 (USB2E3373)
Spectra Averaged: 3 (USB2E3373)
Boxcar Smoothing: 0 (USB2E3373)
Correct for Electrical Dark: No (USB2E3373)
Strobe/Lamp Enabled: No (USB2E3373)
Correct for Detector Non-linearity: No (USB2E3373)
Correct for Stray Light: No (USB2E3373)
Number of Pixels in Processed Spectrum: 2048
>>>>>Begin Processed Spectral Data<<<<<
178.53	0.000
178.91	0.000
179.29	137.500
179.67	100.000
180.04	-71.429
180.42	325.000
180.80	0.000
181.18	-66.667
181.56	100.000
181.94	200.000
182.31	600.000
182.69	-60.000
183.07	-233.333
183.45	120.000
183.83	66.667
184.20	-63.636
184.58	-0.000
184.96	25.000
185.34	-66.667
185.72	0.000
186.09	53.846
186.47	-200.000
186.85	83.333
187.23	33.333
187.61	700.000
187.98	-100.000
188.36	144.444
188.74	-66.667
189.12	58.824
189.49	61.111
189.87	0.000
190.25	78.571
190.63	400.000
191.00	100.000
191.38	26.316
191.76	600.000
192.14	50.000
192.51	150.000
192.89	-11.111
193.27	-85.714
193.65	166.667
194.02	18.182
194.40	40.000
194.78	-187.500
195.15	58.333
195.53	-75.000
195.91	-25.000
196.29	-200.000
196.66	23.077
197.04	-42.857
197.42	11.111
197.79	-166.667
198.17	-69.231
198.55	-0.000
198.92	33.333
199.30	400.000
199.68	-100.000
200.05	-166.667
200.43	0.000
200.81	66.667
201.18	33.333
201.56	-0.000
201.94	-350.000
202.31	-0.000
202.69	20.000
203.07	50.000
203.44	1200.000
203.82	0.000
204.19	85.714
204.57	-233.333
204.95	-12.500
205.32	30.000
205.70	142.857
206.08	225.000
206.45	255.556
206.83	135.714
207.20	-57.143
207.58	-100.000
207.96	200.000
208.33	-80.000
208.71	-250.000
209.08	0.000
209.46	0.000
209.84	20.000
210.21	-800.000
210.59	171.429
210.96	116.667
211.34	150.000
211.71	100.000
212.09	-100.000
212.46	-1200.000
212.84	0.000
213.22	140.000
213.59	-250.000
213.97	30.769
214.34	200.000
214.72	50.000
215.09	175.000
215.47	46.154
215.84	-9.091
216.22	0.000
216.59	100.000
216.97	700.000
217.34	0.000
217.72	-60.000
218.09	100.000
218.47	100.000
218.84	-300.000
219.22	22.222
219.59	60.000
219.97	133.333
220.34	-50.000
220.72	85.714
221.09	100.000
221.47	400.000
221.84	-350.000
222.22	-650.000
222.59	90.909
222.97	116.667
223.34	433.333
223.72	7.143
224.09	80.952
224.46	28.571
224.84	166.667
225.21	60.000
225.59	126.667
225.96	-300.000
226.34	-25.000
226.71	-28.571
227.08	-50.000
227.46	112.500
227.83	-150.000
228.21	222.222
228.58	90.909
228.95	137.500
229.33	-40.000
229.70	50.000
230.08	12.500
230.45	71.429
230.82	171.429
231.20	0.000
231.57	135.714
231.95	14.286
232.32	-30.000
232.69	107.143
233.07	100.000
233.44	60.000
233.81	0.000
234.19	55.556
234.56	23.529
234.93	200.000
235.31	175.000
235.68	-180.000
236.05	69.231
236.43	10.000
236.80	11.765
237.17	31.250
237.55	15.000
237.92	7.407
238.29	44.444
238.67	73.333
239.04	35.294
239.41	14.634
239.79	53.333
240.16	65.854
240.53	44.737
240.91	6.522
241.28	33.333
241.65	33.929
242.02	24.658
242.40	35.000
242.77	38.983
243.14	36.364
243.51	38.750
243.89	31.034
244.26	22.989
244.63	32.143
245.00	36.082
245.38	35.052
245.75	20.225
246.12	17.241
246.49	29.752
246.87	37.500
247.24	28.571
247.61	18.421
247.98	15.447
248.36	26.250
248.73	30.921
249.10	20.779
249.47	31.013
249.84	31.373
250.22	29.412
250.59	24.837
250.96	25.352
251.33	26.744
251.70	28.824
252.08	29.442
252.45	23.267
252.82	24.121
253.19	27.650
253.56	20.093
253.94	28.378
254.31	30.000
254.68	30.702
255.05	26.772
255.42	22.707
255.79	25.097
256.16	28.016
256.54	28.731
256.91	23.194
257.28	24.907
257.65	25.094
258.02	25.177
258.39	30.303
258.76	31.136
259.14	28.239
259.51	26.214
259.88	24.399
260.25	27.451
260.62	27.083
260.99	27.458
261.36	25.342
261.73	24.051
262.10	27.356
262.47	26.380
262.85	26.332
263.22	23.385
263.59	27.103
263.96	31.366
264.33	30.000
264.70	27.976
265.07	24.702
265.44	28.612
265.81	27.119
266.18	27.596
266.55	29.820
266.92	27.202
267.29	28.198
267.66	23.785
268.03	27.487
268.40	26.371
268.77	29.144
269.14	26.379
269.51	26.221
269.88	25.935
270.25	23.469
270.62	25.610
270.99	26.854
271.36	24.694
271.73	22.300
272.10	28.710
272.47	31.206
272.84	26.485
273.21	27.146
273.58	27.229
273.95	26.545
274.32	24.018
274.69	22.398
275.06	23.661
275.43	23.583
275.80	24.945
276.17	26.207
276.54	23.983
276.91	23.684
277.28	27.074
277.65	23.554
278.02	25.319
278.39	26.258
278.76	26.625
279.13	21.992
279.50	27.731
279.87	26.350
280.23	23.226
280.60	25.536
280.97	23.838
281.34	24.423
281.71	26.489
282.08	23.722
282.45	20.744
282.82	23.359
283.19	24.952
283.56	26.012
283.92	24.478
284.29	24.808
284.66	25.388
285.03	22.986
285.40	24.953
285.77	23.374
286.14	23.105
286.51	27.122
286.87	22.486
287.24	23.573
287.61	23.633
287.98	23.333
288.35	24.610
288.72	24.343
289.08	21.354
289.45	25.659
289.82	23.601
290.19	21.843
290.56	20.926
290.93	21.549
291.29	19.569
291.66	21.890
292.03	22.010
292.40	19.839
292.77	20.415
293.13	18.994
293.50	19.575
293.87	20.458
294.24	19.938
294.60	20.566
294.97	21.131
295.34	20.245
295.71	18.927
296.08	19.283
296.44	18.350
296.81	19.861
297.18	20.000
297.55	19.783
297.91	19.726
298.28	21.372
298.65	18.318
299.02	17.655
299.38	16.005
299.75	20.276
300.12	19.110
300.48	18.182
300.85	17.617
301.22	20.390
301.59	16.842
301.95	18.354
302.32	19.455
302.69	17.289
303.05	17.946
303.42	18.057
303.79	17.407
304.15	18.996
304.52	15.815
304.89	18.246
305.25	16.707
305.62	15.636
305.99	17.193
306.35	17.110
306.72	16.760
307.09	17.104
307.45	18.714
307.82	16.782
308.19	17.654
308.55	18.430
308.92	18.083
309.29	17.318
309.65	17.761
310.02	19.252
310.38	18.441
310.75	18.907
311.12	17.438
311.48	17.391
311.85	19.372
312.22	17.722
312.58	18.365
312.95	17.716
313.31	20.083
313.68	18.848
314.05	20.102
314.41	19.588
314.78	20.103
315.14	20.452
315.51	21.118
315.87	20.902
316.24	22.245
316.61	21.063
316.97	23.214
317.34	22.754
317.70	23.040
318.07	24.038
318.43	23.922
318.80	23.106
319.16	25.293
319.53	27.160
319.89	25.886
320.26	26.822
320.62	28.887
320.99	26.722
321.35	29.496
321.72	29.595
322.08	30.211
322.45	31.371
322.81	32.220
323.18	33.170
323.54	33.591
323.91	33.788
324.27	34.473
324.64	35.674
325.00	36.131
325.37	37.466
325.73	36.899
326.10	37.421
326.46	37.309
326.83	39.195
327.19	40.628
327.56	41.964
327.92	43.838
328.29	42.768
328.65	45.755
329.01	43.842
329.38	44.240
329.74	44.004
330.11	46.710
330.47	46.011
330.84	46.250
331.20	51.141
331.56	48.981
331.93	49.498
332.29	50.504
332.66	49.774
333.02	48.606
333.38	50.871
333.75	50.366
334.11	48.254
334.48	51.677
334.84	51.282
335.20	51.784
335.57	50.680
335.93	53.117
336.29	52.947
336.66	51.589
337.02	52.881
337.38	53.241
337.75	52.636
338.11	51.668
338.47	53.741
338.84	53.974
339.20	52.377
339.56	54.679
339.93	52.820
340.29	53.303
340.65	54.570
341.02	53.103
341.38	54.513
341.74	52.208
342.11	52.686
342.47	52.936
342.83	53.287
343.20	52.265
343.56	53.739
343.92	54.384
344.28	53.032
344.65	53.972
345.01	54.365
345.37	51.472
345.73	54.310
346.10	54.185
346.46	53.911
346.82	53.764
347.19	51.455
347.55	54.971
347.91	53.803
348.27	53.112
348.63	53.322
349.00	53.158
349.36	54.364
349.72	53.897
350.08	54.754
350.45	53.392
350.81	54.568
351.17	52.036
351.53	55.265
351.89	53.344
352.26	54.240
352.62	54.113
352.98	54.297
353.34	54.670
353.70	54.935
354.07	55.565
354.43	54.524
354.79	55.244
355.15	54.921
355.51	54.114
355.87	55.421
356.24	53.670
356.60	56.023
356.96	56.270
357.32	54.393
357.68	55.278
358.04	55.250
358.40	55.627
358.77	56.539
359.13	57.486
359.49	54.622
359.85	54.914
360.21	55.821
360.57	53.864
360.93	55.598
361.29	54.532
361.66	57.288
362.02	57.500
362.38	56.740
362.74	57.078
363.10	58.239
363.46	57.302
363.82	58.452
364.18	55.351
364.54	56.985
364.90	59.068
365.26	57.715
365.62	59.124
365.98	56.965
366.35	57.538
366.71	58.167
367.07	57.910
367.43	57.441
367.79	60.283
368.15	58.722
368.51	59.359
368.87	59.225
369.23	59.567
369.59	59.767
369.95	59.091
370.31	60.838
370.67	61.418
371.03	61.688
371.39	59.956
371.75	60.879
372.11	60.414
372.47	61.908
372.83	61.036
373.19	60.271
373.55	60.505
373.91	60.403
374.27	62.225
374.63	61.809
374.99	62.766
375.35	62.256
375.71	63.077
376.07	63.904
376.42	61.837
376.78	64.094
377.14	62.898
377.50	64.077
377.86	63.922
378.22	64.454
378.58	64.936
378.94	64.713
379.30	64.754
379.66	65.643
380.02	65.052
380.38	63.786
380.74	66.308
381.09	66.442
381.45	65.260
381.81	66.317
382.17	65.102
382.53	66.521
382.89	66.981
383.25	68.139
383.61	67.500
383.97	66.349
384.32	67.667
384.68	66.997
385.04	67.402
385.40	67.704
385.76	69.434
386.12	69.922
386.48	69.796
386.83	69.245
387.19	69.353
387.55	69.887
387.91	70.110
388.27	68.437
388.62	69.981
388.98	69.859
389.34	70.581
389.70	70.914
390.06	69.729
390.42	69.754
390.77	71.812
391.13	70.807
391.49	72.704
391.85	72.255
392.20	70.621
392.56	71.964
392.92	72.578
393.28	71.875
393.64	70.030
393.99	71.912
394.35	71.410
394.71	72.286
395.07	70.019
395.42	71.160
395.78	72.964
396.14	71.122
396.50	72.226
396.85	73.213
397.21	71.617
397.57	71.473
397.92	71.899
398.28	72.299
398.64	70.663
399.00	70.711
399.35	70.767
399.71	69.787
400.07	73.277
400.42	71.053
400.78	72.137
401.14	70.599
401.49	72.007
401.85	71.481
402.21	72.229
402.57	72.625
402.92	71.267
403.28	70.927
403.63	72.005
403.99	70.791
404.35	72.580
404.70	69.881
405.06	70.035
405.42	70.416
405.77	70.540
406.13	73.632
406.49	70.101
406.84	72.861
407.20	72.787
407.55	71.668
407.91	70.856
408.27	70.427
408.62	72.000
408.98	70.733
409.34	71.252
409.69	71.770
410.05	70.567
410.40	71.173
410.76	70.688
411.11	72.375
411.47	71.663
411.83	71.500
412.18	73.230
412.54	70.849
412.89	70.505
413.25	70.758
413.60	70.994
413.96	70.675
414.31	71.890
414.67	71.520
415.03	72.170
415.38	70.627
415.74	71.270
416.09	72.567
416.45	71.236
416.80	72.439
417.16	73.619
417.51	71.819
417.87	71.773
418.22	72.863
418.58	74.247
418.93	71.975
419.29	72.471
419.64	74.206
420.00	74.874
420.35	72.836
420.71	72.661
421.06	74.156
421.42	74.399
421.77	72.832
422.12	73.837
422.48	73.849
422.83	72.796
423.19	74.041
423.54	73.663
423.90	75.913
424.25	74.856
424.61	74.847
424.96	74.390
425.31	76.603
425.67	76.408
426.02	76.325
426.38	76.769
426.73	77.300
427.09	77.848
427.44	77.118
427.79	76.311
428.15	77.488
428.50	77.165
428.85	75.737
429.21	77.816
429.56	78.167
429.92	76.836
430.27	76.541
430.62	78.254
430.98	79.352
431.33	77.603
431.68	77.708
432.04	78.927
432.39	78.437
432.74	77.450
433.10	80.862
433.45	80.167
433.80	80.963
434.16	80.831
434.51	80.000
434.86	80.314
435.22	80.763
435.57	81.535
435.92	80.599
436.28	80.441
436.63	81.061
436.98	80.070
437.34	81.972
437.69	81.872
438.04	80.969
438.39	80.452
438.75	84.396
439.10	81.607
439.45	83.810
439.81	83.853
440.16	84.679
440.51	83.045
440.86	86.465
441.22	81.618
441.57	84.437
441.92	84.837
442.27	85.366
442.63	84.047
442.98	83.688
443.33	82.916
443.68	84.881
444.03	85.047
444.39	84.506
444.74	86.566
445.09	84.020
445.44	84.957
445.79	87.210
446.15	83.315
446.50	83.749
446.85	86.397
447.20	84.619
447.55	85.547
447.91	85.561
448.26	86.227
448.61	86.241
448.96	87.378
449.31	86.416
449.66	85.540
450.02	86.195
450.37	86.722
450.72	85.395
451.07	86.709
451.42	86.205
451.77	87.523
452.12	85.945
452.47	85.126
452.83	85.512
453.18	86.275
453.53	88.243
453.88	85.914
454.23	86.663
454.58	88.791
454.93	87.436
455.28	85.079
455.63	86.485
455.98	87.072
456.34	88.506
456.69	88.247
457.04	88.343
457.39	85.601
457.74	87.908
458.09	86.168
458.44	86.074
458.79	86.779
459.14	86.556
459.49	86.866
459.84	87.592
460.19	88.410
460.54	87.653
460.89	87.614
461.24	87.826
461.59	87.055
461.94	86.667
462.29	87.817
462.64	88.173
462.99	87.813
463.34	88.248
463.69	87.323
464.04	89.165
464.39	87.568
464.74	88.160
465.09	88.771
465.44	88.402
465.79	86.621
466.14	88.084
466.49	88.154
466.84	87.091
467.19	87.735
467.54	87.548
467.89	87.871
468.24	86.679
468.59	88.381
468.94	88.317
469.29	90.164
469.64	87.286
469.99	89.138
470.34	88.191
470.68	90.679
471.03	88.181
471.38	88.944
471.73	88.936
472.08	89.281
472.43	88.725
472.78	89.034
473.13	89.660
473.48	88.730
473.83	87.422
474.17	89.249
474.52	88.322
474.87	86.970
475.22	88.957
475.57	87.916
475.92	88.042
476.27	88.068
476.61	90.220
476.96	86.559
477.31	89.670
477.66	87.697
478.01	90.736
478.36	88.671
478.70	89.723
479.05	90.714
479.40	89.878
479.75	87.591
480.10	88.018
480.45	88.550
480.79	90.584
481.14	89.191
481.49	87.094
481.84	90.154
482.19	88.728
482.53	89.592
482.88	87.780
483.23	87.716
483.58	88.915
483.92	87.754
484.27	86.600
484.62	88.122
484.97	87.479
485.31	86.633
485.66	87.104
486.01	87.193
486.36	86.630
486.70	86.108
487.05	86.285
487.40	86.582
487.75	87.239
488.09	86.094
488.44	86.417
488.79	87.225
489.13	87.861
489.48	87.388
489.83	87.309
490.17	88.315
490.52	87.575
490.87	87.783
491.22	89.542
491.56	86.907
491.91	88.241
492.26	88.965
492.60	87.956
492.95	89.179
493.30	87.054
493.64	89.833
493.99	87.923
494.34	89.029
494.68	88.476
495.03	87.397
495.37	88.371
495.72	88.491
496.07	89.220
496.41	87.170
496.76	88.208
497.11	87.238
497.45	88.258
497.80	88.951
498.14	86.587
498.49	88.928
498.84	87.325
499.18	89.458
499.53	88.839
499.87	88.084
500.22	88.477
500.56	89.511
500.91	89.207
501.26	88.631
501.60	89.523
501.95	89.374
502.29	88.426
502.64	88.079
502.98	89.344
503.33	86.840
503.67	88.048
504.02	88.954
504.36	89.708
504.71	88.586
505.06	88.777
505.40	88.883
505.75	89.227
506.09	88.292
506.44	90.554
506.78	90.765
507.13	88.625
507.47	87.781
507.82	89.690
508.16	89.171
508.51	89.979
508.85	91.156
509.19	90.846
509.54	89.491
509.88	89.968
510.23	90.586
510.57	90.326
510.92	88.593
511.26	90.835
511.61	91.254
511.95	89.753
512.30	89.967
512.64	90.150
512.98	89.949
513.33	91.550
513.67	90.449
514.02	92.105
514.36	93.829
514.70	92.774
515.05	91.892
515.39	91.381
515.74	94.491
516.08	92.648
516.42	93.110
516.77	92.276
517.11	94.362
517.46	93.118
517.80	92.491
518.14	93.448
518.49	91.887
518.83	92.831
519.17	92.420
519.52	91.711
519.86	92.317
520.20	93.196
520.55	93.371
520.89	93.664
521.23	93.160
521.58	92.366
521.92	93.718
522.26	93.819
522.61	94.935
522.95	96.689
523.29	92.694
523.64	94.473
523.98	95.723
524.32	93.943
524.66	94.942
525.01	94.610
525.35	93.130
525.69	95.286
526.04	94.709
526.38	95.979
526.72	92.086
527.06	93.515
527.41	94.195
527.75	95.174
528.09	93.223
528.43	95.544
528.78	94.983
529.12	94.645
529.46	95.712
529.80	94.237
530.15	95.578
530.49	94.478
530.83	96.443
531.17	93.754
531.51	96.101
531.86	92.046
532.20	94.154
532.54	93.669
532.88	94.524
533.22	96.774
533.57	95.085
533.91	93.538
534.25	94.727
534.59	94.291
534.93	92.952
535.27	92.576
535.62	94.102
535.96	94.651
536.30	91.953
536.64	95.796
536.98	94.495
537.32	95.733
537.66	94.951
538.01	94.196
538.35	93.273
538.69	93.342
539.03	93.848
539.37	95.087
539.71	95.637
540.05	95.587
540.39	94.945
540.73	94.351
541.07	95.718
541.42	95.027
541.76	96.490
542.10	95.458
542.44	94.510
542.78	93.806
543.12	95.261
543.46	95.897
543.80	95.420
544.14	91.789
544.48	95.203
544.82	95.420
545.16	95.150
545.50	94.326
545.84	94.972
546.18	95.177
546.52	95.242
546.86	95.399
547.20	94.778
547.54	92.580
547.88	95.177
548.22	95.332
548.56	93.602
548.90	95.485
549.24	93.457
549.58	93.512
549.92	94.067
550.26	94.579
550.60	95.836
550.94	96.191
551.28	96.522
551.62	98.077
551.96	94.586
552.30	96.930
552.64	95.205
552.98	95.499
553.32	94.437
553.66	95.356
554.00	96.569
554.34	95.569
554.68	95.133
555.02	95.238
555.36	96.410
555.69	96.703
556.03	95.789
556.37	94.235
556.71	95.740
557.05	97.763
557.39	94.796
557.73	97.076
558.07	99.623
558.41	97.550
558.75	96.259
559.08	95.429
559.42	97.540
559.76	98.879
560.10	95.719
560.44	96.947
560.78	95.105
561.12	98.378
561.45	98.595
561.79	96.779
562.13	97.942
562.47	97.482
562.81	96.470
563.15	94.781
563.48	96.959
563.82	96.637
564.16	98.607
564.50	95.000
564.84	96.185
565.17	96.378
565.51	99.932
565.85	100.274
566.19	97.149
566.52	97.855
566.86	97.237
567.20	97.011
567.54	97.871
567.88	99.121
568.21	96.946
568.55	96.685
568.89	97.587
569.23	96.389
569.56	96.497
569.90	96.793
570.24	94.083
570.57	95.709
570.91	95.643
571.25	93.029
571.59	93.335
571.92	90.578
572.26	92.301
572.60	92.062
572.93	92.626
573.27	92.194
573.61	92.751
573.95	92.845
574.28	92.929
574.62	91.813
574.96	91.025
575.29	91.519
575.63	89.661
575.97	91.813
576.30	91.482
576.64	90.490
576.98	92.355
577.31	93.045
577.65	92.615
577.98	91.505
578.32	91.846
578.66	90.522
578.99	91.296
579.33	90.807
579.67	90.083
580.00	91.063
580.34	91.741
580.67	90.925
581.01	92.075
581.35	91.236
581.68	91.163
582.02	91.778
582.35	92.331
582.69	92.170
583.02	92.032
583.36	92.926
583.70	93.017
584.03	94.356
584.37	94.551
584.70	93.681
585.04	92.150
585.37	92.948
585.71	93.656
586.04	93.394
586.38	92.691
586.72	93.572
587.05	95.118
587.39	93.878
587.72	96.255
588.06	94.631
588.39	94.503
588.73	94.261
589.06	95.336
589.40	94.504
589.73	95.874
590.07	96.337
590.40	96.014
590.73	97.652
591.07	97.668
591.40	97.329
591.74	97.014
592.07	97.495
592.41	97.924
592.74	95.380
593.08	92.665
593.41	96.343
593.75	95.453
594.08	94.782
594.41	95.269
594.75	96.412
595.08	96.481
595.42	96.172
595.75	97.709
596.09	96.325
596.42	97.106
596.75	96.670
597.09	95.626
597.42	96.522
597.75	98.534
598.09	95.247
598.42	96.570
598.76	97.254
599.09	96.314
599.42	94.468
599.76	94.808
600.09	95.173
600.42	95.337
600.76	94.874
601.09	96.374
601.42	95.104
601.76	94.958
602.09	95.545
602.42	97.262
602.76	96.647
603.09	96.221
603.42	98.662
603.76	96.774
604.09	96.557
604.42	96.362
604.76	98.487
605.09	97.806
605.42	96.885
605.75	97.548
606.09	96.433
606.42	95.788
606.75	96.190
607.09	96.132
607.42	96.721
607.75	95.915
608.08	95.553
608.42	94.792
608.75	98.506
609.08	99.053
609.41	96.904
609.75	97.077
610.08	98.153
610.41	96.860
610.74	98.196
611.07	98.605
611.41	99.377
611.74	99.200
612.07	96.895
612.40	99.070
612.73	99.322
613.07	99.213
613.40	98.195
613.73	99.720
614.06	96.661
614.39	99.436
614.72	96.359
615.06	98.603
615.39	96.670
615.72	96.717
616.05	98.939
616.38	96.923
616.71	99.266
617.05	99.321
617.38	99.120
617.71	99.623
618.04	100.825
618.37	100.252
618.70	101.122
619.03	102.292
619.36	101.447
619.69	102.578
620.03	101.388
620.36	101.860
620.69	100.071
621.02	101.300
621.35	102.075
621.68	103.401
622.01	103.417
622.34	101.357
622.67	100.631
623.00	99.617
623.33	100.457
623.66	100.000
623.99	100.681
624.32	103.194
624.65	101.053
624.99	101.655
625.32	99.773
625.65	100.236
625.98	102.820
626.31	101.912
626.64	102.600
626.97	101.745
627.30	101.751
627.63	101.213
627.96	104.582
628.29	103.145
628.62	102.852
628.95	104.008
629.28	105.645
629.61	103.988
629.94	103.715
630.26	102.470
630.59	103.226
630.92	103.385
631.25	102.154
631.58	106.278
631.91	106.579
632.24	105.963
632.57	107.159
632.90	104.982
633.23	104.000
