SpectraSuite Data File
++++++++++++++++++++++++++++++++++++
Date: Fri May 15 20:03:22 PDT 2015
User: schluterlab
Dark Spectrum Present: Yes
Reference Spectrum Present: Yes
Number of Sampled Component Spectra: 1
Spectrometers: USB2E3373
Integration Time (usec): 3000 (USB2E3373)
Spectra Averaged: 3 (USB2E3373)
Boxcar Smoothing: 0 (USB2E3373)
Correct for Electrical Dark: No (USB2E3373)
Strobe/Lamp Enabled: No (USB2E3373)
Correct for Detector Non-linearity: No (USB2E3373)
Correct for Stray Light: No (USB2E3373)
Number of Pixels in Processed Spectrum: 2048
>>>>>Begin Processed Spectral Data<<<<<
178.53	0.000
178.91	0.000
179.29	37.500
179.67	-550.000
180.04	-85.714
180.42	175.000
180.80	200.000
181.18	-100.000
181.56	600.000
181.94	-100.000
182.31	1100.000
182.69	80.000
183.07	-100.000
183.45	80.000
183.83	-50.000
184.20	27.273
184.58	122.222
184.96	-250.000
185.34	-266.667
185.72	0.000
186.09	-7.692
186.47	-1200.000
186.85	233.333
187.23	166.667
187.61	1100.000
187.98	166.667
188.36	77.778
188.74	-66.667
189.12	5.882
189.49	66.667
189.87	0.000
190.25	57.143
190.63	400.000
191.00	-233.333
191.38	-10.526
191.76	350.000
192.14	175.000
192.51	50.000
192.89	-44.444
193.27	-71.429
193.65	100.000
194.02	90.909
194.40	100.000
194.78	-62.500
195.15	83.333
195.53	-12.500
195.91	250.000
196.29	0.000
196.66	69.231
197.04	14.286
197.42	0.000
197.79	-366.667
198.17	-92.308
198.55	600.000
198.92	-100.000
199.30	-300.000
199.68	-180.000
200.05	-166.667
200.43	0.000
200.81	133.333
201.18	-200.000
201.56	800.000
201.94	-50.000
202.31	-300.000
202.69	-120.000
203.07	-75.000
203.44	600.000
203.82	0.000
204.19	78.571
204.57	-366.667
204.95	125.000
205.32	-20.000
205.70	-28.571
206.08	0.000
206.45	344.444
206.83	85.714
207.20	-14.286
207.58	500.000
207.96	-100.000
208.33	-30.000
208.71	-25.000
209.08	-116.667
209.46	-500.000
209.84	0.000
210.21	-500.000
210.59	28.571
210.96	16.667
211.34	100.000
211.71	6.667
212.09	-114.286
212.46	-700.000
212.84	0.000
213.22	-10.000
213.59	200.000
213.97	30.769
214.34	100.000
214.72	0.000
215.09	525.000
215.47	0.000
215.84	9.091
216.22	-266.667
216.59	62.500
216.97	200.000
217.34	-275.000
217.72	-60.000
218.09	75.000
218.47	75.000
218.84	200.000
219.22	-122.222
219.59	-100.000
219.97	166.667
220.34	350.000
220.72	42.857
221.09	75.000
221.47	-550.000
221.84	-200.000
222.22	-450.000
222.59	54.545
222.97	58.333
223.34	33.333
223.72	-35.714
224.09	23.810
224.46	46.429
224.84	633.333
225.21	50.000
225.59	13.333
225.96	-100.000
226.34	125.000
226.71	-100.000
227.08	-166.667
227.46	0.000
227.83	-600.000
228.21	-11.111
228.58	-18.182
228.95	-37.500
229.33	60.000
229.70	6.250
230.08	-200.000
230.45	-71.429
230.82	-42.857
231.20	-33.333
231.57	64.286
231.95	-42.857
232.32	-150.000
232.69	7.143
233.07	166.667
233.44	-200.000
233.81	-40.000
234.19	33.333
234.56	-82.353
234.93	500.000
235.31	50.000
235.68	-300.000
236.05	-30.769
236.43	-45.000
236.80	0.000
237.17	43.750
237.55	35.000
237.92	-25.926
238.29	8.333
238.67	0.000
239.04	20.588
239.41	-29.268
239.79	-26.667
240.16	14.634
240.53	-7.895
240.91	0.000
241.28	15.873
241.65	14.286
242.02	12.329
242.40	10.000
242.77	-3.390
243.14	0.000
243.51	17.500
243.89	9.195
244.26	-9.195
244.63	4.762
245.00	5.155
245.38	5.155
245.75	-11.236
246.12	7.759
246.49	4.959
246.87	7.692
247.24	1.681
247.61	-0.877
247.98	0.813
248.36	3.750
248.73	11.184
249.10	-1.299
249.47	3.165
249.84	-3.268
250.22	7.647
250.59	4.575
250.96	10.798
251.33	-6.395
251.70	5.882
252.08	3.046
252.45	1.980
252.82	3.518
253.19	6.912
253.56	0.935
253.94	5.856
254.31	3.913
254.68	5.263
255.05	4.724
255.42	8.297
255.79	1.544
256.16	2.335
256.54	5.224
256.91	4.563
257.28	1.859
257.65	0.375
258.02	0.709
258.39	5.051
258.76	5.495
259.14	6.977
259.51	3.883
259.88	0.687
260.25	5.882
260.62	3.125
260.99	-4.407
261.36	1.712
261.73	2.848
262.10	6.079
262.47	2.454
262.85	4.702
263.22	-0.308
263.59	4.361
263.96	4.348
264.33	4.242
264.70	-0.298
265.07	2.083
265.44	4.816
265.81	3.390
266.18	5.738
266.55	4.627
266.92	3.109
267.29	3.655
267.66	4.348
268.03	4.712
268.40	4.178
268.77	6.952
269.14	3.837
269.51	4.884
269.88	3.242
270.25	1.276
270.62	2.195
270.99	2.813
271.36	3.423
271.73	6.338
272.10	1.217
272.47	3.310
272.84	2.475
273.21	3.944
273.58	5.060
273.95	6.407
274.32	3.002
274.69	0.452
275.06	5.804
275.43	3.175
275.80	3.974
276.17	4.138
276.54	4.711
276.91	4.167
277.28	1.528
277.65	2.893
278.02	5.106
278.39	2.407
278.76	4.612
279.13	-0.207
279.50	5.462
279.87	4.320
280.23	1.935
280.60	6.043
280.97	4.242
281.34	5.192
281.71	6.366
282.08	1.636
282.45	3.327
282.82	3.089
283.19	3.868
283.56	4.432
283.92	1.518
284.29	4.231
284.66	1.744
285.03	3.536
285.40	3.214
285.77	2.285
286.14	3.430
286.51	6.642
286.87	3.473
287.24	2.026
287.61	1.058
287.98	4.737
288.35	2.253
288.72	3.152
289.08	5.035
289.45	4.569
289.82	4.196
290.19	2.389
290.56	2.230
290.93	3.199
291.29	3.390
291.66	3.465
292.03	4.147
292.40	4.194
292.77	2.871
293.13	0.812
293.50	3.187
293.87	4.733
294.24	3.246
294.60	3.279
294.97	3.125
295.34	2.454
295.71	5.812
296.08	2.840
296.44	1.138
296.81	2.639
297.18	3.043
297.55	4.878
297.91	3.836
298.28	4.485
298.65	3.935
299.02	2.291
299.38	2.052
299.75	3.172
300.12	2.618
300.48	2.767
300.85	3.169
301.22	2.727
301.59	1.579
301.95	3.291
302.32	4.929
302.69	3.483
303.05	2.723
303.42	3.985
303.79	3.855
304.15	3.465
304.52	2.259
304.89	2.222
305.25	2.058
305.62	1.050
305.99	3.158
306.35	2.081
306.72	2.362
307.09	2.052
307.45	2.411
307.82	2.315
308.19	1.858
308.55	2.835
308.92	4.466
309.29	1.453
309.65	3.875
310.02	3.520
310.38	2.305
310.75	3.825
311.12	2.260
311.48	1.909
311.85	1.990
312.22	2.426
312.58	2.654
312.95	3.522
313.31	1.553
313.68	2.932
314.05	2.755
314.41	2.784
314.78	2.371
315.14	4.008
315.51	3.106
315.87	3.176
316.24	3.943
316.61	3.642
316.97	3.175
317.34	4.102
317.70	3.442
318.07	3.558
318.43	3.922
318.80	4.545
319.16	3.125
319.53	5.698
319.89	4.724
320.26	4.858
320.62	5.817
320.99	3.758
321.35	5.139
321.72	5.088
322.08	6.244
322.45	5.279
322.81	6.287
323.18	6.477
323.54	6.467
323.91	5.355
324.27	5.957
324.64	6.835
325.00	7.664
325.37	8.815
325.73	6.709
326.10	7.175
326.46	8.341
326.83	7.437
327.19	8.980
327.56	9.123
327.92	9.595
328.29	8.750
328.65	8.774
329.01	9.283
329.38	9.862
329.74	9.632
330.11	10.195
330.47	9.184
330.84	9.327
331.20	11.977
331.56	10.000
331.93	11.416
332.29	11.916
332.66	11.765
333.02	11.059
333.38	10.816
333.75	12.271
334.11	11.101
334.48	12.330
334.84	11.996
335.20	11.345
335.57	10.607
335.93	11.472
336.29	12.707
336.66	11.535
337.02	11.617
337.38	12.407
337.75	12.091
338.11	12.173
338.47	12.774
338.84	12.200
339.20	13.254
339.56	11.927
339.93	13.071
340.29	13.211
340.65	13.262
341.02	12.589
341.38	12.478
341.74	12.367
342.11	12.218
342.47	12.544
342.83	13.322
343.20	13.066
343.56	13.304
343.92	13.286
344.28	13.493
344.65	11.572
345.01	11.668
345.37	13.036
345.73	13.305
346.10	14.409
346.46	12.700
346.82	12.684
347.19	12.053
347.55	12.782
347.91	12.540
348.27	13.177
348.63	13.288
349.00	14.110
349.36	12.552
349.72	13.433
350.08	13.689
350.45	13.168
350.81	12.625
351.17	13.192
351.53	13.061
351.89	14.038
352.26	13.360
352.62	13.387
352.98	13.012
353.34	14.010
353.70	13.430
354.07	13.548
354.43	13.050
354.79	11.974
355.15	14.048
355.51	13.608
355.87	14.159
356.24	12.316
356.60	13.258
356.96	14.127
357.32	13.019
357.68	12.744
358.04	13.086
358.40	13.103
358.77	14.753
359.13	14.171
359.49	13.559
359.85	13.495
360.21	14.274
360.57	13.695
360.93	13.464
361.29	13.293
361.66	14.107
362.02	14.242
362.38	14.471
362.74	13.172
363.10	14.071
363.46	14.455
363.82	13.899
364.18	14.613
364.54	14.191
364.90	14.409
365.26	14.774
365.62	15.693
365.98	13.416
366.35	15.295
366.71	14.634
367.07	15.385
367.43	14.881
367.79	14.982
368.15	14.358
368.51	14.275
368.87	13.496
369.23	14.801
369.59	14.942
369.95	15.323
370.31	15.896
370.67	14.478
371.03	15.310
371.39	13.567
371.75	15.604
372.11	15.621
372.47	15.089
372.83	15.046
373.19	15.193
373.55	15.596
373.91	15.695
374.27	15.379
374.63	15.219
374.99	15.816
375.35	15.599
375.71	16.364
376.07	16.292
376.42	16.871
376.78	16.107
377.14	15.234
377.50	16.202
377.86	16.131
378.22	16.018
378.58	16.474
378.94	15.942
379.30	16.344
379.66	17.179
380.02	15.573
380.38	16.007
380.74	16.637
381.09	17.178
381.45	15.596
381.81	16.718
382.17	17.132
382.53	17.676
382.89	16.510
383.25	17.922
383.61	16.768
383.97	16.190
384.32	17.886
384.68	16.904
385.04	16.667
385.40	17.735
385.76	17.987
386.12	17.853
386.48	18.710
386.83	17.819
387.19	18.315
387.55	18.507
387.91	18.154
388.27	17.766
388.62	18.628
388.98	18.109
389.34	17.864
389.70	19.267
390.06	17.684
390.42	18.459
390.77	19.163
391.13	17.718
391.49	18.758
391.85	17.674
392.20	18.079
392.56	17.737
392.92	18.321
393.28	18.573
393.64	18.498
393.99	19.373
394.35	17.774
394.71	18.582
395.07	17.788
395.42	18.519
395.78	18.241
396.14	18.474
396.50	18.960
396.85	18.674
397.21	18.546
397.57	17.806
397.92	18.035
398.28	17.874
398.64	18.012
399.00	18.792
399.35	17.833
399.71	17.863
400.07	18.138
400.42	18.421
400.78	18.555
401.14	18.451
401.49	18.404
401.85	17.733
402.21	18.434
402.57	18.250
402.92	17.440
403.28	18.484
403.63	18.663
403.99	17.411
404.35	18.676
404.70	17.262
405.06	17.156
405.42	19.080
405.77	16.851
406.13	17.986
406.49	17.407
406.84	17.971
407.20	18.122
407.55	17.450
407.91	18.048
408.27	17.782
408.62	17.846
408.98	17.807
409.34	17.286
409.69	17.894
410.05	16.564
410.40	18.272
410.76	16.828
411.11	17.938
411.47	17.488
411.83	17.389
412.18	17.310
412.54	17.790
412.89	17.118
413.25	17.930
413.60	18.075
413.96	17.730
414.31	18.537
414.67	17.704
415.03	18.242
415.38	17.755
415.74	18.306
416.09	18.485
416.45	17.488
416.80	18.374
417.16	18.094
417.51	18.388
417.87	18.579
418.22	18.394
418.58	17.124
418.93	18.746
419.29	17.414
419.64	18.017
420.00	19.018
420.35	17.970
420.71	19.198
421.06	18.600
421.42	19.050
421.77	18.497
422.12	18.785
422.48	18.625
422.83	19.954
423.19	18.623
423.54	18.342
423.90	18.375
424.25	18.599
424.61	19.400
424.96	19.570
425.31	20.046
425.67	19.718
426.02	20.671
426.38	20.413
426.73	20.278
427.09	20.570
427.44	20.412
427.79	20.271
428.15	20.631
428.50	19.927
428.85	20.086
429.21	20.939
429.56	20.539
429.92	20.390
430.27	20.201
430.62	19.707
430.98	21.178
431.33	21.451
431.68	21.036
432.04	21.800
432.39	21.221
432.74	20.505
433.10	21.724
433.45	21.505
433.80	21.358
434.16	20.997
434.51	21.452
434.86	22.474
435.22	21.817
435.57	22.208
435.92	22.216
436.28	21.407
436.63	22.362
436.98	21.669
437.34	22.505
437.69	23.554
438.04	22.849
438.39	20.892
438.75	22.526
439.10	22.864
439.45	23.068
439.81	22.508
440.16	23.397
440.51	23.642
440.86	23.927
441.22	23.020
441.57	22.958
441.92	23.505
442.27	24.335
442.63	23.180
442.98	24.354
443.33	23.261
443.68	23.130
444.03	23.696
444.39	23.561
444.74	24.526
445.09	24.220
445.44	23.248
445.79	24.497
446.15	24.284
446.50	23.627
446.85	23.061
447.20	23.879
447.55	24.386
447.91	24.422
448.26	24.758
448.61	24.064
448.96	23.810
449.31	24.740
449.66	23.751
450.02	24.586
450.37	24.541
450.72	24.513
451.07	24.494
451.42	24.345
451.77	23.990
452.12	23.325
452.47	23.632
452.83	23.263
453.18	25.237
453.53	23.641
453.88	24.408
454.23	24.462
454.58	26.008
454.93	25.515
455.28	23.556
455.63	24.427
455.98	24.835
456.34	25.543
456.69	24.905
457.04	25.520
457.39	25.152
457.74	25.393
458.09	23.896
458.44	24.225
458.79	24.146
459.14	25.686
459.49	25.731
459.84	24.929
460.19	25.061
460.54	25.183
460.89	25.852
461.24	25.404
461.59	25.297
461.94	24.717
462.29	25.452
462.64	25.781
462.99	25.863
463.34	25.522
463.69	25.161
464.04	26.392
464.39	26.016
464.74	25.092
465.09	25.577
465.44	26.428
465.79	25.000
466.14	26.910
466.49	25.934
466.84	25.045
467.19	26.033
467.54	25.926
467.89	26.469
468.24	26.034
468.59	26.349
468.94	25.524
469.29	26.689
469.64	26.521
469.99	27.120
470.34	26.758
470.68	27.517
471.03	27.530
471.38	26.748
471.73	27.311
472.08	26.391
472.43	27.047
472.78	25.428
473.13	27.211
473.48	26.580
473.83	25.841
474.17	27.591
474.52	26.803
474.87	26.970
475.22	26.602
475.57	26.539
475.92	26.275
476.27	27.474
476.61	27.604
476.96	25.878
477.31	27.366
477.66	27.303
478.01	26.951
478.36	26.797
478.70	27.297
479.05	26.978
479.40	27.027
479.75	26.903
480.10	27.087
480.45	28.250
480.79	27.795
481.14	28.432
481.49	26.502
481.84	27.654
482.19	27.081
482.53	27.866
482.88	26.969
483.23	27.063
483.58	26.887
483.92	27.590
484.27	27.211
484.62	26.535
484.97	27.695
485.31	26.879
485.66	26.222
486.01	26.144
486.36	25.872
486.70	26.234
487.05	27.049
487.40	27.275
487.75	27.324
488.09	27.040
488.44	26.788
488.79	27.157
489.13	26.843
489.48	27.790
489.83	27.803
490.17	27.685
490.52	27.483
490.87	28.135
491.22	27.937
491.56	27.372
491.91	27.677
492.26	29.120
492.60	28.119
492.95	28.824
493.30	27.504
493.64	27.849
493.99	27.874
494.34	27.524
494.68	27.905
495.03	28.175
495.37	28.263
495.72	28.470
496.07	28.585
496.41	28.208
496.76	28.374
497.11	28.039
497.45	28.353
497.80	28.456
498.14	28.713
498.49	28.238
498.84	28.343
499.18	29.568
499.53	28.323
499.87	29.037
500.22	28.239
500.56	28.896
500.91	28.815
501.26	29.115
501.60	28.874
501.95	28.675
502.29	28.717
502.64	29.151
502.98	28.762
503.33	27.714
503.67	28.675
504.02	28.983
504.36	28.847
504.71	29.646
505.06	29.089
505.40	29.188
505.75	30.052
506.09	29.904
506.44	30.390
506.78	29.796
507.13	30.196
507.47	28.877
507.82	27.831
508.16	30.534
508.51	30.850
508.85	29.932
509.19	29.377
509.54	30.563
509.88	29.018
510.23	30.178
510.57	30.893
510.92	29.904
511.26	31.369
511.61	31.298
511.95	30.630
512.30	30.377
512.64	31.219
512.98	30.320
513.33	31.002
513.67	30.870
514.02	31.808
514.36	31.543
514.70	31.410
515.05	31.551
515.39	31.582
515.74	32.814
516.08	30.962
516.42	31.743
516.77	32.768
517.11	32.226
517.46	32.077
517.80	32.241
518.14	32.762
518.49	32.332
518.83	32.564
519.17	31.110
519.52	31.261
519.86	31.032
520.20	32.442
520.55	32.770
520.89	33.312
521.23	32.046
521.58	33.628
521.92	32.756
522.26	32.075
522.61	33.312
522.95	34.172
523.29	33.227
523.64	32.529
523.98	34.478
524.32	33.570
524.66	32.650
525.01	33.961
525.35	33.441
525.69	32.929
526.04	33.730
526.38	34.047
526.72	33.094
527.06	34.436
527.41	34.367
527.75	32.306
528.09	33.621
528.43	34.909
528.78	34.917
529.12	33.226
529.46	33.918
529.80	32.552
530.15	34.719
530.49	35.152
530.83	34.747
531.17	32.774
531.51	34.542
531.86	34.126
532.20	34.795
532.54	33.764
532.88	33.881
533.22	33.333
533.57	32.896
533.91	33.877
534.25	34.505
534.59	33.547
534.93	32.851
535.27	32.614
535.62	34.349
535.96	33.855
536.30	35.026
536.64	35.217
536.98	34.634
537.32	34.211
537.66	34.502
538.01	35.594
538.35	34.050
538.69	33.489
539.03	32.946
539.37	34.859
539.71	34.219
540.05	34.963
540.39	34.211
540.73	34.379
541.07	34.254
541.42	34.409
541.76	34.274
542.10	33.586
542.44	33.773
542.78	32.553
543.12	34.821
543.46	34.840
543.80	33.865
544.14	33.044
544.48	34.310
544.82	33.903
545.16	35.178
545.50	34.446
545.84	34.065
546.18	33.404
546.52	35.184
546.86	34.292
547.20	35.336
547.54	33.640
547.88	35.054
548.22	33.728
548.56	34.631
548.90	35.310
549.24	34.986
549.58	34.697
549.92	33.738
550.26	34.725
550.60	36.208
550.94	35.624
551.28	35.162
551.62	35.538
551.96	36.241
552.30	34.795
552.64	34.203
552.98	35.513
553.32	35.164
553.66	35.051
554.00	36.423
554.34	35.672
554.68	35.177
555.02	35.863
555.36	35.602
555.69	34.872
556.03	35.118
556.37	35.730
556.71	34.224
557.05	35.794
557.39	35.093
557.73	35.757
558.07	35.596
558.41	36.217
558.75	35.386
559.08	36.091
559.42	34.921
559.76	36.509
560.10	35.627
560.44	34.550
560.78	34.825
561.12	35.896
561.45	35.840
561.79	35.434
562.13	36.196
562.47	35.252
562.81	35.447
563.15	36.107
563.48	35.926
563.82	35.964
564.16	36.003
564.50	35.338
564.84	36.011
565.17	34.876
565.51	36.202
565.85	35.597
566.19	36.008
566.52	34.517
566.86	35.668
567.20	34.433
567.54	34.489
567.88	35.618
568.21	35.860
568.55	34.620
568.89	34.702
569.23	33.702
569.56	32.399
569.90	33.739
570.24	32.750
570.57	33.891
570.91	32.520
571.25	32.720
571.59	32.264
571.92	31.733
572.26	31.824
572.60	32.093
572.93	32.099
573.27	31.724
573.61	31.683
573.95	31.868
574.28	31.515
574.62	31.579
574.96	30.641
575.29	31.171
575.63	30.967
575.97	31.201
576.30	31.459
576.64	30.808
576.98	31.763
577.31	31.334
577.65	31.995
577.98	31.445
578.32	31.199
578.66	30.797
578.99	31.001
579.33	31.227
579.67	30.709
580.00	31.241
580.34	30.871
580.67	31.256
581.01	31.628
581.35	30.965
581.68	30.978
582.02	31.345
582.35	31.736
582.69	31.593
583.02	31.510
583.36	31.488
583.70	32.243
584.03	32.416
584.37	33.202
584.70	31.731
585.04	31.762
585.37	32.064
585.71	31.844
586.04	31.442
586.38	32.009
586.72	31.937
587.05	33.102
587.39	33.100
587.72	32.695
588.06	32.549
588.39	32.469
588.73	32.631
589.06	33.659
589.40	33.218
589.73	33.625
590.07	33.761
590.40	33.475
590.73	34.596
591.07	33.333
591.40	33.704
591.74	33.710
592.07	34.416
592.41	33.878
592.74	33.174
593.08	32.099
593.41	33.311
593.75	33.333
594.08	32.269
594.41	32.824
594.75	33.282
595.08	33.712
595.42	33.714
595.75	33.947
596.09	33.894
596.42	34.105
596.75	35.124
597.09	33.713
597.42	34.237
597.75	34.127
598.09	33.997
598.42	33.168
598.76	33.462
599.09	33.934
599.42	33.763
599.76	33.973
600.09	34.050
600.42	33.510
600.76	32.801
601.09	33.473
601.42	33.412
601.76	33.227
602.09	33.292
602.42	34.162
602.76	33.956
603.09	34.468
603.42	34.699
603.76	33.508
604.09	33.941
604.42	33.841
604.76	35.113
605.09	33.729
605.42	34.312
605.75	33.187
606.09	33.503
606.42	33.278
606.75	33.463
607.09	33.670
607.42	33.673
607.75	32.904
608.08	33.243
608.42	33.074
608.75	34.024
609.08	34.978
609.41	35.482
609.75	34.677
610.08	34.748
610.41	34.300
610.74	35.154
611.07	34.367
611.41	34.665
611.74	35.021
612.07	34.315
612.40	35.667
612.73	34.407
613.07	33.633
613.40	34.245
613.73	34.975
614.06	35.170
614.39	35.195
614.72	34.678
615.06	34.469
615.39	33.897
615.72	34.553
616.05	34.358
616.38	33.789
616.71	35.046
617.05	35.330
617.38	35.387
617.71	35.346
618.04	35.746
618.37	35.309
618.70	35.974
619.03	37.639
619.36	35.022
619.69	36.467
620.03	37.400
620.36	36.481
620.69	36.831
621.02	37.080
621.35	38.257
621.68	37.075
622.01	37.333
622.34	37.670
622.67	36.830
623.00	37.136
623.33	36.738
623.66	36.500
623.99	36.838
624.32	37.338
624.65	36.541
624.99	38.224
625.32	36.619
625.65	37.235
625.98	37.470
626.31	36.492
626.64	37.695
626.97	38.569
627.30	38.091
627.63	36.568
627.96	39.084
628.29	38.020
628.62	38.446
628.95	37.375
629.28	38.810
629.61	38.485
629.94	37.537
630.26	37.846
630.59	39.126
630.92	39.590
631.25	38.769
631.58	40.419
631.91	38.706
632.24	39.908
632.57	40.114
632.90	41.281
633.23	38.824
633.56	40.680
633.89	37.731
634.22	41.852
634.55	38.374
634.88	39.080
635.20	39.359
635.53	41.733
635.86	39.142
636.19	40.362
636.52	39.413
636.85	39.950
637.18	39.245
637.51	40.629
637.83	38.502
638.16	40.928
638.49	41.008
638.82	41.316
