SpectraSuite Data File
++++++++++++++++++++++++++++++++++++
Date: Fri May 15 20:04:51 PDT 2015
User: schluterlab
Dark Spectrum Present: Yes
Reference Spectrum Present: Yes
Number of Sampled Component Spectra: 1
Spectrometers: USB2E3373
Integration Time (usec): 3000 (USB2E3373)
Spectra Averaged: 3 (USB2E3373)
Boxcar Smoothing: 0 (USB2E3373)
Correct for Electrical Dark: No (USB2E3373)
Strobe/Lamp Enabled: No (USB2E3373)
Correct for Detector Non-linearity: No (USB2E3373)
Correct for Stray Light: No (USB2E3373)
Number of Pixels in Processed Spectrum: 2048
>>>>>Begin Processed Spectral Data<<<<<
178.53	0.000
178.91	0.000
179.29	125.000
179.67	-900.000
180.04	157.143
180.42	25.000
180.80	100.000
181.18	166.667
181.56	450.000
181.94	150.000
182.31	-200.000
182.69	60.000
183.07	-333.333
183.45	-40.000
183.83	66.667
184.20	-54.545
184.58	155.556
184.96	-100.000
185.34	-200.000
185.72	-250.000
186.09	61.538
186.47	-700.000
186.85	250.000
187.23	88.889
187.61	-100.000
187.98	0.000
188.36	22.222
188.74	-400.000
189.12	-11.765
189.49	38.889
189.87	0.000
190.25	35.714
190.63	600.000
191.00	-166.667
191.38	21.053
191.76	300.000
192.14	225.000
192.51	250.000
192.89	-11.111
193.27	-42.857
193.65	200.000
194.02	54.545
194.40	10.000
194.78	-100.000
195.15	-41.667
195.53	-87.500
195.91	100.000
196.29	0.000
196.66	69.231
197.04	14.286
197.42	0.000
197.79	-166.667
198.17	-38.462
198.55	400.000
198.92	-533.333
199.30	-200.000
199.68	-160.000
200.05	-166.667
200.43	0.000
200.81	-166.667
201.18	166.667
201.56	700.000
201.94	-50.000
202.31	-100.000
202.69	-100.000
203.07	300.000
203.44	600.000
203.82	0.000
204.19	57.143
204.57	-233.333
204.95	50.000
205.32	80.000
205.70	0.000
206.08	-25.000
206.45	166.667
206.83	100.000
207.20	-157.143
207.58	100.000
207.96	-266.667
208.33	-60.000
208.71	-175.000
209.08	-66.667
209.46	100.000
209.84	-40.000
210.21	-1500.000
210.59	-114.286
210.96	183.333
211.34	25.000
211.71	26.667
212.09	-71.429
212.46	-1600.000
212.84	0.000
213.22	100.000
213.59	-100.000
213.97	7.692
214.34	90.909
214.72	-133.333
215.09	350.000
215.47	-30.769
215.84	-54.545
216.22	-200.000
216.59	-50.000
216.97	-150.000
217.34	125.000
217.72	-100.000
218.09	37.500
218.47	100.000
218.84	-500.000
219.22	0.000
219.59	-60.000
219.97	400.000
220.34	200.000
220.72	-157.143
221.09	0.000
221.47	200.000
221.84	-500.000
222.22	-550.000
222.59	27.273
222.97	0.000
223.34	-166.667
223.72	-21.429
224.09	9.524
224.46	35.714
224.84	300.000
225.21	30.000
225.59	-20.000
225.96	350.000
226.34	100.000
226.71	-171.429
227.08	66.667
227.46	137.500
227.83	150.000
228.21	22.222
228.58	-54.545
228.95	-25.000
229.33	60.000
229.70	31.250
230.08	-125.000
230.45	-171.429
230.82	100.000
231.20	6.667
231.57	0.000
231.95	28.571
232.32	-100.000
232.69	-35.714
233.07	-100.000
233.44	0.000
233.81	-80.000
234.19	11.111
234.56	-41.176
234.93	500.000
235.31	-125.000
235.68	-300.000
236.05	-46.154
236.43	-40.000
236.80	-11.765
237.17	25.000
237.55	-25.000
237.92	0.000
238.29	-11.111
238.67	10.000
239.04	0.000
239.41	-24.390
239.79	-13.333
240.16	2.439
240.53	-2.632
240.91	-21.739
241.28	9.524
241.65	-7.143
242.02	15.068
242.40	8.333
242.77	-6.780
243.14	-21.212
243.51	-5.000
243.89	10.345
244.26	1.149
244.63	-1.190
245.00	2.062
245.38	2.062
245.75	-5.618
246.12	-0.862
246.49	0.826
246.87	-0.962
247.24	-9.244
247.61	-14.035
247.98	-11.382
248.36	-1.875
248.73	-2.632
249.10	-1.299
249.47	1.899
249.84	-0.654
250.22	-2.353
250.59	4.575
250.96	2.347
251.33	-8.140
251.70	-0.588
252.08	-2.030
252.45	-2.970
252.82	-1.508
253.19	1.382
253.56	-3.271
253.94	4.955
254.31	0.000
254.68	5.702
255.05	0.787
255.42	-1.310
255.79	0.386
256.16	0.778
256.54	2.612
256.91	0.000
257.28	-0.372
257.65	0.375
258.02	-1.418
258.39	0.337
258.76	1.832
259.14	-0.332
259.51	-0.324
259.88	-0.687
260.25	1.961
260.62	-1.389
260.99	-2.712
261.36	-4.110
261.73	-0.633
262.10	-0.304
262.47	-1.840
262.85	-1.254
263.22	-0.615
263.59	-0.312
263.96	1.553
264.33	-0.606
264.70	-2.083
265.07	-2.083
265.44	2.266
265.81	0.000
266.18	-0.273
266.55	3.342
266.92	1.813
267.29	0.261
267.66	-1.535
268.03	-0.524
268.40	-3.394
268.77	2.139
269.14	0.240
269.51	1.542
269.88	-0.998
270.25	-1.531
270.62	-0.976
270.99	-2.813
271.36	-1.711
271.73	-0.704
272.10	-1.460
272.47	-0.236
272.84	0.248
273.21	-0.696
273.58	0.723
273.95	-0.229
274.32	-1.155
274.69	-2.036
275.06	1.116
275.43	-2.041
275.80	-0.442
276.17	-2.989
276.54	-1.285
276.91	0.219
277.28	-2.402
277.65	1.860
278.02	2.553
278.39	-0.219
278.76	-1.468
279.13	-1.452
279.50	2.941
279.87	-0.216
280.23	-0.645
280.60	0.975
280.97	0.404
281.34	-1.731
281.71	1.848
282.08	-1.227
282.45	-1.566
282.82	0.193
283.19	-0.967
283.56	0.963
283.92	-2.657
284.29	0.192
284.66	-1.357
285.03	-0.982
285.40	-1.323
285.77	-3.515
286.14	-0.722
286.51	-1.845
286.87	-0.366
287.24	-0.552
287.61	0.176
287.98	1.053
288.35	-1.733
288.72	-0.175
289.08	-0.694
289.45	1.582
289.82	0.175
290.19	-1.024
290.56	-0.686
290.93	-1.178
291.29	-1.079
291.66	0.787
292.03	-0.478
292.40	0.645
292.77	0.638
293.13	-1.299
293.50	-0.910
293.87	2.443
294.24	0.618
294.60	1.192
294.97	0.149
295.34	0.460
295.71	0.447
296.08	-0.598
296.44	-0.711
296.81	0.833
297.18	0.145
297.55	2.575
297.91	-0.137
298.28	1.847
298.65	-0.678
299.02	0.674
299.38	-2.873
299.75	-1.103
300.12	0.654
300.48	-2.372
300.85	-0.887
301.22	-0.649
301.59	-0.263
301.95	0.127
302.32	0.519
302.69	0.249
303.05	-0.866
303.42	1.619
303.79	0.467
304.15	1.314
304.52	-0.832
304.89	-0.351
305.25	0.363
305.62	-1.517
305.99	-1.053
306.35	-0.462
306.72	-0.787
307.09	0.342
307.45	-0.574
307.82	-1.157
308.19	-0.697
308.55	-0.109
308.92	0.763
309.29	-0.335
309.65	-0.215
310.02	0.440
310.38	0.549
310.75	0.437
311.12	0.861
311.48	0.530
311.85	-0.314
312.22	0.000
312.58	0.106
312.95	-0.320
313.31	-0.414
313.68	-0.942
314.05	0.000
314.41	0.928
314.78	-0.412
315.14	-0.103
315.51	0.621
315.87	-0.717
316.24	1.314
316.61	0.984
316.97	0.000
317.34	0.098
317.70	-0.191
318.07	-0.288
318.43	0.784
318.80	0.473
319.16	1.074
319.53	1.899
319.89	0.197
320.26	-0.405
320.62	0.802
320.99	-0.313
321.35	0.822
321.72	0.623
322.08	1.007
322.45	0.305
322.81	0.295
323.18	0.589
323.54	-0.290
323.91	0.487
324.27	0.391
324.64	0.749
325.00	1.916
325.37	1.561
325.73	0.453
326.10	0.272
326.46	1.435
326.83	0.875
327.19	1.046
327.56	1.651
327.92	1.937
328.29	0.714
328.65	0.943
329.01	2.022
329.38	0.829
329.74	0.850
330.11	1.297
330.47	0.464
330.84	0.192
331.20	1.711
331.56	0.185
331.93	1.096
332.29	1.375
332.66	1.357
333.02	2.138
333.38	0.550
333.75	1.740
334.11	0.358
334.48	0.907
334.84	1.557
335.20	0.915
335.57	0.363
335.93	2.349
336.29	1.289
336.66	0.817
337.02	0.186
337.38	0.926
337.75	0.636
338.11	1.443
338.47	0.639
338.84	1.017
339.20	1.463
339.56	1.101
339.93	1.611
340.29	0.275
340.65	1.523
341.02	1.152
341.38	0.442
341.74	0.530
342.11	0.520
342.47	0.801
342.83	1.298
343.20	0.087
343.56	0.870
343.92	0.974
344.28	1.537
344.65	0.518
345.01	0.346
345.37	0.673
345.73	1.841
346.10	0.777
346.46	1.262
346.82	1.718
347.19	-0.166
347.55	0.418
347.91	1.375
348.27	1.617
348.63	1.363
349.00	0.000
349.36	0.831
349.72	1.244
350.08	1.230
350.45	1.756
350.81	0.332
351.17	0.489
351.53	1.878
351.89	0.661
352.26	1.040
352.62	0.565
352.98	1.526
353.34	0.644
353.70	1.780
354.07	1.452
354.43	1.521
354.79	0.991
355.15	2.381
355.51	1.503
355.87	0.566
356.24	-0.163
356.60	0.566
356.96	1.508
357.32	1.438
357.68	0.782
358.04	0.485
358.40	0.643
358.77	1.435
359.13	1.121
359.49	1.156
359.85	1.560
360.21	0.877
360.57	1.071
360.93	1.891
361.29	0.227
361.66	1.254
362.02	1.061
362.38	0.838
362.74	0.606
363.10	0.828
363.46	0.445
363.82	1.728
364.18	1.181
364.54	1.176
364.90	0.573
365.26	1.092
365.62	2.044
365.98	1.466
366.35	2.185
366.71	1.256
367.07	1.524
367.43	0.647
367.79	1.060
368.15	2.154
368.51	1.020
368.87	0.790
369.23	0.433
369.59	1.239
369.95	1.833
370.31	1.373
370.67	1.045
371.03	0.896
371.39	1.240
371.75	1.245
372.11	1.141
372.47	1.257
372.83	1.703
373.19	3.138
373.55	1.083
373.91	1.512
374.27	1.914
374.63	1.795
374.99	1.277
375.35	1.323
375.71	1.888
376.07	1.194
376.42	1.905
376.78	1.611
377.14	1.693
377.50	1.394
377.86	1.539
378.22	0.957
378.58	1.538
378.94	0.630
379.30	2.183
379.66	1.442
380.02	0.858
380.38	1.035
380.74	2.454
381.09	2.577
381.45	1.468
381.81	2.283
382.17	1.015
382.53	1.187
382.89	1.067
383.25	1.991
383.61	2.500
383.97	0.635
384.32	2.439
384.68	1.981
385.04	1.532
385.40	0.996
385.76	2.138
386.12	2.264
386.48	2.171
386.83	1.522
387.19	2.930
387.55	2.321
387.91	2.262
388.27	1.954
388.62	2.706
388.98	2.701
389.34	3.123
389.70	2.237
390.06	1.888
390.42	2.008
390.77	1.831
391.13	2.081
391.49	2.458
391.85	2.144
392.20	2.197
392.56	2.289
392.92	2.760
393.28	2.182
393.64	2.222
393.99	3.135
394.35	1.645
394.71	2.810
395.07	2.703
395.42	2.550
395.78	2.541
396.14	2.900
396.50	2.473
396.85	2.318
397.21	2.694
397.57	3.072
397.92	2.876
398.28	3.333
398.64	2.470
399.00	3.612
399.35	2.596
399.71	2.929
400.07	2.660
400.42	2.815
400.78	2.572
401.14	3.206
401.49	3.097
401.85	2.803
402.21	2.530
402.57	3.375
402.92	2.509
403.28	3.070
403.63	2.585
403.99	2.679
404.35	3.061
404.70	2.202
405.06	2.820
405.42	2.300
405.77	2.324
406.13	3.143
406.49	2.901
406.84	3.117
407.20	2.950
407.55	2.511
407.91	2.741
408.27	2.167
408.62	2.954
408.98	3.327
409.34	3.594
409.69	2.584
410.05	3.079
410.40	2.963
410.76	3.076
411.11	2.812
411.47	2.827
411.83	2.323
412.18	2.767
412.54	3.870
412.89	2.525
413.25	3.189
413.60	2.609
413.96	3.129
414.31	3.537
414.67	2.951
415.03	3.462
415.38	3.264
415.74	3.583
416.09	4.050
416.45	3.444
416.80	3.503
417.16	3.177
417.51	3.864
417.87	2.999
418.22	3.627
418.58	3.278
418.93	3.762
419.29	3.201
419.64	2.657
420.00	3.715
420.35	2.866
420.71	3.767
421.06	3.131
421.42	3.966
421.77	3.121
422.12	3.519
422.48	3.411
422.83	3.712
423.19	3.612
423.54	2.410
423.90	3.180
424.25	3.330
424.61	3.611
424.96	2.671
425.31	3.697
425.67	3.286
426.02	3.946
426.38	3.694
426.73	3.571
427.09	3.797
427.44	4.353
427.79	3.359
428.15	4.248
428.50	3.634
428.85	2.211
429.21	3.848
429.56	3.127
429.92	3.544
430.27	3.960
430.62	3.607
430.98	3.503
431.33	4.101
431.68	4.186
432.04	3.242
432.39	3.708
432.74	3.187
433.10	4.195
433.45	3.286
433.80	3.540
434.16	2.770
434.51	4.301
434.86	3.484
435.22	3.758
435.57	3.743
435.92	3.952
436.28	3.280
436.63	3.480
436.98	2.897
437.34	2.541
437.69	3.280
438.04	3.305
438.39	3.665
438.75	3.582
439.10	3.622
439.45	3.713
439.81	2.997
440.16	3.563
440.51	4.418
440.86	3.988
441.22	4.072
441.57	3.201
441.92	3.778
442.27	2.993
442.63	4.069
442.98	3.848
443.33	3.339
443.68	3.501
444.03	4.421
444.39	4.181
444.74	4.125
445.09	4.120
445.44	3.761
445.79	4.332
446.15	3.634
446.50	3.161
446.85	3.719
447.20	3.910
447.55	4.129
447.91	3.723
448.26	4.382
448.61	4.548
448.96	4.360
449.31	3.757
449.66	3.833
450.02	3.822
450.37	3.082
450.72	4.353
451.07	4.430
451.42	3.620
451.77	4.702
452.12	3.170
452.47	4.250
452.83	3.828
453.18	4.175
453.53	4.172
453.88	3.643
454.23	3.565
454.58	4.597
454.93	4.188
455.28	3.429
455.63	4.340
455.98	3.909
456.34	4.534
456.69	4.320
457.04	4.600
457.39	3.584
457.74	3.930
458.09	3.296
458.44	3.803
458.79	4.146
459.14	5.206
459.49	4.478
459.84	4.399
460.19	3.762
460.54	4.523
460.89	4.830
461.24	4.037
461.59	4.869
461.94	3.962
462.29	4.282
462.64	4.186
462.99	3.859
463.34	3.825
463.69	4.183
464.04	4.419
464.39	4.124
464.74	4.233
465.09	4.242
465.44	5.136
465.79	4.195
466.14	4.447
466.49	3.508
466.84	4.819
467.19	5.382
467.54	4.534
467.89	3.980
468.24	3.954
468.59	4.000
468.94	4.063
469.29	4.590
469.64	4.990
469.99	4.765
470.34	3.823
470.68	5.220
471.03	5.166
471.38	4.208
471.73	4.972
472.08	3.392
472.43	3.423
472.78	3.701
473.13	4.082
473.48	4.691
473.83	4.359
474.17	4.922
474.52	4.595
474.87	4.242
475.22	4.576
475.57	4.291
475.92	4.553
476.27	4.773
476.61	4.803
476.96	4.016
477.31	4.381
477.66	4.157
478.01	3.706
478.36	4.793
478.70	4.731
479.05	5.385
479.40	4.346
479.75	4.432
480.10	4.659
480.45	4.250
480.79	4.783
481.14	4.355
481.49	4.187
481.84	4.295
482.19	4.303
482.53	4.221
482.88	4.535
483.23	4.702
483.58	4.104
483.92	4.647
484.27	4.376
484.62	4.706
484.97	4.519
485.31	3.793
485.66	4.352
486.01	4.282
486.36	4.373
486.70	4.613
487.05	4.333
487.40	3.956
487.75	4.113
488.09	4.079
488.44	4.298
488.79	4.184
489.13	4.607
489.48	4.446
489.83	3.901
490.17	4.270
490.52	4.342
490.87	4.581
491.22	4.728
491.56	3.937
491.91	4.780
492.26	4.181
492.60	4.750
492.95	4.722
493.30	4.055
493.64	4.224
493.99	4.734
494.34	3.835
494.68	4.429
495.03	4.088
495.37	4.612
495.72	4.644
496.07	4.683
496.41	4.151
496.76	4.238
497.11	3.959
497.45	5.060
497.80	4.339
498.14	4.272
498.49	3.758
498.84	4.840
499.18	4.769
499.53	4.911
499.87	4.037
500.22	4.451
500.56	4.286
500.91	3.715
501.26	4.202
501.60	4.476
501.95	4.609
502.29	4.552
502.64	4.537
502.98	4.687
503.33	3.987
503.67	4.289
504.02	4.203
504.36	5.195
504.71	4.040
505.06	4.529
505.40	4.213
505.75	4.588
506.09	3.953
506.44	4.979
506.78	5.051
507.13	5.377
507.47	4.178
507.82	4.220
508.16	4.754
508.51	4.460
508.85	4.448
509.19	4.364
509.54	4.558
509.88	3.937
510.23	4.088
510.57	4.650
510.92	4.264
511.26	4.528
511.61	3.575
511.95	4.877
512.30	4.047
512.64	4.897
512.98	4.323
513.33	4.813
513.67	4.889
514.02	5.034
514.36	4.743
514.70	4.662
515.05	4.877
515.39	4.841
515.74	4.970
516.08	4.782
516.42	4.358
516.77	4.681
517.11	4.510
517.46	4.728
517.80	5.244
518.14	4.776
518.49	4.207
518.83	4.192
519.17	4.184
519.52	4.737
519.86	3.842
520.20	4.678
520.55	3.815
520.89	6.148
521.23	4.180
521.58	6.246
521.92	4.936
522.26	4.619
522.61	4.740
522.95	4.834
523.29	5.273
523.64	5.337
523.98	5.055
524.32	4.059
524.66	4.738
525.01	5.260
525.35	5.444
525.69	4.781
526.04	4.431
526.38	6.420
526.72	5.428
527.06	4.799
527.41	5.739
527.75	4.692
528.09	4.252
528.43	5.199
528.78	4.554
529.12	4.839
529.46	4.873
529.80	5.193
530.15	5.215
530.49	4.444
530.83	4.172
531.17	5.171
531.51	5.130
531.86	4.895
532.20	4.106
532.54	4.629
532.88	5.681
533.22	4.503
533.57	4.653
533.91	3.982
534.25	5.078
534.59	4.811
534.93	4.720
535.27	4.315
535.62	3.759
535.96	5.479
536.30	5.409
536.64	4.824
536.98	4.739
537.32	5.121
537.66	5.540
538.01	4.476
538.35	5.132
538.69	4.527
539.03	4.716
539.37	5.249
539.71	5.112
540.05	5.092
540.39	4.640
540.73	4.393
541.07	4.903
541.42	6.183
541.76	5.162
542.10	4.267
542.44	5.281
542.78	3.441
543.12	4.396
543.46	5.981
543.80	5.205
544.14	4.406
544.48	4.464
544.82	4.716
545.16	6.079
545.50	6.008
545.84	5.595
546.18	5.035
546.52	5.047
546.86	4.817
547.20	4.936
547.54	3.958
547.88	5.163
548.22	4.011
548.56	4.947
548.90	5.795
549.24	4.752
549.58	5.360
549.92	4.718
550.26	5.641
550.60	5.651
550.94	5.078
551.28	4.328
551.62	4.231
551.96	4.887
552.30	4.825
552.64	4.795
552.98	5.345
553.32	5.492
553.66	4.282
554.00	4.380
554.34	5.465
554.68	4.646
555.02	5.283
555.36	3.665
555.69	4.029
556.03	4.854
556.37	4.982
556.71	4.621
557.05	4.623
557.39	4.089
557.73	4.123
558.07	5.430
558.41	4.211
558.75	4.910
559.08	4.413
559.42	4.048
559.76	3.923
560.10	4.511
560.44	4.095
560.78	5.664
561.12	4.302
561.45	5.411
561.79	4.902
562.13	4.968
562.47	4.029
562.81	4.395
563.15	4.937
563.48	5.941
563.82	5.628
564.16	4.318
564.50	4.189
564.84	5.154
565.17	4.762
565.51	5.191
565.85	3.978
566.19	4.973
566.52	4.759
566.86	5.077
567.20	4.359
567.54	4.015
567.88	4.862
568.21	4.751
568.55	4.728
568.89	4.979
569.23	4.911
569.56	4.422
569.90	4.507
570.24	5.061
570.57	4.655
570.91	4.984
571.25	4.242
571.59	4.391
571.92	4.711
572.26	4.378
572.60	4.744
572.93	4.393
573.27	4.295
573.61	4.027
573.95	4.260
574.28	4.582
574.62	4.297
574.96	4.887
575.29	4.493
575.63	4.224
575.97	4.120
576.30	4.217
576.64	4.185
576.98	4.710
577.31	4.497
577.65	4.381
577.98	4.713
578.32	4.275
578.66	4.341
578.99	4.633
579.33	4.372
579.67	4.138
580.00	4.456
580.34	4.453
580.67	4.525
581.01	4.611
581.35	4.522
581.68	4.428
582.02	4.460
582.35	4.271
582.69	4.499
583.02	4.443
583.36	4.566
583.70	4.699
584.03	4.726
584.37	4.489
584.70	4.396
585.04	4.067
585.37	4.644
585.71	4.320
586.04	4.362
586.38	4.401
586.72	4.505
587.05	4.882
587.39	4.669
587.72	4.893
588.06	4.373
588.39	4.472
588.73	4.304
589.06	4.762
589.40	4.736
589.73	5.367
590.07	4.569
590.40	4.605
590.73	4.901
591.07	4.198
591.40	4.141
591.74	4.525
592.07	4.917
592.41	5.168
592.74	4.739
593.08	4.541
593.41	4.415
593.75	4.743
594.08	4.291
594.41	4.549
594.75	4.160
595.08	4.767
595.42	4.380
595.75	4.619
596.09	4.887
596.42	4.423
596.75	5.151
597.09	4.692
597.42	4.562
597.75	4.902
598.09	4.617
598.42	4.513
598.76	4.547
599.09	4.688
599.42	4.623
599.76	4.515
600.09	5.090
600.42	4.852
600.76	4.643
601.09	3.779
601.42	4.074
601.76	4.526
602.09	4.538
602.42	4.718
602.76	4.711
603.09	4.277
603.42	4.557
603.76	3.871
604.09	4.455
604.42	4.949
604.76	4.539
605.09	4.890
605.42	4.831
605.75	4.772
606.09	4.841
606.42	4.629
606.75	4.286
607.09	4.923
607.42	4.298
607.75	4.574
608.08	4.447
608.42	4.614
608.75	4.386
609.08	4.534
609.41	4.619
609.75	4.688
610.08	4.593
610.41	4.251
610.74	4.778
611.07	3.979
611.41	4.982
611.74	5.117
612.07	4.497
612.40	4.650
612.73	3.842
613.07	3.993
613.40	5.252
613.73	3.805
614.06	5.287
614.39	4.625
614.72	5.154
615.06	4.078
615.39	4.531
615.72	4.037
616.05	5.084
616.38	4.501
616.71	4.526
617.05	4.880
617.38	5.280
617.71	4.340
618.04	4.889
618.37	5.801
618.70	5.017
619.03	5.069
619.36	3.907
619.69	4.397
620.03	5.551
620.36	5.222
620.69	3.926
621.02	4.817
621.35	5.228
621.68	4.762
622.01	4.667
622.34	6.145
622.67	4.653
623.00	5.054
623.33	4.954
623.66	4.413
623.99	4.312
624.32	4.867
624.65	4.436
624.99	5.041
625.32	3.791
625.65	5.499
625.98	6.044
626.31	3.741
626.64	5.199
626.97	6.021
627.30	4.816
627.63	5.286
627.96	5.571
628.29	4.718
628.62	4.818
628.95	5.611
629.28	3.831
629.61	3.091
629.94	4.692
630.26	5.040
630.59	4.579
630.92	5.231
631.25	4.103
631.58	4.185
631.91	3.838
632.24	2.982
632.57	5.682
632.90	2.728
633.23	4.824
633.56	3.904
633.89	5.055
634.22	3.951
634.55	5.591
634.88	4.342
635.20	2.949
635.53	4.933
635.86	4.161
636.19	5.045
636.52	4.082
636.85	3.102
637.18	4.780
637.51	4.025
637.83	6.176
638.16	4.093
638.49	3.815
638.82	5.658
639.15	3.935
639.48	3.439
639.81	5.718
640.13	3.175
640.46	3.499
640.79	4.124
641.12	4.136
641.45	4.505
641.77	4.593
642.10	5.371
642.43	2.733
642.76	5.941
643.09	4.685
643.41	5.663
643.74	5.931
644.07	4.762
644.40	5.912
644.73	4.553
645.05	5.872
645.38	4.233
645.71	3.546
646.04	7.899
646.36	4.255
646.69	6.475
647.02	4.726
647.35	4.104
647.67	4.388
648.00	3.358
648.33	4.778
648.66	3.898
648.98	1.675
649.31	2.975
649.64	3.611
649.96	2.917
650.29	3.918
650.62	4.274
650.94	5.556
651.27	3.911
651.60	4.505
651.92	4.895
652.25	2.131
652.58	4.667
652.90	4.288
653.23	3.866
653.56	4.569
653.88	5.326
654.21	2.977
654.54	3.565
654.86	4.754
655.19	3.509
655.52	4.489
655.84	4.157
656.17	4.249
656.49	5.730
