SpectraSuite Data File
++++++++++++++++++++++++++++++++++++
Date: Fri May 15 17:11:33 PDT 2015
User: schluterlab
Dark Spectrum Present: Yes
Reference Spectrum Present: Yes
Number of Sampled Component Spectra: 1
Spectrometers: USB2E3373
Integration Time (usec): 3000 (USB2E3373)
Spectra Averaged: 3 (USB2E3373)
Boxcar Smoothing: 0 (USB2E3373)
Correct for Electrical Dark: No (USB2E3373)
Strobe/Lamp Enabled: No (USB2E3373)
Correct for Detector Non-linearity: No (USB2E3373)
Correct for Stray Light: No (USB2E3373)
Number of Pixels in Processed Spectrum: 2048
>>>>>Begin Processed Spectral Data<<<<<
178.53	0.000
178.91	0.000
179.29	87.500
179.67	-300.000
180.04	-100.000
180.42	325.000
180.80	900.000
181.18	-0.000
181.56	-100.000
181.94	-50.000
182.31	-0.000
182.69	60.000
183.07	66.667
183.45	-100.000
183.83	-0.000
184.20	-90.909
184.58	22.222
184.96	25.000
185.34	-266.667
185.72	50.000
186.09	100.000
186.47	-300.000
186.85	50.000
187.23	155.556
187.61	-900.000
187.98	-200.000
188.36	22.222
188.74	66.667
189.12	105.882
189.49	116.667
189.87	0.000
190.25	128.571
190.63	1100.000
191.00	-33.333
191.38	42.105
191.76	350.000
192.14	-300.000
192.51	550.000
192.89	0.000
193.27	14.286
193.65	133.333
194.02	118.182
194.40	70.000
194.78	-12.500
195.15	-58.333
195.53	-87.500
195.91	-0.000
196.29	-25.000
196.66	69.231
197.04	28.571
197.42	-88.889
197.79	-400.000
198.17	-92.308
198.55	900.000
198.92	33.333
199.30	0.000
199.68	40.000
200.05	-33.333
200.43	0.000
200.81	-133.333
201.18	-100.000
201.56	-0.000
201.94	50.000
202.31	33.333
202.69	-200.000
203.07	-125.000
203.44	600.000
203.82	0.000
204.19	42.857
204.57	-466.667
204.95	75.000
205.32	90.000
205.70	157.143
206.08	75.000
206.45	255.556
206.83	42.857
207.20	42.857
207.58	-0.000
207.96	133.333
208.33	-30.000
208.71	-150.000
209.08	-116.667
209.46	300.000
209.84	-60.000
210.21	-600.000
210.59	28.571
210.96	-16.667
211.34	-25.000
211.71	66.667
212.09	0.000
212.46	-1100.000
212.84	0.000
213.22	90.000
213.59	400.000
213.97	23.077
214.34	45.455
214.72	-116.667
215.09	75.000
215.47	76.923
215.84	9.091
216.22	-166.667
216.59	-50.000
216.97	400.000
217.34	0.000
217.72	-20.000
218.09	137.500
218.47	-12.500
218.84	-300.000
219.22	-33.333
219.59	60.000
219.97	333.333
220.34	175.000
220.72	-28.571
221.09	-75.000
221.47	300.000
221.84	-400.000
222.22	-100.000
222.59	118.182
222.97	33.333
223.34	66.667
223.72	85.714
224.09	23.810
224.46	10.714
224.84	466.667
225.21	-10.000
225.59	40.000
225.96	700.000
226.34	200.000
226.71	28.571
227.08	-66.667
227.46	12.500
227.83	-50.000
228.21	55.556
228.58	0.000
228.95	50.000
229.33	-30.000
229.70	106.250
230.08	-25.000
230.45	-114.286
230.82	200.000
231.20	-26.667
231.57	64.286
231.95	85.714
232.32	-30.000
232.69	50.000
233.07	-33.333
233.44	-20.000
233.81	0.000
234.19	44.444
234.56	17.647
234.93	-100.000
235.31	-100.000
235.68	-140.000
236.05	-61.538
236.43	-15.000
236.80	41.176
237.17	12.500
237.55	25.000
237.92	11.111
238.29	8.333
238.67	16.667
239.04	50.000
239.41	-19.512
239.79	-13.333
240.16	7.317
240.53	2.632
240.91	-4.348
241.28	14.286
241.65	-3.571
242.02	17.808
242.40	-5.000
242.77	1.695
243.14	15.152
243.51	3.750
243.89	9.195
244.26	6.897
244.63	14.286
245.00	13.402
245.38	9.278
245.75	-7.865
246.12	-0.862
246.49	6.612
246.87	6.731
247.24	-5.042
247.61	-6.140
247.98	-4.065
248.36	5.000
248.73	3.289
249.10	3.896
249.47	0.633
249.84	2.614
250.22	8.824
250.59	1.307
250.96	8.920
251.33	1.163
251.70	2.941
252.08	-7.107
252.45	-2.970
252.82	4.523
253.19	4.147
253.56	-3.271
253.94	6.757
254.31	4.783
254.68	4.386
255.05	4.331
255.42	3.057
255.79	1.544
256.16	2.724
256.54	6.716
256.91	2.281
257.28	2.230
257.65	-0.375
258.02	2.837
258.39	4.714
258.76	4.762
259.14	6.312
259.51	1.618
259.88	1.718
260.25	-0.327
260.62	0.347
260.99	-2.373
261.36	-2.055
261.73	-1.266
262.10	4.255
262.47	1.227
262.85	0.940
263.22	-1.231
263.59	2.181
263.96	3.106
264.33	-1.212
264.70	3.571
265.07	0.000
265.44	3.116
265.81	1.977
266.18	1.913
266.55	4.370
266.92	1.295
267.29	0.000
267.66	0.000
268.03	1.309
268.40	1.044
268.77	3.209
269.14	2.878
269.51	4.370
269.88	2.244
270.25	0.000
270.62	2.683
270.99	0.000
271.36	0.978
271.73	2.582
272.10	1.460
272.47	2.600
272.84	0.000
273.21	4.176
273.58	2.169
273.95	2.059
274.32	1.386
274.69	0.000
275.06	2.679
275.43	1.361
275.80	1.545
276.17	0.230
276.54	0.642
276.91	0.877
277.28	0.218
277.65	3.099
278.02	0.213
278.39	-1.094
278.76	3.774
279.13	-0.830
279.50	1.681
279.87	3.024
280.23	-0.645
280.60	3.899
280.97	2.424
281.34	1.923
281.71	5.133
282.08	-0.409
282.45	2.153
282.82	0.193
283.19	4.255
283.56	1.541
283.92	-0.380
284.29	0.385
284.66	-0.194
285.03	3.536
285.40	2.647
285.77	0.000
286.14	1.264
286.51	1.661
286.87	1.280
287.24	2.762
287.61	0.705
287.98	3.333
288.35	0.693
288.72	1.051
289.08	1.215
289.45	2.109
289.82	1.399
290.19	0.341
290.56	-0.858
290.93	0.000
291.29	0.616
291.66	1.417
292.03	0.478
292.40	2.097
292.77	0.797
293.13	0.812
293.50	-0.455
293.87	0.305
294.24	1.082
294.60	1.788
294.97	1.042
295.34	-0.460
295.71	1.192
296.08	0.598
296.44	-0.569
296.81	1.667
297.18	0.435
297.55	2.575
297.91	1.233
298.28	2.507
298.65	0.814
299.02	0.674
299.38	-0.821
299.75	1.655
300.12	0.524
300.48	0.527
300.85	1.394
301.22	0.649
301.59	0.921
301.95	2.025
302.32	2.075
302.69	1.493
303.05	0.495
303.42	1.370
303.79	1.168
304.15	2.389
304.52	-0.832
304.89	0.234
305.25	1.574
305.62	0.933
305.99	0.936
306.35	1.503
306.72	0.112
307.09	0.798
307.45	1.263
307.82	0.000
308.19	0.697
308.55	1.854
308.92	1.634
309.29	0.559
309.65	-0.323
310.02	0.880
310.38	1.756
310.75	0.437
311.12	1.399
311.48	0.954
311.85	0.838
312.22	-0.316
312.58	1.380
312.95	0.640
313.31	0.932
313.68	1.047
314.05	1.939
314.41	1.649
314.78	1.340
315.14	1.850
315.51	1.449
315.87	1.332
316.24	1.618
316.61	1.378
316.97	2.480
317.34	2.051
317.70	1.338
318.07	2.788
318.43	3.039
318.80	2.557
319.16	2.441
319.53	2.754
319.89	2.657
320.26	1.619
320.62	3.210
320.99	1.775
321.35	4.214
321.72	3.115
322.08	3.525
322.45	2.843
322.81	4.126
323.18	3.042
323.54	3.668
323.91	3.311
324.27	5.176
324.64	4.775
325.00	5.383
325.37	6.887
325.73	6.528
326.10	5.995
326.46	7.803
326.83	7.524
327.19	7.759
327.56	8.949
327.92	9.947
328.29	8.750
328.65	10.094
329.01	10.110
329.38	10.691
329.74	9.537
330.11	11.770
330.47	12.430
330.84	12.692
331.20	14.544
331.56	13.981
331.93	15.160
332.29	16.224
332.66	15.566
333.02	17.379
333.38	16.315
333.75	18.407
334.11	18.263
334.48	19.855
334.84	20.330
335.20	19.488
335.57	19.764
335.93	20.506
336.29	21.915
336.66	20.345
337.02	20.911
337.38	22.037
337.75	22.182
338.11	22.092
338.47	22.810
338.84	23.013
339.20	23.218
339.56	22.752
339.93	23.545
340.29	24.312
340.65	24.373
341.02	23.050
341.38	23.540
341.74	22.968
342.11	23.830
342.47	24.377
342.83	23.962
343.20	22.909
343.56	24.870
343.92	24.358
344.28	25.021
344.65	24.870
345.01	24.460
345.37	23.717
345.73	23.682
346.10	24.590
346.46	24.390
346.82	22.913
347.19	23.441
347.55	24.144
347.91	24.595
348.27	24.010
348.63	25.213
349.00	23.462
349.36	23.940
349.72	24.295
350.08	23.934
350.45	24.022
350.81	23.588
351.17	22.638
351.53	24.327
351.89	23.782
352.26	24.080
352.62	24.355
352.98	24.498
353.34	22.866
353.70	24.191
354.07	23.387
354.43	24.820
354.79	23.534
355.15	24.762
355.51	25.158
355.87	23.463
356.24	22.757
356.60	24.091
356.96	25.238
357.32	24.840
357.68	23.456
358.04	24.394
358.40	24.437
358.77	25.439
359.13	24.660
359.49	24.345
359.85	25.507
360.21	23.923
360.57	24.101
360.93	24.660
361.29	24.320
361.66	25.157
362.02	24.470
362.38	24.143
362.74	24.224
363.10	24.755
363.46	24.537
363.82	25.695
364.18	24.428
364.54	24.412
364.90	24.588
365.26	25.400
365.62	25.985
365.98	25.293
366.35	27.240
366.71	25.277
367.07	26.052
367.43	24.802
367.79	25.866
368.15	25.341
368.51	26.293
368.87	24.551
369.23	25.560
369.59	25.073
369.95	25.953
370.31	26.445
370.67	26.045
371.03	26.288
371.39	25.602
371.75	27.473
372.11	26.890
372.47	27.441
372.83	26.473
373.19	26.320
373.55	26.209
373.91	26.782
374.27	27.215
374.63	28.141
374.99	27.376
375.35	28.343
375.71	28.112
376.07	28.230
376.42	28.707
376.78	28.456
377.14	28.030
377.50	28.287
377.86	29.250
378.22	27.250
378.58	28.910
378.94	28.922
379.30	28.759
379.66	28.966
380.02	28.939
380.38	28.850
380.74	29.025
381.09	29.755
381.45	30.703
381.81	30.352
382.17	30.013
382.53	29.169
382.89	30.760
383.25	30.056
383.61	31.037
383.97	30.857
384.32	29.894
384.68	30.836
385.04	30.392
385.40	30.305
385.76	32.264
386.12	31.565
386.48	31.673
386.83	31.262
387.19	31.502
387.55	31.995
387.91	31.540
388.27	31.380
388.62	31.152
388.98	32.597
389.34	32.417
389.70	32.940
390.06	31.403
390.42	31.736
390.77	32.178
391.13	31.589
391.49	32.147
391.85	32.619
392.20	32.329
392.56	31.659
392.92	32.648
393.28	32.724
393.64	33.273
393.99	33.542
394.35	31.942
394.71	33.844
395.07	32.810
395.42	31.937
395.78	32.834
396.14	33.039
396.50	32.911
396.85	33.548
397.21	33.020
397.57	32.602
397.92	32.654
398.28	32.356
398.64	32.108
399.00	33.070
399.35	31.377
399.71	31.706
400.07	34.039
400.42	32.987
400.78	33.068
401.14	31.821
401.49	33.055
401.85	31.322
402.21	32.831
402.57	33.000
402.92	31.744
403.28	32.769
403.63	32.282
403.99	32.462
404.35	33.229
404.70	32.083
405.06	31.434
405.42	31.759
405.77	31.900
406.13	31.374
406.49	31.498
406.84	32.518
407.20	31.848
407.55	30.779
407.91	32.420
408.27	31.995
408.62	31.938
408.98	31.731
409.34	31.660
409.69	30.168
410.05	31.897
410.40	31.667
410.76	31.544
411.11	31.312
411.47	32.281
411.83	31.450
412.18	30.888
412.54	31.586
412.89	31.589
413.25	31.348
413.60	31.615
413.96	32.086
414.31	31.220
414.67	31.110
415.03	31.292
415.38	31.593
415.74	32.248
416.09	32.071
416.45	32.411
416.80	32.254
417.16	32.113
417.51	32.712
417.87	31.095
418.22	32.578
418.58	31.839
418.93	32.476
419.29	31.114
419.64	32.080
420.00	32.620
420.35	31.582
420.71	32.503
421.06	32.413
421.42	32.151
421.77	33.064
422.12	32.463
422.48	32.593
422.83	31.961
423.19	32.393
423.54	32.334
423.90	32.921
424.25	32.664
424.61	32.925
424.96	33.043
425.31	34.373
425.67	32.688
426.02	33.510
426.38	34.314
426.73	34.504
427.09	34.557
427.44	34.412
427.79	34.119
428.15	34.041
428.50	34.101
428.85	34.029
429.21	34.352
429.56	34.987
429.92	34.874
430.27	33.333
430.62	34.710
430.98	34.554
431.33	34.122
431.68	35.636
432.04	34.544
432.39	35.596
432.74	35.298
433.10	35.747
433.45	36.201
433.80	35.752
434.16	35.125
434.51	36.613
434.86	37.050
435.22	36.175
435.57	36.681
435.92	36.048
436.28	34.884
436.63	36.908
436.98	36.385
437.34	35.451
437.69	35.719
438.04	36.353
438.39	36.897
438.75	37.037
439.10	36.672
439.45	38.771
439.81	36.942
440.16	38.183
440.51	38.149
440.86	39.577
441.22	36.991
441.57	38.135
441.92	39.402
442.27	38.692
442.63	38.758
442.98	37.967
443.33	37.730
443.68	37.931
444.03	38.997
444.39	38.219
444.74	39.465
445.09	39.310
445.44	40.000
445.79	39.556
446.15	38.051
446.50	37.937
446.85	38.523
447.20	39.103
447.55	40.123
447.91	38.409
448.26	39.442
448.61	40.069
448.96	40.562
449.31	38.902
449.66	39.837
450.02	41.072
450.37	39.775
450.72	38.889
451.07	41.076
451.42	40.075
451.77	39.301
452.12	39.892
452.47	40.309
452.83	40.165
453.18	40.038
453.53	40.645
453.88	40.559
454.23	40.688
454.58	40.680
454.93	39.755
455.28	40.063
455.63	41.476
455.98	40.649
456.34	40.294
456.69	41.423
457.04	41.903
457.39	40.826
457.74	42.140
458.09	40.436
458.44	40.492
458.79	40.448
459.14	41.419
459.49	41.254
459.84	41.117
460.19	40.716
460.54	42.665
460.89	40.795
461.24	41.118
461.59	41.152
461.94	41.447
462.29	41.013
462.64	41.993
462.99	41.706
463.34	41.516
463.69	42.214
464.04	42.191
464.39	41.480
464.74	41.350
465.09	42.982
465.44	41.604
465.79	41.440
466.14	42.075
466.49	41.691
466.84	42.832
467.19	42.178
467.54	42.401
467.89	42.451
468.24	41.788
468.59	41.714
468.94	41.587
469.29	42.951
469.64	42.994
469.99	41.836
470.34	41.638
470.68	42.506
471.03	42.746
471.38	43.224
471.73	43.768
472.08	41.384
472.43	43.289
472.78	41.535
473.13	43.469
473.48	42.541
473.83	42.403
474.17	42.617
474.52	42.629
474.87	43.212
475.22	42.953
475.57	43.365
475.92	42.183
476.27	42.200
476.61	42.940
476.96	42.331
477.31	44.348
477.66	42.191
478.01	43.346
478.36	42.810
478.70	42.958
479.05	44.341
479.40	43.402
479.75	42.231
480.10	43.011
480.45	44.450
480.79	44.260
481.14	44.006
481.49	43.202
481.84	43.147
482.19	42.703
482.53	42.974
482.88	43.389
483.23	42.898
483.58	43.019
483.92	42.352
484.27	42.434
484.62	42.806
484.97	42.828
485.31	42.666
485.66	41.913
486.01	41.780
486.36	41.062
486.70	41.604
487.05	41.747
487.40	41.805
487.75	42.000
488.09	42.213
488.44	41.644
488.79	42.323
489.13	43.109
489.48	43.224
489.83	43.139
490.17	42.787
490.52	42.679
490.87	42.388
491.22	43.696
491.56	42.837
491.91	43.164
492.26	43.802
492.60	43.186
492.95	44.958
493.30	42.452
493.64	43.959
493.99	44.106
494.34	44.709
494.68	43.524
495.03	42.774
495.37	43.523
495.72	43.564
496.07	43.854
496.41	43.066
496.76	44.265
497.11	43.503
497.45	44.344
497.80	44.551
498.14	43.368
498.49	43.880
498.84	43.413
499.18	44.378
499.53	44.246
499.87	43.288
500.22	44.560
500.56	43.974
500.91	43.725
501.26	43.549
501.60	43.827
501.95	43.426
502.29	43.293
502.64	44.305
502.98	44.647
503.33	42.939
503.67	44.048
504.02	43.695
504.36	44.780
504.71	42.980
505.06	43.785
505.40	44.518
505.75	44.175
506.09	43.234
506.44	44.969
506.78	45.408
507.13	44.778
507.47	44.334
507.82	44.712
508.16	43.634
508.51	44.911
508.85	44.113
509.19	44.279
509.54	44.397
509.88	43.797
510.23	44.863
510.57	44.415
510.92	44.083
511.26	45.117
511.61	44.939
511.95	45.041
512.30	45.067
512.64	44.185
512.98	45.424
513.33	45.383
513.67	44.343
514.02	46.396
514.36	45.486
514.70	45.221
515.05	45.828
515.39	44.923
515.74	45.808
516.08	45.487
516.42	46.584
516.77	46.343
517.11	45.994
517.46	46.439
517.80	45.828
518.14	45.315
518.49	45.493
518.83	45.990
519.17	45.361
519.52	44.760
519.86	45.138
520.20	45.990
520.55	46.341
520.89	45.922
521.23	44.965
521.58	46.435
521.92	46.154
522.26	45.413
522.61	45.714
522.95	47.152
523.29	45.934
523.64	46.061
523.98	47.440
524.32	45.425
524.66	47.311
525.01	46.494
525.35	46.598
525.69	45.926
526.04	46.230
526.38	46.174
526.72	45.520
527.06	45.850
527.41	46.240
527.75	45.979
528.09	45.515
528.43	47.198
528.78	47.129
529.12	47.677
529.46	45.614
529.80	44.775
530.15	47.459
530.49	46.465
530.83	46.306
531.17	45.400
531.51	46.033
531.86	46.091
532.20	47.460
532.54	45.541
532.88	45.517
533.22	45.766
533.57	46.461
533.91	46.540
534.25	47.656
534.59	45.606
534.93	44.556
535.27	45.558
535.62	43.746
535.96	45.858
536.30	45.383
536.64	45.830
536.98	45.436
537.32	45.804
537.66	46.073
538.01	46.853
538.35	46.533
538.69	45.140
539.03	45.249
539.37	46.568
539.71	45.603
540.05	46.096
540.39	45.360
540.73	47.908
541.07	45.580
541.42	44.825
541.76	46.318
542.10	45.905
542.44	46.074
542.78	43.565
543.12	45.673
543.46	45.549
543.80	45.663
544.14	45.127
544.48	45.903
544.82	46.822
545.16	46.380
545.50	44.993
545.84	45.609
546.18	46.950
546.52	45.710
546.86	45.507
547.20	46.137
547.54	45.230
547.88	45.312
548.22	44.510
548.56	45.053
548.90	46.496
549.24	45.041
549.58	45.910
549.92	45.604
550.26	46.154
550.60	45.576
550.94	46.154
551.28	47.295
551.62	46.538
551.96	46.842
552.30	46.857
552.64	45.628
552.98	46.343
553.32	46.434
553.66	46.734
554.00	46.934
554.34	47.784
554.68	46.386
555.02	47.321
555.36	46.073
555.69	46.154
556.03	44.825
556.37	45.836
556.71	47.148
557.05	47.502
557.39	45.799
557.73	46.627
558.07	46.757
558.41	46.708
558.75	46.454
559.08	46.020
559.42	47.857
559.76	47.718
560.10	44.954
560.44	45.793
560.78	45.245
561.12	47.320
561.45	45.959
561.79	46.709
562.13	46.487
562.47	47.842
562.81	46.398
563.15	46.615
563.48	46.535
563.82	47.220
564.16	45.682
564.50	46.014
564.84	45.917
565.17	44.936
565.51	48.361
565.85	45.816
566.19	46.286
566.52	47.051
566.86	46.851
567.20	44.521
567.54	45.073
567.88	46.280
568.21	45.532
568.55	45.054
568.89	44.815
569.23	45.354
569.56	44.046
569.90	44.783
570.24	43.915
570.57	44.545
570.91	43.639
571.25	42.881
571.59	42.510
571.92	41.541
572.26	43.207
572.60	43.039
572.93	41.575
573.27	42.915
573.61	42.452
573.95	42.272
574.28	42.267
574.62	41.546
574.96	41.486
575.29	41.620
575.63	40.529
575.97	42.017
576.30	41.833
576.64	41.219
576.98	42.471
577.31	41.976
577.65	41.812
577.98	41.970
578.32	41.710
578.66	40.619
578.99	40.945
579.33	41.194
579.67	41.156
580.00	42.076
580.34	41.294
580.67	41.073
581.01	41.475
581.35	41.128
581.68	41.704
582.02	41.274
582.35	41.523
582.69	41.332
583.02	41.166
583.36	41.684
583.70	42.368
584.03	42.230
584.37	43.394
584.70	42.555
585.04	41.503
585.37	41.450
585.71	41.891
586.04	41.805
586.38	41.318
586.72	42.554
587.05	43.183
587.39	41.795
587.72	43.904
588.06	42.596
588.39	42.353
588.73	43.529
589.06	43.477
589.40	42.758
589.73	43.154
590.07	44.071
590.40	43.266
590.73	45.222
591.07	43.808
591.40	44.078
591.74	44.208
592.07	44.295
592.41	44.125
592.74	44.166
593.08	42.683
593.41	43.493
593.75	43.180
594.08	42.739
594.41	43.377
594.75	42.214
595.08	44.117
595.42	43.614
595.75	44.236
596.09	43.628
596.42	43.654
596.75	44.583
597.09	43.417
597.42	43.451
597.75	45.121
598.09	42.825
598.42	43.773
598.76	42.986
599.09	43.950
599.42	42.706
599.76	42.739
600.09	43.401
600.42	43.101
600.76	42.236
601.09	42.786
601.42	42.421
601.76	43.351
602.09	44.142
602.42	44.566
602.76	44.610
603.09	44.684
603.42	45.234
603.76	43.871
604.09	44.228
604.42	44.205
604.76	44.281
605.09	44.470
605.42	43.386
605.75	43.214
606.09	43.524
606.42	43.161
606.75	43.030
607.09	43.956
607.42	43.465
607.75	43.250
608.08	43.217
608.42	43.262
608.75	44.289
609.08	44.694
609.41	45.178
609.75	44.002
610.08	43.635
610.41	43.382
610.74	44.174
611.07	44.806
611.41	45.148
611.74	44.510
612.07	42.827
612.40	44.420
612.73	44.972
613.07	44.094
613.40	44.584
613.73	44.880
614.06	44.018
614.39	43.993
614.72	43.193
615.06	43.799
615.39	44.269
615.72	43.649
616.05	43.743
616.38	42.792
616.71	44.343
617.05	45.275
617.38	45.506
617.71	45.094
618.04	45.079
618.37	45.397
618.70	46.205
619.03	46.736
619.36	44.428
619.69	47.005
620.03	46.749
620.36	45.422
620.69	44.825
621.02	46.407
621.35	46.639
621.68	47.534
622.01	46.750
622.34	47.167
622.67	46.451
623.00	47.167
623.33	46.341
623.66	43.904
623.99	46.369
624.32	45.932
624.65	45.113
624.99	47.329
625.32	46.247
625.65	47.683
625.98	46.334
626.31	45.636
626.64	48.180
626.97	48.080
627.30	46.322
627.63	46.880
627.96	47.889
628.29	47.271
628.62	47.001
628.95	48.497
629.28	46.875
629.61	47.358
629.94	48.094
630.26	47.530
630.59	49.740
630.92	49.026
631.25	46.154
631.58	50.220
631.91	48.575
632.24	48.280
632.57	48.523
632.90	47.450
633.23	48.118
633.56	48.489
633.89	48.459
634.22	50.494
634.55	48.920
634.88	50.192
635.20	51.154
635.53	51.067
635.86	50.065
636.19	50.323
636.52	48.342
636.85	46.898
637.18	48.553
637.51	48.679
637.83	47.306
638.16	49.795
638.49	47.956
