SpectraSuite Data File
++++++++++++++++++++++++++++++++++++
Date: Fri May 15 17:09:07 PDT 2015
User: schluterlab
Dark Spectrum Present: Yes
Reference Spectrum Present: Yes
Number of Sampled Component Spectra: 1
Spectrometers: USB2E3373
Integration Time (usec): 3000 (USB2E3373)
Spectra Averaged: 3 (USB2E3373)
Boxcar Smoothing: 0 (USB2E3373)
Correct for Electrical Dark: No (USB2E3373)
Strobe/Lamp Enabled: No (USB2E3373)
Correct for Detector Non-linearity: No (USB2E3373)
Correct for Stray Light: No (USB2E3373)
Number of Pixels in Processed Spectrum: 2048
>>>>>Begin Processed Spectral Data<<<<<
178.53	0.000
178.91	0.000
179.29	125.000
179.67	250.000
180.04	-128.571
180.42	250.000
180.80	-200.000
181.18	-333.333
181.56	-400.000
181.94	200.000
182.31	-700.000
182.69	80.000
183.07	266.667
183.45	100.000
183.83	50.000
184.20	45.455
184.58	-22.222
184.96	-225.000
185.34	66.667
185.72	100.000
186.09	23.077
186.47	100.000
186.85	16.667
187.23	55.556
187.61	-500.000
187.98	-66.667
188.36	144.444
188.74	133.333
189.12	64.706
189.49	55.556
189.87	0.000
190.25	42.857
190.63	700.000
191.00	266.667
191.38	84.211
191.76	1000.000
192.14	200.000
192.51	250.000
192.89	-44.444
193.27	-157.143
193.65	-0.000
194.02	172.727
194.40	60.000
194.78	0.000
195.15	83.333
195.53	-12.500
195.91	175.000
196.29	50.000
196.66	-15.385
197.04	-0.000
197.42	33.333
197.79	-333.333
198.17	-7.692
198.55	600.000
198.92	100.000
199.30	300.000
199.68	-140.000
200.05	33.333
200.43	0.000
200.81	100.000
201.18	66.667
201.56	200.000
201.94	-150.000
202.31	-166.667
202.69	20.000
203.07	25.000
203.44	-700.000
203.82	0.000
204.19	135.714
204.57	-133.333
204.95	87.500
205.32	40.000
205.70	71.429
206.08	275.000
206.45	377.778
206.83	107.143
207.20	14.286
207.58	900.000
207.96	133.333
208.33	-70.000
208.71	250.000
209.08	-16.667
209.46	300.000
209.84	-140.000
210.21	-700.000
210.59	42.857
210.96	50.000
211.34	125.000
211.71	53.333
212.09	114.286
212.46	-1000.000
212.84	0.000
213.22	110.000
213.59	-400.000
213.97	23.077
214.34	36.364
214.72	283.333
215.09	25.000
215.47	46.154
215.84	72.727
216.22	133.333
216.59	25.000
216.97	550.000
217.34	225.000
217.72	-60.000
218.09	112.500
218.47	-12.500
218.84	0.000
219.22	-44.444
219.59	180.000
219.97	100.000
220.34	150.000
220.72	42.857
221.09	-150.000
221.47	250.000
221.84	-350.000
222.22	-450.000
222.59	72.727
222.97	66.667
223.34	66.667
223.72	28.571
224.09	9.524
224.46	42.857
224.84	233.333
225.21	100.000
225.59	133.333
225.96	-50.000
226.34	-0.000
226.71	0.000
227.08	16.667
227.46	62.500
227.83	-450.000
228.21	77.778
228.58	127.273
228.95	-75.000
229.33	-70.000
229.70	31.250
230.08	37.500
230.45	57.143
230.82	42.857
231.20	6.667
231.57	107.143
231.95	57.143
232.32	-20.000
232.69	107.143
233.07	166.667
233.44	-120.000
233.81	-10.000
234.19	11.111
234.56	23.529
234.93	100.000
235.31	200.000
235.68	-160.000
236.05	-30.769
236.43	-25.000
236.80	52.941
237.17	50.000
237.55	20.000
237.92	33.333
238.29	22.222
238.67	30.000
239.04	55.882
239.41	7.317
239.79	10.000
240.16	19.512
240.53	23.684
240.91	39.130
241.28	31.746
241.65	48.214
242.02	31.507
242.40	33.333
242.77	33.898
243.14	9.091
243.51	13.750
243.89	40.230
244.26	26.437
244.63	17.857
245.00	22.680
245.38	30.928
245.75	26.966
246.12	23.276
246.49	21.488
246.87	35.577
247.24	13.445
247.61	23.684
247.98	28.455
248.36	23.750
248.73	26.974
249.10	24.026
249.47	20.886
249.84	19.608
250.22	22.941
250.59	23.529
250.96	28.638
251.33	12.209
251.70	25.294
252.08	25.888
252.45	29.703
252.82	27.638
253.19	19.355
253.56	20.093
253.94	25.676
254.31	20.870
254.68	28.070
255.05	24.803
255.42	22.271
255.79	23.552
256.16	28.405
256.54	29.104
256.91	23.574
257.28	28.253
257.65	21.723
258.02	21.277
258.39	25.589
258.76	25.275
259.14	23.256
259.51	25.566
259.88	23.368
260.25	23.856
260.62	25.347
260.99	19.322
261.36	15.068
261.73	18.354
262.10	27.052
262.47	20.552
262.85	24.138
263.22	23.385
263.59	27.414
263.96	25.776
264.33	21.818
264.70	25.000
265.07	23.214
265.44	26.062
265.81	26.836
266.18	24.317
266.55	25.964
266.92	25.648
267.29	27.415
267.66	22.251
268.03	21.204
268.40	23.238
268.77	23.262
269.14	24.460
269.51	26.221
269.88	22.693
270.25	23.469
270.62	20.244
270.99	20.460
271.36	23.472
271.73	25.587
272.10	22.384
272.47	23.404
272.84	20.545
273.21	22.970
273.58	25.060
273.95	23.341
274.32	23.095
274.69	19.231
275.06	25.000
275.43	19.955
275.80	22.075
276.17	20.000
276.54	21.842
276.91	22.149
277.28	20.961
277.65	23.760
278.02	21.277
278.39	21.444
278.76	21.593
279.13	21.992
279.50	21.218
279.87	22.894
280.23	20.860
280.60	22.027
280.97	22.828
281.34	17.692
281.71	22.998
282.08	22.699
282.45	19.765
282.82	19.884
283.19	22.244
283.56	20.039
283.92	18.406
284.29	20.000
284.66	19.767
285.03	18.861
285.40	20.605
285.77	18.629
286.14	18.051
286.51	23.616
286.87	18.830
287.24	19.705
287.61	17.637
287.98	19.825
288.35	19.237
288.72	19.264
289.08	19.444
289.45	19.156
289.82	20.455
290.19	16.382
290.56	18.010
290.93	15.825
291.29	19.106
291.66	19.528
292.03	19.139
292.40	17.419
292.77	16.906
293.13	15.909
293.50	16.085
293.87	16.489
294.24	15.920
294.60	16.692
294.97	16.667
295.34	15.644
295.71	18.331
296.08	14.350
296.44	14.794
296.81	14.861
297.18	14.493
297.55	19.377
297.91	15.890
298.28	18.338
298.65	15.061
299.02	13.612
299.38	15.321
299.75	15.310
300.12	15.838
300.48	14.888
300.85	15.336
301.22	15.195
301.59	15.000
301.95	14.810
302.32	15.435
302.69	15.920
303.05	14.851
303.42	14.570
303.79	13.084
304.15	14.934
304.52	12.128
304.89	13.567
305.25	13.559
305.62	12.952
305.99	13.918
306.35	14.104
306.72	14.173
307.09	13.911
307.45	14.237
307.82	12.269
308.19	15.912
308.55	13.304
308.92	14.161
309.29	14.302
309.65	12.917
310.02	13.641
310.38	13.172
310.75	13.661
311.12	12.379
311.48	12.407
311.85	13.717
312.22	12.553
312.58	14.544
312.95	12.914
313.31	12.215
313.68	13.194
314.05	13.469
314.41	14.021
314.78	13.505
315.14	14.080
315.51	14.182
315.87	14.242
316.24	15.571
316.61	14.567
316.97	14.881
317.34	14.941
317.70	14.627
318.07	14.327
318.43	15.490
318.80	15.436
319.16	15.820
319.53	16.904
319.89	16.142
320.26	16.498
320.62	16.249
320.99	16.075
321.35	17.677
321.72	18.484
322.08	18.429
322.45	18.376
322.81	18.173
323.18	18.842
323.54	18.436
323.91	19.766
324.27	20.508
324.64	21.348
325.00	22.628
325.37	22.498
325.73	21.940
326.10	23.252
326.46	25.202
326.83	25.722
327.19	25.894
327.56	26.151
327.92	26.232
328.29	26.875
328.65	27.925
329.01	27.849
329.38	28.295
329.74	28.045
330.11	29.379
330.47	28.942
330.84	30.673
331.20	32.510
331.56	30.556
331.93	31.872
332.29	32.539
332.66	31.765
333.02	32.249
333.38	32.356
333.75	33.242
334.11	31.961
334.48	33.182
334.84	34.524
335.20	33.760
335.57	33.001
335.93	34.417
336.29	35.267
336.66	33.061
337.02	33.643
337.38	33.611
337.75	34.818
338.11	34.445
338.47	33.942
338.84	34.104
339.20	34.186
339.56	35.229
339.93	34.736
340.29	36.239
340.65	34.857
341.02	34.397
341.38	33.717
341.74	34.629
342.11	34.835
342.47	35.231
342.83	34.256
343.20	35.279
343.56	35.478
343.92	35.607
344.28	35.696
344.65	36.010
345.01	35.955
345.37	35.492
345.73	36.653
346.10	36.324
346.46	36.081
346.82	35.516
347.19	34.165
347.55	34.670
347.91	36.003
348.27	35.247
348.63	35.179
349.00	34.372
349.36	35.162
349.72	35.821
350.08	35.082
350.45	34.557
350.81	34.884
351.17	34.446
351.53	34.612
351.89	35.343
352.26	34.160
352.62	34.839
352.98	35.261
353.34	34.138
353.70	36.893
354.07	34.435
354.43	34.428
354.79	34.517
355.15	35.238
355.51	35.127
355.87	34.223
356.24	34.502
356.60	34.034
356.96	34.841
357.32	34.185
357.68	34.324
358.04	34.006
358.40	34.887
358.77	34.769
359.13	35.308
359.49	34.052
359.85	35.647
360.21	35.327
360.57	34.736
360.93	33.812
361.29	33.082
361.66	35.031
362.02	35.000
362.38	35.415
362.74	35.806
363.10	35.290
363.46	34.322
363.82	35.537
364.18	34.539
364.54	34.044
364.90	33.907
365.26	34.789
365.62	35.839
365.98	34.971
366.35	35.397
366.71	34.442
367.07	33.672
367.43	34.364
367.79	35.053
368.15	33.812
368.51	34.596
368.87	32.735
369.23	34.224
369.59	35.131
369.95	34.824
370.31	33.382
370.67	34.328
371.03	34.354
371.39	34.136
371.75	35.165
372.11	34.879
372.47	34.320
372.83	34.422
373.19	34.165
373.55	33.213
373.91	34.701
374.27	34.160
374.63	35.678
374.99	33.121
375.35	34.331
375.71	34.056
376.07	34.480
376.42	34.014
376.78	34.966
377.14	34.326
377.50	34.329
377.86	34.070
378.22	33.759
378.58	33.910
378.94	34.531
379.30	33.874
379.66	34.734
380.02	33.599
380.38	34.327
380.74	34.171
381.09	34.356
381.45	34.251
381.81	34.238
382.17	33.503
382.53	33.542
382.89	34.777
383.25	34.225
383.61	33.720
383.97	33.905
384.32	32.896
384.68	34.365
385.04	32.537
385.40	33.416
385.76	35.409
386.12	34.411
386.48	34.419
386.83	34.242
387.19	34.005
387.55	33.626
387.91	34.046
388.27	34.066
388.62	35.305
388.98	33.947
389.34	34.041
389.70	34.307
390.06	32.410
390.42	34.521
390.77	32.112
391.13	32.661
391.49	34.541
391.85	33.853
392.20	34.652
392.56	33.948
392.92	33.705
393.28	33.255
393.64	32.973
393.99	34.169
394.35	34.156
394.71	33.461
395.07	32.370
395.42	33.758
395.78	33.485
396.14	33.228
396.50	33.291
396.85	33.484
397.21	33.020
397.57	33.292
397.92	34.092
398.28	33.621
398.64	32.952
399.00	32.901
399.35	32.675
399.71	33.487
400.07	34.160
400.42	32.436
400.78	33.190
401.14	32.849
401.49	32.281
401.85	32.419
402.21	32.892
402.57	32.875
402.92	31.744
403.28	32.957
403.63	33.165
403.99	31.633
404.35	33.791
404.70	31.607
405.06	32.256
405.42	32.443
405.77	31.958
406.13	31.548
406.49	32.268
406.84	32.457
407.20	31.668
407.55	32.325
407.91	32.553
408.27	31.230
408.62	32.062
408.98	31.547
409.34	32.094
409.69	32.494
410.05	31.281
410.40	32.716
410.76	32.388
411.11	31.500
411.47	30.966
411.83	31.387
412.18	31.982
412.54	31.461
412.89	30.850
413.25	30.987
413.60	30.683
413.96	31.227
414.31	30.488
414.67	30.212
415.03	31.025
415.38	31.136
415.74	30.814
416.09	31.809
416.45	31.870
416.80	31.064
417.16	33.564
417.51	31.712
417.87	30.574
418.22	31.218
418.58	32.508
418.93	31.850
419.29	31.690
419.64	31.108
420.00	32.368
420.35	31.104
420.71	32.746
421.06	31.737
421.42	31.971
421.77	33.353
422.12	32.236
422.48	31.835
422.83	32.425
423.19	31.828
423.54	31.511
423.90	30.506
424.25	32.377
424.61	32.803
424.96	32.636
425.31	34.027
425.67	32.746
426.02	33.274
426.38	32.999
426.73	33.354
427.09	33.608
427.44	33.647
427.79	32.351
428.15	32.828
428.50	33.555
428.85	32.617
429.21	33.333
429.56	33.369
429.92	33.590
430.27	33.684
430.62	32.880
430.98	33.386
431.33	33.649
431.68	33.019
432.04	33.482
432.39	32.687
432.74	33.494
433.10	34.023
433.45	33.692
433.80	33.372
434.16	33.186
434.51	34.086
434.86	34.204
435.22	34.156
435.57	34.747
435.92	34.251
436.28	34.168
436.63	34.056
436.98	32.851
437.34	33.817
437.69	34.884
438.04	34.758
438.39	33.415
438.75	34.669
439.10	34.126
439.45	35.606
439.81	35.413
440.16	34.442
440.51	35.164
440.86	36.193
441.22	34.106
441.57	35.155
441.92	35.887
442.27	35.865
442.63	36.510
442.98	35.727
443.33	35.838
443.68	35.119
444.03	34.873
444.39	34.678
444.74	35.507
445.09	35.802
445.44	35.783
445.79	36.720
446.15	35.132
446.50	34.165
446.85	36.026
447.20	35.297
447.55	35.826
447.91	36.323
448.26	35.800
448.61	35.521
448.96	35.743
449.31	35.838
449.66	35.308
450.02	35.824
450.37	36.040
450.72	35.395
451.07	36.203
451.42	35.393
451.77	36.347
452.12	34.928
452.47	35.480
452.83	35.512
453.18	35.610
453.53	35.461
453.88	35.216
454.23	35.771
454.58	36.146
454.93	36.147
455.28	34.603
455.63	35.896
455.98	36.380
456.34	36.207
456.69	36.785
457.04	35.728
457.39	36.148
457.74	36.578
458.09	35.138
458.44	36.513
458.79	35.518
459.14	36.384
459.49	36.179
459.84	35.815
460.19	35.498
460.54	36.858
460.89	37.443
461.24	37.019
461.59	35.511
461.94	35.597
462.29	36.007
462.64	36.877
462.99	36.019
463.34	35.605
463.69	35.714
464.04	36.077
464.39	37.113
464.74	35.828
465.09	37.555
465.44	36.065
465.79	36.905
466.14	36.887
466.49	35.423
466.84	35.812
467.19	37.109
467.54	35.185
467.89	36.008
468.24	35.523
468.59	36.698
468.94	35.175
469.29	35.869
469.64	35.748
469.99	35.950
470.34	35.495
470.68	36.092
471.03	35.740
471.38	35.307
471.73	36.275
472.08	35.278
472.43	34.899
472.78	35.846
473.13	36.122
473.48	36.156
473.83	34.433
474.17	37.241
474.52	36.439
474.87	36.303
475.22	36.547
475.57	36.872
475.92	36.423
476.27	37.427
476.61	36.748
476.96	34.635
477.31	35.803
477.66	34.831
478.01	36.103
478.36	36.438
478.70	36.977
479.05	35.495
479.40	36.036
479.75	35.245
480.10	35.381
480.45	35.650
480.79	36.657
481.14	37.295
481.49	34.926
481.84	35.666
482.19	35.500
482.53	35.923
482.88	34.940
483.23	35.605
483.58	35.849
483.92	34.802
484.27	35.324
484.62	35.500
484.97	35.448
485.31	35.405
485.66	36.996
486.01	37.753
486.36	37.606
486.70	37.009
487.05	36.230
487.40	35.988
487.75	35.690
488.09	34.394
488.44	35.351
488.79	34.479
489.13	35.136
489.48	34.801
489.83	34.933
490.17	35.011
490.52	34.365
490.87	34.197
491.22	35.864
491.56	34.915
491.91	34.226
492.26	34.176
492.60	35.461
492.95	35.760
493.30	33.952
493.64	35.118
493.99	35.072
494.34	34.078
494.68	35.095
495.03	33.577
495.37	34.691
495.72	34.478
496.07	35.415
496.41	34.623
496.76	34.961
497.11	34.420
497.45	34.845
497.80	35.469
498.14	33.631
498.49	34.281
498.84	34.381
499.18	34.588
499.53	34.722
499.87	34.533
500.22	34.372
500.56	35.250
500.91	34.890
501.26	33.465
501.60	35.268
501.95	34.692
502.29	35.109
502.64	34.556
502.98	34.879
503.33	33.573
503.67	32.964
504.02	34.409
504.36	34.438
504.71	33.434
505.06	33.568
505.40	34.010
505.75	34.175
506.09	33.705
506.44	33.676
506.78	34.643
507.13	34.178
507.47	33.316
507.82	33.120
508.16	33.175
508.51	34.208
508.85	34.118
509.19	32.677
509.54	33.673
509.88	32.848
510.23	33.620
510.57	33.725
510.92	32.090
511.26	33.715
511.61	32.948
511.95	33.151
512.30	32.040
512.64	32.832
512.98	32.341
513.33	32.680
513.67	32.064
514.02	33.410
514.36	33.543
514.70	33.217
515.05	32.902
515.39	31.936
515.74	33.892
516.08	33.293
516.42	33.569
516.77	32.885
517.11	32.522
517.46	32.496
517.80	32.777
518.14	31.292
518.49	31.490
518.83	32.564
519.17	30.443
519.52	30.847
519.86	31.753
520.20	32.078
520.55	32.083
520.89	32.622
521.23	31.919
521.58	32.808
521.92	32.692
522.26	30.449
522.61	32.208
522.95	32.252
523.29	31.766
523.64	31.766
523.98	32.664
524.32	30.412
524.66	32.138
525.01	31.429
525.35	30.590
525.69	31.111
526.04	30.489
526.38	31.907
526.72	30.804
527.06	31.323
527.41	31.794
527.75	30.295
528.09	30.764
528.43	31.600
528.78	30.693
529.12	31.355
529.46	31.319
529.80	31.222
530.15	30.957
530.49	30.101
530.83	31.259
531.17	30.490
531.51	30.780
531.86	30.184
532.20	30.063
532.54	30.633
532.88	30.938
533.22	30.847
533.57	31.455
533.91	31.527
534.25	32.552
534.59	31.110
534.93	30.585
535.27	29.442
535.62	30.071
535.96	31.311
536.30	30.277
536.64	30.737
536.98	30.383
537.32	30.085
537.66	30.575
538.01	30.140
538.35	30.028
538.69	30.959
539.03	29.597
539.37	30.956
539.71	31.152
540.05	30.346
540.39	30.748
540.73	29.219
541.07	30.456
541.42	30.712
541.76	30.420
542.10	29.869
542.44	29.465
542.78	29.456
543.12	29.670
543.46	30.946
543.80	30.812
544.14	29.039
544.48	30.180
544.82	30.417
545.16	30.396
545.50	29.973
545.84	29.816
546.18	30.284
546.52	29.704
546.86	28.613
547.20	28.398
547.54	29.117
547.88	29.552
548.22	29.520
548.56	28.628
548.90	30.189
549.24	27.686
549.58	28.702
549.92	29.378
550.26	29.963
550.60	29.368
550.94	28.230
551.28	28.516
551.62	29.308
551.96	29.098
552.30	29.386
552.64	29.267
552.98	28.833
553.32	28.816
553.66	28.084
554.00	29.343
554.34	29.542
554.68	27.581
555.02	29.092
555.36	27.749
555.69	28.571
556.03	28.408
556.37	28.470
556.71	27.942
557.05	28.859
557.39	26.989
557.73	28.861
558.07	29.035
558.41	28.331
558.75	27.202
559.08	26.241
559.42	28.016
559.76	28.022
560.10	28.440
560.44	27.997
560.78	27.273
561.12	27.997
561.45	28.039
561.79	28.782
562.13	28.389
562.47	28.345
562.81	29.035
563.15	26.798
563.48	27.511
563.82	28.758
564.16	28.621
564.50	26.419
564.84	28.046
565.17	27.968
565.51	28.484
565.85	29.012
566.19	28.846
566.52	27.882
566.86	28.342
567.20	28.954
567.54	28.467
567.88	28.822
568.21	29.242
568.55	29.185
568.89	29.825
569.23	30.284
569.56	29.991
569.90	31.303
570.24	29.773
570.57	29.891
570.91	29.488
571.25	29.891
571.59	29.586
571.92	29.481
572.26	29.378
572.60	29.240
572.93	29.118
573.27	28.934
573.61	29.594
573.95	29.164
574.28	30.032
574.62	28.630
574.96	29.270
575.29	28.622
575.63	29.023
575.97	28.653
576.30	28.704
576.64	28.397
576.98	29.163
577.31	29.344
577.65	29.450
577.98	29.691
578.32	29.176
578.66	28.691
578.99	28.451
579.33	28.254
579.67	27.933
580.00	28.582
580.34	28.781
580.67	28.239
581.01	28.530
581.35	28.854
581.68	29.030
582.02	29.510
582.35	28.951
582.69	28.808
583.02	28.733
583.36	29.028
583.70	28.557
584.03	28.274
584.37	28.995
584.70	28.269
585.04	27.876
585.37	28.477
585.71	28.437
586.04	28.164
586.38	28.168
586.72	28.264
587.05	28.192
587.39	29.354
587.72	28.595
588.06	28.231
588.39	28.425
588.73	28.205
589.06	27.984
589.40	27.929
589.73	27.966
590.07	27.757
590.40	28.289
590.73	27.965
591.07	27.396
591.40	27.159
591.74	27.873
592.07	28.015
592.41	27.871
592.74	27.997
593.08	27.873
593.41	27.875
593.75	27.511
594.08	27.360
594.41	27.329
594.75	27.366
595.08	27.469
595.42	27.273
595.75	28.389
596.09	26.896
596.42	27.449
596.75	27.043
597.09	26.333
597.42	26.784
597.75	26.752
598.09	26.754
598.42	26.399
598.76	27.327
599.09	26.242
599.42	26.412
599.76	26.637
600.09	27.074
600.42	27.142
600.76	25.817
601.09	26.489
601.42	26.204
601.76	26.121
602.09	26.320
602.42	26.411
602.76	26.613
603.09	27.076
603.42	27.425
603.76	26.290
604.09	26.205
604.42	26.311
604.76	26.747
605.09	26.691
605.42	26.230
605.75	26.532
606.09	26.752
606.42	25.730
606.75	26.061
607.09	26.198
607.42	25.786
607.75	25.977
608.08	25.517
608.42	25.537
608.75	26.120
609.08	26.657
609.41	25.990
609.75	24.899
610.08	26.061
610.41	25.266
610.74	26.182
611.07	25.685
611.41	26.103
611.74	25.800
612.07	25.054
612.40	25.328
612.73	25.537
613.07	24.859
613.40	25.711
613.73	24.678
614.06	25.320
614.39	26.058
614.72	24.650
615.06	24.581
615.39	24.727
615.72	25.027
616.05	25.531
616.38	24.217
616.71	24.098
617.05	23.533
617.38	24.890
617.71	24.780
618.04	25.079
618.37	24.842
618.70	24.488
619.03	25.556
619.36	24.385
619.69	24.109
620.03	25.201
620.36	24.034
620.69	24.697
621.02	24.618
621.35	25.311
621.68	24.915
622.01	24.333
622.34	24.741
622.67	23.659
623.00	23.966
623.33	23.476
623.66	24.009
623.99	24.281
624.32	24.411
624.65	22.932
624.99	24.680
625.32	23.730
625.65	24.352
625.98	23.207
626.31	22.444
626.64	24.350
626.97	23.560
627.30	23.205
627.63	24.177
627.96	24.169
628.29	23.034
628.62	23.009
628.95	23.046
629.28	21.976
629.61	22.433
629.94	23.656
630.26	22.332
630.59	23.517
630.92	22.564
631.25	22.051
631.58	22.247
631.91	22.149
632.24	23.394
632.57	21.705
632.90	20.996
633.23	22.471
633.56	21.662
633.89	22.072
634.22	22.840
