SpectraSuite Data File
++++++++++++++++++++++++++++++++++++
Date: Fri May 15 20:08:56 PDT 2015
User: schluterlab
Dark Spectrum Present: Yes
Reference Spectrum Present: Yes
Number of Sampled Component Spectra: 1
Spectrometers: USB2E3373
Integration Time (usec): 3000 (USB2E3373)
Spectra Averaged: 3 (USB2E3373)
Boxcar Smoothing: 0 (USB2E3373)
Correct for Electrical Dark: No (USB2E3373)
Strobe/Lamp Enabled: No (USB2E3373)
Correct for Detector Non-linearity: No (USB2E3373)
Correct for Stray Light: No (USB2E3373)
Number of Pixels in Processed Spectrum: 2048
>>>>>Begin Processed Spectral Data<<<<<
178.53	0.000
178.91	0.000
179.29	87.500
179.67	-150.000
180.04	42.857
180.42	25.000
180.80	-700.000
181.18	-33.333
181.56	550.000
181.94	-600.000
182.31	200.000
182.69	20.000
183.07	-100.000
183.45	220.000
183.83	200.000
184.20	-18.182
184.58	55.556
184.96	-75.000
185.34	33.333
185.72	-400.000
186.09	107.692
186.47	-700.000
186.85	133.333
187.23	100.000
187.61	-0.000
187.98	33.333
188.36	0.000
188.74	33.333
189.12	58.824
189.49	38.889
189.87	0.000
190.25	114.286
190.63	500.000
191.00	-500.000
191.38	-21.053
191.76	350.000
192.14	175.000
192.51	300.000
192.89	11.111
193.27	14.286
193.65	33.333
194.02	36.364
194.40	-10.000
194.78	-50.000
195.15	0.000
195.53	0.000
195.91	175.000
196.29	-75.000
196.66	38.462
197.04	57.143
197.42	44.444
197.79	-400.000
198.17	-69.231
198.55	200.000
198.92	-400.000
199.30	-200.000
199.68	-40.000
200.05	-166.667
200.43	0.000
200.81	166.667
201.18	-33.333
201.56	800.000
201.94	300.000
202.31	-0.000
202.69	-260.000
203.07	50.000
203.44	800.000
203.82	0.000
204.19	92.857
204.57	-300.000
204.95	37.500
205.32	20.000
205.70	57.143
206.08	125.000
206.45	166.667
206.83	57.143
207.20	-14.286
207.58	-200.000
207.96	-66.667
208.33	-100.000
208.71	0.000
209.08	-250.000
209.46	-700.000
209.84	20.000
210.21	100.000
210.59	-71.429
210.96	50.000
211.34	-50.000
211.71	40.000
212.09	-57.143
212.46	-1100.000
212.84	0.000
213.22	80.000
213.59	500.000
213.97	115.385
214.34	36.364
214.72	-16.667
215.09	200.000
215.47	92.308
215.84	-36.364
216.22	-233.333
216.59	-137.500
216.97	150.000
217.34	0.000
217.72	20.000
218.09	112.500
218.47	137.500
218.84	-300.000
219.22	-11.111
219.59	-120.000
219.97	233.333
220.34	75.000
220.72	-14.286
221.09	-50.000
221.47	-350.000
221.84	150.000
222.22	-300.000
222.59	-9.091
222.97	83.333
223.34	-100.000
223.72	-14.286
224.09	61.905
224.46	39.286
224.84	166.667
225.21	40.000
225.59	20.000
225.96	200.000
226.34	-0.000
226.71	-100.000
227.08	33.333
227.46	12.500
227.83	-700.000
228.21	44.444
228.58	27.273
228.95	37.500
229.33	80.000
229.70	75.000
230.08	62.500
230.45	-171.429
230.82	85.714
231.20	13.333
231.57	128.571
231.95	0.000
232.32	-50.000
232.69	57.143
233.07	166.667
233.44	-100.000
233.81	-10.000
234.19	77.778
234.56	-11.765
234.93	150.000
235.31	-75.000
235.68	-160.000
236.05	0.000
236.43	-15.000
236.80	-17.647
237.17	28.125
237.55	-10.000
237.92	11.111
238.29	11.111
238.67	16.667
239.04	0.000
239.41	-12.195
239.79	-6.667
240.16	4.878
240.53	10.526
240.91	-23.913
241.28	12.698
241.65	10.714
242.02	10.959
242.40	-16.667
242.77	13.559
243.14	-7.576
243.51	6.250
243.89	25.287
244.26	3.448
244.63	5.952
245.00	10.309
245.38	6.186
245.75	-14.607
246.12	1.724
246.49	10.744
246.87	12.500
247.24	1.681
247.61	-4.386
247.98	-5.691
248.36	-1.250
248.73	1.974
249.10	-0.649
249.47	-0.633
249.84	-0.654
250.22	1.765
250.59	6.536
250.96	7.981
251.33	-1.744
251.70	-1.765
252.08	-0.508
252.45	0.000
252.82	0.503
253.19	2.304
253.56	-0.467
253.94	2.703
254.31	4.783
254.68	4.825
255.05	0.000
255.42	0.873
255.79	3.089
256.16	4.280
256.54	3.731
256.91	1.901
257.28	2.602
257.65	-0.375
258.02	1.064
258.39	1.347
258.76	1.465
259.14	6.312
259.51	3.560
259.88	3.436
260.25	2.288
260.62	1.389
260.99	-2.034
261.36	-4.452
261.73	-1.899
262.10	0.304
262.47	-0.307
262.85	3.135
263.22	0.000
263.59	4.050
263.96	3.727
264.33	3.939
264.70	2.083
265.07	-1.488
265.44	1.133
265.81	3.107
266.18	3.279
266.55	4.884
266.92	3.627
267.29	2.611
267.66	2.813
268.03	0.785
268.40	1.044
268.77	1.872
269.14	-0.240
269.51	1.285
269.88	0.499
270.25	-0.255
270.62	2.927
270.99	-2.558
271.36	0.000
271.73	4.460
272.10	3.163
272.47	3.783
272.84	1.238
273.21	3.248
273.58	2.410
273.95	4.119
274.32	1.848
274.69	-0.905
275.06	3.795
275.43	0.227
275.80	2.428
276.17	1.149
276.54	1.285
276.91	1.535
277.28	0.873
277.65	3.306
278.02	2.766
278.39	1.532
278.76	1.887
279.13	0.830
279.50	1.471
279.87	1.728
280.23	0.430
280.60	4.483
280.97	3.232
281.34	-0.577
281.71	1.027
282.08	1.022
282.45	2.153
282.82	1.158
283.19	1.161
283.56	2.505
283.92	0.190
284.29	-0.769
284.66	1.357
285.03	2.358
285.40	1.701
285.77	0.527
286.14	1.083
286.51	2.399
286.87	1.280
287.24	1.105
287.61	1.764
287.98	2.982
288.35	0.520
288.72	1.226
289.08	0.694
289.45	2.460
289.82	2.448
290.19	0.171
290.56	0.858
290.93	2.189
291.29	2.465
291.66	2.047
292.03	1.595
292.40	1.452
292.77	1.116
293.13	1.136
293.50	0.152
293.87	1.832
294.24	0.927
294.60	0.298
294.97	2.976
295.34	1.687
295.71	0.000
296.08	1.495
296.44	0.996
296.81	-0.417
297.18	1.884
297.55	3.388
297.91	1.644
298.28	3.034
298.65	1.493
299.02	-1.213
299.38	-1.231
299.75	2.621
300.12	0.916
300.48	0.000
300.85	1.394
301.22	1.169
301.59	0.395
301.95	2.278
302.32	3.243
302.69	0.871
303.05	1.609
303.42	0.249
303.79	1.636
304.15	1.673
304.52	-0.357
304.89	1.170
305.25	0.484
305.62	0.467
305.99	0.819
306.35	-0.116
306.72	1.912
307.09	1.938
307.45	3.215
307.82	0.694
308.19	1.858
308.55	0.872
308.92	3.377
309.29	0.559
309.65	0.538
310.02	0.990
310.38	2.305
310.75	2.404
311.12	1.722
311.48	1.697
311.85	1.990
312.22	1.688
312.58	2.335
312.95	0.854
313.31	1.760
313.68	0.838
314.05	1.939
314.41	2.371
314.78	1.856
315.14	3.289
315.51	2.381
315.87	2.357
316.24	3.539
316.61	3.445
316.97	3.968
317.34	3.418
317.70	3.346
318.07	2.981
318.43	3.627
318.80	3.693
319.16	4.102
319.53	5.223
319.89	3.839
320.26	5.364
320.62	4.814
320.99	3.445
321.35	5.242
321.72	6.542
322.08	5.035
322.45	5.888
322.81	6.090
323.18	6.084
323.54	6.950
323.91	7.790
324.27	7.422
324.64	9.082
325.00	9.763
325.37	10.101
325.73	10.245
326.10	10.445
326.46	12.466
326.83	13.123
327.19	12.816
327.56	13.553
327.92	15.053
328.29	14.464
328.65	14.434
329.01	15.809
329.38	16.313
329.74	14.920
330.11	18.814
330.47	16.976
330.84	17.404
331.20	19.962
331.56	18.981
331.93	20.457
332.29	19.982
332.66	20.090
333.02	20.353
333.38	20.440
333.75	22.253
334.11	20.412
334.48	22.212
334.84	22.344
335.20	23.605
335.57	23.119
335.93	23.577
336.29	24.033
336.66	23.070
337.02	24.071
337.38	24.630
337.75	24.273
338.11	23.986
338.47	25.182
338.84	24.677
339.20	24.497
339.56	25.413
339.93	25.425
340.29	27.248
340.65	25.627
341.02	25.532
341.38	24.956
341.74	25.795
342.11	24.783
342.47	26.423
342.83	26.038
343.20	24.652
343.56	26.957
343.92	26.395
344.28	26.558
344.65	26.770
345.01	26.016
345.37	25.315
345.73	26.611
346.10	27.092
346.46	25.988
346.82	26.023
347.19	24.771
347.55	26.232
347.91	25.243
348.27	25.627
348.63	26.150
349.00	25.021
349.36	24.771
349.72	26.451
350.08	26.148
350.45	25.539
350.81	25.000
351.17	26.547
351.53	26.449
351.89	26.177
352.26	27.840
352.62	26.694
352.98	26.667
353.34	26.892
353.70	28.236
354.07	26.935
354.43	26.261
354.79	28.076
355.15	28.413
355.51	26.978
355.87	27.104
356.24	25.938
356.60	26.677
356.96	27.540
357.32	26.997
357.68	27.052
358.04	26.414
358.40	28.135
358.77	26.954
359.13	26.261
359.49	27.350
359.85	27.847
360.21	27.512
360.57	27.161
360.93	27.685
361.29	26.737
361.66	27.743
362.02	28.485
362.38	27.951
362.74	28.539
363.10	28.141
363.46	28.762
363.82	27.799
364.18	27.159
364.54	27.794
364.90	27.814
365.26	27.729
365.62	29.781
365.98	29.106
366.35	30.371
366.71	28.234
367.07	28.810
367.43	27.678
367.79	27.915
368.15	27.566
368.51	28.332
368.87	27.566
369.23	28.231
369.59	28.644
369.95	29.032
370.31	28.685
370.67	29.403
371.03	29.126
371.39	29.395
371.75	28.791
372.11	29.601
372.47	29.068
372.83	30.021
373.19	29.886
373.55	28.087
373.91	29.518
374.27	28.632
374.63	28.500
374.99	29.858
375.35	30.153
375.71	30.210
376.07	30.969
376.42	30.272
376.78	29.799
377.14	30.535
377.50	31.142
377.86	30.120
378.22	30.951
378.58	30.705
378.94	29.553
379.30	30.193
379.66	31.787
380.02	31.208
380.38	30.128
380.74	30.162
381.09	32.086
381.45	30.214
381.81	31.154
382.17	30.964
382.53	31.168
382.89	31.513
383.25	31.301
383.61	32.500
383.97	31.683
384.32	30.269
384.68	31.950
385.04	31.250
385.40	30.554
385.76	31.698
386.12	31.695
386.48	32.631
386.83	31.642
387.19	31.624
387.55	32.246
387.91	31.968
388.27	31.136
388.62	31.970
388.98	31.799
389.34	32.167
389.70	33.002
390.06	30.837
390.42	32.383
390.77	32.112
391.13	32.156
391.49	32.794
391.85	32.814
392.20	31.827
392.56	32.168
392.92	31.239
393.28	32.429
393.64	31.892
393.99	33.041
394.35	31.942
394.71	32.439
395.07	32.118
395.42	31.512
395.78	33.160
396.14	32.661
396.50	32.086
396.85	31.487
397.21	32.206
397.57	32.602
397.92	31.756
398.28	31.264
398.64	30.783
399.00	32.280
399.35	30.643
399.71	31.361
400.07	31.439
400.42	32.252
400.78	31.966
401.14	31.881
401.49	31.983
401.85	32.846
402.21	32.229
402.57	32.938
402.92	31.556
403.28	32.707
403.63	32.472
403.99	32.143
404.35	32.355
404.70	31.071
405.06	31.257
405.42	31.697
405.77	31.087
406.13	31.898
406.49	30.847
406.84	31.724
407.20	31.306
407.55	30.844
407.91	31.283
408.27	31.549
408.62	30.892
408.98	30.746
409.34	31.475
409.69	31.072
410.05	31.034
410.40	30.679
410.76	31.062
411.11	31.687
411.47	31.755
411.83	30.760
412.18	30.566
412.54	30.961
412.89	30.172
413.25	31.769
413.60	31.615
413.96	31.166
414.31	31.341
414.67	31.238
415.03	31.558
415.38	30.875
415.74	31.205
416.09	32.071
416.45	32.073
416.80	31.593
417.16	32.735
417.51	31.379
417.87	32.138
418.22	32.448
418.58	32.910
418.93	32.727
419.29	31.178
419.64	32.988
420.00	33.312
420.35	32.000
420.71	33.232
421.06	32.658
421.42	33.474
421.77	31.214
422.12	32.633
422.48	33.568
422.83	32.715
423.19	33.239
423.54	32.216
423.90	33.039
424.25	33.639
424.61	34.088
424.96	32.811
425.31	34.951
425.67	33.979
426.02	33.863
426.38	34.064
426.73	34.867
427.09	35.127
427.44	34.059
427.79	34.590
428.15	35.012
428.50	35.130
428.85	34.029
429.21	35.427
429.56	34.987
429.92	34.258
430.27	34.286
430.62	34.710
430.98	34.926
431.33	34.753
431.68	34.642
432.04	34.712
432.39	34.626
432.74	33.975
433.10	35.460
433.45	34.349
433.80	35.461
434.16	34.626
434.51	36.129
434.86	35.598
435.22	34.773
435.57	35.371
435.92	36.347
436.28	34.287
436.63	35.653
436.98	35.226
437.34	35.148
437.69	36.911
438.04	34.986
438.39	36.103
438.75	36.551
439.10	36.220
439.45	36.823
439.81	35.902
440.16	36.936
440.51	36.716
440.86	37.583
441.22	36.821
441.57	36.921
441.92	38.195
442.27	37.583
442.63	37.152
442.98	38.713
443.33	37.006
443.68	36.658
444.03	37.407
444.39	37.531
444.74	38.239
445.09	38.140
445.44	38.291
445.79	38.938
446.15	37.225
446.50	37.382
446.85	37.885
447.20	37.852
447.55	37.946
447.91	38.240
448.26	39.328
448.61	38.054
448.96	38.382
449.31	38.439
449.66	37.456
450.02	39.076
450.37	38.767
450.72	38.316
451.07	39.747
451.42	38.327
451.77	39.120
452.12	37.799
452.47	37.927
452.83	38.634
453.18	38.899
453.53	38.559
453.88	39.101
454.23	38.783
454.58	39.987
454.93	38.918
455.28	38.286
455.63	39.058
455.98	38.845
456.34	39.080
456.69	38.755
457.04	39.635
457.39	39.186
457.74	37.908
458.09	38.140
458.44	39.321
458.79	38.936
459.14	38.272
459.49	38.746
459.84	39.763
460.19	38.592
460.54	39.670
460.89	38.920
461.24	39.752
461.59	39.608
461.94	38.176
462.29	39.747
462.64	40.864
462.99	38.592
463.34	39.777
463.69	38.932
464.04	38.499
464.39	39.478
464.74	38.834
465.09	39.863
465.44	39.700
465.79	38.719
466.14	39.225
466.49	39.390
466.84	39.679
467.19	40.175
467.54	39.527
467.89	40.430
468.24	40.876
468.59	39.873
468.94	39.556
469.29	40.918
469.64	39.918
469.99	41.976
470.34	39.044
470.68	40.716
471.03	40.198
471.38	38.873
471.73	40.336
472.08	40.299
472.43	40.604
472.78	39.068
473.13	41.020
473.48	40.521
473.83	40.286
474.17	41.580
474.52	40.842
474.87	40.303
475.22	41.611
475.57	40.486
475.92	41.196
476.27	41.036
476.61	41.262
476.96	40.379
477.31	41.157
477.66	40.393
478.01	41.662
478.36	41.176
478.70	41.871
479.05	41.703
479.40	41.335
479.75	40.928
480.10	40.707
480.45	41.950
480.79	40.836
481.14	40.727
481.49	40.443
481.84	41.844
482.19	40.645
482.53	40.815
482.88	41.527
483.23	40.211
483.58	41.274
483.92	40.900
484.27	40.018
484.62	41.282
484.97	40.174
485.31	40.462
485.66	40.005
486.01	40.640
486.36	40.611
486.70	40.793
487.05	41.144
487.40	39.995
487.75	40.394
488.09	39.988
488.44	40.303
488.79	40.082
489.13	40.745
489.48	41.086
489.83	40.493
490.17	40.854
490.52	41.478
490.87	41.323
491.22	42.025
491.56	41.082
491.91	39.962
492.26	41.808
492.60	40.739
492.95	42.941
493.30	41.426
493.64	41.012
493.99	42.126
494.34	40.777
494.68	41.619
495.03	40.925
495.37	41.119
495.72	42.453
496.07	42.634
496.41	41.792
496.76	41.962
497.11	41.872
497.45	41.575
497.80	41.826
498.14	41.182
498.49	42.001
498.84	41.816
499.18	42.169
499.53	42.956
499.87	41.780
500.22	42.384
500.56	42.511
500.91	41.817
501.26	41.869
501.60	41.810
501.95	42.310
502.29	42.857
502.64	42.471
502.98	43.167
503.33	42.027
503.67	43.036
504.02	43.060
504.36	41.860
504.71	43.232
505.06	41.872
505.40	41.878
505.75	43.196
506.09	42.119
506.44	43.480
506.78	43.061
507.13	44.209
507.47	43.655
507.82	43.002
508.16	44.374
508.51	43.914
508.85	43.642
509.19	44.385
509.54	44.075
509.88	43.312
510.23	44.540
510.57	43.613
510.92	43.603
511.26	43.863
511.61	44.939
511.95	44.877
512.30	45.233
512.64	43.517
512.98	43.964
513.33	44.992
513.67	44.741
514.02	45.881
514.36	46.057
514.70	46.037
515.05	47.239
515.39	45.809
515.74	46.826
516.08	46.742
516.42	46.820
516.77	45.758
517.11	46.409
517.46	46.978
517.80	46.365
518.14	45.744
518.49	46.274
518.83	46.476
519.17	46.028
519.52	46.300
519.86	46.759
520.20	47.205
520.55	46.529
520.89	46.110
521.23	47.435
521.58	48.265
521.92	47.244
522.26	47.300
522.61	46.429
522.95	49.272
523.29	47.903
523.64	47.903
523.98	48.412
524.32	47.165
524.66	48.335
525.01	49.156
525.35	49.579
525.69	49.495
526.04	48.280
526.38	49.222
526.72	48.005
527.06	48.184
527.41	49.142
527.75	48.324
528.09	48.638
528.43	49.696
528.78	48.581
529.12	48.000
529.46	48.603
529.80	49.335
530.15	51.155
530.49	50.572
530.83	49.726
531.17	49.832
531.51	50.342
531.86	48.946
532.20	49.269
532.54	49.762
532.88	50.719
533.22	49.731
533.57	48.820
533.91	49.869
534.25	52.279
534.59	50.289
534.93	48.836
535.27	48.921
535.62	49.644
535.96	49.902
536.30	50.462
536.64	50.448
536.98	50.941
537.32	52.063
537.66	51.122
538.01	50.420
538.35	50.902
538.69	50.333
539.03	50.308
539.37	50.740
539.71	50.102
540.05	49.559
540.39	51.662
540.73	51.813
541.07	51.588
541.42	51.344
541.76	53.407
542.10	50.723
542.44	51.911
542.78	51.067
543.12	51.099
543.46	51.252
543.80	51.770
544.14	50.868
544.48	50.899
544.82	50.991
545.16	52.254
545.50	51.936
545.84	51.346
546.18	50.780
546.52	52.271
546.86	51.402
547.20	52.718
547.54	50.954
547.88	52.106
548.22	51.742
548.56	51.451
548.90	52.089
549.24	51.240
549.58	52.327
549.92	50.536
550.26	52.161
550.60	53.457
550.94	52.203
551.28	51.546
551.62	52.538
551.96	53.008
552.30	53.070
552.64	52.327
552.98	53.305
553.32	50.927
553.66	52.540
554.00	52.993
554.34	52.954
554.68	51.991
555.02	51.860
555.36	52.132
555.69	53.260
556.03	52.034
556.37	52.527
556.71	52.491
557.05	53.169
557.39	52.045
557.73	53.448
558.07	52.489
558.41	53.063
558.75	53.624
559.08	52.876
559.42	52.857
559.76	54.043
560.10	52.523
560.44	52.718
560.78	52.168
561.12	52.680
561.45	52.916
561.79	52.591
562.13	53.513
562.47	52.590
562.81	53.458
563.15	53.315
563.48	51.627
563.82	52.848
564.16	54.039
564.50	53.378
564.84	54.016
565.17	52.582
565.51	54.918
565.85	54.801
566.19	52.851
566.52	54.223
566.86	54.499
567.20	52.740
567.54	53.406
567.88	54.599
568.21	54.242
568.55	52.609
568.89	53.080
569.23	53.202
569.56	52.846
569.90	53.471
570.24	52.252
570.57	52.327
570.91	52.527
571.25	51.628
571.59	51.168
571.92	50.993
572.26	51.087
572.60	51.101
572.93	51.585
573.27	51.505
573.61	51.879
573.95	51.447
574.28	51.457
574.62	51.004
574.96	50.561
575.29	51.060
575.63	49.780
575.97	51.017
576.30	51.110
576.64	51.046
576.98	52.432
577.31	51.831
577.65	51.950
577.98	51.881
578.32	51.137
578.66	50.613
578.99	50.608
579.33	50.512
579.67	50.492
580.00	50.709
580.34	51.269
580.67	51.657
581.01	51.441
581.35	51.378
581.68	50.974
582.02	51.055
582.35	51.161
582.69	51.500
583.02	51.848
583.36	51.952
583.70	52.362
584.03	52.071
584.37	52.174
584.70	51.923
585.04	51.451
585.37	50.934
585.71	51.839
586.04	51.715
586.38	51.347
586.72	52.712
587.05	53.004
587.39	53.453
587.72	53.390
588.06	51.951
588.39	52.578
588.73	52.442
589.06	52.740
589.40	52.679
589.73	53.122
590.07	53.625
590.40	52.748
590.73	54.901
591.07	52.969
591.40	52.760
591.74	53.348
592.07	53.618
592.41	53.666
592.74	53.883
593.08	52.462
593.41	53.773
593.75	53.451
594.08	52.695
594.41	53.239
594.75	53.244
595.08	52.667
595.42	53.773
595.75	54.225
596.09	54.496
596.42	52.749
596.75	54.529
597.09	53.394
597.42	53.071
597.75	54.650
598.09	52.331
598.42	53.249
598.76	53.153
599.09	52.644
599.42	52.065
599.76	52.596
600.09	53.281
600.42	52.843
600.76	52.972
601.09	52.137
601.42	52.879
601.76	52.799
602.09	53.094
602.42	54.044
602.76	53.565
603.09	53.488
603.42	55.268
603.76	52.823
604.09	53.179
604.42	53.384
604.76	54.161
605.09	54.799
605.42	53.725
605.75	53.459
606.09	53.843
606.42	52.711
606.75	54.026
607.09	52.791
607.42	52.946
607.75	53.419
608.08	53.369
608.42	52.855
608.75	54.988
609.08	54.659
609.41	53.756
609.75	53.327
610.08	53.919
610.41	52.754
610.74	54.071
611.07	55.401
611.41	55.163
611.74	55.704
612.07	54.497
612.40	54.759
612.73	55.819
613.07	54.218
613.40	54.322
613.73	54.561
614.06	55.259
614.39	54.146
614.72	54.286
615.06	54.804
615.39	52.948
615.72	54.844
616.05	54.916
616.38	53.219
616.71	55.657
617.05	55.590
617.38	55.625
617.71	56.101
618.04	56.508
618.37	57.566
618.70	56.700
619.03	57.083
619.36	56.151
619.69	56.937
620.03	57.633
620.36	55.722
620.69	55.889
621.02	55.734
621.35	57.261
621.68	57.568
622.01	57.917
622.34	55.467
622.67	56.861
623.00	56.126
623.33	55.335
623.66	56.171
623.99	56.127
624.32	56.654
624.65	56.090
624.99	56.509
625.32	56.785
625.65	57.266
625.98	56.003
626.31	55.943
626.64	57.279
626.97	56.283
627.30	56.567
627.63	57.019
627.96	59.119
628.29	56.892
628.62	57.227
628.95	57.114
629.28	58.165
629.61	59.322
629.94	56.403
630.26	57.510
630.59	59.521
630.92	57.333
631.25	55.077
631.58	59.361
631.91	58.114
632.24	58.830
632.57	57.159
632.90	60.142
633.23	59.176
633.56	61.209
633.89	59.063
634.22	60.000
634.55	60.102
634.88	60.281
635.20	59.231
635.53	59.333
635.86	58.648
636.19	59.508
636.52	58.036
636.85	57.320
637.18	58.742
637.51	58.994
637.83	55.059
638.16	60.164
