SpectraSuite Data File
++++++++++++++++++++++++++++++++++++
Date: Fri May 15 20:00:17 PDT 2015
User: schluterlab
Dark Spectrum Present: Yes
Reference Spectrum Present: Yes
Number of Sampled Component Spectra: 1
Spectrometers: USB2E3373
Integration Time (usec): 3000 (USB2E3373)
Spectra Averaged: 3 (USB2E3373)
Boxcar Smoothing: 0 (USB2E3373)
Correct for Electrical Dark: No (USB2E3373)
Strobe/Lamp Enabled: No (USB2E3373)
Correct for Detector Non-linearity: No (USB2E3373)
Correct for Stray Light: No (USB2E3373)
Number of Pixels in Processed Spectrum: 2048
>>>>>Begin Processed Spectral Data<<<<<
178.53	0.000
178.91	0.000
179.29	162.500
179.67	-400.000
180.04	-157.143
180.42	275.000
180.80	300.000
181.18	33.333
181.56	250.000
181.94	200.000
182.31	400.000
182.69	80.000
183.07	-133.333
183.45	200.000
183.83	-83.333
184.20	72.727
184.58	77.778
184.96	-125.000
185.34	-333.333
185.72	-250.000
186.09	7.692
186.47	200.000
186.85	150.000
187.23	122.222
187.61	-1400.000
187.98	-66.667
188.36	-11.111
188.74	300.000
189.12	35.294
189.49	50.000
189.87	0.000
190.25	107.143
190.63	600.000
191.00	-200.000
191.38	15.789
191.76	500.000
192.14	125.000
192.51	850.000
192.89	44.444
193.27	42.857
193.65	16.667
194.02	36.364
194.40	140.000
194.78	75.000
195.15	50.000
195.53	-87.500
195.91	225.000
196.29	25.000
196.66	76.923
197.04	128.571
197.42	88.889
197.79	-66.667
198.17	-30.769
198.55	700.000
198.92	33.333
199.30	300.000
199.68	60.000
200.05	66.667
200.43	0.000
200.81	66.667
201.18	0.000
201.56	300.000
201.94	250.000
202.31	-266.667
202.69	-20.000
203.07	100.000
203.44	900.000
203.82	0.000
204.19	57.143
204.57	-100.000
204.95	75.000
205.32	0.000
205.70	142.857
206.08	0.000
206.45	177.778
206.83	71.429
207.20	-114.286
207.58	100.000
207.96	100.000
208.33	-20.000
208.71	-50.000
209.08	16.667
209.46	200.000
209.84	100.000
210.21	-400.000
210.59	128.571
210.96	33.333
211.34	225.000
211.71	40.000
212.09	-57.143
212.46	-1200.000
212.84	0.000
213.22	90.000
213.59	150.000
213.97	92.308
214.34	9.091
214.72	33.333
215.09	225.000
215.47	-30.769
215.84	81.818
216.22	133.333
216.59	-37.500
216.97	150.000
217.34	-75.000
217.72	-100.000
218.09	137.500
218.47	100.000
218.84	300.000
219.22	55.556
219.59	120.000
219.97	-100.000
220.34	-200.000
220.72	100.000
221.09	0.000
221.47	200.000
221.84	-150.000
222.22	-150.000
222.59	63.636
222.97	100.000
223.34	0.000
223.72	-14.286
224.09	52.381
224.46	50.000
224.84	233.333
225.21	20.000
225.59	13.333
225.96	150.000
226.34	25.000
226.71	0.000
227.08	83.333
227.46	62.500
227.83	-50.000
228.21	44.444
228.58	72.727
228.95	100.000
229.33	-10.000
229.70	81.250
230.08	25.000
230.45	42.857
230.82	128.571
231.20	33.333
231.57	100.000
231.95	142.857
232.32	-30.000
232.69	35.714
233.07	33.333
233.44	140.000
233.81	30.000
234.19	88.889
234.56	0.000
234.93	-550.000
235.31	425.000
235.68	0.000
236.05	-30.769
236.43	-10.000
236.80	82.353
237.17	18.750
237.55	70.000
237.92	51.852
238.29	36.111
238.67	40.000
239.04	55.882
239.41	29.268
239.79	56.667
240.16	41.463
240.53	23.684
240.91	30.435
241.28	26.984
241.65	41.071
242.02	34.247
242.40	48.333
242.77	28.814
243.14	51.515
243.51	47.500
243.89	44.828
244.26	27.586
244.63	44.048
245.00	36.082
245.38	54.639
245.75	35.955
246.12	37.931
246.49	38.843
246.87	50.962
247.24	35.294
247.61	35.088
247.98	30.894
248.36	41.875
248.73	42.105
249.10	38.961
249.47	42.405
249.84	32.680
250.22	41.765
250.59	47.059
250.96	41.784
251.33	50.000
251.70	43.529
252.08	43.655
252.45	39.604
252.82	44.724
253.19	35.945
253.56	40.654
253.94	42.793
254.31	40.870
254.68	46.930
255.05	34.646
255.42	39.301
255.79	43.243
256.16	38.521
256.54	40.299
256.91	38.403
257.28	36.059
257.65	40.824
258.02	38.652
258.39	42.424
258.76	41.392
259.14	41.196
259.51	40.129
259.88	33.677
260.25	39.216
260.62	44.444
260.99	37.288
261.36	42.808
261.73	39.557
262.10	41.033
262.47	38.650
262.85	40.752
263.22	40.000
263.59	38.318
263.96	40.994
264.33	40.606
264.70	39.286
265.07	41.964
265.44	42.493
265.81	38.136
266.18	40.437
266.55	36.761
266.92	40.674
267.29	41.253
267.66	38.619
268.03	38.743
268.40	38.381
268.77	47.326
269.14	36.691
269.51	39.589
269.88	37.157
270.25	38.265
270.62	40.000
270.99	38.107
271.36	37.653
271.73	38.028
272.10	38.686
272.47	38.534
272.84	36.881
273.21	37.355
273.58	40.964
273.95	38.444
274.32	37.644
274.69	37.104
275.06	36.830
275.43	37.642
275.80	38.411
276.17	36.552
276.54	37.687
276.91	38.596
277.28	36.245
277.65	36.157
278.02	36.383
278.39	38.512
278.76	35.010
279.13	35.062
279.50	37.605
279.87	33.909
280.23	35.054
280.60	36.257
280.97	38.788
281.34	34.038
281.71	36.961
282.08	34.560
282.45	33.855
282.82	35.328
283.19	35.977
283.56	37.380
283.92	36.243
284.29	34.038
284.66	35.659
285.03	34.381
285.40	33.081
285.77	32.337
286.14	33.935
286.51	35.240
286.87	30.896
287.24	34.070
287.61	32.099
287.98	32.281
288.35	32.929
288.72	35.552
289.08	32.292
289.45	31.634
289.82	30.245
290.19	29.693
290.56	32.590
290.93	31.650
291.29	28.043
291.66	30.709
292.03	29.665
292.40	30.484
292.77	29.027
293.13	27.273
293.50	27.618
293.87	27.939
294.24	26.584
294.60	27.869
294.97	27.232
295.34	27.147
295.71	28.465
296.08	26.457
296.44	24.182
296.81	25.833
297.18	26.957
297.55	26.423
297.91	26.027
298.28	26.517
298.65	25.645
299.02	26.280
299.38	22.982
299.75	25.517
300.12	25.131
300.48	24.506
300.85	24.588
301.22	23.896
301.59	22.632
301.95	25.949
302.32	26.589
302.69	23.134
303.05	23.515
303.42	23.288
303.79	24.416
304.15	25.090
304.52	23.424
304.89	23.275
305.25	23.123
305.62	22.637
305.99	22.222
306.35	22.428
306.72	21.372
307.09	21.437
307.45	21.929
307.82	22.454
308.19	23.345
308.55	22.465
308.92	23.965
309.29	21.788
309.65	21.421
310.02	22.772
310.38	22.503
310.75	22.077
311.12	22.390
311.48	21.739
311.85	22.304
312.22	20.359
312.58	20.701
312.95	21.131
313.31	21.325
313.68	20.628
314.05	20.816
314.41	23.093
314.78	20.722
315.14	22.919
315.51	22.257
315.87	22.131
316.24	24.166
316.61	21.850
316.97	21.825
317.34	22.656
317.70	22.180
318.07	22.981
318.43	23.431
318.80	22.633
319.16	23.633
319.53	23.552
319.89	23.917
320.26	24.696
320.62	25.777
320.99	24.635
321.35	25.385
321.72	25.961
322.08	26.586
322.45	25.381
322.81	23.183
323.18	25.123
323.54	24.421
323.91	26.290
324.27	27.441
324.64	26.685
325.00	28.832
325.37	30.028
325.73	28.558
326.10	29.064
326.46	31.570
326.83	29.571
327.19	30.514
327.56	30.061
327.92	31.514
328.29	31.250
328.65	32.264
329.01	32.445
329.38	32.350
329.74	32.483
330.11	31.233
330.47	33.395
330.84	33.654
331.20	34.886
331.56	33.704
331.93	35.525
332.29	35.655
332.66	36.471
333.02	35.409
333.38	34.647
333.75	38.095
334.11	36.168
334.48	37.443
334.84	36.355
335.20	36.505
335.57	35.902
335.93	37.127
336.29	39.227
336.66	37.421
337.02	36.989
337.38	37.593
337.75	38.636
338.11	38.774
338.47	38.412
338.84	38.817
339.20	39.122
339.56	38.991
339.93	39.391
340.29	38.073
340.65	39.785
341.02	38.564
341.38	38.142
341.74	38.781
342.11	37.955
342.47	39.502
342.83	38.062
343.20	39.199
343.56	39.826
343.92	39.593
344.28	41.161
344.65	39.551
345.01	38.807
345.37	38.940
345.73	39.665
346.10	40.121
346.46	39.529
346.82	39.362
347.19	38.404
347.55	40.351
347.91	39.806
348.27	39.935
348.63	40.034
349.00	38.720
349.36	39.401
349.72	41.376
350.08	39.262
350.45	39.665
350.81	40.947
351.17	39.414
351.53	40.082
351.89	40.545
352.26	41.120
352.62	41.048
352.98	40.723
353.34	39.855
353.70	41.262
354.07	40.726
354.43	40.592
354.79	42.197
355.15	41.746
355.51	42.089
355.87	41.505
356.24	40.375
356.60	40.663
356.96	41.825
357.32	42.093
357.68	40.891
358.04	42.246
358.40	42.605
358.77	43.142
359.13	42.834
359.49	41.371
359.85	42.512
360.21	42.743
360.57	42.540
360.93	42.284
361.29	41.012
361.66	44.592
362.02	42.197
362.38	43.869
362.74	43.679
363.10	44.093
363.46	43.588
363.82	44.929
364.18	42.952
364.54	43.456
364.90	42.509
365.26	44.323
365.62	45.328
365.98	46.334
366.35	44.355
366.71	45.159
367.07	44.485
367.43	44.141
367.79	44.523
368.15	44.580
368.51	45.448
368.87	44.508
369.23	43.610
369.59	46.720
369.95	44.721
370.31	44.436
370.67	46.269
371.03	45.556
371.39	45.077
371.75	45.788
372.11	45.364
372.47	46.154
372.83	45.990
373.19	45.792
373.55	46.137
373.91	45.788
374.27	47.838
374.63	46.159
374.99	47.589
375.35	47.284
375.71	47.622
376.07	47.331
376.42	47.483
376.78	48.725
377.14	48.341
377.50	48.938
377.86	47.791
378.22	47.735
378.58	48.205
378.94	48.330
379.30	49.033
379.66	49.028
380.02	47.578
380.38	48.022
380.74	48.115
381.09	49.264
381.45	49.664
381.81	49.661
382.17	50.444
382.53	49.969
382.89	50.408
383.25	49.844
383.61	51.707
383.97	49.841
384.32	50.469
384.68	50.279
385.04	50.429
385.40	50.093
385.76	51.887
386.12	51.876
386.48	52.874
386.83	50.476
387.19	51.465
387.55	51.945
387.91	51.039
388.27	50.977
388.62	53.430
388.98	51.320
389.34	52.030
389.70	52.268
390.06	51.290
390.42	51.749
390.77	52.780
391.13	51.702
391.49	52.717
391.85	53.801
392.20	52.166
392.56	53.274
392.92	54.727
393.28	53.656
393.64	52.853
393.99	53.918
394.35	54.080
394.71	53.512
395.07	52.923
395.42	52.398
395.78	54.007
396.14	53.342
396.50	54.280
396.85	53.767
397.21	53.133
397.57	53.730
397.92	54.044
398.28	55.115
398.64	53.193
399.00	55.079
399.35	54.515
399.71	53.073
400.07	54.655
400.42	53.672
400.78	54.011
401.14	54.325
401.49	55.033
401.85	53.626
402.21	54.036
402.57	53.937
402.92	53.388
403.28	54.762
403.63	54.288
403.99	54.401
404.35	53.841
404.70	53.690
405.06	53.584
405.42	53.636
405.77	53.980
406.13	54.657
406.49	54.529
406.84	54.523
407.20	54.365
407.55	53.574
407.91	53.075
408.27	54.557
408.62	54.523
408.98	54.036
409.34	56.072
409.69	54.457
410.05	54.064
410.40	53.951
410.76	54.765
411.11	53.750
411.47	54.504
411.83	53.107
412.18	54.955
412.54	53.870
412.89	53.202
413.25	54.272
413.60	54.286
413.96	52.577
414.31	54.512
414.67	53.496
415.03	54.261
415.38	54.830
415.74	53.290
416.09	54.997
416.45	55.098
416.80	54.395
417.16	53.591
417.51	54.430
417.87	52.608
418.22	54.858
418.58	55.719
418.93	54.671
419.29	52.305
419.64	55.023
420.00	55.227
420.35	53.731
420.71	55.103
421.06	55.985
421.42	55.409
421.77	55.780
422.12	55.165
422.48	55.766
422.83	54.524
423.19	55.587
423.54	55.556
423.90	54.653
424.25	56.257
424.61	55.141
424.96	54.762
425.31	55.979
425.67	53.873
426.02	54.417
426.38	57.420
426.73	56.356
427.09	55.886
427.44	56.529
427.79	55.569
428.15	55.583
428.50	56.148
428.85	55.835
429.21	56.933
429.56	57.358
429.92	56.805
430.27	55.990
430.62	57.344
430.98	57.431
431.33	57.045
431.68	56.567
432.04	56.121
432.39	55.790
432.74	54.059
433.10	56.839
433.45	56.511
433.80	57.400
434.16	56.898
434.51	56.828
434.86	56.852
435.22	56.422
435.57	57.205
435.92	55.808
436.28	55.397
436.63	56.303
436.98	56.663
437.34	57.592
437.69	57.126
438.04	56.923
438.39	56.811
438.75	58.409
439.10	56.819
439.45	57.152
439.81	56.208
440.16	57.779
440.51	58.507
440.86	58.489
441.22	56.222
441.57	57.616
441.92	58.814
442.27	58.315
442.63	57.602
442.98	58.070
443.33	58.264
443.68	57.188
444.03	57.029
444.39	56.272
444.74	59.030
445.09	58.018
445.44	58.348
445.79	58.071
446.15	56.883
446.50	57.404
446.85	58.608
447.20	57.351
447.55	58.036
447.91	58.714
448.26	56.232
448.61	57.513
448.96	56.913
449.31	57.514
449.66	57.201
450.02	57.216
450.37	59.040
450.72	57.388
451.07	57.595
451.42	54.869
451.77	56.962
452.12	56.519
452.47	54.733
452.83	57.420
453.18	57.052
453.53	57.016
453.88	57.013
454.23	55.624
454.58	57.872
454.93	56.572
455.28	54.794
455.63	56.789
455.98	56.524
456.34	56.130
456.69	57.243
457.04	56.837
457.39	56.561
457.74	57.195
458.09	55.327
458.44	56.524
458.79	55.742
459.14	56.636
459.49	58.090
459.84	57.417
460.19	56.493
460.54	57.702
460.89	56.761
461.24	56.211
461.59	56.176
461.94	55.094
462.29	55.368
462.64	55.349
462.99	55.518
463.34	54.451
463.69	55.212
464.04	55.993
464.39	56.155
464.74	56.933
465.09	57.392
465.44	57.992
465.79	55.896
466.14	57.127
466.49	57.274
466.84	55.979
467.19	54.819
467.54	56.066
467.89	57.107
468.24	54.319
468.59	57.206
468.94	55.175
469.29	56.197
469.64	54.956
469.99	55.501
470.34	54.676
470.68	55.481
471.03	55.060
471.38	55.136
471.73	55.112
472.08	53.867
472.43	55.369
472.78	53.735
473.13	53.810
473.48	54.919
473.83	54.670
474.17	54.598
474.52	54.308
474.87	53.515
475.22	54.423
475.57	54.658
475.92	55.074
476.27	54.075
476.61	55.093
476.96	54.044
477.31	54.191
477.66	53.820
478.01	54.857
478.36	54.194
478.70	54.486
479.05	54.505
479.40	53.577
479.75	53.285
480.10	54.634
480.45	55.100
480.79	55.841
481.14	55.943
481.49	53.941
481.84	55.598
482.19	54.490
482.53	54.149
482.88	54.940
483.23	53.743
483.58	53.585
483.92	53.388
484.27	52.963
484.62	53.922
484.97	54.436
485.31	55.780
485.66	60.290
486.01	63.072
486.36	61.976
486.70	59.856
487.05	57.784
487.40	56.903
487.75	54.648
488.09	51.823
488.44	50.069
488.79	50.131
489.13	51.522
489.48	52.629
489.83	52.601
490.17	52.090
490.52	51.917
490.87	52.800
491.22	52.913
491.56	52.372
491.91	50.717
492.26	52.309
492.60	51.919
492.95	52.976
493.30	52.027
493.64	52.505
493.99	51.981
494.34	51.990
494.68	52.381
495.03	52.165
495.37	51.717
495.72	52.903
496.07	52.976
496.41	53.396
496.76	53.201
497.11	52.026
497.45	53.174
497.80	52.170
498.14	50.720
498.49	52.057
498.84	50.499
499.18	52.410
499.53	52.679
499.87	51.167
500.22	52.275
500.56	51.740
500.91	51.556
501.26	50.568
501.60	52.336
501.95	52.499
502.29	51.622
502.64	52.220
502.98	52.738
503.33	51.393
503.67	52.193
504.02	52.199
504.36	52.251
504.71	51.818
505.06	51.132
505.40	51.726
505.75	50.670
506.09	51.039
506.44	51.951
506.78	51.327
507.13	51.138
507.47	50.757
507.82	50.748
508.16	49.921
508.51	51.364
508.85	50.131
509.19	49.973
509.54	50.295
509.88	49.946
510.23	50.403
510.57	50.401
510.92	49.414
511.26	51.009
511.61	50.935
511.95	50.027
512.30	49.446
512.64	49.694
512.98	49.523
513.33	50.308
513.67	49.289
514.02	50.915
514.36	50.114
514.70	50.058
515.05	49.882
515.39	48.819
515.74	50.599
516.08	49.492
516.42	49.352
516.77	49.854
517.11	50.682
517.46	50.150
517.80	49.285
518.14	48.683
518.49	48.197
518.83	48.542
519.17	48.029
519.52	49.674
519.86	48.619
520.20	49.210
520.55	47.280
520.89	49.247
521.23	48.575
521.58	48.707
521.92	48.654
522.26	48.081
522.61	47.013
522.95	48.874
523.29	47.840
523.64	47.713
523.98	48.801
524.32	48.582
524.66	48.143
525.01	48.766
525.35	48.671
525.69	48.687
526.04	46.825
526.38	48.119
526.72	47.220
527.06	47.017
527.41	47.230
527.75	47.721
528.09	47.375
528.43	48.953
528.78	48.053
529.12	48.968
529.46	48.928
529.80	48.258
530.15	48.845
530.49	47.811
530.83	48.358
531.17	46.340
531.51	48.837
531.86	48.131
532.20	47.251
532.54	48.741
532.88	48.734
533.22	48.253
533.57	48.493
533.91	48.825
534.25	49.609
534.59	50.417
534.93	49.087
535.27	48.858
535.62	49.125
535.96	48.598
536.30	49.802
536.64	50.861
536.98	48.432
537.32	49.075
537.66	48.387
538.01	48.601
538.35	48.890
538.69	48.402
539.03	48.530
539.37	49.327
539.71	48.194
540.05	48.405
540.39	49.030
540.73	48.257
541.07	49.171
541.42	48.118
541.76	48.658
542.10	48.796
542.44	48.645
542.78	47.970
543.12	49.794
543.46	49.026
543.80	49.688
544.14	47.730
544.48	48.767
544.82	49.897
545.16	50.615
545.50	49.266
545.84	50.212
546.18	49.787
546.52	48.810
546.86	49.676
547.20	48.641
547.54	48.339
547.88	50.611
548.22	49.704
548.56	49.142
548.90	49.124
549.24	49.311
549.58	47.743
549.92	46.533
550.26	48.938
550.60	48.773
550.94	49.216
551.28	47.372
551.62	48.231
551.96	50.075
552.30	50.365
552.64	49.295
552.98	50.000
553.32	48.288
553.66	49.274
554.00	50.511
554.34	48.671
554.68	48.009
555.02	49.033
555.36	48.542
555.69	49.817
556.03	48.465
556.37	49.395
556.71	49.386
557.05	47.726
557.39	48.699
557.73	49.025
558.07	49.623
558.41	48.851
558.75	48.714
559.08	47.597
559.42	46.270
559.76	48.919
560.10	48.853
560.44	50.633
560.78	50.629
561.12	51.269
561.45	51.933
561.79	50.000
562.13	50.958
562.47	50.144
562.81	49.568
563.15	49.929
563.48	51.132
563.82	50.927
564.16	50.557
564.50	50.405
564.84	49.866
565.17	50.302
565.51	52.117
565.85	51.235
566.19	50.796
566.52	51.072
566.86	51.928
567.20	50.747
567.54	53.650
567.88	54.833
568.21	54.016
568.55	54.185
568.89	55.082
569.23	56.235
569.56	56.305
569.90	58.587
570.24	58.355
570.57	58.400
570.91	60.021
571.25	59.092
571.59	58.362
571.92	58.756
572.26	58.907
572.60	57.395
572.93	57.735
573.27	57.179
573.61	59.010
573.95	60.022
574.28	59.190
574.62	60.259
574.96	60.534
575.29	59.036
575.63	58.150
575.97	58.580
576.30	58.504
576.64	58.490
576.98	59.743
577.31	60.113
577.65	60.894
577.98	62.172
578.32	61.960
578.66	59.231
578.99	58.985
579.33	58.181
579.67	58.390
580.00	59.063
580.34	58.831
580.67	57.715
581.01	59.606
581.35	61.068
581.68	63.157
582.02	63.149
582.35	62.526
582.69	61.706
583.02	60.607
583.36	58.599
583.70	57.840
584.03	57.882
584.37	57.030
584.70	57.802
585.04	58.782
585.37	60.565
585.71	61.417
586.04	60.767
586.38	58.762
586.72	59.684
587.05	60.341
587.39	61.336
587.72	61.372
588.06	59.258
588.39	58.872
588.73	59.035
589.06	58.937
589.40	57.449
589.73	56.517
590.07	57.779
590.40	57.353
590.73	58.443
591.07	56.489
591.40	57.435
591.74	56.923
592.07	57.375
592.41	58.436
592.74	59.658
593.08	60.426
593.41	61.746
593.75	60.157
594.08	59.664
594.41	58.916
594.75	59.084
595.08	59.705
595.42	59.514
595.75	58.693
596.09	58.757
596.42	57.007
596.75	56.927
597.09	56.948
597.42	57.633
597.75	58.452
598.09	56.813
598.42	57.762
598.76	59.674
599.09	60.657
599.42	60.894
599.76	60.346
600.09	60.445
600.42	59.439
600.76	59.398
601.09	59.885
601.42	59.342
601.76	59.428
602.09	58.993
602.42	59.225
602.76	58.616
603.09	59.261
603.42	61.455
603.76	59.073
604.09	59.012
604.42	59.179
604.76	58.567
605.09	57.998
605.42	57.698
605.75	59.676
606.09	59.958
606.42	58.173
606.75	59.394
607.09	59.297
607.42	58.175
607.75	58.837
608.08	57.188
608.42	56.647
608.75	58.602
609.08	57.349
609.41	57.614
609.75	57.359
610.08	57.913
610.41	57.971
610.74	58.606
611.07	58.346
611.41	57.966
611.74	58.849
612.07	57.120
612.40	57.659
612.73	58.757
613.07	56.749
613.40	58.096
613.73	56.687
614.06	57.874
614.39	58.206
614.72	57.759
615.06	58.380
615.39	58.133
615.72	58.719
616.05	58.045
616.38	56.467
616.71	56.697
617.05	56.825
617.38	54.620
617.71	56.352
618.04	58.095
618.37	56.431
618.70	56.898
619.03	56.667
619.36	53.618
619.69	55.572
620.03	57.122
620.36	55.579
620.69	55.389
621.02	53.440
621.35	51.701
621.68	54.082
622.01	54.833
622.34	55.387
622.67	55.757
623.00	55.207
623.33	54.726
623.66	55.198
623.99	55.900
624.32	55.589
624.65	55.564
624.99	57.035
625.32	55.269
625.65	55.774
625.98	53.908
626.31	52.618
626.64	53.293
626.97	52.269
627.30	53.415
627.63	52.773
627.96	53.819
628.29	52.081
628.62	51.917
628.95	50.100
629.28	53.427
629.61	51.844
629.94	51.613
630.26	52.075
630.59	52.758
630.92	51.179
631.25	49.846
631.58	50.991
631.91	50.439
632.24	51.720
632.57	48.636
632.90	48.873
633.23	48.235
633.56	49.496
633.89	47.102
634.22	48.642
634.55	49.428
