SpectraSuite Data File
++++++++++++++++++++++++++++++++++++
Date: Fri May 15 17:25:04 PDT 2015
User: schluterlab
Dark Spectrum Present: Yes
Reference Spectrum Present: Yes
Number of Sampled Component Spectra: 1
Spectrometers: USB2E3373
Integration Time (usec): 3000 (USB2E3373)
Spectra Averaged: 3 (USB2E3373)
Boxcar Smoothing: 0 (USB2E3373)
Correct for Electrical Dark: No (USB2E3373)
Strobe/Lamp Enabled: No (USB2E3373)
Correct for Detector Non-linearity: No (USB2E3373)
Correct for Stray Light: No (USB2E3373)
Number of Pixels in Processed Spectrum: 2048
>>>>>Begin Processed Spectral Data<<<<<
178.53	0.000
178.91	0.000
179.29	25.000
179.67	-150.000
180.04	-85.714
180.42	-100.000
180.80	-600.000
181.18	33.333
181.56	400.000
181.94	-50.000
182.31	400.000
182.69	120.000
183.07	-133.333
183.45	-180.000
183.83	-66.667
184.20	54.545
184.58	55.556
184.96	-200.000
185.34	100.000
185.72	100.000
186.09	61.538
186.47	400.000
186.85	183.333
187.23	66.667
187.61	-400.000
187.98	300.000
188.36	33.333
188.74	166.667
189.12	23.529
189.49	38.889
189.87	0.000
190.25	64.286
190.63	400.000
191.00	-166.667
191.38	-10.526
191.76	150.000
192.14	100.000
192.51	300.000
192.89	-88.889
193.27	-57.143
193.65	216.667
194.02	127.273
194.40	120.000
194.78	12.500
195.15	-33.333
195.53	12.500
195.91	-25.000
196.29	175.000
196.66	84.615
197.04	-28.571
197.42	-22.222
197.79	-100.000
198.17	-30.769
198.55	1300.000
198.92	-100.000
199.30	500.000
199.68	20.000
200.05	-333.333
200.43	0.000
200.81	-33.333
201.18	133.333
201.56	800.000
201.94	-500.000
202.31	-400.000
202.69	-80.000
203.07	100.000
203.44	0.000
203.82	0.000
204.19	0.000
204.57	-466.667
204.95	100.000
205.32	-100.000
205.70	-85.714
206.08	150.000
206.45	244.444
206.83	71.429
207.20	-14.286
207.58	400.000
207.96	-33.333
208.33	-70.000
208.71	75.000
209.08	-50.000
209.46	-600.000
209.84	-60.000
210.21	-400.000
210.59	128.571
210.96	-16.667
211.34	75.000
211.71	60.000
212.09	-100.000
212.46	-1100.000
212.84	0.000
213.22	90.000
213.59	100.000
213.97	46.154
214.34	0.000
214.72	100.000
215.09	475.000
215.47	23.077
215.84	9.091
216.22	-133.333
216.59	75.000
216.97	100.000
217.34	225.000
217.72	-80.000
218.09	87.500
218.47	87.500
218.84	-300.000
219.22	-55.556
219.59	120.000
219.97	266.667
220.34	25.000
220.72	85.714
221.09	-50.000
221.47	250.000
221.84	-100.000
222.22	-200.000
222.59	118.182
222.97	50.000
223.34	-200.000
223.72	14.286
224.09	28.571
224.46	32.143
224.84	300.000
225.21	60.000
225.59	53.333
225.96	150.000
226.34	50.000
226.71	-14.286
227.08	-83.333
227.46	150.000
227.83	-50.000
228.21	88.889
228.58	81.818
228.95	-50.000
229.33	10.000
229.70	0.000
230.08	-75.000
230.45	57.143
230.82	128.571
231.20	20.000
231.57	92.857
231.95	-142.857
232.32	-10.000
232.69	14.286
233.07	133.333
233.44	-40.000
233.81	-120.000
234.19	22.222
234.56	41.176
234.93	-100.000
235.31	300.000
235.68	-20.000
236.05	23.077
236.43	30.000
236.80	58.824
237.17	56.250
237.55	30.000
237.92	51.852
238.29	41.667
238.67	53.333
239.04	82.353
239.41	14.634
239.79	40.000
240.16	53.659
240.53	57.895
240.91	65.217
241.28	55.556
241.65	53.571
242.02	43.836
242.40	65.000
242.77	55.932
243.14	62.121
243.51	56.250
243.89	60.920
244.26	57.471
244.63	59.524
245.00	53.608
245.38	55.670
245.75	48.315
246.12	43.103
246.49	57.851
246.87	69.231
247.24	49.580
247.61	54.386
247.98	69.106
248.36	47.500
248.73	57.895
249.10	55.195
249.47	52.532
249.84	58.170
250.22	61.765
250.59	49.673
250.96	60.563
251.33	60.465
251.70	65.882
252.08	48.731
252.45	54.950
252.82	61.307
253.19	53.917
253.56	53.738
253.94	57.207
254.31	58.696
254.68	64.912
255.05	55.118
255.42	58.515
255.79	59.459
256.16	56.031
256.54	60.821
256.91	55.133
257.28	52.416
257.65	55.805
258.02	53.901
258.39	56.566
258.76	60.440
259.14	58.472
259.51	59.871
259.88	62.543
260.25	59.150
260.62	61.111
260.99	60.000
261.36	54.795
261.73	59.177
262.10	59.574
262.47	61.043
262.85	59.561
263.22	59.077
263.59	59.813
263.96	61.491
264.33	55.152
264.70	57.440
265.07	57.440
265.44	60.907
265.81	57.062
266.18	59.016
266.55	59.383
266.92	56.218
267.29	61.097
267.66	59.335
268.03	58.639
268.40	58.747
268.77	60.428
269.14	58.513
269.51	56.298
269.88	55.860
270.25	58.673
270.62	56.098
270.99	58.056
271.36	54.279
271.73	57.746
272.10	59.367
272.47	60.757
272.84	58.663
273.21	55.452
273.58	60.723
273.95	57.437
274.32	57.737
274.69	56.109
275.06	58.929
275.43	55.556
275.80	57.616
276.17	60.000
276.54	57.388
276.91	59.430
277.28	57.424
277.65	55.785
278.02	57.234
278.39	56.674
278.76	60.168
279.13	53.527
279.50	56.092
279.87	56.371
280.23	55.054
280.60	54.191
280.97	55.556
281.34	53.077
281.71	59.754
282.08	53.783
282.45	54.990
282.82	54.440
283.19	56.673
283.56	55.491
283.92	54.080
284.29	54.808
284.66	57.171
285.03	53.045
285.40	53.686
285.77	54.306
286.14	54.152
286.51	56.458
286.87	52.468
287.24	53.591
287.61	52.205
287.98	56.316
288.35	50.953
288.72	53.240
289.08	51.736
289.45	53.603
289.82	49.825
290.19	50.341
290.56	51.115
290.93	50.673
291.29	44.684
291.66	49.449
292.03	47.209
292.40	47.258
292.77	47.209
293.13	44.481
293.50	43.399
293.87	47.328
294.24	45.904
294.60	44.858
294.97	45.536
295.34	45.859
295.71	43.666
296.08	44.096
296.44	41.394
296.81	44.722
297.18	45.217
297.55	44.038
297.91	40.137
298.28	42.480
298.65	42.062
299.02	40.566
299.38	40.356
299.75	41.517
300.12	41.885
300.48	39.526
300.85	40.684
301.22	38.831
301.59	39.474
301.95	39.620
302.32	39.818
302.69	40.672
303.05	39.604
303.42	39.477
303.79	38.435
304.15	38.949
304.52	39.001
304.89	37.778
305.25	38.136
305.62	35.123
305.99	36.725
306.35	37.688
306.72	35.546
307.09	37.058
307.45	36.510
307.82	38.194
308.19	37.863
308.55	36.532
308.92	39.216
309.29	37.765
309.65	37.244
310.02	36.744
310.38	36.883
310.75	37.049
311.12	37.244
311.48	36.055
311.85	36.963
312.22	36.498
312.58	37.049
312.95	35.432
313.31	37.785
313.68	35.183
314.05	35.918
314.41	35.979
314.78	36.082
315.14	37.821
315.51	36.439
315.87	35.553
316.24	36.198
316.61	36.220
316.97	36.012
317.34	35.742
317.70	35.182
318.07	34.712
318.43	36.373
318.80	35.322
319.16	36.816
319.53	36.657
319.89	35.630
320.26	35.526
320.62	36.008
320.99	35.177
321.35	36.691
321.72	35.722
322.08	34.945
322.45	36.650
322.81	34.774
323.18	33.170
323.54	33.880
323.91	35.540
324.27	34.473
324.64	35.393
325.00	36.496
325.37	35.445
325.73	34.270
326.10	34.968
326.46	33.632
326.83	35.171
327.19	34.176
327.56	34.666
327.92	35.915
328.29	34.554
328.65	35.189
329.01	34.835
329.38	33.825
329.74	33.994
330.11	35.218
330.47	33.302
330.84	33.173
331.20	34.886
331.56	32.963
331.93	33.881
332.29	33.547
332.66	34.570
333.02	33.086
333.38	33.731
333.75	33.883
334.11	32.677
334.48	33.998
334.84	34.524
335.20	34.675
335.57	33.726
335.93	32.972
336.29	34.899
336.66	32.516
337.02	33.086
337.38	33.333
337.75	34.455
338.11	32.191
338.47	33.850
338.84	32.440
339.20	32.633
339.56	32.202
339.93	32.408
340.29	33.486
340.65	33.871
341.02	32.713
341.38	32.035
341.74	32.686
342.11	32.149
342.47	33.274
342.83	32.439
343.20	31.098
343.56	32.522
343.92	32.507
344.28	32.195
344.65	32.124
345.01	31.115
345.37	31.034
345.73	32.385
346.10	31.752
346.46	32.464
346.82	31.097
347.19	32.170
347.55	32.247
347.91	30.906
348.27	31.447
348.63	32.453
349.00	31.665
349.36	33.416
349.72	33.499
350.08	32.131
350.45	32.163
350.81	32.060
351.17	31.433
351.53	32.571
351.89	29.315
352.26	30.960
352.62	31.129
352.98	30.361
353.34	31.804
353.70	31.149
354.07	31.452
354.43	30.905
354.79	31.462
355.15	32.460
355.51	32.199
355.87	30.259
356.24	31.158
356.60	31.285
356.96	30.873
357.32	29.952
357.68	30.649
358.04	30.533
358.40	31.109
358.77	31.021
359.13	30.424
359.49	30.046
359.85	30.343
360.21	31.260
360.57	30.298
360.93	30.862
361.29	28.625
361.66	31.348
362.02	30.530
362.38	30.617
362.74	30.204
363.10	32.054
363.46	29.577
363.82	32.081
364.18	30.332
364.54	31.397
364.90	29.391
365.26	31.223
365.62	31.606
365.98	30.572
366.35	32.047
366.71	30.229
367.07	31.060
367.43	29.547
367.79	30.459
368.15	29.864
368.51	30.808
368.87	29.935
369.23	30.181
369.59	30.685
369.95	30.205
370.31	30.491
370.67	29.030
371.03	30.844
371.39	29.249
371.75	29.524
372.11	29.957
372.47	30.547
372.83	31.015
373.19	29.601
373.55	29.531
373.91	30.310
374.27	31.042
374.63	30.869
374.99	30.426
375.35	28.969
375.71	30.070
376.07	30.337
376.42	30.068
376.78	29.597
377.14	30.061
377.50	30.345
377.86	29.853
378.22	30.185
378.58	30.449
378.94	29.301
379.30	29.320
379.66	30.345
380.02	29.859
380.38	29.945
380.74	30.281
381.09	30.000
381.45	28.685
381.81	29.611
382.17	29.378
382.53	29.107
382.89	30.760
383.25	30.305
383.61	29.695
383.97	29.016
384.32	29.894
384.68	29.783
385.04	28.615
385.40	28.500
385.76	30.881
386.12	30.272
386.48	30.651
386.83	29.169
387.19	29.243
387.55	30.301
387.91	29.890
388.27	30.037
388.62	30.396
388.98	30.694
389.34	29.669
389.70	30.454
390.06	29.956
390.42	30.311
390.77	28.973
391.13	29.319
391.49	30.013
391.85	29.955
392.20	30.320
392.56	28.989
392.92	29.712
393.28	29.304
393.64	29.970
393.99	30.031
394.35	29.665
394.71	31.481
395.07	30.233
395.42	29.326
395.78	29.837
396.14	30.139
396.50	29.613
396.85	30.908
397.21	30.138
397.57	29.028
397.92	29.419
398.28	30.000
398.64	29.578
399.00	30.418
399.35	29.233
399.71	30.098
400.07	29.867
400.42	29.927
400.78	30.496
401.14	30.127
401.49	31.447
401.85	28.946
402.21	29.578
402.57	30.125
402.92	29.737
403.28	30.138
403.63	29.634
403.99	29.719
404.35	30.856
404.70	29.821
405.06	29.612
405.42	29.956
405.77	28.646
406.13	29.569
406.49	29.959
406.84	29.768
407.20	30.343
407.55	29.942
407.91	29.813
408.27	30.274
408.62	30.462
408.98	29.760
409.34	30.050
409.69	29.587
410.05	29.741
410.40	29.630
410.76	30.157
411.11	30.875
411.47	30.703
411.83	29.504
412.18	30.888
412.54	29.026
412.89	29.495
413.25	30.265
413.60	29.938
413.96	30.491
414.31	30.000
414.67	29.442
415.03	28.895
415.38	29.634
415.74	30.033
416.09	30.634
416.45	30.115
416.80	30.205
417.16	30.180
417.51	30.713
417.87	29.205
418.22	30.181
418.58	30.702
418.93	30.470
419.29	29.449
419.64	30.979
420.00	30.982
420.35	29.970
420.71	29.891
421.06	29.527
421.42	30.889
421.77	30.809
422.12	29.455
422.48	29.832
422.83	29.930
423.19	30.587
423.54	30.100
423.90	28.916
424.25	30.195
424.61	29.437
424.96	30.023
425.31	31.658
425.67	30.869
426.02	32.097
426.38	30.182
426.73	30.024
427.09	31.772
427.44	30.588
427.79	31.055
428.15	31.432
428.50	30.103
428.85	29.914
429.21	30.560
429.56	31.536
429.92	30.919
430.27	30.226
430.62	29.744
430.98	30.308
431.33	29.075
431.68	30.298
432.04	29.458
432.39	29.720
432.74	29.705
433.10	30.690
433.45	29.928
433.80	29.890
434.16	30.194
434.51	30.215
434.86	30.023
435.22	30.959
435.57	30.755
435.92	30.000
436.28	30.292
436.63	30.063
436.98	29.722
437.34	30.248
437.69	29.875
438.04	30.712
438.39	29.811
438.75	31.087
439.10	30.447
439.45	31.041
439.81	30.520
440.16	30.582
440.51	31.224
440.86	32.568
441.22	30.769
441.57	30.132
441.92	31.532
442.27	31.707
442.63	32.013
442.98	31.189
443.33	30.440
443.68	30.292
444.03	32.042
444.39	30.300
444.74	31.382
445.09	31.292
445.44	31.282
445.79	32.130
446.15	31.167
446.50	30.283
446.85	31.296
447.20	31.648
447.55	31.696
447.91	31.416
448.26	32.385
448.61	31.779
448.96	31.842
449.31	32.197
449.66	31.243
450.02	32.116
450.37	32.128
450.72	31.959
451.07	32.532
451.42	31.710
451.77	30.922
452.12	30.682
452.47	32.131
452.83	30.801
453.18	31.752
453.53	31.606
453.88	32.726
454.23	31.530
454.58	32.494
454.93	33.183
455.28	30.730
455.63	31.742
455.98	31.930
456.34	31.354
456.69	31.067
457.04	32.451
457.39	32.139
457.74	31.560
458.09	32.019
458.44	32.475
458.79	31.765
459.14	32.609
459.49	32.358
459.84	32.544
460.19	32.282
460.54	31.601
460.89	32.727
461.24	32.547
461.59	32.720
461.94	31.950
462.29	32.569
462.64	32.757
462.99	32.363
463.34	32.267
463.69	31.789
464.04	32.506
464.39	31.716
464.74	32.086
465.09	32.127
465.44	32.429
465.79	31.859
466.14	32.611
466.49	31.627
466.84	33.016
467.19	33.041
467.54	32.695
467.89	33.481
468.24	33.273
468.59	33.079
468.94	32.317
469.29	33.115
469.64	33.014
469.99	33.777
470.34	33.106
470.68	33.781
471.03	32.838
471.38	32.739
471.73	33.403
472.08	33.446
472.43	32.483
472.78	32.968
473.13	34.150
473.48	33.876
473.83	33.375
474.17	33.873
474.52	33.376
474.87	33.939
475.22	33.496
475.57	32.693
475.92	33.461
476.27	33.178
476.61	34.259
476.96	32.906
477.31	33.748
477.66	34.045
478.01	33.520
478.36	33.769
478.70	34.258
479.05	34.341
479.40	34.075
479.75	33.420
480.10	33.589
480.45	33.950
480.79	33.333
481.14	33.914
481.49	33.941
481.84	34.170
482.19	32.928
482.53	33.333
482.88	32.840
483.23	33.637
483.58	33.491
483.92	33.640
484.27	32.315
484.62	33.079
484.97	32.297
485.31	31.864
485.66	31.408
486.01	31.605
486.36	30.913
486.70	30.703
487.05	31.606
487.40	31.851
487.75	31.972
488.09	32.169
488.44	32.187
488.79	32.200
489.13	32.612
489.48	33.818
489.83	33.318
490.17	33.393
490.52	34.042
490.87	33.179
491.22	34.336
491.56	34.630
491.91	33.222
492.26	34.759
492.60	33.925
492.95	34.579
493.30	35.027
493.64	34.725
493.99	34.589
494.34	34.223
494.68	35.095
495.03	33.431
495.37	34.838
495.72	34.831
496.07	34.683
496.41	34.764
496.76	33.763
497.11	32.883
497.45	34.749
497.80	35.116
498.14	34.575
498.49	34.789
498.84	34.731
499.18	35.643
499.53	34.226
499.87	34.484
500.22	34.471
500.56	35.905
500.91	33.635
501.26	34.355
501.60	34.481
501.95	35.080
502.29	34.189
502.64	34.266
502.98	34.780
503.33	34.582
503.67	34.169
504.02	35.679
504.36	35.527
504.71	34.949
505.06	34.675
505.40	34.772
505.75	34.897
506.09	35.073
506.44	36.088
506.78	35.255
507.13	35.315
507.47	34.465
507.82	35.524
508.16	35.024
508.51	35.992
508.85	35.165
509.19	35.444
509.54	36.139
509.88	35.707
510.23	35.073
510.57	36.077
510.92	33.369
511.26	36.061
511.61	36.799
511.95	35.781
512.30	35.698
512.64	36.227
512.98	36.159
513.33	36.821
513.67	36.043
514.02	36.556
514.36	36.743
514.70	37.179
515.05	37.603
515.39	37.308
515.74	37.425
516.08	36.521
516.42	37.338
516.77	37.156
517.11	37.092
517.46	37.762
517.80	36.710
518.14	36.987
518.49	36.779
518.83	37.363
519.17	37.053
519.52	36.827
519.86	37.755
520.20	37.789
520.55	36.898
520.89	37.955
521.23	36.795
521.58	37.729
521.92	37.949
522.26	38.126
522.61	38.312
522.95	39.007
523.29	38.310
523.64	38.247
523.98	38.172
524.32	36.791
524.66	38.476
525.01	38.247
525.35	38.885
525.69	38.721
526.04	38.095
526.38	37.743
526.72	37.802
527.06	36.641
527.41	38.522
527.75	37.601
528.09	38.007
528.43	38.825
528.78	38.548
529.12	38.774
529.46	38.272
529.80	38.379
530.15	39.340
530.49	38.855
530.83	38.098
531.17	37.945
531.51	38.372
531.86	37.661
532.20	37.857
532.54	37.849
532.88	38.809
533.22	38.508
533.57	38.073
533.91	37.533
534.25	37.956
534.59	37.845
534.93	36.438
535.27	36.294
535.62	37.265
535.96	36.986
536.30	37.797
536.64	37.974
536.98	37.840
537.32	39.545
537.66	37.658
538.01	39.231
538.35	37.587
538.69	37.217
539.03	38.551
539.37	38.560
539.71	38.514
540.05	38.018
540.39	38.504
540.73	37.657
541.07	38.191
541.42	37.702
541.76	39.023
542.10	36.958
542.44	38.568
542.78	37.096
543.12	38.118
543.46	37.761
543.80	38.446
544.14	37.850
544.48	38.175
544.82	38.141
545.16	38.115
545.50	37.984
545.84	37.960
546.18	39.362
546.52	38.717
546.86	37.168
547.20	38.340
547.54	37.668
547.88	38.383
548.22	37.804
548.56	37.731
548.90	37.129
549.24	37.328
549.58	35.966
549.92	38.099
550.26	37.875
550.60	37.398
550.94	39.283
551.28	38.717
551.62	38.308
551.96	39.098
552.30	38.231
552.64	36.530
552.98	38.537
553.32	38.017
553.66	37.954
554.00	39.051
554.34	38.996
554.68	37.979
555.02	39.137
555.36	39.117
555.69	38.974
556.03	38.116
556.37	37.011
556.71	37.906
557.05	39.821
557.39	38.216
557.73	38.606
558.07	39.593
558.41	39.127
558.75	37.568
559.08	38.771
559.42	38.730
559.76	39.552
560.10	38.379
560.44	39.166
560.78	38.671
561.12	39.281
561.45	39.002
561.79	38.165
562.13	38.964
562.47	37.986
562.81	39.265
563.15	37.870
563.48	38.543
563.82	38.367
564.16	39.485
564.50	38.649
564.84	38.353
565.17	38.296
565.51	39.617
565.85	39.438
566.19	38.263
566.52	37.601
566.86	38.946
567.20	37.858
567.54	37.835
567.88	37.786
568.21	37.443
568.55	35.978
568.89	37.166
569.23	36.591
569.56	35.727
569.90	36.135
570.24	34.425
570.57	35.018
570.91	34.995
571.25	34.002
571.59	32.825
571.92	33.215
572.26	32.760
572.60	32.806
572.93	33.354
573.27	32.853
573.61	32.578
573.95	32.878
574.28	32.415
574.62	32.367
574.96	32.037
575.29	31.802
575.63	31.485
575.97	31.824
576.30	32.359
576.64	31.709
576.98	31.969
577.31	32.465
577.65	32.500
577.98	31.995
578.32	31.825
578.66	30.883
578.99	31.469
579.33	31.676
579.67	31.163
580.00	32.076
580.34	32.114
580.67	32.072
581.01	32.325
581.35	31.503
581.68	31.510
582.02	31.070
582.35	31.012
582.69	31.632
583.02	31.275
583.36	32.127
583.70	32.555
584.03	32.583
584.37	33.315
584.70	32.940
585.04	31.995
585.37	31.916
585.71	31.597
586.04	31.921
586.38	32.782
586.72	32.855
587.05	32.438
587.39	32.821
587.72	33.379
588.06	32.771
588.39	32.327
588.73	33.486
589.06	33.268
589.40	33.909
589.73	34.283
590.07	33.950
590.40	34.056
590.73	34.143
591.07	34.690
591.40	34.283
591.74	34.208
592.07	35.622
592.41	35.468
592.74	33.413
593.08	33.252
593.41	33.245
593.75	33.464
594.08	33.024
594.41	33.333
594.75	33.015
595.08	33.560
595.42	33.677
595.75	33.984
596.09	34.167
596.42	34.394
596.75	35.258
597.09	34.943
597.42	35.095
597.75	34.998
598.09	34.586
598.42	34.702
598.76	33.719
599.09	33.534
599.42	33.119
599.76	32.656
600.09	33.145
600.42	32.790
600.76	32.801
601.09	33.740
601.42	33.373
601.76	32.751
602.09	34.241
602.42	34.878
602.76	34.126
603.09	33.596
603.42	35.201
603.76	34.032
604.09	33.455
604.42	34.052
604.76	34.446
605.09	33.958
605.42	34.266
605.75	34.107
606.09	34.013
606.42	33.278
606.75	34.156
607.09	34.242
607.42	33.850
607.75	33.615
608.08	33.513
608.42	34.079
608.75	34.506
609.08	34.679
609.41	36.091
609.75	34.980
610.08	34.998
610.41	34.348
610.74	34.812
611.07	35.556
611.41	35.236
611.74	35.501
612.07	35.171
612.40	35.558
612.73	34.689
613.07	35.939
613.40	35.120
613.73	35.199
614.06	36.004
614.39	35.646
614.72	34.846
615.06	35.475
615.39	34.552
615.72	34.284
616.05	35.028
616.38	34.473
616.71	36.575
617.05	36.195
617.38	35.889
617.71	37.547
618.04	37.333
618.37	37.327
618.70	37.492
619.03	38.056
619.36	37.265
619.69	38.059
620.03	37.984
620.36	37.768
620.69	37.901
621.02	38.685
621.35	38.921
621.68	38.435
622.01	38.750
622.34	38.867
622.67	39.196
623.00	38.591
623.33	38.110
623.66	37.322
623.99	36.384
624.32	37.338
624.65	37.368
624.99	37.547
625.32	37.149
625.65	39.042
625.98	38.356
626.31	37.656
626.64	38.735
626.97	40.314
627.30	40.105
627.63	39.515
627.96	40.521
628.29	39.315
628.62	40.315
628.95	40.782
629.28	41.835
629.61	39.581
629.94	40.860
630.26	39.822
630.59	43.704
630.92	40.821
631.25	39.487
631.58	41.850
631.91	42.434
632.24	42.661
632.57	42.273
632.90	41.637
633.23	42.941
633.56	44.207
633.89	43.650
