SpectraSuite Data File
++++++++++++++++++++++++++++++++++++
Date: Fri May 15 17:03:03 PDT 2015
User: schluterlab
Dark Spectrum Present: Yes
Reference Spectrum Present: Yes
Number of Sampled Component Spectra: 1
Spectrometers: USB2E3373
Integration Time (usec): 3000 (USB2E3373)
Spectra Averaged: 3 (USB2E3373)
Boxcar Smoothing: 0 (USB2E3373)
Correct for Electrical Dark: No (USB2E3373)
Strobe/Lamp Enabled: No (USB2E3373)
Correct for Detector Non-linearity: No (USB2E3373)
Correct for Stray Light: No (USB2E3373)
Number of Pixels in Processed Spectrum: 2048
>>>>>Begin Processed Spectral Data<<<<<
178.53	0.000
178.91	0.000
179.29	225.000
179.67	550.000
180.04	-0.000
180.42	200.000
180.80	1400.000
181.18	-200.000
181.56	-100.000
181.94	150.000
182.31	500.000
182.69	140.000
183.07	100.000
183.45	-160.000
183.83	16.667
184.20	100.000
184.58	55.556
184.96	-325.000
185.34	-200.000
185.72	-100.000
186.09	23.077
186.47	600.000
186.85	50.000
187.23	55.556
187.61	-700.000
187.98	-133.333
188.36	22.222
188.74	0.000
189.12	47.059
189.49	55.556
189.87	0.000
190.25	85.714
190.63	250.000
191.00	-33.333
191.38	57.895
191.76	600.000
192.14	-0.000
192.51	650.000
192.89	-100.000
193.27	42.857
193.65	83.333
194.02	145.455
194.40	70.000
194.78	-12.500
195.15	75.000
195.53	-12.500
195.91	200.000
196.29	-25.000
196.66	61.538
197.04	-100.000
197.42	44.444
197.79	-66.667
198.17	-92.308
198.55	500.000
198.92	333.333
199.30	600.000
199.68	100.000
200.05	233.333
200.43	0.000
200.81	-33.333
201.18	-100.000
201.56	900.000
201.94	-50.000
202.31	-100.000
202.69	-160.000
203.07	125.000
203.44	900.000
203.82	0.000
204.19	50.000
204.57	-200.000
204.95	87.500
205.32	130.000
205.70	100.000
206.08	50.000
206.45	288.889
206.83	85.714
207.20	71.429
207.58	-1000.000
207.96	200.000
208.33	-50.000
208.71	0.000
209.08	-133.333
209.46	700.000
209.84	-160.000
210.21	500.000
210.59	71.429
210.96	66.667
211.34	175.000
211.71	53.333
212.09	-14.286
212.46	-700.000
212.84	0.000
213.22	190.000
213.59	-150.000
213.97	123.077
214.34	100.000
214.72	33.333
215.09	250.000
215.47	-53.846
215.84	45.455
216.22	-333.333
216.59	87.500
216.97	900.000
217.34	275.000
217.72	-180.000
218.09	37.500
218.47	50.000
218.84	700.000
219.22	-11.111
219.59	-20.000
219.97	-0.000
220.34	100.000
220.72	114.286
221.09	75.000
221.47	200.000
221.84	50.000
222.22	-400.000
222.59	136.364
222.97	75.000
223.34	200.000
223.72	50.000
224.09	61.905
224.46	71.429
224.84	100.000
225.21	30.000
225.59	53.333
225.96	100.000
226.34	125.000
226.71	28.571
227.08	-50.000
227.46	87.500
227.83	0.000
228.21	33.333
228.58	100.000
228.95	50.000
229.33	20.000
229.70	75.000
230.08	125.000
230.45	28.571
230.82	128.571
231.20	20.000
231.57	114.286
231.95	57.143
232.32	10.000
232.69	78.571
233.07	100.000
233.44	40.000
233.81	120.000
234.19	77.778
234.56	64.706
234.93	-300.000
235.31	350.000
235.68	60.000
236.05	23.077
236.43	25.000
236.80	147.059
237.17	28.125
237.55	80.000
237.92	62.963
238.29	61.111
238.67	86.667
239.04	38.235
239.41	19.512
239.79	80.000
240.16	82.927
240.53	55.263
240.91	73.913
241.28	68.254
241.65	75.000
242.02	58.904
242.40	83.333
242.77	71.186
243.14	63.636
243.51	52.500
243.89	68.966
244.26	62.069
244.63	69.048
245.00	64.948
245.38	67.010
245.75	59.551
246.12	60.345
246.49	72.727
246.87	60.577
247.24	68.067
247.61	57.018
247.98	65.041
248.36	56.875
248.73	55.263
249.10	64.935
249.47	70.253
249.84	72.549
250.22	66.471
250.59	72.549
250.96	57.746
251.33	59.302
251.70	72.353
252.08	68.020
252.45	65.347
252.82	66.332
253.19	63.594
253.56	66.822
253.94	60.811
254.31	66.957
254.68	64.035
255.05	61.417
255.42	67.249
255.79	60.618
256.16	63.813
256.54	63.433
256.91	64.639
257.28	56.506
257.65	61.049
258.02	63.121
258.39	65.657
258.76	65.568
259.14	66.445
259.51	62.136
259.88	64.605
260.25	65.033
260.62	68.403
260.99	63.729
261.36	63.014
261.73	63.608
262.10	64.742
262.47	61.350
262.85	64.577
263.22	63.385
263.59	61.371
263.96	67.702
264.33	66.667
264.70	65.774
265.07	65.774
265.44	66.289
265.81	61.017
266.18	66.940
266.55	61.697
266.92	67.098
267.29	64.230
267.66	63.683
268.03	64.398
268.40	59.530
268.77	66.310
269.14	61.391
269.51	64.010
269.88	63.342
270.25	63.776
270.62	61.220
270.99	65.729
271.36	61.369
271.73	63.850
272.10	66.180
272.47	64.066
272.84	66.832
273.21	61.485
273.58	60.723
273.95	63.387
274.32	62.818
274.69	56.787
275.06	64.063
275.43	60.998
275.80	61.589
276.17	63.678
276.54	59.529
276.91	63.377
277.28	60.044
277.65	59.298
278.02	60.638
278.39	61.707
278.76	63.732
279.13	58.299
279.50	61.345
279.87	59.179
280.23	62.581
280.60	59.844
280.97	63.030
281.34	58.846
281.71	61.602
282.08	58.078
282.45	59.100
282.82	57.529
283.19	63.443
283.56	56.455
283.92	59.583
284.29	57.115
284.66	56.395
285.03	58.350
285.40	58.223
285.77	53.779
286.14	57.040
286.51	59.225
286.87	56.307
287.24	56.906
287.61	54.321
287.98	55.789
288.35	55.459
288.72	56.567
289.08	54.688
289.45	55.712
289.82	53.322
290.19	53.754
290.56	53.859
290.93	52.189
291.29	49.769
291.66	48.976
292.03	51.196
292.40	52.903
292.77	48.963
293.13	48.864
293.50	47.344
293.87	48.244
294.24	49.459
294.60	47.690
294.97	46.726
295.34	47.239
295.71	46.796
296.08	47.384
296.44	42.532
296.81	45.417
297.18	44.638
297.55	44.715
297.91	44.110
298.28	45.119
298.65	41.655
299.02	42.722
299.38	39.808
299.75	44.276
300.12	42.801
300.48	42.556
300.85	40.177
301.22	41.169
301.59	40.658
301.95	42.785
302.32	42.802
302.69	41.915
303.05	39.480
303.42	39.477
303.79	41.822
304.15	39.904
304.52	39.477
304.89	39.415
305.25	38.136
305.62	37.806
305.99	38.480
306.35	40.116
306.72	37.683
307.09	39.795
307.45	37.084
307.82	37.616
308.19	39.721
308.55	38.386
308.92	38.562
309.29	37.654
309.65	37.244
310.02	38.064
310.38	39.078
310.75	39.454
311.12	38.859
311.48	36.585
311.85	37.068
312.22	36.709
312.58	37.367
312.95	37.353
313.31	37.164
313.68	36.859
314.05	36.224
314.41	38.041
314.78	37.526
315.14	38.335
315.51	38.716
315.87	36.988
316.24	37.715
316.61	36.713
316.97	36.706
317.34	37.109
317.70	35.946
318.07	35.096
318.43	35.882
318.80	34.848
319.16	37.305
319.53	36.372
319.89	36.713
320.26	36.741
320.62	37.212
320.99	35.804
321.35	35.149
321.72	37.279
322.08	35.952
322.45	35.228
322.81	36.149
323.18	35.525
323.54	34.170
323.91	34.567
324.27	35.547
324.64	35.674
325.00	34.489
325.37	36.823
325.73	34.905
326.10	35.604
326.46	36.323
326.83	36.045
327.19	35.571
327.56	35.187
327.92	35.651
328.29	35.446
328.65	34.811
329.01	34.283
329.38	34.747
329.74	34.466
330.11	34.198
330.47	34.508
330.84	33.942
331.20	36.502
331.56	33.056
331.93	34.338
332.29	35.380
332.66	32.941
333.02	34.015
333.38	34.005
333.75	34.341
334.11	32.319
334.48	33.273
334.84	34.615
335.20	33.486
335.57	33.998
335.93	34.598
336.29	33.057
336.66	33.697
337.02	33.086
337.38	32.963
337.75	32.727
338.11	33.454
338.47	33.303
338.84	34.566
339.20	33.638
339.56	33.761
339.93	33.035
340.29	34.771
340.65	33.154
341.02	32.535
341.38	31.947
341.74	32.597
342.11	30.763
342.47	31.673
342.83	33.045
343.20	32.230
343.56	33.130
343.92	32.772
344.28	33.561
344.65	32.211
345.01	33.016
345.37	31.876
345.73	33.975
346.10	33.563
346.46	32.044
346.82	32.242
347.19	31.505
347.55	33.166
347.91	32.686
348.27	31.205
348.63	32.368
349.00	31.583
349.36	32.253
349.72	32.504
350.08	32.541
350.45	30.646
350.81	32.060
351.17	31.433
351.53	32.490
351.89	32.205
352.26	30.560
352.62	32.581
352.98	32.369
353.34	30.998
353.70	32.039
354.07	31.774
354.43	31.385
354.79	30.636
355.15	31.667
355.51	30.934
355.87	31.149
356.24	31.892
356.60	31.690
356.96	31.190
357.32	30.990
357.68	29.789
358.04	31.099
358.40	31.109
358.77	30.861
359.13	29.704
359.49	29.815
359.85	30.421
360.21	30.542
360.57	29.457
360.93	30.635
361.29	29.230
361.66	30.799
362.02	30.530
362.38	30.160
362.74	30.810
363.10	32.205
363.46	30.096
363.82	30.128
364.18	30.701
364.54	30.294
364.90	29.462
365.26	30.495
365.62	31.314
365.98	30.718
366.35	31.318
366.71	30.525
367.07	31.350
367.43	29.978
367.79	30.035
368.15	30.725
368.51	30.299
368.87	30.151
369.23	29.964
369.59	30.904
369.95	30.352
370.31	29.552
370.67	30.224
371.03	29.350
371.39	29.322
371.75	29.158
372.11	29.672
372.47	30.178
372.83	30.376
373.19	29.815
373.55	27.870
373.91	29.590
374.27	30.191
374.63	29.361
374.99	28.723
375.35	29.526
375.71	29.720
376.07	29.073
376.42	28.980
376.78	28.658
377.14	28.910
377.50	29.216
377.86	29.987
378.22	29.930
378.58	29.936
378.94	29.427
379.30	29.382
379.66	30.784
380.02	29.982
380.38	29.093
380.74	28.426
381.09	29.448
381.45	28.991
381.81	29.488
382.17	29.315
382.53	27.733
382.89	30.383
383.25	30.180
383.61	30.061
383.97	29.270
384.32	29.018
384.68	29.783
385.04	28.799
385.40	28.811
385.76	30.063
386.12	29.625
386.48	28.991
386.83	29.613
387.19	28.938
387.55	30.050
387.91	29.340
388.27	28.571
388.62	29.893
388.98	28.668
389.34	30.356
389.70	30.019
390.06	29.012
390.42	29.275
390.77	29.889
391.13	29.508
391.49	28.590
391.85	29.695
392.20	29.504
392.56	30.006
392.92	30.006
393.28	29.481
393.64	29.369
393.99	30.846
394.35	29.349
394.71	29.949
395.07	30.295
395.42	30.480
395.78	30.489
396.14	30.391
396.50	29.803
396.85	29.556
397.21	31.078
397.57	30.031
397.92	30.138
398.28	29.713
398.64	30.361
399.00	30.756
399.35	30.023
399.71	31.648
400.07	31.862
400.42	30.539
400.78	30.557
401.14	30.430
401.49	30.316
401.85	30.043
402.21	30.542
402.57	30.312
402.92	30.489
403.28	30.451
403.63	32.093
403.99	31.186
404.35	31.418
404.70	31.012
405.06	30.846
405.42	31.013
405.77	30.506
406.13	30.617
406.49	31.024
406.84	31.235
407.20	31.367
407.55	30.972
407.91	30.882
408.27	31.166
408.62	31.938
408.98	31.115
409.34	32.528
409.69	31.460
410.05	30.788
410.40	30.679
410.76	31.665
411.11	31.750
411.47	32.544
411.83	31.638
412.18	32.046
412.54	31.086
412.89	31.650
413.25	33.093
413.60	32.609
413.96	32.025
414.31	32.012
414.67	32.136
415.03	31.758
415.38	33.029
415.74	32.769
416.09	33.442
416.45	32.411
416.80	32.320
417.16	32.735
417.51	33.178
417.87	32.203
418.22	33.290
418.58	33.378
418.93	32.163
419.29	31.882
419.64	32.599
420.00	34.635
420.35	32.478
420.71	33.657
421.06	33.517
421.42	33.654
421.77	33.526
422.12	33.485
422.48	33.460
422.83	32.831
423.19	33.296
423.54	33.921
423.90	33.746
424.25	33.295
424.61	33.660
424.96	33.217
425.31	34.315
425.67	34.331
426.02	34.747
426.38	34.627
426.73	33.898
427.09	35.696
427.44	35.235
427.79	34.590
428.15	35.073
428.50	35.554
428.85	34.644
429.21	34.578
429.56	36.065
429.92	34.412
430.27	34.536
430.62	34.187
430.98	34.342
431.33	35.647
431.68	34.589
432.04	35.048
432.39	33.771
432.74	33.915
433.10	36.149
433.45	34.886
433.80	35.694
434.16	36.122
434.51	36.183
434.86	34.785
435.22	35.502
435.57	35.995
435.92	36.048
436.28	35.003
436.63	35.083
436.98	34.878
437.34	34.664
437.69	35.599
438.04	35.214
438.39	36.042
438.75	35.458
439.10	36.955
439.45	35.301
439.81	36.514
440.16	36.520
440.51	35.642
440.86	36.193
441.22	36.029
441.57	37.086
441.92	36.411
442.27	35.809
442.63	37.955
442.98	36.760
443.33	37.229
443.68	36.340
444.03	37.109
444.39	37.531
444.74	37.625
445.09	37.249
445.44	36.410
445.79	37.184
446.15	36.399
446.50	36.217
446.85	36.451
447.20	36.288
447.55	36.551
447.91	36.379
448.26	36.710
448.61	36.788
448.96	37.120
449.31	36.994
449.66	36.121
450.02	36.680
450.37	37.048
450.72	37.285
451.07	37.089
451.42	36.829
451.77	36.950
452.12	35.885
452.47	36.510
452.83	36.514
453.18	36.433
453.53	36.726
453.88	37.098
454.23	36.509
454.58	37.720
454.93	37.436
455.28	35.429
455.63	37.570
455.98	36.681
456.34	37.676
456.69	35.959
457.04	37.303
457.39	36.087
457.74	36.759
458.09	36.257
458.44	37.098
458.79	36.471
459.14	37.243
459.49	37.194
459.84	37.789
460.19	36.954
460.54	36.125
460.89	37.557
461.24	37.081
461.59	37.470
461.94	36.101
462.29	38.239
462.64	36.678
462.99	36.628
463.34	36.579
463.69	36.873
464.04	36.501
464.39	38.084
464.74	38.773
465.09	38.178
465.44	37.969
465.79	35.998
466.14	37.913
466.49	37.378
466.84	35.931
467.19	37.860
467.54	36.079
467.89	36.071
468.24	36.861
468.59	37.270
468.94	36.063
469.29	36.984
469.64	37.321
469.99	37.631
470.34	35.358
470.68	37.808
471.03	38.004
471.38	35.877
471.73	36.275
472.08	36.364
472.43	36.644
472.78	36.052
473.13	37.483
473.48	37.134
473.83	36.550
474.17	36.658
474.52	36.056
474.87	36.545
475.22	37.340
475.57	36.307
475.92	37.301
476.27	38.009
476.61	37.269
476.96	36.419
477.31	37.155
477.66	36.404
478.01	36.552
478.36	36.220
478.70	36.759
479.05	36.264
479.40	36.513
479.75	36.653
480.10	36.252
480.45	36.250
480.79	37.613
481.14	37.346
481.49	35.714
481.84	37.500
482.19	36.155
482.53	37.170
482.88	36.420
483.23	36.756
483.58	35.425
483.92	36.544
484.27	36.463
484.62	36.531
484.97	36.028
485.31	36.525
485.66	37.507
486.01	38.696
486.36	38.992
486.70	37.964
487.05	36.788
487.40	36.918
487.75	36.817
488.09	36.279
488.44	35.282
488.79	36.384
489.13	35.817
489.48	35.699
489.83	35.336
490.17	35.640
490.52	35.797
490.87	34.567
491.22	35.864
491.56	36.433
491.91	35.564
492.26	36.072
492.60	35.461
492.95	36.203
493.30	36.248
493.64	36.198
493.99	36.425
494.34	35.437
494.68	36.524
495.03	35.134
495.37	34.936
495.72	35.840
496.07	35.951
496.41	35.849
496.76	36.251
497.11	35.212
497.45	36.325
497.80	36.276
498.14	35.271
498.49	35.653
498.84	35.778
499.18	36.094
499.53	35.863
499.87	34.922
500.22	35.410
500.56	35.552
500.91	35.492
501.26	35.640
501.60	35.416
501.95	35.517
502.29	36.029
502.64	36.004
502.98	36.162
503.33	34.918
503.67	35.663
504.02	36.070
504.36	36.269
504.71	36.364
505.06	35.783
505.40	35.838
505.75	36.237
506.09	35.783
506.44	36.191
506.78	36.786
507.13	35.264
507.47	34.883
507.82	35.203
508.16	35.446
508.51	36.411
508.85	35.322
509.19	35.125
509.54	36.086
509.88	34.466
510.23	34.750
510.57	35.810
510.92	34.009
511.26	35.570
511.61	35.259
511.95	35.671
512.30	34.534
512.64	34.891
512.98	34.587
513.33	35.311
513.67	34.451
514.02	36.270
514.36	35.029
514.70	35.373
515.05	36.193
515.39	35.065
515.74	35.928
516.08	35.386
516.42	36.101
516.77	35.342
517.11	36.320
517.46	35.488
517.80	35.340
518.14	34.170
518.49	35.276
518.83	35.419
519.17	34.203
519.52	34.221
519.86	34.454
520.20	34.629
520.55	33.959
520.89	35.069
521.23	33.186
521.58	34.826
521.92	34.231
522.26	34.418
522.61	35.065
522.95	35.497
523.29	34.053
523.64	34.943
523.98	34.673
524.32	33.505
524.66	34.059
525.01	35.974
525.35	35.062
525.69	34.209
526.04	33.995
526.38	34.565
526.72	33.617
527.06	34.371
527.41	35.224
527.75	34.048
528.09	35.017
528.43	35.246
528.78	34.851
529.12	34.839
529.46	33.983
529.80	33.882
530.15	36.172
530.49	34.478
530.83	35.499
531.17	34.520
531.51	34.268
531.86	33.787
532.20	33.890
532.54	34.581
532.88	34.155
533.22	34.274
533.57	34.404
533.91	35.509
534.25	36.328
534.59	35.407
534.93	34.110
535.27	35.216
535.62	34.413
535.96	35.356
536.30	35.686
536.64	35.700
536.98	32.962
537.32	35.846
537.66	36.466
538.01	34.825
538.35	34.743
538.69	35.286
539.03	35.270
539.37	34.926
539.71	35.106
540.05	34.759
540.39	35.942
540.73	35.425
541.07	34.738
541.42	35.484
541.76	35.857
542.10	34.756
542.44	35.163
542.78	34.480
543.12	35.234
543.46	34.075
543.80	35.045
544.14	33.645
544.48	33.977
544.82	34.655
545.16	35.519
545.50	35.047
545.84	35.269
546.18	35.603
546.52	34.463
546.86	34.292
547.20	35.050
547.54	34.134
547.88	35.190
548.22	35.043
548.56	35.620
548.90	36.051
549.24	34.986
549.58	34.133
549.92	34.310
550.26	35.018
550.60	34.721
550.94	35.026
551.28	34.003
551.62	35.615
551.96	35.113
552.30	35.673
552.64	33.921
552.98	34.388
553.32	34.879
553.66	35.123
554.00	34.453
554.34	35.081
554.68	34.513
555.02	34.970
555.36	34.181
555.69	34.579
556.03	34.547
556.37	35.160
556.71	34.729
557.05	34.377
557.39	33.903
557.73	34.483
558.07	35.520
558.41	34.609
558.75	33.983
559.08	33.885
559.42	34.286
559.76	34.107
560.10	34.709
560.44	34.401
560.78	36.364
561.12	35.543
561.45	36.191
561.79	35.644
562.13	35.699
562.47	33.885
562.81	35.519
563.15	33.921
563.48	35.856
563.82	35.484
564.16	35.655
564.50	34.595
564.84	35.141
565.17	36.083
565.51	36.817
565.85	35.254
566.19	35.610
566.52	36.126
566.86	36.568
567.20	35.803
567.54	37.287
567.88	37.493
568.21	37.557
568.55	36.359
568.89	36.448
569.23	37.313
569.56	37.084
569.90	36.744
570.24	37.067
570.57	38.255
570.91	37.923
571.25	37.817
571.59	37.901
571.92	37.067
572.26	37.530
572.60	37.612
572.93	36.743
573.27	37.335
573.61	37.709
573.95	37.138
574.28	37.447
574.62	37.198
574.96	37.871
575.29	37.910
575.63	36.538
575.97	37.381
576.30	36.969
576.64	37.483
576.98	38.018
577.31	37.380
577.65	38.119
577.98	38.271
578.32	38.415
578.66	37.567
578.99	37.295
579.33	36.697
579.67	37.421
580.00	37.418
580.34	37.413
580.67	37.265
581.01	38.112
581.35	37.877
581.68	38.162
582.02	38.723
582.35	38.292
582.69	37.807
583.02	37.471
583.36	37.331
583.70	37.124
584.03	38.254
584.37	37.747
584.70	37.253
585.04	37.591
585.37	37.568
585.71	38.089
586.04	37.821
586.38	36.970
586.72	37.360
587.05	38.215
587.39	38.300
587.72	39.448
588.06	38.361
588.39	37.397
588.73	37.210
589.06	38.063
589.40	37.297
589.73	37.641
590.07	37.198
590.40	38.042
590.73	37.974
591.07	38.126
591.40	37.088
591.74	37.557
592.07	37.894
592.41	37.500
592.74	36.957
593.08	36.500
593.41	38.484
593.75	37.357
594.08	37.521
594.41	37.373
594.75	37.137
595.08	38.063
595.42	37.578
595.75	38.603
596.09	36.552
596.42	36.957
596.75	36.545
597.09	36.993
597.42	37.173
597.75	37.884
598.09	36.804
598.42	36.958
598.76	36.722
599.09	37.700
599.42	37.135
599.76	36.945
600.09	36.652
600.42	36.770
600.76	36.441
601.09	36.870
601.42	36.976
601.76	37.237
602.09	37.252
602.42	37.953
602.76	37.988
603.09	37.625
603.42	39.047
603.76	36.774
604.09	37.141
604.42	37.310
604.76	38.095
605.09	37.706
605.42	36.659
605.75	37.084
606.09	37.070
606.42	36.656
606.75	36.883
607.09	37.363
607.42	37.173
607.75	36.767
608.08	35.984
608.42	36.592
608.75	37.494
609.08	37.120
609.41	36.497
609.75	36.341
610.08	37.294
610.41	36.377
610.74	37.055
611.07	37.571
611.41	36.430
611.74	37.207
612.07	36.617
612.40	37.035
612.73	37.232
613.07	36.108
613.40	36.160
613.73	36.598
614.06	37.006
614.39	36.492
614.72	36.303
615.06	36.983
615.39	37.336
615.72	35.899
616.05	36.201
616.38	35.043
616.71	36.147
617.05	35.454
617.38	36.769
617.71	35.912
618.04	37.016
618.37	37.074
618.70	37.228
619.03	37.222
619.36	35.094
619.69	35.861
620.03	36.669
620.36	36.266
620.69	34.761
621.02	34.862
621.35	34.440
621.68	35.799
622.01	35.833
622.34	35.674
622.67	35.568
623.00	35.145
623.33	35.290
623.66	35.378
623.99	36.006
624.32	35.513
624.65	35.789
624.99	36.644
625.32	35.178
625.65	35.585
625.98	35.133
626.31	34.331
626.64	36.222
626.97	35.340
627.30	36.778
627.63	35.182
627.96	35.220
628.29	35.245
628.62	34.513
628.95	34.369
629.28	34.980
629.61	33.400
629.94	35.777
630.26	35.277
630.59	35.588
630.92	33.949
631.25	34.256
631.58	34.802
631.91	33.991
632.24	35.092
632.57	34.318
632.90	33.096
633.23	33.176
633.56	32.494
633.89	33.416
634.22	33.951
