SpectraSuite Data File
++++++++++++++++++++++++++++++++++++
Date: Fri May 15 17:05:31 PDT 2015
User: schluterlab
Dark Spectrum Present: Yes
Reference Spectrum Present: Yes
Number of Sampled Component Spectra: 1
Spectrometers: USB2E3373
Integration Time (usec): 3000 (USB2E3373)
Spectra Averaged: 3 (USB2E3373)
Boxcar Smoothing: 0 (USB2E3373)
Correct for Electrical Dark: No (USB2E3373)
Strobe/Lamp Enabled: No (USB2E3373)
Correct for Detector Non-linearity: No (USB2E3373)
Correct for Stray Light: No (USB2E3373)
Number of Pixels in Processed Spectrum: 2048
>>>>>Begin Processed Spectral Data<<<<<
178.53	0.000
178.91	0.000
179.29	125.000
179.67	-100.000
180.04	-14.286
180.42	425.000
180.80	1400.000
181.18	-200.000
181.56	-200.000
181.94	150.000
182.31	-200.000
182.69	60.000
183.07	0.000
183.45	160.000
183.83	-0.000
184.20	36.364
184.58	-0.000
184.96	-475.000
185.34	-300.000
185.72	550.000
186.09	7.692
186.47	-900.000
186.85	16.667
187.23	77.778
187.61	-300.000
187.98	400.000
188.36	111.111
188.74	400.000
189.12	100.000
189.49	83.333
189.87	0.000
190.25	107.143
190.63	1000.000
191.00	-333.333
191.38	36.842
191.76	250.000
192.14	100.000
192.51	350.000
192.89	77.778
193.27	28.571
193.65	66.667
194.02	36.364
194.40	50.000
194.78	75.000
195.15	8.333
195.53	112.500
195.91	25.000
196.29	0.000
196.66	53.846
197.04	14.286
197.42	66.667
197.79	-100.000
198.17	-53.846
198.55	1000.000
198.92	-166.667
199.30	1300.000
199.68	60.000
200.05	200.000
200.43	0.000
200.81	100.000
201.18	0.000
201.56	100.000
201.94	150.000
202.31	-0.000
202.69	80.000
203.07	-350.000
203.44	1300.000
203.82	0.000
204.19	107.143
204.57	233.333
204.95	12.500
205.32	240.000
205.70	-57.143
206.08	200.000
206.45	288.889
206.83	50.000
207.20	-85.714
207.58	-500.000
207.96	33.333
208.33	-30.000
208.71	75.000
209.08	133.333
209.46	500.000
209.84	120.000
210.21	400.000
210.59	114.286
210.96	183.333
211.34	300.000
211.71	26.667
212.09	-28.571
212.46	-800.000
212.84	0.000
213.22	100.000
213.59	-100.000
213.97	38.462
214.34	172.727
214.72	16.667
215.09	75.000
215.47	0.000
215.84	45.455
216.22	33.333
216.59	-75.000
216.97	50.000
217.34	150.000
217.72	-120.000
218.09	100.000
218.47	-0.000
218.84	800.000
219.22	77.778
219.59	220.000
219.97	-166.667
220.34	-175.000
220.72	128.571
221.09	250.000
221.47	550.000
221.84	0.000
222.22	-450.000
222.59	136.364
222.97	158.333
223.34	300.000
223.72	100.000
224.09	33.333
224.46	32.143
224.84	400.000
225.21	90.000
225.59	100.000
225.96	0.000
226.34	275.000
226.71	-128.571
227.08	33.333
227.46	62.500
227.83	0.000
228.21	111.111
228.58	81.818
228.95	225.000
229.33	-0.000
229.70	106.250
230.08	62.500
230.45	42.857
230.82	200.000
231.20	33.333
231.57	92.857
231.95	128.571
232.32	10.000
232.69	114.286
233.07	100.000
233.44	220.000
233.81	-80.000
234.19	200.000
234.56	47.059
234.93	-100.000
235.31	225.000
235.68	-20.000
236.05	61.538
236.43	5.000
236.80	88.235
237.17	46.875
237.55	30.000
237.92	37.037
238.29	47.222
238.67	33.333
239.04	41.176
239.41	36.585
239.79	53.333
240.16	63.415
240.53	15.789
240.91	41.304
241.28	34.921
241.65	32.143
242.02	41.096
242.40	21.667
242.77	27.119
243.14	16.667
243.51	35.000
243.89	42.529
244.26	24.138
244.63	41.667
245.00	21.649
245.38	35.052
245.75	20.225
246.12	25.000
246.49	23.140
246.87	44.231
247.24	16.807
247.61	39.474
247.98	31.707
248.36	28.125
248.73	27.632
249.10	34.416
249.47	34.810
249.84	31.373
250.22	25.882
250.59	28.758
250.96	28.169
251.33	31.977
251.70	35.294
252.08	29.949
252.45	26.733
252.82	28.643
253.19	29.032
253.56	23.364
253.94	28.829
254.31	26.522
254.68	32.895
255.05	29.921
255.42	29.258
255.79	30.888
256.16	31.518
256.54	29.478
256.91	25.475
257.28	22.305
257.65	28.464
258.02	25.532
258.39	27.273
258.76	35.165
259.14	27.907
259.51	28.803
259.88	25.430
260.25	25.817
260.62	32.639
260.99	23.051
261.36	28.082
261.73	26.899
262.10	28.875
262.47	26.994
262.85	23.824
263.22	26.769
263.59	28.037
263.96	27.950
264.33	26.970
264.70	25.893
265.07	26.786
265.44	26.912
265.81	27.119
266.18	24.863
266.55	26.735
266.92	26.166
267.29	26.371
267.66	28.645
268.03	26.440
268.40	24.543
268.77	30.481
269.14	22.542
269.51	26.221
269.88	25.935
270.25	23.980
270.62	25.122
270.99	26.087
271.36	25.672
271.73	25.352
272.10	29.440
272.47	28.605
272.84	25.495
273.21	27.146
273.58	26.506
273.95	25.172
274.32	25.404
274.69	26.471
275.06	27.902
275.43	26.304
275.80	25.386
276.17	23.908
276.54	25.054
276.91	27.193
277.28	25.983
277.65	25.413
278.02	23.617
278.39	23.414
278.76	25.996
279.13	19.917
279.50	26.471
279.87	26.350
280.23	23.441
280.60	25.536
280.97	25.051
281.34	23.846
281.71	27.105
282.08	21.881
282.45	23.288
282.82	24.324
283.19	25.338
283.56	24.855
283.92	21.063
284.29	23.462
284.66	23.450
285.03	26.130
285.40	23.062
285.77	22.320
286.14	22.202
286.51	26.199
286.87	21.938
287.24	23.389
287.61	20.282
287.98	25.088
288.35	24.957
288.72	24.343
289.08	22.396
289.45	24.429
289.82	22.902
290.19	20.819
290.56	22.127
290.93	20.370
291.29	20.955
291.66	20.945
292.03	22.329
292.40	21.452
292.77	21.691
293.13	17.695
293.50	18.816
293.87	20.153
294.24	19.629
294.60	18.778
294.97	18.750
295.34	18.712
295.71	20.566
296.08	19.133
296.44	18.634
296.81	19.028
297.18	17.101
297.55	18.970
297.91	18.904
298.28	20.580
298.65	17.775
299.02	18.329
299.38	15.732
299.75	17.379
300.12	16.754
300.48	16.733
300.85	15.589
301.22	17.662
301.59	17.763
301.95	18.228
302.32	18.547
302.69	18.035
303.05	16.213
303.42	17.310
303.79	16.706
304.15	17.921
304.52	16.647
304.89	16.959
305.25	16.465
305.62	17.036
305.99	16.608
306.35	17.572
306.72	15.973
307.09	16.990
307.45	16.418
307.82	15.741
308.19	16.144
308.55	16.358
308.92	16.993
309.29	15.978
309.65	16.254
310.02	16.062
310.38	15.258
310.75	17.158
311.12	16.362
311.48	16.861
311.85	17.277
312.22	15.506
312.58	16.879
312.95	15.475
313.31	15.631
313.68	16.545
314.05	16.531
314.41	17.835
314.78	17.423
315.14	17.677
315.51	18.219
315.87	17.828
316.24	17.897
316.61	18.504
316.97	18.452
317.34	18.750
317.70	18.642
318.07	19.231
318.43	19.216
318.80	19.792
319.16	19.824
319.53	21.937
319.89	20.768
320.26	22.267
320.62	22.267
320.99	22.234
321.35	22.919
321.72	24.403
322.08	24.673
322.45	24.365
322.81	26.031
323.18	25.417
323.54	25.869
323.91	27.556
324.27	26.270
324.64	28.652
325.00	28.467
325.37	31.038
325.73	30.281
326.10	31.426
326.46	32.825
326.83	33.333
327.19	34.525
327.56	34.318
327.92	35.387
328.29	35.982
328.65	37.547
329.01	38.051
329.38	38.249
329.74	39.188
330.11	38.925
330.47	40.167
330.84	40.096
331.20	42.966
331.56	43.426
331.93	44.110
332.29	44.271
332.66	44.253
333.02	45.353
333.38	43.905
333.75	48.443
334.11	45.568
334.48	47.507
334.84	47.985
335.20	47.118
335.57	47.869
335.93	48.780
336.29	49.171
336.66	48.411
337.02	49.164
337.38	51.296
337.75	50.000
338.11	50.857
338.47	52.737
338.84	52.680
339.20	51.828
339.56	51.835
339.93	51.656
340.29	52.936
340.65	54.032
341.02	53.103
341.38	52.566
341.74	52.385
342.11	52.253
342.47	53.292
342.83	53.893
343.20	52.613
343.56	55.478
343.92	54.473
344.28	54.654
344.65	55.527
345.01	54.365
345.37	54.752
345.73	53.891
346.10	55.997
346.46	54.752
346.82	54.337
347.19	54.780
347.55	55.305
347.91	55.016
348.27	53.274
348.63	55.281
349.00	55.373
349.36	55.278
349.72	56.219
350.08	56.475
350.45	54.350
350.81	55.066
351.17	56.352
351.53	55.592
351.89	56.317
352.26	56.320
352.62	57.742
352.98	55.984
353.34	55.636
353.70	57.605
354.07	57.339
354.43	56.765
354.79	58.547
355.15	57.540
355.51	57.437
355.87	60.437
356.24	57.096
356.60	58.690
356.96	58.889
357.32	56.629
357.68	58.405
358.04	59.855
358.40	59.566
358.77	59.649
359.13	58.367
359.49	58.012
359.85	58.190
360.21	60.447
360.57	58.531
360.93	59.682
361.29	58.686
361.66	60.815
362.02	61.061
362.38	61.767
362.74	61.469
363.10	61.099
363.46	61.749
363.82	61.833
364.18	59.336
364.54	60.368
364.90	61.505
365.26	61.645
365.62	62.701
365.98	62.903
366.35	63.146
366.71	64.006
367.07	62.772
367.43	63.336
367.79	63.322
368.15	62.455
368.51	62.782
368.87	64.106
369.23	63.394
369.59	65.525
369.95	64.076
370.31	63.223
370.67	64.328
371.03	64.376
371.39	64.478
371.75	65.055
372.11	64.551
372.47	64.571
372.83	66.146
373.19	65.549
373.55	66.426
373.91	65.803
374.27	64.493
374.63	66.619
374.99	66.879
375.35	66.365
375.71	69.231
376.07	67.135
376.42	66.803
376.78	67.248
377.14	67.028
377.50	69.389
377.86	69.344
378.22	68.475
378.58	69.615
378.94	68.179
379.30	68.434
379.66	70.282
380.02	69.834
380.38	70.055
380.74	68.223
381.09	70.061
381.45	69.358
381.81	69.957
382.17	69.860
382.53	70.706
382.89	73.258
383.25	71.749
383.61	70.366
383.97	70.603
384.32	71.107
384.68	72.074
385.04	71.936
385.40	72.309
385.76	73.648
386.12	73.221
386.48	72.478
386.83	74.065
387.19	73.871
387.55	73.777
387.91	74.450
388.27	72.711
388.62	75.016
388.98	72.867
389.34	72.892
389.70	75.140
390.06	73.002
390.42	74.482
390.77	76.390
391.13	74.086
391.49	76.714
391.85	75.179
392.20	75.832
392.56	75.969
392.92	75.866
393.28	75.590
393.64	75.616
393.99	77.053
394.35	76.977
394.71	76.373
395.07	76.367
395.42	75.349
395.78	76.678
396.14	76.166
396.50	78.123
396.85	76.948
397.21	75.877
397.57	75.486
397.92	77.232
398.28	77.931
398.64	76.867
399.00	77.483
399.35	77.540
399.71	76.278
400.07	78.900
400.42	77.785
400.78	78.138
401.14	76.951
401.49	77.784
401.85	77.697
402.21	78.193
402.57	77.812
402.92	76.788
403.28	77.820
403.63	79.823
403.99	78.699
404.35	79.325
404.70	76.786
405.06	76.616
405.42	78.496
405.77	77.281
406.13	77.823
406.49	77.916
406.84	78.484
407.20	78.507
407.55	78.686
407.91	78.743
408.27	78.904
408.62	78.092
408.98	77.079
409.34	80.050
409.69	77.455
410.05	77.278
410.40	78.148
410.76	79.554
411.11	79.875
411.47	78.304
411.83	78.343
412.18	80.180
412.54	77.965
412.89	78.448
413.25	79.603
413.60	79.006
413.96	78.098
414.31	80.061
414.67	79.474
415.03	80.160
415.38	77.807
415.74	80.521
416.09	80.144
416.45	81.026
416.80	79.709
417.16	82.251
417.51	80.480
417.87	79.074
418.22	82.578
418.58	81.538
418.93	81.317
419.29	79.193
419.64	81.594
420.00	81.549
420.35	80.239
420.71	82.078
421.06	81.031
421.42	81.851
421.77	81.850
422.12	82.520
422.48	81.375
422.83	80.278
423.19	83.916
423.54	82.481
423.90	82.214
424.25	82.377
424.61	83.905
424.96	81.823
425.31	82.958
425.67	84.038
426.02	84.629
426.38	84.283
426.73	83.172
427.09	86.582
427.44	82.235
427.79	84.207
428.15	84.163
428.50	85.100
428.85	83.907
429.21	84.437
429.56	86.092
429.92	83.924
430.27	82.907
430.62	82.750
430.98	85.350
431.33	86.067
431.68	83.673
432.04	85.690
432.39	84.484
432.74	84.305
433.10	87.241
433.45	85.185
433.80	86.477
434.16	85.873
434.51	85.054
434.86	87.050
435.22	86.091
435.57	87.523
435.92	87.066
436.28	86.464
436.63	86.309
436.98	86.153
437.34	86.812
437.69	88.909
438.04	87.236
438.39	86.805
438.75	88.282
439.10	86.927
439.45	88.497
439.81	86.300
440.16	89.489
440.51	87.582
440.86	90.030
441.22	86.765
441.57	88.852
441.92	89.402
442.27	88.415
442.63	88.490
442.98	88.340
443.33	86.978
443.68	88.435
444.03	88.723
444.39	86.522
444.74	89.186
445.09	87.639
445.44	89.288
445.79	91.129
446.15	87.775
446.50	88.907
446.85	89.320
447.20	88.269
447.55	86.551
447.91	88.381
448.26	88.219
448.61	88.831
448.96	89.099
449.31	90.694
449.66	89.315
450.02	88.648
450.37	89.864
450.72	88.660
451.07	90.886
451.42	87.765
451.77	88.005
452.12	88.218
452.47	88.152
452.83	89.046
453.18	88.172
453.53	89.001
453.88	88.646
454.23	88.322
454.58	88.665
454.93	89.497
455.28	86.413
455.63	89.089
455.98	88.515
456.34	87.867
456.69	88.374
457.04	88.784
457.39	88.518
457.74	88.513
458.09	86.051
458.44	89.175
458.79	88.347
459.14	88.215
459.49	88.299
459.84	88.381
460.19	89.745
460.54	89.487
460.89	88.580
461.24	88.820
461.59	88.302
461.94	86.415
462.29	89.807
462.64	89.900
462.99	87.678
463.34	88.248
463.69	88.546
464.04	87.651
464.39	88.660
464.74	87.669
465.09	88.896
465.44	87.882
465.79	87.132
466.14	87.685
466.49	88.442
466.84	87.745
467.19	87.109
467.54	88.250
467.89	90.019
468.24	88.260
468.59	89.460
468.94	87.683
469.29	87.869
469.64	88.790
469.99	90.399
470.34	89.010
470.68	91.424
471.03	89.950
471.38	90.014
471.73	88.655
472.08	86.499
472.43	89.799
472.78	87.526
473.13	88.707
473.48	88.534
473.83	86.924
474.17	89.637
474.52	87.620
474.87	89.030
475.22	88.530
475.57	87.747
475.92	89.797
476.27	87.835
476.61	88.831
476.96	85.890
477.31	86.804
477.66	87.303
478.01	89.444
478.36	87.037
478.70	89.995
479.05	86.978
479.40	87.122
479.75	87.904
480.10	86.636
480.45	87.800
480.79	88.973
481.14	90.779
481.49	86.355
481.84	87.645
482.19	86.997
482.53	88.297
482.88	85.728
483.23	87.332
483.58	88.066
483.92	86.254
484.27	85.506
484.62	85.567
484.97	86.733
485.31	84.718
485.66	83.853
486.01	81.909
486.36	81.723
486.70	82.072
487.05	83.158
487.40	84.281
487.75	85.380
488.09	87.670
488.44	86.176
488.79	88.270
489.13	87.780
489.48	87.944
489.83	87.399
490.17	87.371
490.52	87.252
490.87	84.637
491.22	88.682
491.56	86.575
491.91	87.094
492.26	87.846
492.60	86.660
492.95	88.588
493.30	86.126
493.64	88.065
493.99	87.536
494.34	86.602
494.68	86.286
495.03	85.888
495.37	88.126
495.72	86.421
496.07	88.585
496.41	87.877
496.76	87.241
497.11	86.586
497.45	86.444
497.80	88.850
498.14	86.587
498.49	88.421
498.84	87.475
499.18	88.002
499.53	88.046
499.87	87.403
500.22	88.032
500.56	87.494
500.91	87.701
501.26	86.703
501.60	87.850
501.95	87.191
502.29	87.554
502.64	87.452
502.98	88.505
503.33	85.207
503.67	85.831
504.02	87.781
504.36	88.422
504.71	87.525
505.06	85.657
505.40	86.345
505.75	87.732
506.09	87.937
506.44	88.398
506.78	87.551
507.13	88.004
507.47	87.728
507.82	88.782
508.16	88.801
508.51	87.513
508.85	87.703
509.19	88.824
509.54	88.204
509.88	87.594
510.23	88.973
510.57	87.440
510.92	88.113
511.26	89.089
511.61	88.944
511.95	87.507
512.30	89.191
512.64	87.590
512.98	87.423
513.33	88.081
513.67	87.265
514.02	89.931
514.36	90.343
514.70	90.326
515.05	91.069
515.39	89.847
515.74	91.737
516.08	89.659
516.42	88.928
516.77	90.989
517.11	90.564
517.46	91.382
517.80	89.511
518.14	90.447
518.49	89.543
518.83	89.915
519.17	89.691
519.52	89.284
519.86	89.496
520.20	89.733
520.55	89.306
520.89	89.272
521.23	89.930
521.58	90.852
521.92	90.256
522.26	90.371
522.61	91.494
522.95	92.450
523.29	88.310
523.64	90.025
523.98	90.797
524.32	90.013
524.66	90.781
525.01	91.039
525.35	90.214
525.69	92.525
526.04	89.484
526.38	92.412
526.72	90.647
527.06	89.364
527.41	88.852
527.75	91.689
528.09	90.698
528.43	90.479
528.78	90.495
529.12	90.194
529.46	91.228
529.80	89.424
530.15	91.089
530.49	91.987
530.83	92.613
531.17	88.986
531.51	91.997
531.86	91.162
532.20	91.441
532.54	90.674
532.88	91.170
533.22	89.987
533.57	89.974
533.91	90.144
534.25	90.299
534.59	90.763
534.93	88.483
535.27	90.482
535.62	89.695
535.96	90.215
536.30	90.897
536.64	92.557
536.98	88.641
537.32	92.817
537.66	92.286
538.01	91.119
538.35	91.817
538.69	89.081
539.03	89.884
539.37	90.983
539.71	90.048
540.05	90.563
540.39	89.474
540.73	90.446
541.07	90.815
541.42	90.255
541.76	91.741
542.10	92.085
542.44	91.730
542.78	89.401
543.12	90.453
543.46	90.612
543.80	90.770
544.14	88.919
544.48	89.540
544.82	92.550
545.16	91.325
545.50	90.521
545.84	91.856
546.18	92.695
546.52	91.348
546.86	91.229
547.20	90.415
547.54	90.954
547.88	91.304
548.22	88.955
548.56	88.720
548.90	90.296
549.24	89.945
549.58	89.210
549.92	89.064
550.26	91.355
550.60	93.457
550.94	90.366
551.28	93.045
551.62	94.385
551.96	93.835
552.30	90.570
552.64	91.044
552.98	90.788
553.32	90.585
553.66	91.292
554.00	92.409
554.34	92.245
554.68	90.118
555.02	91.592
555.36	92.595
555.69	91.648
556.03	90.935
556.37	91.815
556.71	92.058
557.05	94.109
557.39	90.409
557.73	91.604
558.07	93.891
558.41	92.649
558.75	95.168
559.08	91.095
559.42	93.651
559.76	94.636
560.10	91.514
560.44	91.214
560.78	92.308
561.12	92.031
561.45	91.497
561.79	91.947
562.13	90.916
562.47	92.014
562.81	92.507
563.15	91.114
563.48	93.494
563.82	93.137
564.16	93.175
564.50	90.068
564.84	90.361
565.17	92.086
565.51	93.852
565.85	94.239
566.19	91.777
566.52	93.298
566.86	92.224
567.20	91.158
567.54	91.910
567.88	92.033
568.21	91.742
568.55	90.109
568.89	91.478
569.23	89.360
569.56	88.135
569.90	88.429
570.24	86.267
570.57	87.927
570.91	87.034
571.25	85.794
571.59	85.332
571.92	84.444
572.26	86.141
572.60	85.643
572.93	85.974
573.27	85.549
573.61	86.187
573.95	85.909
574.28	84.375
574.62	84.134
574.96	84.767
575.29	83.771
575.63	82.690
575.97	84.142
576.30	85.297
576.64	84.132
576.98	85.380
577.31	84.787
577.65	84.679
577.98	83.453
578.32	83.066
578.66	82.893
578.99	84.347
579.33	84.662
579.67	83.422
580.00	84.608
580.34	85.149
580.67	84.397
581.01	85.495
581.35	83.549
581.68	83.881
582.02	82.896
582.35	83.324
582.69	82.918
583.02	83.807
583.36	85.403
583.70	87.020
584.03	87.879
584.37	88.340
584.70	86.181
585.04	84.948
585.37	83.759
585.71	85.139
586.04	85.023
586.38	84.743
586.72	86.628
587.05	87.117
587.39	86.385
587.72	87.452
588.06	86.493
588.39	86.984
588.73	87.851
589.06	88.291
589.40	87.522
589.73	88.719
590.07	88.029
590.40	88.816
590.73	90.486
591.07	89.567
591.40	89.760
591.74	89.638
592.07	89.657
592.41	89.929
592.74	88.411
593.08	85.435
593.41	86.590
593.75	86.261
594.08	85.788
594.41	86.790
594.75	87.595
595.08	88.838
595.42	87.302
595.75	88.434
596.09	89.484
596.42	89.872
596.75	90.409
597.09	89.795
597.42	90.154
597.75	90.609
598.09	88.547
598.42	88.764
598.76	87.859
599.09	86.699
599.42	86.472
599.76	87.020
600.09	86.425
600.42	86.808
600.76	86.924
601.09	88.779
601.42	88.053
601.76	88.170
602.09	88.944
602.42	89.975
602.76	89.389
603.09	89.410
603.42	91.597
603.76	88.952
604.09	88.457
604.42	90.059
604.76	90.743
605.09	89.580
605.42	89.165
605.75	89.930
606.09	88.365
606.42	88.407
606.75	88.615
607.09	88.132
607.42	88.037
607.75	89.387
608.08	88.814
608.42	88.259
608.75	91.229
609.08	91.281
609.41	92.284
609.75	91.784
610.08	91.063
610.41	90.145
610.74	90.590
611.07	91.886
611.41	91.956
611.74	92.004
612.07	92.024
612.40	92.068
612.73	94.068
613.07	92.182
613.40	90.919
613.73	93.117
614.06	92.321
614.39	91.765
614.72	91.485
615.06	91.676
615.39	89.083
615.72	89.505
616.05	91.341
616.38	90.085
616.71	92.232
617.05	94.626
617.38	92.269
617.71	93.396
618.04	94.730
618.37	94.893
618.70	94.719
619.03	96.389
619.36	95.441
619.69	99.166
620.03	96.494
620.36	95.923
620.69	94.433
621.02	94.266
621.35	99.087
621.68	98.810
622.01	98.083
622.34	96.967
622.67	96.057
623.00	95.712
623.33	96.875
623.66	94.390
623.99	94.024
624.32	97.034
624.65	95.789
624.99	96.087
625.32	94.920
625.65	98.429
625.98	97.341
626.31	96.342
626.64	99.307
626.97	99.040
627.30	100.963
627.63	96.447
627.96	98.922
628.29	101.018
628.62	100.787
628.95	101.303
629.28	102.722
629.61	101.097
629.94	100.978
630.26	99.802
630.59	104.162
630.92	101.231
631.25	101.641
631.58	103.414
631.91	103.070
632.24	106.995
632.57	104.432
632.90	102.966
633.23	101.294
633.56	109.194
633.89	102.959
