SpectraSuite Data File
++++++++++++++++++++++++++++++++++++
Date: Fri May 15 20:03:12 PDT 2015
User: schluterlab
Dark Spectrum Present: Yes
Reference Spectrum Present: Yes
Number of Sampled Component Spectra: 1
Spectrometers: USB2E3373
Integration Time (usec): 3000 (USB2E3373)
Spectra Averaged: 3 (USB2E3373)
Boxcar Smoothing: 0 (USB2E3373)
Correct for Electrical Dark: No (USB2E3373)
Strobe/Lamp Enabled: No (USB2E3373)
Correct for Detector Non-linearity: No (USB2E3373)
Correct for Stray Light: No (USB2E3373)
Number of Pixels in Processed Spectrum: 2048
>>>>>Begin Processed Spectral Data<<<<<
178.53	0.000
178.91	0.000
179.29	12.500
179.67	-250.000
180.04	100.000
180.42	-25.000
180.80	0.000
181.18	-33.333
181.56	250.000
181.94	-50.000
182.31	1100.000
182.69	-120.000
183.07	-200.000
183.45	80.000
183.83	-16.667
184.20	-9.091
184.58	44.444
184.96	25.000
185.34	-33.333
185.72	-300.000
186.09	69.231
186.47	-500.000
186.85	16.667
187.23	100.000
187.61	400.000
187.98	-233.333
188.36	88.889
188.74	133.333
189.12	11.765
189.49	11.111
189.87	0.000
190.25	78.571
190.63	300.000
191.00	-166.667
191.38	0.000
191.76	200.000
192.14	-275.000
192.51	200.000
192.89	-100.000
193.27	-142.857
193.65	250.000
194.02	127.273
194.40	60.000
194.78	-75.000
195.15	-41.667
195.53	-75.000
195.91	50.000
196.29	150.000
196.66	76.923
197.04	14.286
197.42	22.222
197.79	-33.333
198.17	-76.923
198.55	500.000
198.92	-233.333
199.30	-400.000
199.68	-120.000
200.05	-266.667
200.43	0.000
200.81	-233.333
201.18	-66.667
201.56	1000.000
201.94	-200.000
202.31	-166.667
202.69	-60.000
203.07	125.000
203.44	400.000
203.82	0.000
204.19	28.571
204.57	-333.333
204.95	37.500
205.32	50.000
205.70	28.571
206.08	-200.000
206.45	111.111
206.83	57.143
207.20	14.286
207.58	700.000
207.96	-333.333
208.33	-70.000
208.71	-25.000
209.08	-150.000
209.46	-600.000
209.84	0.000
210.21	-800.000
210.59	-85.714
210.96	-133.333
211.34	25.000
211.71	60.000
212.09	-171.429
212.46	-1300.000
212.84	0.000
213.22	50.000
213.59	300.000
213.97	69.231
214.34	54.545
214.72	-66.667
215.09	275.000
215.47	-15.385
215.84	-63.636
216.22	-500.000
216.59	75.000
216.97	50.000
217.34	-425.000
217.72	-200.000
218.09	-12.500
218.47	125.000
218.84	400.000
219.22	-88.889
219.59	-100.000
219.97	-66.667
220.34	-25.000
220.72	0.000
221.09	-100.000
221.47	50.000
221.84	-1050.000
222.22	-800.000
222.59	109.091
222.97	-8.333
223.34	-266.667
223.72	-42.857
224.09	71.429
224.46	32.143
224.84	266.667
225.21	-50.000
225.59	-6.667
225.96	-300.000
226.34	125.000
226.71	-142.857
227.08	-83.333
227.46	12.500
227.83	-100.000
228.21	-11.111
228.58	45.455
228.95	-37.500
229.33	-60.000
229.70	37.500
230.08	-112.500
230.45	28.571
230.82	42.857
231.20	-33.333
231.57	85.714
231.95	42.857
232.32	-10.000
232.69	64.286
233.07	66.667
233.44	-160.000
233.81	-100.000
234.19	33.333
234.56	35.294
234.93	50.000
235.31	125.000
235.68	-260.000
236.05	7.692
236.43	-25.000
236.80	-23.529
237.17	28.125
237.55	0.000
237.92	-7.407
238.29	41.667
238.67	30.000
239.04	-8.824
239.41	2.439
239.79	10.000
240.16	24.390
240.53	-7.895
240.91	23.913
241.28	23.810
241.65	26.786
242.02	26.027
242.40	31.667
242.77	22.034
243.14	7.576
243.51	11.250
243.89	39.080
244.26	13.793
244.63	16.667
245.00	18.557
245.38	23.711
245.75	3.371
246.12	18.103
246.49	21.488
246.87	14.423
247.24	20.168
247.61	10.526
247.98	21.138
248.36	16.250
248.73	19.737
249.10	11.688
249.47	17.089
249.84	20.261
250.22	20.588
250.59	18.301
250.96	20.657
251.33	16.279
251.70	20.588
252.08	15.228
252.45	15.347
252.82	19.598
253.19	17.972
253.56	17.757
253.94	20.270
254.31	21.304
254.68	23.684
255.05	16.535
255.42	20.524
255.79	25.097
256.16	22.957
256.54	17.910
256.91	14.829
257.28	16.729
257.65	15.730
258.02	18.440
258.39	22.222
258.76	20.147
259.14	21.927
259.51	19.094
259.88	17.869
260.25	19.281
260.62	18.056
260.99	15.932
261.36	16.438
261.73	19.304
262.10	19.453
262.47	19.018
262.85	17.555
263.22	22.154
263.59	19.003
263.96	20.497
264.33	19.091
264.70	16.667
265.07	21.131
265.44	19.547
265.81	21.186
266.18	20.492
266.55	21.594
266.92	18.912
267.29	19.582
267.66	18.159
268.03	21.728
268.40	18.277
268.77	22.460
269.14	20.144
269.51	20.308
269.88	19.202
270.25	17.347
270.62	18.780
270.99	16.113
271.36	17.848
271.73	18.075
272.10	19.221
272.47	18.913
272.84	18.564
273.21	22.970
273.58	19.759
273.95	20.137
274.32	17.321
274.69	18.552
275.06	20.313
275.43	16.100
275.80	18.322
276.17	19.540
276.54	16.916
276.91	17.763
277.28	17.686
277.65	18.182
278.02	15.106
278.39	19.037
278.76	19.916
279.13	16.183
279.50	16.176
279.87	16.847
280.23	16.559
280.60	20.468
280.97	21.414
281.34	18.077
281.71	19.302
282.08	18.200
282.45	17.613
282.82	20.077
283.19	18.762
283.56	18.497
283.92	15.560
284.29	18.269
284.66	17.248
285.03	17.289
285.40	17.013
285.77	13.884
286.14	16.245
286.51	19.004
286.87	18.647
287.24	19.337
287.61	17.989
287.98	18.070
288.35	17.851
288.72	20.841
289.08	17.014
289.45	18.102
289.82	17.832
290.19	15.358
290.56	16.467
290.93	17.508
291.29	14.330
291.66	16.535
292.03	16.746
292.40	15.161
292.77	15.311
293.13	11.688
293.50	13.505
293.87	15.115
294.24	14.992
294.60	13.711
294.97	15.923
295.34	14.264
295.71	13.264
296.08	14.499
296.44	13.229
296.81	15.000
297.18	13.768
297.55	17.209
297.91	13.973
298.28	14.116
298.65	13.297
299.02	13.208
299.38	12.312
299.75	13.655
300.12	14.398
300.48	14.361
300.85	14.068
301.22	14.545
301.59	13.289
301.95	13.544
302.32	13.878
302.69	14.428
303.05	13.861
303.42	12.827
303.79	14.252
304.15	13.620
304.52	12.604
304.89	11.228
305.25	12.712
305.62	10.852
305.99	13.684
306.35	13.064
306.72	10.686
307.09	13.683
307.45	14.351
307.82	11.343
308.19	12.660
308.55	12.323
308.92	13.181
309.29	12.291
309.65	12.164
310.02	11.991
310.38	12.514
310.75	13.005
311.12	11.195
311.48	13.362
311.85	11.728
312.22	12.553
312.58	12.633
312.95	12.060
313.31	10.870
313.68	11.623
314.05	11.633
314.41	11.340
314.78	12.371
315.14	12.641
315.51	12.629
315.87	13.115
316.24	12.235
316.61	12.598
316.97	12.996
317.34	11.426
317.70	12.333
318.07	11.058
318.43	12.549
318.80	11.742
319.16	13.672
319.53	12.156
319.89	12.992
320.26	12.348
320.62	12.136
320.99	11.273
321.35	11.614
321.72	12.150
322.08	11.984
322.45	13.096
322.81	11.788
323.18	11.776
323.54	11.969
323.91	10.613
324.27	11.035
324.64	12.079
325.00	13.321
325.37	12.121
325.73	11.786
326.10	12.625
326.46	11.749
326.83	11.461
327.19	11.072
327.56	12.858
327.92	12.588
328.29	10.446
328.65	12.358
329.01	10.846
329.38	11.982
329.74	10.576
330.11	11.492
330.47	10.761
330.84	9.904
331.20	11.692
331.56	11.204
331.93	12.237
332.29	12.007
332.66	12.036
333.02	10.781
333.38	11.091
333.75	12.546
334.11	10.027
334.48	11.786
334.84	11.447
335.20	11.985
335.57	10.517
335.93	11.563
336.29	11.050
336.66	10.173
337.02	11.431
337.38	10.833
337.75	10.636
338.11	11.903
338.47	10.949
338.84	12.015
339.20	10.969
339.56	10.367
339.93	10.564
340.29	11.743
340.65	11.828
341.02	10.816
341.38	11.062
341.74	10.071
342.11	10.225
342.47	11.922
342.83	11.073
343.20	10.017
343.56	12.174
343.92	11.515
344.28	13.151
344.65	10.708
345.01	10.717
345.37	11.270
345.73	12.385
346.10	11.993
346.46	11.186
346.82	10.884
347.19	10.640
347.55	11.111
347.91	11.165
348.27	10.428
348.63	11.840
349.00	11.649
349.36	10.058
349.72	11.609
350.08	10.656
350.45	11.732
350.81	10.299
351.17	10.831
351.53	10.531
351.89	10.570
352.26	10.240
352.62	11.048
352.98	10.602
353.34	11.031
353.70	12.217
354.07	10.806
354.43	11.049
354.79	10.818
355.15	11.667
355.51	11.551
355.87	11.408
356.24	9.951
356.60	11.318
356.96	11.349
357.32	11.422
357.68	10.711
358.04	10.905
358.40	10.048
358.77	11.244
359.13	10.809
359.49	10.324
359.85	10.296
360.21	10.925
360.57	10.482
360.93	11.044
361.29	9.441
361.66	10.815
362.02	11.364
362.38	11.043
362.74	9.841
363.10	11.362
363.46	10.156
363.82	11.119
364.18	9.889
364.54	9.926
364.90	10.753
365.26	10.335
365.62	11.168
365.98	10.337
366.35	10.852
366.71	10.569
367.07	10.958
367.43	9.633
367.79	10.177
368.15	9.978
368.51	10.925
368.87	10.768
369.23	11.047
369.59	10.569
369.95	10.777
370.31	10.838
370.67	11.119
371.03	11.128
371.39	10.649
371.75	10.916
372.11	11.555
372.47	11.095
372.83	11.994
373.19	11.626
373.55	10.614
373.91	11.375
374.27	10.631
374.63	10.840
374.99	10.426
375.35	10.237
375.71	10.699
376.07	10.112
376.42	11.429
376.78	9.799
377.14	11.036
377.50	11.554
377.86	11.714
378.22	10.721
378.58	10.321
378.94	11.405
379.30	11.167
379.66	11.411
380.02	10.607
380.38	10.651
380.74	9.874
381.09	11.411
381.45	11.315
381.81	11.721
382.17	11.231
382.53	11.430
382.89	10.860
383.25	11.637
383.61	11.341
383.97	11.048
384.32	10.944
384.68	10.898
385.04	10.846
385.40	10.828
385.76	12.075
386.12	11.643
386.48	11.558
386.83	11.097
387.19	11.294
387.55	11.794
387.91	11.002
388.27	12.210
388.62	11.705
388.98	11.786
389.34	10.868
389.70	11.560
390.06	11.265
390.42	12.435
390.77	11.511
391.13	11.097
391.49	10.867
391.85	11.566
392.20	11.927
392.56	11.380
392.92	12.155
393.28	12.264
393.64	11.652
393.99	12.351
394.35	10.942
394.71	12.452
395.07	11.754
395.42	12.447
395.78	11.726
396.14	12.421
396.50	12.365
396.85	11.655
397.21	11.905
397.57	11.473
397.92	12.642
398.28	12.299
398.64	11.747
399.00	12.246
399.35	11.682
399.71	12.636
400.07	12.092
400.42	12.607
400.78	12.064
401.14	12.825
401.49	12.388
401.85	12.188
402.21	12.229
402.57	13.125
402.92	11.669
403.28	13.722
403.63	12.547
403.99	12.372
404.35	12.367
404.70	12.143
405.06	12.221
405.42	12.119
405.77	12.202
406.13	12.282
406.49	12.552
406.84	13.020
407.20	12.703
407.55	11.462
407.91	12.299
408.27	12.046
408.62	13.046
408.98	12.015
409.34	12.701
409.69	12.080
410.05	12.931
410.40	12.963
410.76	13.209
411.11	12.188
411.47	12.492
411.83	11.299
412.18	12.806
412.54	13.233
412.89	11.576
413.25	12.635
413.60	12.360
413.96	11.902
414.31	12.744
414.67	12.572
415.03	12.051
415.38	12.794
415.74	13.094
416.09	12.606
416.45	13.437
416.80	12.558
417.16	12.362
417.51	13.458
417.87	12.842
418.22	12.953
418.58	12.441
418.93	13.793
419.29	12.804
419.64	13.027
420.00	13.665
420.35	12.478
420.71	12.940
421.06	12.523
421.42	13.882
421.77	12.659
422.12	12.259
422.48	12.994
422.83	12.529
423.19	12.810
423.54	11.934
423.90	12.250
424.25	12.916
424.61	13.097
424.96	13.473
425.31	13.403
425.67	13.028
426.02	12.662
426.38	13.087
426.73	12.530
427.09	13.354
427.44	13.059
427.79	12.964
428.15	13.532
428.50	12.780
428.85	12.162
429.21	13.809
429.56	13.531
429.92	13.148
430.27	12.932
430.62	12.807
430.98	12.367
431.33	13.039
431.68	13.030
432.04	13.248
432.39	12.721
432.74	12.928
433.10	13.793
433.45	12.605
433.80	12.478
434.16	12.355
434.51	12.742
434.86	13.066
435.22	13.068
435.57	13.600
435.92	13.114
436.28	13.298
436.63	12.721
436.98	12.688
437.34	13.128
437.69	12.701
438.04	13.333
438.39	12.767
438.75	12.083
439.10	12.620
439.45	12.295
439.81	12.416
440.16	13.480
440.51	13.493
440.86	13.837
441.22	12.839
441.57	12.969
441.92	13.379
442.27	12.749
442.63	13.704
442.98	13.153
443.33	12.076
443.68	12.202
444.03	12.767
444.39	12.937
444.74	12.765
445.09	13.196
445.44	13.048
445.79	13.615
446.15	13.161
446.50	12.479
446.85	13.284
447.20	12.252
447.55	14.007
447.91	13.254
448.26	13.546
448.61	12.378
448.96	13.253
449.31	12.832
449.66	12.660
450.02	13.006
450.37	13.219
450.72	12.543
451.07	12.911
451.42	13.171
451.77	12.960
452.12	12.440
452.47	12.106
452.83	12.721
453.18	13.030
453.53	13.338
453.88	13.236
454.23	13.399
454.58	12.657
454.93	13.015
455.28	11.937
455.63	12.771
455.98	12.748
456.34	12.324
456.69	13.215
457.04	13.296
457.39	12.637
457.74	12.757
458.09	12.184
458.44	12.756
458.79	12.157
459.14	13.043
459.49	12.776
459.84	13.480
460.19	12.682
460.54	12.347
460.89	12.500
461.24	12.547
461.59	13.005
461.94	13.208
462.29	13.209
462.64	13.289
462.99	13.744
463.34	11.892
463.69	11.326
464.04	12.591
464.39	12.917
464.74	12.577
465.09	12.976
465.44	12.695
465.79	12.642
466.14	12.771
466.49	11.788
466.84	12.968
467.19	13.267
467.54	13.155
467.89	12.824
468.24	12.774
468.59	14.159
468.94	13.143
469.29	13.115
469.64	13.329
469.99	12.964
470.34	12.423
470.68	12.528
471.03	13.022
471.38	13.053
471.73	13.585
472.08	12.144
472.43	12.282
472.78	10.555
473.13	11.905
473.48	12.052
473.83	12.702
474.17	13.277
474.52	12.508
474.87	12.727
475.22	12.874
475.57	12.140
475.92	13.494
476.27	12.922
476.61	13.021
476.96	12.828
477.31	13.521
477.66	12.191
478.01	12.858
478.36	12.527
478.70	13.757
479.05	13.407
479.40	12.719
479.75	13.034
480.10	12.954
480.45	12.200
480.79	13.142
481.14	13.422
481.49	12.266
481.84	12.790
482.19	12.488
482.53	13.237
482.88	13.795
483.23	12.188
483.58	13.160
483.92	12.294
484.27	13.036
484.62	12.909
484.97	12.811
485.31	12.500
485.66	12.278
486.01	12.532
486.36	12.502
486.70	13.063
487.05	13.111
487.40	12.823
487.75	12.873
488.09	12.794
488.44	12.792
488.79	13.186
489.13	12.941
489.48	12.783
489.83	12.018
490.17	12.270
490.52	12.333
490.87	12.864
491.22	13.658
491.56	12.239
491.91	12.572
492.26	12.786
492.60	12.860
492.95	12.986
493.30	12.604
493.64	12.426
493.99	12.899
494.34	12.184
494.68	13.095
495.03	12.701
495.37	13.052
495.72	13.579
496.07	13.463
496.41	12.594
496.76	12.529
497.11	11.830
497.45	12.792
497.80	12.714
498.14	13.065
498.49	13.002
498.84	13.174
499.18	12.651
499.53	12.946
499.87	12.160
500.22	12.760
500.56	12.658
500.91	13.102
501.26	11.864
501.60	12.740
501.95	12.324
502.29	13.123
502.64	13.224
502.98	12.827
503.33	12.200
503.67	13.253
504.02	12.708
504.36	13.063
504.71	12.222
505.06	12.380
505.40	12.589
505.75	12.784
506.09	12.722
506.44	13.552
506.78	12.398
507.13	13.030
507.47	12.898
507.82	12.179
508.16	13.101
508.51	12.907
508.85	12.350
509.19	12.613
509.54	13.137
509.88	13.053
510.23	12.856
510.57	13.415
510.92	11.834
511.26	12.875
511.61	13.476
511.95	12.493
512.30	13.747
512.64	13.689
512.98	12.577
513.33	13.542
513.67	12.507
514.02	14.130
514.36	14.000
514.70	13.578
515.05	13.925
515.39	12.751
515.74	13.713
516.08	13.270
516.42	13.781
516.77	13.341
517.11	13.591
517.46	13.285
517.80	13.111
518.14	12.676
518.49	13.161
518.83	13.244
519.17	12.917
519.52	13.381
519.86	13.145
520.20	13.426
520.55	12.070
520.89	13.676
521.23	13.426
521.58	13.628
521.92	13.269
522.26	12.817
522.61	13.442
522.95	13.576
523.29	13.088
523.64	13.659
523.98	13.999
524.32	13.080
524.66	13.188
525.01	13.896
525.35	13.869
525.69	13.401
526.04	12.368
526.38	14.916
526.72	13.211
527.06	13.100
527.41	13.522
527.75	12.869
528.09	13.688
528.43	13.842
528.78	13.333
529.12	13.355
529.46	13.905
529.80	13.933
530.15	14.389
530.49	12.862
530.83	13.543
531.17	14.036
531.51	14.227
531.86	13.596
532.20	12.039
532.54	14.295
532.88	13.826
533.22	13.911
533.57	13.237
533.91	12.728
534.25	15.104
534.59	13.085
534.93	13.593
535.27	13.325
535.62	13.415
535.96	14.155
536.30	14.050
536.64	13.370
536.98	13.937
537.32	13.656
537.66	15.147
538.01	14.126
538.35	14.147
538.69	13.848
539.03	13.465
539.37	14.603
539.71	13.429
540.05	14.257
540.39	14.404
540.73	13.459
541.07	13.812
541.42	14.180
541.76	14.659
542.10	13.971
542.44	14.524
542.78	12.732
543.12	12.912
543.46	14.534
543.80	14.226
544.14	12.750
544.48	13.324
544.82	13.944
545.16	14.413
545.50	14.219
545.84	13.881
546.18	14.681
546.52	13.627
546.86	14.234
547.20	14.163
547.54	13.074
547.88	14.334
548.22	13.412
548.56	14.050
548.90	14.151
549.24	13.085
549.58	14.528
549.92	13.367
550.26	13.700
550.60	14.052
550.94	13.219
551.28	13.679
551.62	14.615
551.96	14.511
552.30	14.254
552.64	13.258
552.98	13.854
553.32	14.479
553.66	13.208
554.00	14.015
554.34	13.811
554.68	13.348
555.02	14.062
555.36	14.361
555.69	13.187
556.03	14.561
556.37	13.238
556.71	13.863
557.05	14.541
557.39	12.491
557.73	14.243
558.07	14.329
558.41	14.165
558.75	13.250
559.08	15.209
559.42	13.175
559.76	14.171
560.10	13.685
560.44	12.063
560.78	13.706
561.12	14.457
561.45	14.828
561.79	13.515
562.13	14.053
562.47	14.029
562.81	14.265
563.15	14.104
563.48	14.144
563.82	14.482
564.16	14.206
564.50	13.311
564.84	14.257
565.17	13.414
565.51	13.934
565.85	13.717
566.19	14.523
566.52	13.740
566.86	15.553
567.20	14.321
567.54	13.625
567.88	14.587
568.21	14.197
568.55	12.989
568.89	14.630
569.23	14.636
569.56	13.354
569.90	14.129
570.24	13.770
570.57	14.000
570.91	14.814
571.25	13.811
571.59	13.609
571.92	13.452
572.26	13.919
572.60	14.078
572.93	14.371
573.27	13.981
573.61	13.723
573.95	14.145
574.28	13.930
574.62	13.450
574.96	14.211
575.29	14.084
575.63	13.682
575.97	13.689
576.30	13.804
576.64	13.642
576.98	14.234
577.31	14.205
577.65	13.807
577.98	13.715
578.32	14.119
578.66	13.669
578.99	13.781
579.33	13.990
579.67	14.131
580.00	14.177
580.34	14.154
580.67	14.219
581.01	13.929
581.35	13.997
581.68	13.915
582.02	13.948
582.35	13.965
582.69	14.044
583.02	14.100
583.36	14.171
583.70	14.486
584.03	14.512
584.37	14.427
584.70	14.176
585.04	13.679
585.37	14.079
585.71	13.947
586.04	13.414
586.38	13.870
586.72	13.831
587.05	14.211
587.39	14.286
587.72	14.325
588.06	13.977
588.39	14.127
588.73	14.408
589.06	13.666
589.40	14.656
589.73	14.604
590.07	14.728
590.40	14.861
590.73	14.909
591.07	14.377
591.40	14.470
591.74	14.706
592.07	14.842
592.41	14.178
592.74	13.899
593.08	13.832
593.41	14.036
593.75	13.837
594.08	13.629
594.41	13.719
594.75	13.473
595.08	14.226
595.42	14.428
595.75	14.382
596.09	14.699
596.42	14.262
596.75	14.787
597.09	13.713
597.42	14.092
597.75	14.842
598.09	14.667
598.42	14.350
598.76	13.943
599.09	14.063
599.42	13.907
599.76	13.920
600.09	13.612
600.42	13.571
600.76	14.004
601.09	14.389
601.42	13.944
601.76	13.736
602.09	14.191
602.42	14.869
602.76	14.261
603.09	13.538
603.42	14.465
603.76	13.468
604.09	13.933
604.42	14.171
604.76	14.464
605.09	14.122
605.42	14.312
605.75	13.923
606.09	14.183
606.42	14.387
606.75	14.502
607.09	14.637
607.42	13.912
607.75	14.343
608.08	14.016
608.42	14.299
608.75	14.506
609.08	13.951
609.41	14.365
609.75	14.012
610.08	14.229
610.41	14.348
610.74	13.944
611.07	13.798
611.41	14.375
611.74	14.765
612.07	14.133
612.40	14.114
612.73	14.350
613.07	14.117
613.40	14.387
613.73	13.822
614.06	13.968
614.39	14.382
614.72	13.782
615.06	13.966
615.39	13.373
615.72	14.209
616.05	14.302
616.38	13.219
616.71	13.456
617.05	14.947
617.38	14.331
617.71	13.899
618.04	14.222
618.37	15.069
618.70	14.983
619.03	15.139
619.36	13.965
619.69	14.860
620.03	15.267
620.36	14.521
620.69	14.847
621.02	14.373
621.35	14.855
621.68	14.456
622.01	15.083
622.34	14.366
622.67	15.221
623.00	14.472
623.33	14.863
623.66	14.286
623.99	14.297
624.32	14.297
624.65	13.985
624.99	14.372
625.32	13.419
625.65	15.475
625.98	14.504
626.31	13.466
626.64	15.338
626.97	15.183
627.30	16.112
627.63	15.165
627.96	14.915
628.29	15.356
628.62	14.749
628.95	15.832
629.28	14.415
629.61	13.659
629.94	14.370
630.26	15.020
630.59	14.568
630.92	14.769
631.25	15.077
631.58	15.088
631.91	14.254
632.24	13.532
632.57	15.341
632.90	15.184
633.23	16.000
633.56	14.232
633.89	14.057
