SpectraSuite Data File
++++++++++++++++++++++++++++++++++++
Date: Fri May 15 17:20:16 PDT 2015
User: schluterlab
Dark Spectrum Present: Yes
Reference Spectrum Present: Yes
Number of Sampled Component Spectra: 1
Spectrometers: USB2E3373
Integration Time (usec): 3000 (USB2E3373)
Spectra Averaged: 3 (USB2E3373)
Boxcar Smoothing: 0 (USB2E3373)
Correct for Electrical Dark: No (USB2E3373)
Strobe/Lamp Enabled: No (USB2E3373)
Correct for Detector Non-linearity: No (USB2E3373)
Correct for Stray Light: No (USB2E3373)
Number of Pixels in Processed Spectrum: 2048
>>>>>Begin Processed Spectral Data<<<<<
178.53	0.000
178.91	0.000
179.29	125.000
179.67	100.000
180.04	-114.286
180.42	275.000
180.80	-700.000
181.18	-133.333
181.56	-50.000
181.94	0.000
182.31	-400.000
182.69	20.000
183.07	66.667
183.45	40.000
183.83	66.667
184.20	72.727
184.58	66.667
184.96	-300.000
185.34	-266.667
185.72	-200.000
186.09	30.769
186.47	-400.000
186.85	-133.333
187.23	44.444
187.61	-100.000
187.98	-33.333
188.36	77.778
188.74	433.333
189.12	94.118
189.49	16.667
189.87	0.000
190.25	28.571
190.63	250.000
191.00	66.667
191.38	36.842
191.76	150.000
192.14	-0.000
192.51	250.000
192.89	22.222
193.27	57.143
193.65	-66.667
194.02	127.273
194.40	130.000
194.78	0.000
195.15	8.333
195.53	-50.000
195.91	-25.000
196.29	50.000
196.66	15.385
197.04	-42.857
197.42	77.778
197.79	-133.333
198.17	23.077
198.55	700.000
198.92	100.000
199.30	-300.000
199.68	0.000
200.05	233.333
200.43	0.000
200.81	266.667
201.18	0.000
201.56	700.000
201.94	500.000
202.31	-166.667
202.69	-60.000
203.07	-100.000
203.44	1100.000
203.82	0.000
204.19	78.571
204.57	-300.000
204.95	12.500
205.32	60.000
205.70	128.571
206.08	250.000
206.45	222.222
206.83	64.286
207.20	-57.143
207.58	-0.000
207.96	-133.333
208.33	50.000
208.71	100.000
209.08	-16.667
209.46	700.000
209.84	100.000
210.21	300.000
210.59	157.143
210.96	166.667
211.34	25.000
211.71	80.000
212.09	-42.857
212.46	-1300.000
212.84	0.000
213.22	100.000
213.59	250.000
213.97	100.000
214.34	-9.091
214.72	66.667
215.09	400.000
215.47	76.923
215.84	18.182
216.22	33.333
216.59	200.000
216.97	400.000
217.34	25.000
217.72	-80.000
218.09	187.500
218.47	37.500
218.84	800.000
219.22	-22.222
219.59	180.000
219.97	166.667
220.34	100.000
220.72	157.143
221.09	100.000
221.47	0.000
221.84	300.000
222.22	-200.000
222.59	81.818
222.97	33.333
223.34	266.667
223.72	-35.714
224.09	38.095
224.46	17.857
224.84	66.667
225.21	50.000
225.59	66.667
225.96	0.000
226.34	200.000
226.71	57.143
227.08	33.333
227.46	212.500
227.83	-350.000
228.21	-22.222
228.58	90.909
228.95	150.000
229.33	-30.000
229.70	75.000
230.08	50.000
230.45	185.714
230.82	114.286
231.20	53.333
231.57	135.714
231.95	157.143
232.32	-30.000
232.69	78.571
233.07	466.667
233.44	180.000
233.81	70.000
234.19	44.444
234.56	64.706
234.93	-150.000
235.31	300.000
235.68	-60.000
236.05	-46.154
236.43	30.000
236.80	23.529
237.17	37.500
237.55	45.000
237.92	18.519
238.29	63.889
238.67	40.000
239.04	5.882
239.41	7.317
239.79	26.667
240.16	48.780
240.53	34.211
240.91	36.957
241.28	19.048
241.65	28.571
242.02	20.548
242.40	28.333
242.77	42.373
243.14	22.727
243.51	18.750
243.89	29.885
244.26	26.437
244.63	21.429
245.00	12.371
245.38	44.330
245.75	12.360
246.12	19.828
246.49	26.446
246.87	33.654
247.24	16.807
247.61	14.035
247.98	25.203
248.36	18.750
248.73	23.684
249.10	22.078
249.47	22.152
249.84	22.876
250.22	28.824
250.59	25.490
250.96	20.657
251.33	19.767
251.70	22.353
252.08	23.350
252.45	23.267
252.82	21.608
253.19	22.120
253.56	17.290
253.94	29.730
254.31	23.913
254.68	29.386
255.05	24.409
255.42	23.581
255.79	23.166
256.16	22.179
256.54	24.627
256.91	21.293
257.28	22.677
257.65	18.352
258.02	20.567
258.39	21.886
258.76	22.711
259.14	24.917
259.51	21.036
259.88	21.993
260.25	22.222
260.62	20.833
260.99	22.712
261.36	21.575
261.73	19.937
262.10	19.757
262.47	21.166
262.85	17.241
263.22	17.846
263.59	19.626
263.96	22.981
264.33	20.000
264.70	21.726
265.07	22.024
265.44	21.813
265.81	20.621
266.18	19.945
266.55	19.280
266.92	23.834
267.29	19.582
267.66	20.460
268.03	21.204
268.40	17.755
268.77	22.995
269.14	20.144
269.51	23.136
269.88	20.449
270.25	19.643
270.62	17.805
270.99	17.647
271.36	18.826
271.73	21.127
272.10	19.465
272.47	21.749
272.84	18.564
273.21	21.114
273.58	22.410
273.95	22.654
274.32	20.785
274.69	20.362
275.06	20.313
275.43	20.181
275.80	17.439
276.17	19.080
276.54	20.985
276.91	21.272
277.28	20.524
277.65	20.248
278.02	21.064
278.39	18.600
278.76	20.335
279.13	16.805
279.50	20.378
279.87	20.950
280.23	17.849
280.60	20.468
280.97	20.808
281.34	19.231
281.71	18.891
282.08	19.632
282.45	18.787
282.82	19.305
283.19	20.116
283.56	17.534
283.92	19.545
284.29	18.269
284.66	19.186
285.03	20.236
285.40	20.038
285.77	17.223
286.14	19.675
286.51	22.140
286.87	17.916
287.24	18.785
287.61	16.226
287.98	20.351
288.35	17.851
288.72	17.688
289.08	19.097
289.45	19.332
289.82	20.280
290.19	18.430
290.56	19.211
290.93	18.182
291.29	15.408
291.66	17.480
292.03	18.182
292.40	18.548
292.77	18.979
293.13	16.721
293.50	16.540
293.87	18.168
294.24	18.547
294.60	20.119
294.97	19.196
295.34	16.411
295.71	17.586
296.08	18.386
296.44	16.216
296.81	18.611
297.18	17.101
297.55	20.190
297.91	18.356
298.28	20.185
298.65	16.554
299.02	18.464
299.38	17.100
299.75	17.793
300.12	17.016
300.48	15.942
300.85	17.997
301.22	18.182
301.59	18.816
301.95	19.747
302.32	19.196
302.69	17.662
303.05	17.203
303.42	18.804
303.79	18.458
304.15	19.235
304.52	17.598
304.89	16.374
305.25	18.765
305.62	15.403
305.99	18.363
306.35	16.879
306.72	18.110
307.09	17.902
307.45	18.944
307.82	16.782
308.19	17.654
308.55	17.339
308.92	19.063
309.29	17.765
309.65	18.515
310.02	17.932
310.38	18.880
310.75	20.546
311.12	19.160
311.48	17.709
311.85	18.429
312.22	20.148
312.58	18.790
312.95	17.930
313.31	17.909
313.68	18.639
314.05	18.367
314.41	19.072
314.78	18.351
315.14	18.705
315.51	19.048
315.87	20.697
316.24	19.515
316.61	20.276
316.97	19.940
317.34	19.629
317.70	18.642
318.07	19.615
318.43	20.294
318.80	20.170
319.16	20.410
319.53	21.557
319.89	20.374
320.26	21.356
320.62	21.063
320.99	19.207
321.35	21.377
321.72	21.599
322.08	22.356
322.45	22.538
322.81	22.397
323.18	23.062
323.54	22.201
323.91	22.882
324.27	24.121
324.64	23.970
325.00	23.540
325.37	26.079
325.73	24.660
326.10	24.977
326.46	26.816
326.83	26.159
327.19	26.330
327.56	26.499
327.92	26.232
328.29	26.964
328.65	28.585
329.01	29.228
329.38	28.848
329.74	27.951
330.11	28.730
330.47	28.942
330.84	29.423
331.20	31.749
331.56	28.519
331.93	30.685
332.29	31.347
332.66	31.312
333.02	30.390
333.38	30.431
333.75	32.875
334.11	29.722
334.48	32.457
334.84	32.143
335.20	32.022
335.57	30.734
335.93	33.062
336.29	31.768
336.66	31.426
337.02	33.271
337.38	32.222
337.75	32.636
338.11	33.363
338.47	34.672
338.84	32.625
339.20	31.718
339.56	33.119
339.93	34.020
340.29	34.771
340.65	33.423
341.02	32.447
341.38	32.920
341.74	32.155
342.11	32.149
342.47	32.651
342.83	33.651
343.20	33.711
343.56	33.565
343.92	32.772
344.28	32.365
344.65	32.902
345.01	32.671
345.37	31.034
345.73	33.808
346.10	33.822
346.46	33.389
346.82	31.260
347.19	31.837
347.55	31.495
347.91	32.362
348.27	32.094
348.63	32.112
349.00	31.747
349.36	33.416
349.72	32.919
350.08	33.115
350.45	33.360
350.81	32.143
351.17	32.655
351.53	33.143
351.89	30.966
352.26	31.600
352.62	34.597
352.98	32.369
353.34	31.401
353.70	32.686
354.07	32.984
354.43	32.586
354.79	32.535
355.15	32.857
355.51	32.911
355.87	33.172
356.24	31.892
356.60	32.983
356.96	33.095
357.32	32.987
357.68	31.744
358.04	31.502
358.40	32.235
358.77	33.573
359.13	32.746
359.49	32.743
359.85	32.137
360.21	32.297
360.57	32.211
360.93	33.661
361.29	31.647
361.66	33.542
362.02	34.167
362.38	32.978
362.74	33.838
363.10	33.935
363.46	33.877
363.82	32.832
364.18	32.325
364.54	33.309
364.90	33.262
365.26	33.770
365.62	34.088
365.98	33.578
366.35	34.596
366.71	34.072
367.07	32.946
367.43	34.148
367.79	33.428
368.15	34.889
368.51	33.285
368.87	33.022
369.23	33.502
369.59	34.767
369.95	33.798
370.31	33.960
370.67	34.254
371.03	34.503
371.39	34.209
371.75	34.432
372.11	34.094
372.47	35.799
372.83	34.564
373.19	34.165
373.55	34.296
373.91	34.845
374.27	34.656
374.63	35.894
374.99	35.461
375.35	35.306
375.71	36.434
376.07	36.096
376.42	35.374
376.78	36.510
377.14	34.529
377.50	37.052
377.86	36.948
378.22	36.184
378.58	36.923
378.94	36.988
379.30	35.745
379.66	36.489
380.02	36.542
380.38	37.371
380.74	37.104
381.09	38.834
381.45	37.064
381.81	38.001
382.17	38.198
382.53	37.789
382.89	38.858
383.25	38.892
383.61	39.024
383.97	39.429
384.32	39.087
384.68	39.319
385.04	38.480
385.40	39.764
385.76	40.881
386.12	40.298
386.48	40.549
386.83	39.062
387.19	39.927
387.55	40.527
387.91	40.098
388.27	39.621
388.62	40.843
388.98	40.823
389.34	40.100
389.70	40.522
390.06	40.214
390.42	41.451
390.77	41.596
391.13	40.731
391.49	41.138
391.85	42.235
392.20	39.485
392.56	41.704
392.92	42.102
393.28	40.979
393.64	40.781
393.99	42.257
394.35	41.493
394.71	41.635
395.07	40.541
395.42	40.498
395.78	40.782
396.14	41.677
396.50	41.154
396.85	41.919
397.21	42.043
397.57	41.129
397.92	42.481
398.28	42.011
398.64	40.542
399.00	41.874
399.35	40.350
399.71	42.275
400.07	42.987
400.42	40.208
400.78	40.416
401.14	40.895
401.49	41.930
401.85	41.255
402.21	40.723
402.57	42.312
402.92	41.531
403.28	42.356
403.63	42.497
403.99	42.283
404.35	41.037
404.70	41.012
405.06	42.009
405.42	40.646
405.77	40.442
406.13	40.978
406.49	41.267
406.84	40.954
407.20	41.120
407.55	42.241
407.91	41.377
408.27	40.535
408.62	40.615
408.98	41.158
409.34	41.512
409.69	40.698
410.05	40.517
410.40	41.605
410.76	41.013
411.11	41.625
411.47	41.026
411.83	41.180
412.18	42.471
412.54	40.824
412.89	40.764
413.25	41.697
413.60	41.304
413.96	41.043
414.31	40.793
414.67	41.565
415.03	41.678
415.38	41.057
415.74	40.782
416.09	41.607
416.45	41.594
416.80	42.168
417.16	42.818
417.51	41.839
417.87	41.982
418.22	43.782
418.58	42.074
418.93	42.633
419.29	40.397
419.64	42.255
420.00	43.451
420.35	42.448
420.71	42.649
421.06	41.989
421.42	42.368
421.77	42.370
422.12	42.622
422.48	42.989
422.83	41.879
423.19	43.059
423.54	42.681
423.90	42.697
424.25	43.685
424.61	42.411
424.96	43.380
425.31	44.252
425.67	43.721
426.02	45.465
426.38	43.957
426.73	45.157
427.09	45.127
427.44	44.529
427.79	44.372
428.15	44.114
428.50	43.913
428.85	43.857
429.21	44.595
429.56	45.121
429.92	44.222
430.27	42.556
430.62	44.224
430.98	44.108
431.33	44.374
431.68	44.008
432.04	43.544
432.39	44.267
432.74	43.115
433.10	45.575
433.45	44.863
433.80	45.212
434.16	44.986
434.51	44.624
434.86	45.006
435.22	44.476
435.57	46.413
435.92	44.551
436.28	44.246
436.63	44.837
436.98	44.670
437.34	44.646
437.69	45.856
438.04	45.071
438.39	44.899
438.75	45.659
439.10	45.105
439.45	47.170
439.81	45.566
440.16	45.724
440.51	46.567
440.86	47.190
441.22	44.457
441.57	46.358
441.92	46.380
442.27	46.452
442.63	46.627
442.98	46.468
443.33	45.019
443.68	45.623
444.03	46.051
444.39	45.548
444.74	46.711
445.09	47.327
445.44	45.755
445.79	47.189
446.15	45.870
446.50	45.702
446.85	46.706
447.20	45.568
447.55	45.982
447.91	45.911
448.26	46.500
448.61	46.632
448.96	47.160
449.31	46.532
449.66	46.864
450.02	46.948
450.37	48.074
450.72	46.220
451.07	47.975
451.42	46.941
451.77	48.342
452.12	45.574
452.47	46.619
452.83	45.701
453.18	45.857
453.53	46.776
453.88	47.723
454.23	47.265
454.58	47.418
454.93	47.680
455.28	46.159
455.63	47.799
455.98	47.023
456.34	47.254
456.69	47.586
457.04	47.385
457.39	48.117
457.74	46.614
458.09	46.439
458.44	47.162
458.79	47.003
459.14	47.769
459.49	47.522
459.84	46.926
460.19	47.512
460.54	48.105
460.89	47.727
461.24	47.267
461.59	47.447
461.94	47.044
462.29	48.251
462.64	48.372
462.99	48.070
463.34	47.497
463.69	47.040
464.04	48.426
464.39	47.423
464.74	47.546
465.09	48.284
465.44	48.355
465.79	47.166
466.14	48.347
466.49	47.326
466.84	48.007
467.19	47.497
467.54	47.446
467.89	47.757
468.24	47.506
468.59	47.683
468.94	47.683
469.29	49.180
469.64	49.077
469.99	50.175
470.34	49.898
470.68	49.664
471.03	49.540
471.38	49.001
471.73	49.230
472.08	49.525
472.43	49.060
472.78	49.006
473.13	49.048
473.48	48.925
473.83	47.758
474.17	49.870
474.52	48.564
474.87	49.818
475.22	48.566
475.57	47.770
475.92	48.821
476.27	49.767
476.61	49.653
476.96	47.797
477.31	49.594
477.66	48.258
478.01	48.905
478.36	48.203
478.70	49.212
479.05	48.736
479.40	49.709
479.75	48.905
480.10	49.002
480.45	49.500
480.79	50.252
481.14	49.693
481.49	49.310
481.84	50.000
482.19	48.971
482.53	49.976
482.88	49.117
483.23	49.376
483.58	48.538
483.92	48.403
484.27	48.496
484.62	49.260
484.97	48.217
485.31	48.121
485.66	47.152
486.01	47.496
486.36	46.119
486.70	46.216
487.05	46.929
487.40	47.182
487.75	47.859
488.09	48.548
488.44	47.765
488.79	49.047
489.13	50.280
489.48	49.337
489.83	49.910
490.17	49.169
490.52	51.132
490.87	49.977
491.22	50.478
491.56	49.715
491.91	48.996
492.26	50.122
492.60	49.616
492.95	50.910
493.30	49.976
493.64	49.656
493.99	50.918
494.34	50.049
494.68	51.238
495.03	49.440
495.37	50.638
495.72	50.076
496.07	51.561
496.41	50.896
496.76	50.299
497.11	49.837
497.45	50.310
497.80	51.160
498.14	50.124
498.49	51.143
498.84	50.449
499.18	51.155
499.53	50.744
499.87	50.049
500.22	50.643
500.56	51.185
500.91	50.703
501.26	50.568
501.60	51.549
501.95	51.674
502.29	51.283
502.64	51.641
502.98	51.209
503.33	50.624
503.67	50.169
504.02	50.831
504.36	50.619
504.71	50.152
505.06	51.887
505.40	51.675
505.75	52.113
506.09	52.053
506.44	52.156
506.78	52.500
507.13	51.396
507.47	50.966
507.82	52.137
508.16	51.611
508.51	52.413
508.85	52.538
509.19	52.954
509.54	51.796
509.88	52.319
510.23	53.093
510.57	52.539
510.92	50.959
511.26	52.482
511.61	53.025
511.95	52.822
512.30	52.993
512.64	52.031
512.98	53.341
513.33	53.274
513.67	53.042
514.02	54.920
514.36	54.629
514.70	54.953
515.05	53.760
515.39	54.250
515.74	55.389
516.08	55.051
516.42	55.300
516.77	55.354
517.11	55.193
517.46	55.356
517.80	55.125
518.14	55.419
518.49	54.928
518.83	55.954
519.17	54.821
519.52	54.292
519.86	53.241
520.20	55.772
520.55	54.784
520.89	56.148
521.23	55.731
521.58	56.909
521.92	56.474
522.26	57.775
522.61	55.844
522.95	56.490
523.29	55.527
523.64	56.290
523.98	57.356
524.32	57.603
524.66	58.067
525.01	56.948
525.35	56.319
525.69	57.374
526.04	56.415
526.38	57.912
526.72	56.835
527.06	55.837
527.41	57.850
527.75	56.769
528.09	57.209
528.43	58.406
528.78	58.482
529.12	57.226
529.46	58.090
529.80	57.505
530.15	58.878
530.49	58.721
530.83	59.097
531.17	57.220
531.51	59.166
531.86	57.852
532.20	57.411
532.54	58.067
532.88	58.795
533.22	57.124
533.57	57.143
533.91	58.420
534.25	58.789
534.59	57.986
534.93	56.199
535.27	57.360
535.62	58.522
535.96	57.012
536.30	59.235
536.64	58.787
536.98	57.352
537.32	61.024
537.66	60.449
538.01	59.650
538.35	59.709
538.69	57.656
539.03	57.758
539.37	58.681
539.71	59.305
540.05	57.773
540.39	58.726
540.73	60.181
541.07	59.807
541.42	57.594
541.76	60.014
542.10	58.706
542.44	58.930
542.78	57.536
543.12	58.791
543.46	59.527
543.80	59.264
544.14	57.610
544.48	57.828
544.82	58.510
545.16	59.153
545.50	58.745
545.84	60.127
546.18	60.213
546.52	59.553
546.86	58.950
547.20	58.512
547.54	59.929
547.88	59.103
548.22	57.922
548.56	57.718
548.90	58.827
549.24	58.127
549.58	58.322
549.92	58.613
550.26	60.147
550.60	60.446
550.94	59.671
551.28	60.819
551.62	60.385
551.96	60.000
552.30	58.480
552.64	59.450
552.98	59.916
553.32	58.987
553.66	59.869
554.00	58.394
554.34	60.118
554.68	60.324
555.02	60.789
555.36	60.135
555.69	59.707
556.03	58.030
556.37	59.075
556.71	60.144
557.05	60.626
557.39	58.439
557.73	59.595
558.07	60.332
558.41	59.801
558.75	61.185
559.08	60.993
559.42	61.667
559.76	59.888
560.10	60.168
560.44	60.387
560.78	60.280
561.12	59.591
561.45	60.717
561.79	60.224
562.13	59.901
562.47	59.640
562.81	60.303
563.15	59.661
563.48	58.840
563.82	60.879
564.16	59.958
564.50	59.865
564.84	59.705
565.17	59.088
565.51	61.680
565.85	60.082
566.19	59.549
566.52	59.920
566.86	60.861
567.20	59.215
567.54	59.367
567.88	59.402
568.21	59.276
568.55	58.152
568.89	58.316
569.23	57.679
569.56	57.005
569.90	57.450
570.24	55.341
570.57	55.200
570.91	57.093
571.25	54.883
571.59	54.344
571.92	53.422
572.26	53.895
572.60	53.457
572.93	53.812
573.27	53.981
573.61	54.117
573.95	54.369
574.28	53.867
574.62	52.835
574.96	53.428
575.29	53.281
575.63	52.112
575.97	52.236
576.30	54.175
576.64	53.404
576.98	53.539
577.31	54.436
577.65	53.234
577.98	52.705
578.32	52.784
578.66	51.859
578.99	52.036
579.33	52.461
579.67	52.284
580.00	52.861
580.34	53.284
580.67	52.770
581.01	53.242
581.35	52.412
581.68	52.372
582.02	52.211
582.35	52.312
582.69	51.714
583.02	52.489
583.36	53.158
583.70	53.712
584.03	54.379
584.37	55.280
584.70	54.148
585.04	52.539
585.37	53.243
585.71	52.506
586.04	53.454
586.38	52.574
586.72	53.802
587.05	53.928
587.39	54.347
587.72	54.237
588.06	53.474
588.39	53.119
588.73	53.632
589.06	55.251
589.40	54.615
589.73	55.057
590.07	56.307
590.40	56.772
590.73	56.919
591.07	56.785
591.40	56.545
591.74	56.018
592.07	57.282
592.41	55.698
592.74	54.042
593.08	53.126
593.41	54.003
593.75	53.909
594.08	52.901
594.41	54.913
594.75	54.924
595.08	54.975
595.42	55.061
595.75	56.140
596.09	54.418
596.42	55.974
596.75	57.371
597.09	55.353
597.42	56.323
597.75	56.024
598.09	54.142
598.42	55.099
598.76	54.826
599.09	54.768
599.42	54.415
599.76	54.251
600.09	54.072
600.42	54.321
600.76	53.195
601.09	53.893
601.42	54.446
601.76	54.823
602.09	54.332
602.42	55.476
602.76	55.348
603.09	55.855
603.42	56.898
603.76	55.847
604.09	54.719
604.42	55.161
604.76	57.365
605.09	55.804
605.42	56.343
605.75	54.947
606.09	55.202
606.42	55.171
606.75	54.719
607.09	55.033
607.42	54.409
607.75	54.796
608.08	54.582
608.42	54.180
608.75	55.422
609.08	56.203
609.41	55.838
609.75	56.905
610.08	56.815
610.41	55.362
610.74	56.216
611.07	57.003
611.41	56.513
611.74	57.356
612.07	55.942
612.40	57.330
612.73	59.661
613.07	56.412
613.40	56.729
613.73	56.687
614.06	56.483
614.39	57.191
614.72	55.854
615.06	57.598
615.39	56.004
615.72	56.351
616.05	57.039
616.38	55.157
616.71	56.453
617.05	58.122
617.38	57.762
617.71	58.553
618.04	60.190
618.37	58.764
618.70	60.264
619.03	60.556
619.36	58.466
619.69	61.410
620.03	60.117
620.36	60.658
620.69	59.957
621.02	60.015
621.35	62.324
621.68	60.714
622.01	60.083
622.34	60.096
622.67	59.700
623.00	59.571
623.33	59.909
623.66	59.536
623.99	59.455
624.32	60.608
624.65	59.098
624.99	61.174
625.32	59.439
625.65	60.644
625.98	61.483
626.31	61.929
626.64	61.352
626.97	62.391
627.30	60.858
627.63	61.265
627.96	62.983
628.29	64.940
628.62	64.012
628.95	64.028
629.28	63.206
629.61	64.407
629.94	62.170
630.26	61.858
630.59	64.724
630.92	64.718
631.25	62.462
631.58	64.317
631.91	62.610
632.24	65.023
632.57	63.864
632.90	66.311
633.23	64.471
633.56	66.499
633.89	63.872
634.22	67.531
634.55	68.234
