SpectraSuite Data File
++++++++++++++++++++++++++++++++++++
Date: Fri May 15 20:17:01 PDT 2015
User: schluterlab
Dark Spectrum Present: Yes
Reference Spectrum Present: Yes
Number of Sampled Component Spectra: 1
Spectrometers: USB2E3373
Integration Time (usec): 3000 (USB2E3373)
Spectra Averaged: 3 (USB2E3373)
Boxcar Smoothing: 0 (USB2E3373)
Correct for Electrical Dark: No (USB2E3373)
Strobe/Lamp Enabled: No (USB2E3373)
Correct for Detector Non-linearity: No (USB2E3373)
Correct for Stray Light: No (USB2E3373)
Number of Pixels in Processed Spectrum: 2048
>>>>>Begin Processed Spectral Data<<<<<
178.53	0.000
178.91	0.000
179.29	62.500
179.67	-650.000
180.04	-42.857
180.42	-125.000
180.80	-600.000
181.18	166.667
181.56	200.000
181.94	200.000
182.31	-200.000
182.69	-180.000
183.07	-166.667
183.45	-260.000
183.83	250.000
184.20	18.182
184.58	22.222
184.96	100.000
185.34	-0.000
185.72	-750.000
186.09	46.154
186.47	-500.000
186.85	100.000
187.23	133.333
187.61	-300.000
187.98	-100.000
188.36	111.111
188.74	-100.000
189.12	29.412
189.49	22.222
189.87	0.000
190.25	64.286
190.63	-450.000
191.00	-333.333
191.38	21.053
191.76	450.000
192.14	-150.000
192.51	100.000
192.89	-88.889
193.27	-171.429
193.65	116.667
194.02	127.273
194.40	120.000
194.78	-125.000
195.15	16.667
195.53	-137.500
195.91	175.000
196.29	-75.000
196.66	92.308
197.04	57.143
197.42	-44.444
197.79	-133.333
198.17	-30.769
198.55	1000.000
198.92	-33.333
199.30	-500.000
199.68	-180.000
200.05	-266.667
200.43	0.000
200.81	-433.333
201.18	-66.667
201.56	300.000
201.94	50.000
202.31	-66.667
202.69	-80.000
203.07	-0.000
203.44	0.000
203.82	0.000
204.19	14.286
204.57	-166.667
204.95	137.500
205.32	60.000
205.70	-28.571
206.08	-275.000
206.45	177.778
206.83	57.143
207.20	-128.571
207.58	300.000
207.96	-366.667
208.33	-110.000
208.71	50.000
209.08	-183.333
209.46	-600.000
209.84	-160.000
210.21	-1100.000
210.59	-100.000
210.96	0.000
211.34	-75.000
211.71	40.000
212.09	-85.714
212.46	-1200.000
212.84	0.000
213.22	10.000
213.59	100.000
213.97	23.077
214.34	-9.091
214.72	116.667
215.09	475.000
215.47	23.077
215.84	-45.455
216.22	-133.333
216.59	-12.500
216.97	300.000
217.34	-75.000
217.72	-280.000
218.09	-50.000
218.47	-12.500
218.84	-900.000
219.22	-88.889
219.59	80.000
219.97	466.667
220.34	375.000
220.72	71.429
221.09	200.000
221.47	-100.000
221.84	-750.000
222.22	-200.000
222.59	27.273
222.97	150.000
223.34	-233.333
223.72	-21.429
224.09	4.762
224.46	25.000
224.84	733.333
225.21	-100.000
225.59	-20.000
225.96	-250.000
226.34	25.000
226.71	-100.000
227.08	0.000
227.46	12.500
227.83	-150.000
228.21	-100.000
228.58	100.000
228.95	-175.000
229.33	90.000
229.70	-31.250
230.08	-37.500
230.45	-28.571
230.82	-100.000
231.20	-33.333
231.57	64.286
231.95	14.286
232.32	-40.000
232.69	-21.429
233.07	-233.333
233.44	20.000
233.81	-80.000
234.19	-11.111
234.56	11.765
234.93	200.000
235.31	150.000
235.68	-80.000
236.05	-30.769
236.43	-15.000
236.80	-47.059
237.17	-6.250
237.55	-35.000
237.92	-7.407
238.29	13.889
238.67	13.333
239.04	2.941
239.41	-26.829
239.79	-26.667
240.16	4.878
240.53	36.842
240.91	0.000
241.28	20.635
241.65	10.714
242.02	24.658
242.40	20.000
242.77	10.169
243.14	6.061
243.51	10.000
243.89	19.540
244.26	1.149
244.63	5.952
245.00	15.464
245.38	13.402
245.75	-2.247
246.12	9.483
246.49	4.959
246.87	8.654
247.24	-0.840
247.61	10.526
247.98	17.886
248.36	7.500
248.73	12.500
249.10	11.688
249.47	10.759
249.84	18.954
250.22	10.000
250.59	5.229
250.96	15.493
251.33	8.140
251.70	12.353
252.08	12.183
252.45	12.871
252.82	17.588
253.19	14.747
253.56	9.813
253.94	16.216
254.31	15.652
254.68	11.404
255.05	11.811
255.42	17.031
255.79	11.583
256.16	12.451
256.54	14.925
256.91	14.829
257.28	12.639
257.65	7.865
258.02	12.411
258.39	17.172
258.76	14.652
259.14	11.628
259.51	11.974
259.88	12.027
260.25	11.765
260.62	12.847
260.99	9.153
261.36	11.986
261.73	10.127
262.10	14.590
262.47	12.883
262.85	15.674
263.22	12.923
263.59	11.526
263.96	13.354
264.33	14.545
264.70	12.798
265.07	11.310
265.44	13.031
265.81	13.559
266.18	14.481
266.55	13.625
266.92	10.881
267.29	12.533
267.66	12.276
268.03	12.827
268.40	11.749
268.77	14.706
269.14	12.230
269.51	15.167
269.88	15.212
270.25	11.735
270.62	11.220
270.99	12.788
271.36	11.980
271.73	12.911
272.10	14.599
272.47	13.239
272.84	16.584
273.21	13.225
273.58	14.217
273.95	14.874
274.32	11.547
274.69	11.086
275.06	13.839
275.43	12.698
275.80	13.024
276.17	12.414
276.54	11.991
276.91	10.965
277.28	12.882
277.65	13.223
278.02	14.681
278.39	11.597
278.76	11.740
279.13	9.336
279.50	12.185
279.87	13.823
280.23	11.828
280.60	13.255
280.97	12.323
281.34	10.962
281.71	13.552
282.08	13.701
282.45	11.742
282.82	12.741
283.19	11.605
283.56	13.680
283.92	10.816
284.29	11.923
284.66	10.659
285.03	10.806
285.40	13.422
285.77	10.369
286.14	11.372
286.51	13.469
286.87	11.335
287.24	11.050
287.61	11.287
287.98	14.211
288.35	10.225
288.72	12.609
289.08	10.938
289.45	12.830
289.82	13.462
290.19	10.239
290.56	11.664
290.93	9.764
291.29	10.786
291.66	12.283
292.03	11.324
292.40	10.323
292.77	11.643
293.13	9.740
293.50	7.739
293.87	10.840
294.24	10.974
294.60	9.985
294.97	9.821
295.34	8.742
295.71	9.687
296.08	8.819
296.44	9.388
296.81	10.139
297.18	9.565
297.55	10.569
297.91	10.411
298.28	10.290
298.65	8.955
299.02	9.299
299.38	7.114
299.75	8.828
300.12	9.948
300.48	9.354
300.85	9.886
301.22	9.481
301.59	8.947
301.95	9.114
302.32	10.117
302.69	9.826
303.05	7.550
303.42	9.838
303.79	9.930
304.15	9.319
304.52	6.897
304.89	10.175
305.25	9.201
305.62	7.468
305.99	7.485
306.35	8.902
306.72	8.661
307.09	8.780
307.45	8.955
307.82	7.407
308.19	9.872
308.55	8.288
308.92	9.259
309.29	7.374
309.65	7.535
310.02	9.021
310.38	7.684
310.75	8.525
311.12	8.073
311.48	7.847
311.85	7.853
312.22	6.751
312.58	8.705
312.95	8.751
313.31	8.075
313.68	6.911
314.05	6.735
314.41	7.010
314.78	8.144
315.14	9.353
315.51	8.178
315.87	6.557
316.24	10.010
316.61	8.169
316.97	8.929
317.34	8.789
317.70	9.656
318.07	7.500
318.43	8.725
318.80	8.428
319.16	7.812
319.53	8.832
319.89	8.957
320.26	8.300
320.62	9.529
320.99	8.246
321.35	8.736
321.72	10.592
322.08	8.661
322.45	9.036
322.81	9.332
323.18	8.734
323.54	9.556
323.91	9.056
324.27	9.863
324.64	9.551
325.00	10.584
325.37	10.101
325.73	9.338
326.10	10.808
326.46	10.762
326.83	10.586
327.19	10.811
327.56	10.947
327.92	12.236
328.29	11.071
328.65	10.755
329.01	11.581
329.38	11.244
329.74	10.198
330.11	12.141
330.47	11.224
330.84	11.250
331.20	14.259
331.56	12.500
331.93	12.877
332.29	12.924
332.66	12.670
333.02	12.546
333.38	12.374
333.75	13.004
334.11	12.265
334.48	14.778
334.84	13.553
335.20	12.443
335.57	13.055
335.93	12.466
336.29	13.352
336.66	12.625
337.02	12.361
337.38	12.963
337.75	12.545
338.11	13.886
338.47	13.412
338.84	14.233
339.20	13.528
339.56	14.312
339.93	13.429
340.29	14.587
340.65	16.129
341.02	13.918
341.38	13.186
341.74	13.074
342.11	12.912
342.47	13.523
342.83	13.927
343.20	13.850
343.56	14.783
343.92	14.526
344.28	14.261
344.65	13.903
345.01	13.224
345.37	14.130
345.73	13.891
346.10	14.927
346.46	14.298
346.82	14.321
347.19	13.965
347.55	14.703
347.91	15.615
348.27	14.956
348.63	15.247
349.00	14.274
349.36	14.630
349.72	15.091
350.08	15.000
350.45	15.004
350.81	14.452
351.17	15.472
351.53	15.429
351.89	15.524
352.26	15.360
352.62	15.000
352.98	15.663
353.34	15.137
353.70	15.210
354.07	15.081
354.43	14.972
354.79	15.690
355.15	15.873
355.51	16.060
355.87	14.887
356.24	14.845
356.60	14.551
356.96	15.238
357.32	14.936
357.68	14.543
358.04	16.236
358.40	14.952
358.77	16.507
359.13	15.452
359.49	15.794
359.85	15.367
360.21	15.789
360.57	15.379
360.93	15.734
361.29	15.106
361.66	15.987
362.02	16.364
362.38	15.842
362.74	15.821
363.10	15.576
363.46	17.198
363.82	17.506
364.18	16.015
364.54	16.544
364.90	16.344
365.26	16.012
365.62	17.080
365.98	16.716
366.35	17.189
366.71	16.482
367.07	16.981
367.43	16.751
367.79	16.537
368.15	16.798
368.51	16.606
368.87	17.085
369.23	16.245
369.59	18.149
369.95	18.695
370.31	17.702
370.67	17.388
371.03	17.476
371.39	17.433
371.75	18.388
372.11	17.689
372.47	16.568
372.83	18.169
373.19	17.974
373.55	17.401
373.91	18.503
374.27	19.135
374.63	19.024
374.99	19.149
375.35	19.011
375.71	19.021
376.07	18.118
376.42	19.252
376.78	19.128
377.14	18.483
377.50	18.061
377.86	19.143
378.22	18.698
378.58	19.487
378.94	18.778
379.30	19.651
379.66	20.313
380.02	18.578
380.38	19.537
380.74	19.928
381.09	20.613
381.45	19.511
381.81	19.988
382.17	19.797
382.53	20.237
382.89	20.465
383.25	21.282
383.61	20.915
383.97	20.444
384.32	20.951
384.68	19.814
385.04	21.017
385.40	21.220
385.76	22.579
386.12	21.539
386.48	21.584
386.83	21.053
387.19	21.795
387.55	21.832
387.91	22.372
388.27	21.673
388.62	21.145
388.98	22.652
389.34	21.611
389.70	22.436
390.06	22.026
390.42	22.604
390.77	22.302
391.13	22.320
391.49	22.122
391.85	23.717
392.20	22.473
392.56	22.505
392.92	22.959
393.28	22.406
393.64	22.402
393.99	23.511
394.35	23.150
394.71	23.052
395.07	22.879
395.42	23.437
395.78	22.801
396.14	23.644
396.50	23.145
396.85	22.666
397.21	24.561
397.57	23.950
397.92	23.367
398.28	23.908
398.64	22.590
399.00	24.041
399.35	23.533
399.71	22.688
400.07	24.123
400.42	23.745
400.78	23.699
401.14	24.198
401.49	24.181
401.85	24.132
402.21	23.855
402.57	24.312
402.92	23.777
403.28	25.815
403.63	24.149
403.99	23.724
404.35	25.172
404.70	23.988
405.06	24.207
405.42	24.363
405.77	24.056
406.13	24.040
406.49	23.564
406.84	24.205
407.20	24.503
407.55	24.662
407.91	24.198
408.27	24.219
408.62	23.938
408.98	24.461
409.34	24.721
409.69	24.160
410.05	23.399
410.40	24.506
410.76	24.849
411.11	25.000
411.47	25.049
411.83	24.231
412.18	25.547
412.54	24.969
412.89	23.892
413.25	24.970
413.60	24.720
413.96	23.988
414.31	24.329
414.67	25.016
415.03	23.835
415.38	25.000
415.74	24.560
416.09	25.408
416.45	24.983
416.80	24.719
417.16	25.829
417.51	25.050
417.87	24.967
418.22	24.676
418.58	24.548
418.93	25.705
419.29	24.968
419.64	24.627
420.00	26.763
420.35	25.552
420.71	25.213
421.06	24.923
421.42	25.180
421.77	26.012
422.12	24.404
422.48	25.826
422.83	25.464
423.19	25.113
423.54	25.220
423.90	24.794
424.25	25.775
424.61	26.132
424.96	26.016
425.31	26.170
425.67	26.115
426.02	27.091
426.38	26.299
426.73	26.816
427.09	27.595
427.44	27.118
427.79	26.341
428.15	25.910
428.50	26.227
428.85	25.676
429.21	25.920
429.56	27.062
429.92	26.451
430.27	26.416
430.62	25.457
430.98	26.805
431.33	27.813
431.68	26.164
432.04	27.557
432.39	26.412
432.74	26.518
433.10	27.414
433.45	26.941
433.80	26.524
434.16	26.482
434.51	27.634
434.86	26.481
435.22	27.874
435.57	27.449
435.92	27.485
436.28	27.668
436.63	26.754
436.98	26.130
437.34	26.860
437.69	28.026
438.04	26.667
438.39	27.062
438.75	27.444
439.10	26.938
439.45	27.389
439.81	27.034
440.16	27.494
440.51	28.537
440.86	28.580
441.22	27.545
441.57	27.263
441.92	28.751
442.27	27.716
442.63	28.212
442.98	27.398
443.33	27.602
443.68	27.533
444.03	27.471
444.39	27.398
444.74	28.540
445.09	27.673
445.44	27.920
445.79	28.623
446.15	28.249
446.50	27.399
446.85	27.896
447.20	27.946
447.55	28.348
447.91	28.596
448.26	28.173
448.61	28.094
448.96	28.514
449.31	28.035
449.66	27.816
450.02	28.351
450.37	27.860
450.72	27.950
451.07	27.848
451.42	27.591
451.77	28.089
452.12	27.811
452.47	27.173
452.83	28.504
453.18	27.767
453.53	28.824
453.88	28.233
454.23	27.535
454.58	28.841
454.93	28.930
455.28	26.857
455.63	28.518
455.98	27.420
456.34	28.736
456.69	27.954
457.04	29.364
457.39	28.372
457.74	27.811
458.09	27.958
458.44	28.555
458.79	27.283
459.14	28.947
459.49	28.597
459.84	28.596
460.19	28.762
460.54	28.056
460.89	27.727
461.24	28.571
461.59	29.572
461.94	28.239
462.29	29.614
462.64	29.568
462.99	28.978
463.34	28.512
463.69	28.893
464.04	28.571
464.39	28.805
464.74	27.239
465.09	28.260
465.44	28.852
465.79	28.458
466.14	28.677
466.49	28.235
466.84	28.554
467.19	28.911
467.54	28.863
467.89	28.806
468.24	29.440
468.59	28.952
468.94	29.270
469.29	30.295
469.64	28.982
469.99	29.502
470.34	28.669
470.68	30.500
471.03	29.795
471.38	28.887
471.73	29.832
472.08	29.308
472.43	28.389
472.78	27.896
473.13	29.116
473.48	28.925
473.83	30.262
474.17	29.210
474.52	29.100
474.87	29.455
475.22	29.469
475.57	29.983
475.92	29.951
476.27	30.093
476.61	29.803
476.96	28.834
477.31	29.259
477.66	29.494
478.01	28.916
478.36	30.120
478.70	29.581
479.05	29.945
479.40	30.260
479.75	29.249
480.10	29.800
480.45	29.600
480.79	29.507
481.14	29.355
481.49	29.803
481.84	30.647
482.19	29.046
482.53	29.448
482.88	29.403
483.23	29.367
483.58	29.387
483.92	29.138
484.27	28.578
484.62	29.269
484.97	28.980
485.31	28.035
485.66	26.814
486.01	26.989
486.36	26.907
486.70	27.387
487.05	27.831
487.40	28.749
487.75	28.479
488.09	28.894
488.44	28.714
488.79	30.034
489.13	29.728
489.48	30.227
489.83	30.314
490.17	29.258
490.52	29.931
490.87	29.940
491.22	30.802
491.56	29.602
491.91	30.115
492.26	29.898
492.60	29.223
492.95	30.841
493.30	29.702
493.64	30.108
493.99	30.628
494.34	30.680
494.68	29.810
495.03	29.538
495.37	29.539
495.72	30.944
496.07	30.439
496.41	30.000
496.76	29.940
497.11	29.669
497.45	31.313
497.80	30.777
498.14	30.750
498.49	30.371
498.84	31.038
499.18	31.175
499.53	30.109
499.87	30.107
500.22	30.663
500.56	29.753
500.91	30.522
501.26	30.450
501.60	30.546
501.95	31.150
502.29	31.041
502.64	30.647
502.98	30.340
503.33	29.395
503.67	30.265
504.02	30.596
504.36	30.579
504.71	30.404
505.06	30.851
505.40	31.117
505.75	31.753
506.09	31.069
506.44	31.314
506.78	31.990
507.13	31.541
507.47	30.496
507.82	30.983
508.16	32.330
508.51	31.689
508.85	31.763
509.19	31.879
509.54	31.903
509.88	31.607
510.23	31.791
510.57	31.587
510.92	31.557
511.26	32.733
511.61	31.408
511.95	31.836
512.30	32.428
512.64	32.443
512.98	31.106
513.33	32.960
513.67	32.348
514.02	33.467
514.36	33.314
514.70	32.692
515.05	32.609
515.39	32.999
515.74	33.533
516.08	32.457
516.42	33.628
516.77	33.470
517.11	33.947
517.46	33.633
517.80	34.863
518.14	33.435
518.49	33.594
518.83	33.779
519.17	33.960
519.52	33.689
519.86	33.553
520.20	34.083
520.55	34.959
520.89	35.132
521.23	34.326
521.58	34.826
521.92	34.551
522.26	36.174
522.61	35.455
522.95	35.894
523.29	34.752
523.64	35.896
523.98	36.228
524.32	34.987
524.66	35.723
525.01	35.844
525.35	35.774
525.69	35.960
526.04	35.119
526.38	34.695
526.72	34.925
527.06	35.603
527.41	36.148
527.75	35.322
528.09	35.615
528.43	36.799
528.78	36.040
529.12	36.387
529.46	34.893
529.80	34.769
530.15	35.644
530.49	36.162
530.83	36.115
531.17	36.400
531.51	37.483
531.86	36.642
532.20	36.047
532.54	36.079
532.88	36.140
533.22	35.887
533.57	36.042
533.91	35.574
534.25	36.849
534.59	35.664
534.93	34.487
535.27	36.168
535.62	35.321
535.96	35.812
536.30	36.544
536.64	36.527
536.98	36.446
537.32	37.767
537.66	38.008
538.01	36.573
538.35	36.824
538.69	35.686
539.03	35.885
539.37	36.743
539.71	36.060
540.05	36.049
540.39	37.258
540.73	36.750
541.07	36.671
541.42	37.097
541.76	37.027
542.10	36.407
542.44	35.997
542.78	36.063
543.12	35.302
543.46	36.231
543.80	37.196
544.14	35.514
544.48	36.775
544.82	35.680
545.16	36.407
545.50	36.582
545.84	37.252
546.18	36.667
546.52	36.770
546.86	37.096
547.20	38.555
547.54	36.113
547.88	35.598
548.22	35.832
548.56	34.763
548.90	36.523
549.24	36.295
549.58	35.825
549.92	36.669
550.26	37.070
550.60	37.249
550.94	37.939
551.28	36.476
551.62	37.846
551.96	37.519
552.30	37.939
552.64	36.530
552.98	36.990
553.32	36.091
553.66	36.357
554.00	37.007
554.34	37.001
554.68	37.832
555.02	37.649
555.36	37.322
555.69	37.509
556.03	35.974
556.37	37.509
556.71	36.534
557.05	37.211
557.39	36.134
557.73	36.282
558.07	38.688
558.41	37.519
558.75	38.270
559.08	38.140
559.42	38.968
559.76	37.790
560.10	37.615
560.44	37.826
560.78	37.063
561.12	37.447
561.45	38.370
561.79	37.325
562.13	37.402
562.47	37.338
562.81	37.680
563.15	37.236
563.48	37.412
563.82	36.719
564.16	37.744
564.50	36.419
564.84	36.345
565.17	36.486
565.51	39.071
565.85	37.929
566.19	37.069
566.52	37.265
566.86	37.211
567.20	36.862
567.54	36.679
567.88	36.321
568.21	36.199
568.55	36.630
568.89	35.626
569.23	35.243
569.56	34.807
569.90	35.120
570.24	33.718
570.57	34.509
570.91	34.054
571.25	33.114
571.59	33.292
571.92	32.474
572.26	32.760
572.60	32.899
572.93	33.009
573.27	32.978
573.61	32.578
573.95	32.878
574.28	32.468
574.62	32.062
574.96	32.087
575.29	32.282
575.63	31.692
575.97	32.502
576.30	32.443
576.64	31.788
576.98	32.921
577.31	32.760
577.65	32.041
577.98	32.439
578.32	32.054
578.66	31.227
578.99	32.078
579.33	31.801
579.67	31.895
580.00	32.329
580.34	32.463
580.67	31.503
581.01	32.301
581.35	31.977
581.68	31.470
582.02	31.308
582.35	31.551
582.69	31.671
583.02	31.724
583.36	32.671
583.70	33.204
584.03	33.528
584.37	33.992
584.70	33.571
585.04	32.098
585.37	32.138
585.71	32.313
586.04	32.173
586.38	32.275
586.72	33.199
587.05	32.785
587.39	33.324
587.72	33.570
588.06	33.158
588.39	32.925
588.73	33.883
589.06	33.920
589.40	34.393
589.73	34.319
590.07	34.554
590.40	35.062
590.73	35.214
591.07	35.454
591.40	35.708
591.74	35.701
592.07	35.482
592.41	34.011
592.74	34.488
593.08	33.007
593.41	33.773
593.75	33.039
594.08	33.368
594.41	34.316
594.75	34.275
595.08	33.674
595.42	34.560
595.75	34.848
596.09	35.066
596.42	34.394
596.75	35.746
597.09	35.581
597.42	36.224
597.75	35.502
598.09	34.857
598.42	34.522
598.76	34.620
599.09	34.736
599.42	33.156
599.76	34.424
600.09	34.012
600.42	33.738
600.76	33.618
601.09	33.511
601.42	34.665
601.76	34.339
602.09	34.860
602.42	35.383
602.76	35.526
603.09	35.465
603.42	36.371
603.76	34.476
604.09	35.115
604.42	36.041
604.76	36.137
605.09	35.695
605.42	36.072
605.75	34.982
606.09	35.032
606.42	34.821
606.75	35.887
607.09	35.780
607.42	35.002
607.75	34.947
608.08	34.546
608.42	34.536
608.75	36.048
609.08	36.173
609.41	36.599
609.75	36.643
610.08	36.046
610.41	35.314
610.74	36.421
611.07	37.158
611.41	37.416
611.74	36.940
612.07	36.135
612.40	36.761
612.73	38.136
613.07	36.164
613.40	36.543
613.73	36.821
614.06	36.672
614.39	37.620
614.72	36.583
615.06	36.704
615.39	36.354
615.72	35.414
616.05	37.095
616.38	36.467
616.71	36.514
617.05	37.616
617.38	38.089
617.71	38.365
618.04	39.048
618.37	38.272
618.70	39.076
619.03	40.694
619.36	38.495
619.69	40.182
620.03	40.029
620.36	37.697
620.69	38.116
621.02	38.685
621.35	40.747
621.68	40.561
622.01	40.000
622.34	39.665
622.67	40.457
623.00	39.433
623.33	39.253
623.66	38.893
623.99	38.124
624.32	39.316
624.65	37.895
624.99	39.579
625.32	38.893
625.65	40.613
625.98	40.371
626.31	38.404
626.64	40.381
626.97	40.838
627.30	40.806
627.63	39.948
627.96	41.330
628.29	40.796
628.62	42.576
628.95	41.683
629.28	42.843
629.61	41.476
629.94	40.860
630.26	41.897
630.59	44.329
630.92	42.974
631.25	40.821
631.58	42.841
631.91	41.228
632.24	42.202
632.57	44.091
632.90	44.009
633.23	43.765
633.56	45.214
633.89	44.513
634.22	44.815
634.55	45.362
634.88	47.510
635.20	43.974
