SpectraSuite Data File
++++++++++++++++++++++++++++++++++++
Date: Fri May 15 17:33:25 PDT 2015
User: schluterlab
Dark Spectrum Present: Yes
Reference Spectrum Present: Yes
Number of Sampled Component Spectra: 1
Spectrometers: USB2E3373
Integration Time (usec): 3000 (USB2E3373)
Spectra Averaged: 3 (USB2E3373)
Boxcar Smoothing: 0 (USB2E3373)
Correct for Electrical Dark: No (USB2E3373)
Strobe/Lamp Enabled: No (USB2E3373)
Correct for Detector Non-linearity: No (USB2E3373)
Correct for Stray Light: No (USB2E3373)
Number of Pixels in Processed Spectrum: 2048
>>>>>Begin Processed Spectral Data<<<<<
178.53	0.000
178.91	0.000
179.29	87.500
179.67	-50.000
180.04	-42.857
180.42	0.000
180.80	500.000
181.18	33.333
181.56	150.000
181.94	350.000
182.31	300.000
182.69	-60.000
183.07	-300.000
183.45	-200.000
183.83	116.667
184.20	45.455
184.58	77.778
184.96	-25.000
185.34	100.000
185.72	200.000
186.09	76.923
186.47	-700.000
186.85	-0.000
187.23	66.667
187.61	-200.000
187.98	-200.000
188.36	88.889
188.74	33.333
189.12	17.647
189.49	66.667
189.87	0.000
190.25	42.857
190.63	200.000
191.00	-100.000
191.38	68.421
191.76	300.000
192.14	-0.000
192.51	450.000
192.89	-22.222
193.27	71.429
193.65	133.333
194.02	45.455
194.40	40.000
194.78	-25.000
195.15	50.000
195.53	-12.500
195.91	250.000
196.29	-50.000
196.66	69.231
197.04	71.429
197.42	33.333
197.79	-266.667
198.17	-46.154
198.55	300.000
198.92	33.333
199.30	400.000
199.68	100.000
200.05	33.333
200.43	0.000
200.81	200.000
201.18	66.667
201.56	100.000
201.94	-250.000
202.31	-66.667
202.69	-200.000
203.07	75.000
203.44	-200.000
203.82	0.000
204.19	92.857
204.57	-400.000
204.95	-0.000
205.32	90.000
205.70	42.857
206.08	-100.000
206.45	55.556
206.83	21.429
207.20	14.286
207.58	300.000
207.96	100.000
208.33	0.000
208.71	-225.000
209.08	-166.667
209.46	-400.000
209.84	-80.000
210.21	800.000
210.59	-14.286
210.96	0.000
211.34	50.000
211.71	40.000
212.09	-57.143
212.46	-700.000
212.84	0.000
213.22	170.000
213.59	450.000
213.97	100.000
214.34	118.182
214.72	-16.667
215.09	200.000
215.47	30.769
215.84	-72.727
216.22	100.000
216.59	12.500
216.97	750.000
217.34	25.000
217.72	-160.000
218.09	37.500
218.47	25.000
218.84	500.000
219.22	33.333
219.59	20.000
219.97	133.333
220.34	225.000
220.72	-42.857
221.09	-50.000
221.47	-50.000
221.84	-450.000
222.22	50.000
222.59	81.818
222.97	-8.333
223.34	266.667
223.72	85.714
224.09	23.810
224.46	42.857
224.84	366.667
225.21	70.000
225.59	73.333
225.96	-150.000
226.34	150.000
226.71	28.571
227.08	133.333
227.46	87.500
227.83	-350.000
228.21	33.333
228.58	-9.091
228.95	12.500
229.33	40.000
229.70	75.000
230.08	100.000
230.45	28.571
230.82	71.429
231.20	-6.667
231.57	42.857
231.95	0.000
232.32	-10.000
232.69	28.571
233.07	266.667
233.44	360.000
233.81	-10.000
234.19	22.222
234.56	-23.529
234.93	100.000
235.31	275.000
235.68	-20.000
236.05	30.769
236.43	-30.000
236.80	17.647
237.17	15.625
237.55	15.000
237.92	0.000
238.29	33.333
238.67	10.000
239.04	17.647
239.41	0.000
239.79	36.667
240.16	51.220
240.53	5.263
240.91	10.870
241.28	11.111
241.65	23.214
242.02	31.507
242.40	41.667
242.77	15.254
243.14	19.697
243.51	47.500
243.89	29.885
244.26	8.046
244.63	20.238
245.00	16.495
245.38	26.804
245.75	12.360
246.12	23.276
246.49	20.661
246.87	28.846
247.24	19.328
247.61	17.544
247.98	21.138
248.36	19.375
248.73	19.737
249.10	16.883
249.47	15.823
249.84	15.033
250.22	21.765
250.59	26.797
250.96	24.883
251.33	23.256
251.70	24.118
252.08	24.365
252.45	18.317
252.82	23.618
253.19	18.433
253.56	15.888
253.94	25.225
254.31	24.783
254.68	25.439
255.05	22.047
255.42	18.777
255.79	21.236
256.16	22.179
256.54	22.015
256.91	20.152
257.28	13.011
257.65	19.850
258.02	21.277
258.39	23.232
258.76	23.077
259.14	19.934
259.51	24.595
259.88	20.619
260.25	22.222
260.62	23.958
260.99	21.356
261.36	19.521
261.73	22.152
262.10	22.796
262.47	24.540
262.85	19.436
263.22	17.846
263.59	18.692
263.96	24.534
264.33	23.939
264.70	19.345
265.07	19.643
265.44	23.229
265.81	22.316
266.18	23.497
266.55	19.023
266.92	21.762
267.29	20.366
267.66	20.972
268.03	23.037
268.40	21.149
268.77	22.995
269.14	21.583
269.51	22.879
269.88	19.701
270.25	20.918
270.62	20.976
270.99	20.460
271.36	19.071
271.73	20.892
272.10	22.384
272.47	21.986
272.84	20.050
273.21	19.722
273.58	20.964
273.95	20.137
274.32	19.630
274.69	19.457
275.06	21.205
275.43	17.914
275.80	20.309
276.17	19.770
276.54	17.987
276.91	21.491
277.28	20.306
277.65	18.388
278.02	18.723
278.39	20.131
278.76	20.126
279.13	16.598
279.50	19.748
279.87	18.575
280.23	18.925
280.60	17.934
280.97	17.172
281.34	17.885
281.71	19.097
282.08	21.063
282.45	16.243
282.82	19.691
283.19	20.696
283.56	18.690
283.92	17.457
284.29	18.846
284.66	18.605
285.03	18.271
285.40	18.526
285.77	17.926
286.14	18.592
286.51	20.480
286.87	17.367
287.24	16.206
287.61	15.697
287.98	18.596
288.35	17.851
288.72	19.089
289.08	15.104
289.45	18.805
289.82	14.860
290.19	17.406
290.56	15.780
290.93	16.835
291.29	15.871
291.66	17.323
292.03	16.746
292.40	17.419
292.77	15.789
293.13	11.688
293.50	14.871
293.87	14.962
294.24	14.529
294.60	15.946
294.97	14.435
295.34	16.104
295.71	15.350
296.08	15.247
296.44	13.798
296.81	14.583
297.18	13.188
297.55	17.480
297.91	13.014
298.28	15.040
298.65	13.433
299.02	13.881
299.38	12.859
299.75	13.379
300.12	12.958
300.48	12.516
300.85	14.449
301.22	15.325
301.59	12.237
301.95	15.063
302.32	12.970
302.69	14.428
303.05	13.366
303.42	13.823
303.79	13.201
304.15	11.947
304.52	12.128
304.89	11.813
305.25	12.954
305.62	10.968
305.99	12.164
306.35	12.717
306.72	12.936
307.09	11.060
307.45	12.974
307.82	11.574
308.19	12.892
308.55	12.650
308.92	14.488
309.29	12.291
309.65	13.240
310.02	12.321
310.38	12.953
310.75	12.568
311.12	11.410
311.48	12.195
311.85	13.298
312.22	11.814
312.58	12.208
312.95	12.273
313.31	11.180
313.68	11.728
314.05	13.163
314.41	13.918
314.78	12.577
315.14	13.977
315.51	11.387
315.87	13.115
316.24	15.066
316.61	14.370
316.97	13.690
317.34	14.551
317.70	13.576
318.07	14.808
318.43	15.000
318.80	15.341
319.16	15.430
319.53	16.809
319.89	15.256
320.26	16.802
320.62	17.653
320.99	15.136
321.35	16.752
321.72	17.445
322.08	17.523
322.45	17.665
322.81	17.780
323.18	18.155
323.54	18.533
323.91	18.793
324.27	21.387
324.64	21.816
325.00	22.536
325.37	23.049
325.73	22.847
326.10	24.614
326.46	25.291
326.83	25.022
327.19	25.458
327.56	26.151
327.92	27.201
328.29	27.321
328.65	29.906
329.01	29.044
329.38	30.507
329.74	29.367
330.11	31.881
330.47	31.262
330.84	30.000
331.20	35.266
331.56	32.407
331.93	34.977
332.29	35.930
332.66	34.027
333.02	33.922
333.38	35.839
333.75	36.996
334.11	37.153
334.48	37.897
334.84	38.187
335.20	37.786
335.57	36.718
335.93	38.934
336.29	38.306
336.66	39.691
337.02	38.476
337.38	37.407
337.75	40.182
338.11	40.757
338.47	39.781
338.84	41.128
339.20	40.859
339.56	40.826
339.93	41.450
340.29	42.294
340.65	41.219
341.02	40.603
341.38	41.504
341.74	41.166
342.11	39.775
342.47	41.726
342.83	42.820
343.20	41.638
343.56	41.478
343.92	42.870
344.28	42.186
344.65	41.710
345.01	41.487
345.37	41.295
345.73	41.088
346.10	42.796
346.46	42.052
346.82	41.489
347.19	39.485
347.55	41.938
347.91	41.343
348.27	40.744
348.63	41.141
349.00	42.002
349.36	42.893
349.72	43.201
350.08	41.967
350.45	41.899
350.81	41.196
351.17	41.205
351.53	41.061
351.89	41.784
352.26	42.080
352.62	41.935
352.98	41.205
353.34	40.902
353.70	43.042
354.07	42.258
354.43	41.553
354.79	41.618
355.15	42.937
355.51	42.880
355.87	42.961
356.24	40.946
356.60	41.714
356.96	42.857
357.32	42.652
357.68	41.908
358.04	43.942
358.40	42.524
358.77	42.663
359.13	42.434
359.49	40.909
359.85	41.342
360.21	41.946
360.57	42.158
360.93	42.436
361.29	40.257
361.66	42.476
362.02	43.030
362.38	42.955
362.74	42.846
363.10	42.814
363.46	42.624
363.82	43.050
364.18	41.402
364.54	40.956
364.90	42.079
365.26	41.412
365.62	43.723
365.98	42.229
366.35	43.336
366.71	42.868
367.07	43.324
367.43	43.278
367.79	42.968
368.15	42.067
368.51	42.753
368.87	42.211
369.23	42.527
369.59	43.805
369.95	43.035
370.31	42.919
370.67	43.955
371.03	41.822
371.39	43.545
371.75	43.736
372.11	43.438
372.47	43.565
372.83	43.009
373.19	43.010
373.55	43.177
373.91	43.557
374.27	44.295
374.63	44.149
374.99	43.333
375.35	44.638
375.71	44.545
376.07	44.171
376.42	44.490
376.78	44.698
377.14	44.008
377.50	44.754
377.86	45.047
378.22	44.288
378.58	44.551
378.94	44.675
379.30	44.292
379.66	44.639
380.02	44.451
380.38	43.640
380.74	44.165
381.09	44.110
381.45	44.771
381.81	44.540
382.17	45.305
382.53	44.035
382.89	45.825
383.25	45.862
383.61	45.915
383.97	45.714
384.32	45.591
384.68	45.511
385.04	44.608
385.40	44.742
385.76	46.792
386.12	45.860
386.48	47.893
386.83	45.022
387.19	46.276
387.55	47.114
387.91	45.966
388.27	47.314
388.62	47.451
388.98	45.549
389.34	46.034
389.70	46.426
390.06	44.871
390.42	45.661
390.77	46.566
391.13	44.767
391.49	47.348
391.85	45.159
392.20	45.135
392.56	47.107
392.92	46.036
393.28	46.698
393.64	44.925
393.99	47.524
394.35	45.984
394.71	45.785
395.07	45.506
395.42	44.869
395.78	45.603
396.14	45.208
396.50	46.290
396.85	45.525
397.21	45.739
397.57	47.022
397.92	44.937
398.28	44.943
398.64	44.819
399.00	46.558
399.35	44.977
399.71	44.170
400.07	46.070
400.42	44.982
400.78	45.009
401.14	44.586
401.49	45.503
401.85	45.155
402.21	45.241
402.57	45.812
402.92	45.107
403.28	45.551
403.63	45.523
403.99	44.388
404.35	45.159
404.70	43.274
405.06	43.772
405.42	44.997
405.77	43.173
406.13	44.179
406.49	43.931
406.84	44.743
407.20	44.190
407.55	45.010
407.91	45.588
408.27	43.977
408.62	44.123
408.98	44.794
409.34	44.052
409.69	44.121
410.05	43.719
410.40	44.074
410.76	44.150
411.11	44.938
411.47	44.050
411.83	44.131
412.18	44.015
412.54	42.572
412.89	43.966
413.25	43.742
413.60	43.727
413.96	41.779
414.31	43.659
414.67	42.720
415.03	43.475
415.38	42.428
415.74	43.974
416.09	43.958
416.45	43.889
416.80	43.159
417.16	44.268
417.51	44.637
417.87	43.351
418.22	44.041
418.58	45.418
418.93	43.950
419.29	42.702
419.64	44.524
420.00	44.899
420.35	43.224
420.71	43.985
421.06	45.242
421.42	44.471
421.77	45.260
422.12	44.722
422.48	44.938
422.83	44.722
423.19	44.808
423.54	44.092
423.90	44.641
424.25	43.341
424.61	45.104
424.96	44.425
425.31	44.656
425.67	45.481
426.02	45.760
426.38	46.149
426.73	45.884
427.09	45.190
427.44	45.294
427.79	45.197
428.15	44.175
428.50	46.517
428.85	44.595
429.21	46.180
429.56	46.792
429.92	45.609
430.27	45.514
430.62	45.635
430.98	46.709
431.33	45.741
431.68	45.840
432.04	46.339
432.39	45.123
432.74	45.099
433.10	45.690
433.45	45.341
433.80	47.243
434.16	46.039
434.51	46.828
434.86	46.400
435.22	47.056
435.57	46.974
435.92	47.186
436.28	45.915
436.63	47.519
436.98	45.944
437.34	46.824
437.69	47.704
438.04	47.350
438.39	46.426
438.75	49.241
439.10	46.802
439.45	48.022
439.81	47.095
440.16	48.219
440.51	47.761
440.86	49.124
441.22	47.794
441.57	48.289
441.92	48.269
442.27	48.670
442.63	48.662
442.98	48.363
443.33	47.913
443.68	47.905
444.03	48.087
444.39	49.041
444.74	49.108
445.09	49.220
445.44	49.744
445.79	48.891
446.15	48.348
446.50	48.697
446.85	49.628
447.20	49.062
447.55	49.498
447.91	48.449
448.26	49.004
448.61	49.856
448.96	49.053
449.31	49.364
449.66	49.535
450.02	49.572
450.37	50.030
450.72	49.771
451.07	50.380
451.42	48.190
451.77	49.668
452.12	49.163
452.47	49.581
452.83	49.823
453.18	49.462
453.53	48.862
453.88	49.180
454.23	49.846
454.58	51.134
454.93	50.258
455.28	48.317
455.63	51.085
455.98	49.729
456.34	49.872
456.69	50.445
457.04	50.410
457.39	50.061
457.74	50.423
458.09	49.382
458.44	50.146
458.79	49.916
459.14	50.629
459.49	50.985
459.84	50.367
460.19	50.546
460.54	50.795
460.89	50.511
461.24	51.988
461.59	50.772
461.94	49.308
462.29	50.302
462.64	50.631
462.99	50.440
463.34	51.321
463.69	50.708
464.04	51.211
464.39	50.212
464.74	51.227
465.09	51.840
465.44	51.875
465.79	50.737
466.14	50.684
466.49	51.466
466.84	52.707
467.19	51.752
467.54	50.064
467.89	51.169
468.24	51.156
468.59	52.000
468.94	50.857
469.29	52.131
469.64	50.444
469.99	53.048
470.34	50.922
470.68	52.051
471.03	51.380
471.38	52.639
471.73	51.120
472.08	51.696
472.43	52.550
472.78	51.405
473.13	52.925
473.48	51.987
473.83	50.125
474.17	53.109
474.52	51.372
474.87	51.636
475.22	52.715
475.57	52.061
475.92	53.154
476.27	52.037
476.61	53.530
476.96	51.199
477.31	53.218
477.66	52.640
478.01	53.846
478.36	53.268
478.70	53.725
479.05	53.571
479.40	51.881
479.75	52.033
480.10	52.893
480.45	52.800
480.79	53.726
481.14	54.559
481.49	52.512
481.84	52.896
482.19	52.806
482.53	52.854
482.88	51.838
483.23	52.927
483.58	53.491
483.92	52.953
484.27	52.461
484.62	53.474
484.97	52.570
485.31	53.613
485.66	55.723
486.01	56.944
486.36	55.984
486.70	54.937
487.05	55.149
487.40	55.222
487.75	53.606
488.09	52.596
488.44	52.820
488.79	53.194
489.13	52.524
489.48	52.245
489.83	51.480
490.17	51.820
490.52	53.256
490.87	53.309
491.22	54.011
491.56	53.795
491.91	52.725
492.26	53.281
492.60	53.023
492.95	53.025
493.30	53.102
493.64	54.470
493.99	53.720
494.34	53.641
494.68	52.762
495.03	53.187
495.37	53.140
495.72	54.013
496.07	53.805
496.41	54.387
496.76	55.366
497.11	53.097
497.45	53.842
497.80	55.499
498.14	54.049
498.49	54.749
498.84	52.844
499.18	54.468
499.53	55.456
499.87	53.794
500.22	54.303
500.56	54.413
500.91	55.070
501.26	54.029
501.60	54.648
501.95	54.488
502.29	55.545
502.64	55.212
502.98	55.945
503.33	54.371
503.67	55.277
504.02	55.376
504.36	56.210
504.71	54.899
505.06	54.857
505.40	54.619
505.75	55.155
506.09	53.827
506.44	55.852
506.78	55.561
507.13	55.119
507.47	54.204
507.82	55.716
508.16	54.517
508.51	55.509
508.85	56.201
509.19	55.455
509.54	53.351
509.88	54.639
510.23	54.814
510.57	55.211
510.92	53.785
511.26	54.992
511.61	57.316
511.95	54.630
512.30	55.211
512.64	55.147
512.98	55.418
513.33	55.848
513.67	55.543
514.02	55.892
514.36	57.314
514.70	57.168
515.05	57.344
515.39	56.021
515.74	55.269
516.08	55.828
516.42	57.244
516.77	55.822
517.11	56.558
517.46	55.356
517.80	56.377
518.14	55.971
518.49	54.928
518.83	56.015
519.17	55.913
519.52	56.365
519.86	56.723
520.20	56.440
520.55	54.909
520.89	56.838
521.23	55.605
521.58	57.539
521.92	56.282
522.26	56.799
522.61	56.039
522.95	58.079
523.29	55.210
523.64	56.925
523.98	56.448
524.32	55.799
524.66	57.106
525.01	57.792
525.35	56.124
525.69	57.306
526.04	56.878
526.38	58.495
526.72	55.657
527.06	56.680
527.41	56.794
527.75	55.697
528.09	55.814
528.43	59.284
528.78	58.416
529.12	56.258
529.46	57.310
529.80	56.555
530.15	58.284
530.49	58.721
530.83	57.592
531.17	56.078
531.51	57.182
531.86	55.812
532.20	57.203
532.54	57.862
532.88	58.864
533.22	57.191
533.57	58.060
533.91	57.507
534.25	59.635
534.59	59.397
534.93	58.213
535.27	57.995
535.62	58.069
535.96	58.513
536.30	58.113
536.64	57.822
536.98	57.909
537.32	59.104
537.66	58.696
538.01	58.671
538.35	57.282
538.69	58.722
539.03	59.125
539.37	60.094
539.71	58.010
540.05	57.705
540.39	57.964
540.73	59.414
541.07	59.047
541.42	57.325
541.76	60.014
542.10	58.775
542.44	59.416
542.78	57.811
543.12	58.310
543.46	59.666
543.80	60.236
544.14	57.677
544.48	58.095
544.82	60.150
545.16	60.792
545.50	58.478
545.84	60.127
546.18	59.149
546.52	59.625
546.86	58.807
547.20	59.585
547.54	58.587
547.88	59.375
548.22	59.566
548.56	60.752
548.90	61.119
549.24	58.953
549.58	59.591
549.92	58.756
550.26	59.560
550.60	60.149
550.94	60.493
551.28	59.660
551.62	59.615
551.96	59.549
552.30	59.942
552.64	59.732
552.98	60.267
553.32	59.130
553.66	59.216
554.00	59.270
554.34	60.783
554.68	60.546
555.02	60.342
555.36	60.957
555.69	61.172
556.03	60.385
556.37	60.071
556.71	61.372
557.05	60.477
557.39	59.851
557.73	60.645
558.07	60.256
558.41	61.103
558.75	61.029
559.08	59.417
559.42	60.000
559.76	59.808
560.10	60.856
560.44	60.611
560.78	60.979
561.12	62.764
561.45	63.247
561.79	61.204
562.13	61.533
562.47	61.295
562.81	61.023
563.15	61.142
563.48	62.588
563.82	61.633
564.16	62.187
564.50	60.946
564.84	62.450
565.17	61.301
565.51	63.251
565.85	64.198
566.19	61.605
566.52	63.606
566.86	62.982
567.20	63.263
567.54	64.416
567.88	65.026
568.21	64.197
568.55	65.054
568.89	64.887
569.23	66.442
569.56	66.900
569.90	68.331
570.24	64.942
570.57	66.982
570.91	67.027
571.25	66.853
571.59	66.957
571.92	65.659
572.26	67.572
572.60	65.085
572.93	65.108
573.27	65.298
573.61	67.005
573.95	67.422
574.28	66.684
574.62	66.438
574.96	66.243
575.29	65.901
575.63	65.017
575.97	65.384
576.30	65.617
576.64	66.490
576.98	66.976
577.31	67.584
577.65	67.592
577.98	68.428
578.32	68.092
578.66	65.871
578.99	66.401
579.33	65.951
579.67	64.698
580.00	66.456
580.34	67.040
580.67	66.073
581.01	67.267
581.35	67.980
581.68	68.982
582.02	69.114
582.35	68.672
582.69	68.153
583.02	67.443
583.36	67.400
583.70	67.861
584.03	67.250
584.37	67.702
584.70	66.868
585.04	66.710
585.37	67.568
585.71	68.724
586.04	68.533
586.38	67.111
586.72	67.575
587.05	68.746
587.39	68.633
587.72	69.683
588.06	68.254
588.39	68.926
588.73	67.857
589.06	69.113
589.40	67.819
589.73	66.630
590.07	68.391
590.40	67.841
590.73	68.863
591.07	66.243
591.40	66.429
591.74	67.104
592.07	66.976
592.41	68.463
592.74	68.339
593.08	68.634
593.41	69.786
593.75	69.938
594.08	67.044
594.41	67.940
594.75	68.015
595.08	68.823
595.42	68.311
595.75	69.020
596.09	68.178
596.42	67.879
596.75	67.362
597.09	66.834
597.42	67.525
597.75	69.262
598.09	66.501
598.42	67.915
598.76	68.468
599.09	69.071
599.42	68.056
599.76	68.322
600.09	68.552
600.42	68.537
600.76	67.719
601.09	68.550
601.42	67.685
601.76	68.757
602.09	68.523
602.42	68.955
602.76	69.100
603.09	68.231
603.42	71.279
603.76	69.637
604.09	68.611
604.42	68.824
604.76	69.515
605.09	68.327
605.42	69.661
605.75	69.046
606.09	69.087
606.42	69.433
606.75	67.706
607.09	68.132
607.42	68.276
607.75	68.117
608.08	67.655
608.42	67.291
608.75	69.108
609.08	68.660
609.41	67.919
609.75	67.440
610.08	68.897
610.41	68.696
610.74	68.503
611.07	69.716
611.41	67.981
611.74	69.776
612.07	68.362
612.40	68.217
612.73	69.548
613.07	67.773
613.40	68.764
613.73	67.152
614.06	68.114
614.39	67.908
614.72	68.011
615.06	68.045
615.39	67.686
615.72	67.115
616.05	68.436
616.38	66.268
616.71	67.584
617.05	65.967
617.38	67.505
617.71	68.679
618.04	69.587
618.37	68.411
618.70	68.449
619.03	68.403
619.36	66.787
619.69	69.750
620.03	69.467
620.36	67.597
620.69	67.737
621.02	66.208
621.35	66.888
621.68	67.347
622.01	67.167
622.34	67.039
622.67	66.167
623.00	66.386
623.33	67.835
623.66	68.437
623.99	67.474
624.32	68.821
624.65	68.421
624.99	69.150
625.32	67.172
625.65	68.500
625.98	69.299
626.31	66.085
626.64	66.984
626.97	67.103
627.30	67.338
627.63	64.645
627.96	66.128
628.29	65.310
628.62	66.273
628.95	64.729
629.28	67.238
629.61	67.896
629.94	68.328
630.26	66.107
630.59	67.846
630.92	65.436
631.25	64.103
631.58	66.850
631.91	66.557
632.24	65.711
632.57	66.136
632.90	65.955
633.23	64.118
633.56	68.262
633.89	64.612
634.22	66.420
634.55	66.709
