SpectraSuite Data File
++++++++++++++++++++++++++++++++++++
Date: Fri May 15 17:18:33 PDT 2015
User: schluterlab
Dark Spectrum Present: Yes
Reference Spectrum Present: Yes
Number of Sampled Component Spectra: 1
Spectrometers: USB2E3373
Integration Time (usec): 3000 (USB2E3373)
Spectra Averaged: 3 (USB2E3373)
Boxcar Smoothing: 0 (USB2E3373)
Correct for Electrical Dark: No (USB2E3373)
Strobe/Lamp Enabled: No (USB2E3373)
Correct for Detector Non-linearity: No (USB2E3373)
Correct for Stray Light: No (USB2E3373)
Number of Pixels in Processed Spectrum: 2048
>>>>>Begin Processed Spectral Data<<<<<
178.53	0.000
178.91	0.000
179.29	12.500
179.67	-150.000
180.04	-114.286
180.42	-50.000
180.80	500.000
181.18	-33.333
181.56	200.000
181.94	250.000
182.31	-100.000
182.69	60.000
183.07	133.333
183.45	160.000
183.83	-50.000
184.20	118.182
184.58	55.556
184.96	-50.000
185.34	-66.667
185.72	50.000
186.09	-38.462
186.47	600.000
186.85	-50.000
187.23	66.667
187.61	-300.000
187.98	-100.000
188.36	133.333
188.74	66.667
189.12	52.941
189.49	55.556
189.87	0.000
190.25	57.143
190.63	550.000
191.00	200.000
191.38	42.105
191.76	250.000
192.14	-100.000
192.51	500.000
192.89	44.444
193.27	-28.571
193.65	-16.667
194.02	63.636
194.40	100.000
194.78	12.500
195.15	58.333
195.53	50.000
195.91	200.000
196.29	-75.000
196.66	84.615
197.04	128.571
197.42	-22.222
197.79	-233.333
198.17	-7.692
198.55	1000.000
198.92	100.000
199.30	700.000
199.68	60.000
200.05	66.667
200.43	0.000
200.81	0.000
201.18	-66.667
201.56	300.000
201.94	250.000
202.31	-33.333
202.69	-120.000
203.07	-100.000
203.44	400.000
203.82	0.000
204.19	14.286
204.57	-133.333
204.95	137.500
205.32	40.000
205.70	171.429
206.08	125.000
206.45	166.667
206.83	142.857
207.20	-42.857
207.58	-400.000
207.96	133.333
208.33	-80.000
208.71	125.000
209.08	-16.667
209.46	-100.000
209.84	-120.000
210.21	-300.000
210.59	285.714
210.96	0.000
211.34	50.000
211.71	66.667
212.09	42.857
212.46	-600.000
212.84	0.000
213.22	130.000
213.59	500.000
213.97	76.923
214.34	100.000
214.72	0.000
215.09	250.000
215.47	-30.769
215.84	54.545
216.22	166.667
216.59	0.000
216.97	-50.000
217.34	-75.000
217.72	60.000
218.09	37.500
218.47	112.500
218.84	-1000.000
219.22	-88.889
219.59	160.000
219.97	200.000
220.34	150.000
220.72	57.143
221.09	50.000
221.47	150.000
221.84	-200.000
222.22	-700.000
222.59	163.636
222.97	66.667
223.34	-33.333
223.72	92.857
224.09	66.667
224.46	21.429
224.84	300.000
225.21	-40.000
225.59	6.667
225.96	200.000
226.34	200.000
226.71	157.143
227.08	66.667
227.46	-50.000
227.83	100.000
228.21	0.000
228.58	81.818
228.95	25.000
229.33	100.000
229.70	18.750
230.08	-50.000
230.45	57.143
230.82	185.714
231.20	40.000
231.57	64.286
231.95	114.286
232.32	0.000
232.69	121.429
233.07	233.333
233.44	200.000
233.81	-70.000
234.19	11.111
234.56	29.412
234.93	-50.000
235.31	-250.000
235.68	-60.000
236.05	-69.231
236.43	-5.000
236.80	41.176
237.17	28.125
237.55	5.000
237.92	-22.222
238.29	44.444
238.67	3.333
239.04	5.882
239.41	-24.390
239.79	-3.333
240.16	-12.195
240.53	-13.158
240.91	0.000
241.28	12.698
241.65	1.786
242.02	20.548
242.40	5.000
242.77	3.390
243.14	4.545
243.51	5.000
243.89	18.391
244.26	-10.345
244.63	5.952
245.00	7.216
245.38	7.216
245.75	3.371
246.12	3.448
246.49	10.744
246.87	6.731
247.24	0.840
247.61	-2.632
247.98	1.626
248.36	-1.875
248.73	7.237
249.10	2.597
249.47	-2.532
249.84	6.536
250.22	4.118
250.59	1.961
250.96	10.329
251.33	-0.581
251.70	7.059
252.08	4.061
252.45	0.990
252.82	5.528
253.19	5.069
253.56	5.607
253.94	6.757
254.31	4.783
254.68	7.456
255.05	3.937
255.42	5.240
255.79	5.792
256.16	7.004
256.54	4.851
256.91	2.281
257.28	3.346
257.65	0.375
258.02	0.355
258.39	5.387
258.76	3.297
259.14	3.322
259.51	7.120
259.88	0.000
260.25	1.307
260.62	2.431
260.99	0.678
261.36	0.342
261.73	3.165
262.10	4.559
262.47	0.000
262.85	0.313
263.22	3.385
263.59	2.804
263.96	3.106
264.33	3.030
264.70	3.274
265.07	0.000
265.44	3.116
265.81	2.542
266.18	3.825
266.55	3.599
266.92	4.922
267.29	1.567
267.66	2.558
268.03	2.880
268.40	-1.305
268.77	4.813
269.14	3.597
269.51	5.398
269.88	0.499
270.25	0.510
270.62	0.732
270.99	1.790
271.36	0.978
271.73	3.756
272.10	0.973
272.47	0.709
272.84	0.248
273.21	1.856
273.58	2.651
273.95	3.432
274.32	0.462
274.69	2.941
275.06	4.464
275.43	2.948
275.80	1.325
276.17	1.839
276.54	3.426
276.91	2.193
277.28	-0.655
277.65	4.545
278.02	3.830
278.39	-0.219
278.76	2.935
279.13	0.830
279.50	3.571
279.87	3.240
280.23	-1.075
280.60	3.509
280.97	2.222
281.34	1.731
281.71	1.848
282.08	0.818
282.45	0.587
282.82	2.703
283.19	1.547
283.56	0.963
283.92	0.949
284.29	0.962
284.66	2.519
285.03	3.143
285.40	-0.378
285.77	4.042
286.14	2.347
286.51	2.768
286.87	1.097
287.24	0.552
287.61	-0.882
287.98	5.263
288.35	1.213
288.72	2.627
289.08	2.083
289.45	2.812
289.82	2.448
290.19	1.024
290.56	1.372
290.93	1.010
291.29	1.079
291.66	2.520
292.03	3.668
292.40	2.742
292.77	1.595
293.13	-0.162
293.50	0.759
293.87	2.290
294.24	1.391
294.60	3.577
294.97	2.083
295.34	1.227
295.71	1.192
296.08	1.644
296.44	0.711
296.81	3.056
297.18	1.594
297.55	4.065
297.91	2.740
298.28	3.826
298.65	1.764
299.02	1.078
299.38	0.000
299.75	2.345
300.12	0.785
300.48	1.581
300.85	2.028
301.22	1.039
301.59	2.237
301.95	2.405
302.32	2.594
302.69	1.617
303.05	2.104
303.42	1.743
303.79	1.869
304.15	2.389
304.52	-0.357
304.89	1.287
305.25	0.847
305.62	0.700
305.99	1.053
306.35	1.734
306.72	-0.112
307.09	1.368
307.45	1.493
307.82	1.042
308.19	1.510
308.55	1.636
308.92	2.179
309.29	0.670
309.65	1.722
310.02	0.660
310.38	2.305
310.75	0.984
311.12	1.615
311.48	1.591
311.85	0.942
312.22	1.160
312.58	1.380
312.95	1.494
313.31	1.553
313.68	0.628
314.05	1.735
314.41	2.474
314.78	1.134
315.14	0.719
315.51	1.346
315.87	0.615
316.24	3.033
316.61	1.870
316.97	2.480
317.34	1.172
317.70	1.338
318.07	0.769
318.43	1.765
318.80	2.083
319.16	1.172
319.53	1.804
319.89	0.886
320.26	1.417
320.62	2.808
320.99	0.418
321.35	1.747
321.72	2.077
322.08	1.913
322.45	1.421
322.81	1.670
323.18	1.079
323.54	2.220
323.91	2.045
324.27	3.320
324.64	2.434
325.00	2.190
325.37	3.489
325.73	1.904
326.10	2.634
326.46	2.332
326.83	1.837
327.19	2.267
327.56	2.346
327.92	2.201
328.29	1.250
328.65	2.264
329.01	2.298
329.38	2.765
329.74	1.889
330.11	3.151
330.47	2.597
330.84	0.962
331.20	2.376
331.56	2.593
331.93	2.283
332.29	2.383
332.66	1.719
333.02	1.673
333.38	2.016
333.75	2.656
334.11	2.059
334.48	3.989
334.84	2.930
335.20	1.921
335.57	1.904
335.93	1.897
336.29	2.670
336.66	2.271
337.02	0.836
337.38	0.741
337.75	2.364
338.11	3.427
338.47	2.099
338.84	2.957
339.20	2.559
339.56	3.028
339.93	2.775
340.29	1.651
340.65	2.419
341.02	2.305
341.38	2.832
341.74	1.325
342.11	1.646
342.47	1.957
342.83	2.249
343.20	2.700
343.56	2.087
343.92	2.391
344.28	2.904
344.65	1.900
345.01	1.642
345.37	2.271
345.73	3.180
346.10	3.365
346.46	2.439
346.82	1.800
347.19	1.746
347.55	2.089
347.91	2.832
348.27	2.587
348.63	1.959
349.00	1.641
349.36	2.244
349.72	2.653
350.08	1.721
350.45	2.713
350.81	1.163
351.17	0.977
351.53	2.612
351.89	1.321
352.26	1.200
352.62	2.339
352.98	2.329
353.34	2.496
353.70	3.398
354.07	2.177
354.43	2.162
354.79	1.486
355.15	3.175
355.51	3.402
355.87	2.508
356.24	1.876
356.60	2.183
356.96	2.698
357.32	2.476
357.68	2.111
358.04	2.423
358.40	2.814
358.77	2.632
359.13	1.922
359.49	2.003
359.85	1.872
360.21	0.718
360.57	3.137
360.93	2.118
361.29	1.813
361.66	2.038
362.02	2.652
362.38	2.589
362.74	1.817
363.10	2.935
363.46	3.039
363.82	2.930
364.18	1.771
364.54	2.132
364.90	2.581
365.26	2.329
365.62	3.212
365.98	2.273
366.35	2.840
366.71	2.513
367.07	1.742
367.43	1.582
367.79	2.686
368.15	2.082
368.51	2.112
368.87	2.010
369.23	1.444
369.59	2.405
369.95	2.346
370.31	3.902
370.67	2.164
371.03	2.315
371.39	2.261
371.75	2.711
372.11	2.496
372.47	2.441
372.83	1.916
373.19	3.210
373.55	1.805
373.91	2.736
374.27	2.410
374.63	2.656
374.99	2.128
375.35	2.298
375.71	2.448
376.07	1.966
376.42	2.857
376.78	2.550
377.14	1.760
377.50	2.125
377.86	2.209
378.22	2.297
378.58	2.051
378.94	2.268
379.30	3.431
379.66	3.072
380.02	2.820
380.38	2.435
380.74	2.513
381.09	3.926
381.45	1.896
381.81	3.270
382.17	3.363
382.53	3.186
382.89	2.385
383.25	3.485
383.61	3.415
383.97	1.778
384.32	2.752
384.68	2.972
385.04	2.451
385.40	2.614
385.76	3.208
386.12	3.234
386.48	3.384
386.83	2.917
387.19	4.029
387.55	3.576
387.91	3.240
388.27	3.175
388.62	3.272
388.98	3.745
389.34	3.373
389.70	4.413
390.06	3.839
390.42	3.627
390.77	3.205
391.13	2.900
391.49	3.040
391.85	3.769
392.20	3.139
392.56	3.751
392.92	4.404
393.28	4.658
393.64	3.964
393.99	4.451
394.35	3.226
394.71	4.406
395.07	3.583
395.42	4.493
395.78	3.518
396.14	4.035
396.50	4.502
396.85	3.992
397.21	4.261
397.57	4.639
397.92	4.314
398.28	4.080
398.64	4.337
399.00	4.797
399.35	3.555
399.71	5.284
400.07	4.595
400.42	4.529
400.78	4.899
401.14	4.477
401.49	5.182
401.85	3.961
402.21	4.940
402.57	5.188
402.92	4.141
403.28	4.574
403.63	4.855
403.99	4.592
404.35	4.747
404.70	5.060
405.06	4.877
405.42	4.661
405.77	3.544
406.13	5.064
406.49	4.500
406.84	4.645
407.20	5.418
407.55	4.636
407.91	4.679
408.27	4.589
408.62	5.846
408.98	5.176
409.34	5.328
409.69	4.587
410.05	4.988
410.40	5.185
410.76	5.549
411.11	5.625
411.47	5.260
411.83	4.269
412.18	5.019
412.54	5.805
412.89	4.557
413.25	5.475
413.60	4.410
413.96	5.460
414.31	6.098
414.67	6.030
415.03	5.459
415.38	5.548
415.74	5.668
416.09	5.944
416.45	5.807
416.80	6.874
417.16	5.801
417.51	5.996
417.87	5.215
418.22	5.959
418.58	4.548
418.93	5.705
419.29	5.698
419.64	5.379
420.00	6.297
420.35	5.970
420.71	5.772
421.06	5.893
421.42	5.829
421.77	5.723
422.12	5.789
422.48	6.010
422.83	6.265
423.19	6.151
423.54	4.762
423.90	6.184
424.25	6.429
424.61	5.875
424.96	5.807
425.31	5.893
425.67	5.047
426.02	6.773
426.38	6.450
426.73	6.659
427.09	6.582
427.44	6.412
427.79	7.189
428.15	6.978
428.50	5.572
428.85	6.020
429.21	6.621
429.56	6.469
429.92	7.345
430.27	6.867
430.62	6.168
430.98	5.945
431.33	6.887
431.68	6.070
432.04	6.093
432.39	5.647
432.74	6.194
433.10	7.586
433.45	6.392
433.80	5.456
434.16	5.706
434.51	6.774
434.86	6.330
435.22	6.450
435.57	6.176
435.92	6.946
436.28	6.500
436.63	7.017
436.98	6.952
437.34	6.171
437.69	6.857
438.04	6.781
438.39	5.803
438.75	6.557
439.10	6.621
439.45	7.791
439.81	6.055
440.16	7.304
440.51	7.522
440.86	7.915
441.22	7.353
441.57	6.788
441.92	7.135
442.27	7.040
442.63	8.030
442.98	6.950
443.33	6.900
443.68	7.215
444.03	7.849
444.39	7.575
444.74	7.414
445.09	6.793
445.44	7.179
445.79	8.561
446.15	6.718
446.50	7.654
446.85	7.120
447.20	7.143
447.55	8.203
447.91	7.558
448.26	8.082
448.61	7.772
448.96	7.573
449.31	7.341
449.66	7.898
450.02	7.359
450.37	7.469
450.72	7.961
451.07	7.722
451.42	7.241
451.77	7.113
452.12	7.596
452.47	7.469
452.83	7.067
453.18	7.653
453.53	7.838
453.88	7.407
454.23	7.929
454.58	8.438
454.93	8.698
455.28	7.302
455.63	8.493
455.98	8.479
456.34	8.365
456.69	8.450
457.04	8.759
457.39	8.202
457.74	6.953
458.09	7.828
458.44	8.016
458.79	7.787
459.14	9.039
459.49	9.194
459.84	8.122
460.19	7.464
460.54	8.741
460.89	8.523
461.24	8.571
461.59	8.551
461.94	8.302
462.29	8.866
462.64	8.837
462.99	8.802
463.34	7.789
463.69	8.687
464.04	8.051
464.39	7.884
464.74	8.589
465.09	9.046
465.44	8.598
465.79	8.333
466.14	8.837
466.49	8.453
466.84	9.042
467.19	8.636
467.54	9.068
467.89	8.402
468.24	8.759
468.59	8.762
468.94	8.571
469.29	9.443
469.64	8.817
469.99	9.180
470.34	7.235
470.68	9.620
471.03	9.625
471.38	8.488
471.73	7.703
472.08	9.294
472.43	8.792
472.78	7.334
473.13	9.184
473.48	9.642
473.83	8.780
474.17	9.521
474.52	9.062
474.87	8.970
475.22	8.542
475.57	8.583
475.92	8.832
476.27	8.498
476.61	9.896
476.96	8.868
477.31	9.302
477.66	8.202
478.01	8.535
478.36	9.041
478.70	8.972
479.05	8.791
479.40	9.380
479.75	8.551
480.10	8.551
480.45	8.650
480.79	9.265
481.14	8.658
481.49	7.931
481.84	8.301
482.19	7.998
482.53	8.825
482.88	8.210
483.23	8.637
483.58	9.104
483.92	8.567
484.27	8.614
484.62	8.606
484.97	8.375
485.31	8.598
485.66	8.087
486.01	8.368
486.36	8.179
486.70	8.000
487.05	7.929
487.40	8.480
487.75	7.972
488.09	8.375
488.44	8.735
488.79	8.517
489.13	9.295
489.48	8.294
489.83	8.834
490.17	8.494
490.52	8.637
490.87	8.515
491.22	8.691
491.56	8.634
491.91	8.365
492.26	9.140
492.60	8.541
492.95	8.903
493.30	8.549
493.64	8.399
493.99	9.372
494.34	8.301
494.68	9.000
495.03	7.786
495.37	8.292
495.72	9.288
496.07	8.683
496.41	9.151
496.76	8.614
497.11	8.337
497.45	9.547
497.80	8.880
498.14	9.091
498.49	8.532
498.84	8.782
499.18	8.886
499.53	9.077
499.87	8.755
500.22	8.605
500.56	9.027
500.91	8.886
501.26	8.749
501.60	8.067
501.95	9.073
502.29	8.959
502.64	9.363
502.98	9.176
503.33	8.405
503.67	9.060
504.02	9.433
504.36	9.649
504.71	8.737
505.06	8.858
505.40	8.629
505.75	8.557
506.09	8.616
506.44	9.548
506.78	9.235
507.13	9.204
507.47	9.034
507.82	8.066
508.16	8.082
508.51	8.604
508.85	9.158
509.19	8.622
509.54	9.330
509.88	9.115
510.23	9.037
510.57	9.139
510.92	7.729
511.26	9.329
511.61	8.526
511.95	9.589
512.30	9.257
512.64	9.460
512.98	8.928
513.33	9.401
513.67	8.982
514.02	10.526
514.36	9.429
514.70	10.315
515.05	9.812
515.39	9.681
515.74	10.000
516.08	9.564
516.42	10.012
516.77	9.421
517.11	9.377
517.46	9.635
517.80	10.012
518.14	9.369
518.49	9.435
518.83	8.931
519.17	8.854
519.52	9.769
519.86	8.103
520.20	9.356
520.55	9.694
520.89	10.100
521.23	9.056
521.58	10.221
521.92	10.064
522.26	9.629
522.61	9.286
522.95	9.868
523.29	10.737
523.64	9.720
523.98	10.564
524.32	9.794
524.66	10.627
525.01	10.260
525.35	9.981
525.69	9.226
526.04	9.259
526.38	10.506
526.72	8.960
527.06	10.117
527.41	10.356
527.75	9.517
528.09	10.432
528.43	11.074
528.78	9.703
529.12	10.065
529.46	9.682
529.80	10.703
530.15	10.495
530.49	8.889
530.83	9.918
531.17	9.134
531.51	10.465
531.86	9.313
532.20	8.629
532.54	10.007
532.88	9.788
533.22	10.349
533.57	10.026
533.91	9.334
534.25	10.156
534.59	10.327
534.93	10.069
535.27	9.074
535.62	9.786
535.96	10.568
536.30	10.422
536.64	9.924
536.98	10.453
537.32	10.028
537.66	10.379
538.01	9.650
538.35	9.847
538.69	9.654
539.03	10.321
539.37	10.296
539.71	9.952
540.05	9.776
540.39	10.249
540.73	10.251
541.07	10.221
541.42	10.618
541.76	9.911
542.10	9.566
542.44	9.521
542.78	8.741
543.12	9.821
543.46	9.944
543.80	9.577
544.14	9.212
544.48	10.526
544.82	9.638
545.16	9.904
545.50	11.015
545.84	10.269
546.18	10.142
546.52	10.238
546.86	9.633
547.20	10.086
547.54	9.541
547.88	10.734
548.22	10.454
548.56	10.290
548.90	10.714
549.24	9.917
549.58	10.155
549.92	9.721
550.26	10.037
550.60	9.888
550.94	10.157
551.28	11.128
551.62	10.154
551.96	11.353
552.30	10.234
552.64	9.591
552.98	10.408
553.32	10.128
553.66	8.926
554.00	10.438
554.34	10.118
554.68	10.546
555.02	10.417
555.36	10.621
555.69	10.037
556.03	10.136
556.37	9.964
556.71	9.819
557.05	10.813
557.39	10.260
557.73	10.045
558.07	11.312
558.41	10.490
558.75	10.834
559.08	10.717
559.42	10.397
559.76	11.049
560.10	9.174
560.44	10.127
560.78	10.350
561.12	10.367
561.45	10.682
561.79	10.644
562.13	10.788
562.47	10.504
562.81	10.375
563.15	10.790
563.48	10.750
563.82	11.393
564.16	10.306
564.50	9.662
564.84	9.973
565.17	9.591
565.51	11.066
565.85	10.700
566.19	10.809
566.52	9.987
566.86	11.054
567.20	9.838
567.54	10.097
567.88	10.369
568.21	10.464
568.55	9.565
568.89	9.908
569.23	10.255
569.56	9.282
569.90	9.866
570.24	9.676
570.57	9.455
570.91	9.934
571.25	8.912
571.59	9.063
571.92	9.007
572.26	8.937
572.60	9.488
572.93	9.162
573.27	9.060
573.61	9.248
573.95	9.121
574.28	8.581
574.62	8.899
574.96	9.000
575.29	9.137
575.63	8.655
575.97	9.027
576.30	9.053
576.64	8.980
576.98	9.086
577.31	9.044
577.65	9.289
577.98	9.150
578.32	8.801
578.66	9.155
578.99	8.985
579.33	8.968
579.67	9.059
580.00	9.215
580.34	9.030
580.67	8.902
581.01	9.294
581.35	9.087
581.68	9.152
582.02	8.937
582.35	8.951
582.69	9.155
583.02	8.930
583.36	9.605
583.70	9.683
584.03	9.063
584.37	9.627
584.70	9.643
585.04	9.041
585.37	9.238
585.71	9.405
586.04	9.455
586.38	9.576
586.72	9.440
587.05	9.879
587.39	9.757
587.72	10.005
588.06	9.660
588.39	10.111
588.73	9.188
589.06	10.176
589.40	9.540
589.73	10.332
590.07	9.894
590.40	9.907
590.73	10.585
591.07	9.627
591.40	9.617
591.74	10.045
592.07	10.761
592.41	10.468
592.74	9.996
593.08	9.815
593.41	9.819
593.75	9.944
594.08	9.990
594.41	10.262
594.75	9.427
595.08	10.026
595.42	10.085
595.75	10.439
596.09	10.125
596.42	9.880
596.75	10.657
597.09	10.342
597.42	10.479
597.75	9.666
598.09	10.819
598.42	9.657
598.76	9.910
599.09	10.136
599.42	10.193
599.76	9.970
600.09	9.879
600.42	10.538
600.76	9.918
601.09	9.847
601.42	10.458
601.76	9.408
602.09	9.942
602.42	10.699
602.76	10.059
603.09	10.507
603.42	10.159
603.76	9.758
604.09	10.004
604.42	10.787
604.76	11.126
605.09	10.649
605.42	10.158
605.75	9.764
606.09	9.682
606.42	10.342
606.75	9.870
607.09	10.549
607.42	10.191
607.75	9.947
608.08	10.288
608.42	9.730
608.75	10.265
609.08	10.563
609.41	10.457
609.75	10.635
610.08	10.984
610.41	10.145
610.74	10.141
611.07	10.181
611.41	10.379
611.74	11.247
612.07	10.225
612.40	10.667
612.73	9.887
613.07	10.236
613.40	10.613
613.73	10.297
614.06	10.351
614.39	10.491
614.72	9.804
615.06	10.000
615.39	10.644
615.72	10.280
616.05	10.503
616.38	9.915
616.71	9.908
617.05	10.500
617.38	10.811
617.71	10.881
618.04	10.730
618.37	11.349
618.70	10.891
619.03	11.389
619.36	9.913
619.69	10.462
620.03	11.760
620.36	11.373
620.69	11.420
621.02	10.780
621.35	11.203
621.68	11.139
622.01	11.750
622.34	11.812
622.67	10.962
623.00	11.026
623.33	10.747
623.66	10.396
623.99	11.271
624.32	10.342
624.65	10.752
624.99	10.158
625.32	10.311
625.65	12.019
625.98	11.604
626.31	9.809
626.64	11.352
626.97	12.653
627.30	11.821
627.63	12.565
627.96	10.422
628.29	12.211
628.62	11.996
628.95	10.721
629.28	11.593
629.61	11.366
629.94	12.805
630.26	11.759
630.59	11.759
630.92	12.718
631.25	11.590
631.58	11.013
631.91	10.417
632.24	10.206
632.57	12.159
632.90	11.744
633.23	11.294
633.56	13.350
633.89	12.207
634.22	13.827
634.55	11.690
634.88	11.111
635.20	10.897
635.53	10.800
635.86	11.313
636.19	13.066
636.52	11.607
636.85	11.414
637.18	10.818
637.51	12.704
637.83	12.484
638.16	12.960
638.49	10.490
638.82	13.026
639.15	11.940
639.48	12.792
639.81	11.855
640.13	10.823
640.46	13.703
640.79	10.162
641.12	11.078
641.45	11.261
641.77	12.593
642.10	14.060
642.43	12.219
642.76	12.871
643.09	13.409
643.41	11.003
643.74	12.356
644.07	11.658
644.40	12.331
644.73	13.835
645.05	13.255
645.38	11.640
645.71	11.879
646.04	14.722
646.36	12.411
646.69	11.691
647.02	13.043
647.35	13.060
647.67	13.528
648.00	15.112
648.33	13.481
648.66	11.695
648.98	10.385
649.31	10.744
649.64	11.146
649.96	11.507
650.29	12.606
650.62	13.675
650.94	11.852
651.27	11.173
651.60	13.153
651.92	12.762
652.25	12.966
652.58	12.000
652.90	13.722
653.23	12.437
653.56	10.829
653.88	12.887
