SpectraSuite Data File
++++++++++++++++++++++++++++++++++++
Date: Fri May 15 20:01:51 PDT 2015
User: schluterlab
Dark Spectrum Present: Yes
Reference Spectrum Present: Yes
Number of Sampled Component Spectra: 1
Spectrometers: USB2E3373
Integration Time (usec): 3000 (USB2E3373)
Spectra Averaged: 3 (USB2E3373)
Boxcar Smoothing: 0 (USB2E3373)
Correct for Electrical Dark: No (USB2E3373)
Strobe/Lamp Enabled: No (USB2E3373)
Correct for Detector Non-linearity: No (USB2E3373)
Correct for Stray Light: No (USB2E3373)
Number of Pixels in Processed Spectrum: 2048
>>>>>Begin Processed Spectral Data<<<<<
178.53	0.000
178.91	0.000
179.29	50.000
179.67	-250.000
180.04	-0.000
180.42	0.000
180.80	-600.000
181.18	-200.000
181.56	200.000
181.94	200.000
182.31	200.000
182.69	120.000
183.07	0.000
183.45	-80.000
183.83	83.333
184.20	-63.636
184.58	-44.444
184.96	-50.000
185.34	-166.667
185.72	50.000
186.09	53.846
186.47	-700.000
186.85	-83.333
187.23	166.667
187.61	-300.000
187.98	66.667
188.36	55.556
188.74	0.000
189.12	47.059
189.49	38.889
189.87	0.000
190.25	21.429
190.63	-50.000
191.00	-233.333
191.38	0.000
191.76	350.000
192.14	-150.000
192.51	250.000
192.89	-11.111
193.27	-57.143
193.65	133.333
194.02	172.727
194.40	-80.000
194.78	12.500
195.15	8.333
195.53	25.000
195.91	100.000
196.29	-200.000
196.66	153.846
197.04	100.000
197.42	88.889
197.79	-500.000
198.17	7.692
198.55	1000.000
198.92	-300.000
199.30	100.000
199.68	20.000
200.05	33.333
200.43	0.000
200.81	233.333
201.18	100.000
201.56	200.000
201.94	-50.000
202.31	100.000
202.69	-200.000
203.07	-25.000
203.44	500.000
203.82	0.000
204.19	7.143
204.57	-133.333
204.95	137.500
205.32	130.000
205.70	28.571
206.08	-25.000
206.45	133.333
206.83	71.429
207.20	-42.857
207.58	-100.000
207.96	133.333
208.33	-110.000
208.71	-75.000
209.08	16.667
209.46	-600.000
209.84	100.000
210.21	-800.000
210.59	14.286
210.96	16.667
211.34	-50.000
211.71	26.667
212.09	-128.571
212.46	-1100.000
212.84	0.000
213.22	80.000
213.59	450.000
213.97	46.154
214.34	54.545
214.72	-16.667
215.09	125.000
215.47	-46.154
215.84	54.545
216.22	-33.333
216.59	87.500
216.97	50.000
217.34	150.000
217.72	-80.000
218.09	50.000
218.47	150.000
218.84	-200.000
219.22	33.333
219.59	0.000
219.97	300.000
220.34	50.000
220.72	-28.571
221.09	100.000
221.47	-350.000
221.84	-650.000
222.22	-350.000
222.59	27.273
222.97	158.333
223.34	-100.000
223.72	21.429
224.09	19.048
224.46	39.286
224.84	66.667
225.21	30.000
225.59	6.667
225.96	100.000
226.34	375.000
226.71	-42.857
227.08	0.000
227.46	-25.000
227.83	-700.000
228.21	11.111
228.58	-9.091
228.95	-62.500
229.33	130.000
229.70	37.500
230.08	0.000
230.45	-42.857
230.82	42.857
231.20	-6.667
231.57	78.571
231.95	57.143
232.32	-60.000
232.69	64.286
233.07	66.667
233.44	20.000
233.81	-80.000
234.19	-55.556
234.56	47.059
234.93	150.000
235.31	-25.000
235.68	-260.000
236.05	-30.769
236.43	-15.000
236.80	5.882
237.17	-3.125
237.55	-10.000
237.92	14.815
238.29	8.333
238.67	23.333
239.04	-5.882
239.41	-24.390
239.79	-40.000
240.16	19.512
240.53	21.053
240.91	-6.522
241.28	7.937
241.65	17.857
242.02	15.068
242.40	6.667
242.77	6.780
243.14	-1.515
243.51	3.750
243.89	14.943
244.26	-9.195
244.63	5.952
245.00	11.340
245.38	10.309
245.75	-2.247
246.12	0.862
246.49	6.612
246.87	5.769
247.24	4.202
247.61	0.877
247.98	-0.813
248.36	4.375
248.73	5.263
249.10	3.896
249.47	6.329
249.84	4.575
250.22	4.706
250.59	2.614
250.96	8.451
251.33	-5.233
251.70	4.706
252.08	3.553
252.45	7.426
252.82	3.518
253.19	2.765
253.56	3.271
253.94	8.108
254.31	3.478
254.68	6.579
255.05	5.906
255.42	0.873
255.79	5.405
256.16	2.724
256.54	4.478
256.91	4.943
257.28	1.115
257.65	5.993
258.02	2.837
258.39	4.714
258.76	9.158
259.14	5.316
259.51	8.414
259.88	3.780
260.25	6.209
260.62	5.208
260.99	1.356
261.36	0.685
261.73	2.215
262.10	5.471
262.47	3.681
262.85	5.643
263.22	5.846
263.59	4.361
263.96	8.075
264.33	5.152
264.70	3.274
265.07	3.571
265.44	4.533
265.81	4.802
266.18	6.011
266.55	4.884
266.92	8.549
267.29	6.527
267.66	5.371
268.03	4.188
268.40	6.005
268.77	6.684
269.14	5.276
269.51	5.398
269.88	4.239
270.25	1.276
270.62	4.390
270.99	2.558
271.36	0.733
271.73	3.991
272.10	2.676
272.47	4.965
272.84	0.990
273.21	4.408
273.58	5.542
273.95	4.348
274.32	3.926
274.69	3.394
275.06	5.804
275.43	5.442
275.80	6.402
276.17	4.828
276.54	3.854
276.91	6.579
277.28	3.275
277.65	6.405
278.02	2.766
278.39	2.407
278.76	3.145
279.13	2.905
279.50	3.571
279.87	6.263
280.23	5.161
280.60	4.094
280.97	7.071
281.34	6.346
281.71	6.366
282.08	3.681
282.45	3.327
282.82	5.212
283.19	5.222
283.56	5.588
283.92	3.036
284.29	3.654
284.66	3.101
285.03	4.519
285.40	6.427
285.77	4.569
286.14	6.137
286.51	5.166
286.87	4.753
287.24	3.867
287.61	3.704
287.98	8.421
288.35	6.239
288.72	5.429
289.08	4.861
289.45	5.448
289.82	5.944
290.19	4.437
290.56	5.489
290.93	4.377
291.29	4.468
291.66	6.772
292.03	6.220
292.40	5.484
292.77	7.018
293.13	3.409
293.50	5.918
293.87	5.954
294.24	5.100
294.60	6.706
294.97	8.780
295.34	6.442
295.71	6.855
296.08	7.773
296.44	4.836
296.81	8.056
297.18	7.971
297.55	8.401
297.91	8.493
298.28	10.686
298.65	8.141
299.02	10.243
299.38	8.345
299.75	8.966
300.12	8.770
300.48	9.354
300.85	9.886
301.22	9.740
301.59	10.263
301.95	10.633
302.32	11.025
302.69	12.189
303.05	10.520
303.42	12.578
303.79	10.280
304.15	11.947
304.52	10.464
304.89	11.813
305.25	11.138
305.62	10.152
305.99	11.462
306.35	10.636
306.72	10.124
307.09	12.999
307.45	11.596
307.82	11.343
308.19	13.473
308.55	11.887
308.92	12.854
309.29	12.849
309.65	11.518
310.02	12.981
310.38	12.953
310.75	14.426
311.12	13.025
311.48	12.301
311.85	12.565
312.22	13.291
312.58	11.359
312.95	14.088
313.31	10.973
313.68	12.147
314.05	11.531
314.41	13.299
314.78	12.268
315.14	13.258
315.51	12.733
315.87	12.500
316.24	14.560
316.61	14.173
316.97	14.286
317.34	13.379
317.70	11.855
318.07	12.115
318.43	12.353
318.80	12.027
319.16	12.109
319.53	12.251
319.89	11.811
320.26	12.854
320.62	13.039
320.99	11.378
321.35	13.772
321.72	13.396
322.08	11.480
322.45	11.574
322.81	12.279
323.18	12.463
323.54	11.100
323.91	11.490
324.27	11.035
324.64	12.266
325.00	12.226
325.37	13.223
325.73	10.426
326.10	12.897
326.46	12.556
326.83	12.336
327.19	11.770
327.56	12.858
327.92	12.148
328.29	11.518
328.65	11.604
329.01	11.305
329.38	12.258
329.74	10.954
330.11	12.234
330.47	10.946
330.84	10.096
331.20	13.688
331.56	9.537
331.93	12.603
332.29	11.732
332.66	12.398
333.02	11.152
333.38	10.541
333.75	11.447
334.11	9.758
334.48	11.695
334.84	12.637
335.20	10.796
335.57	9.701
335.93	11.201
336.29	10.405
336.66	11.262
337.02	9.387
337.38	10.370
337.75	10.273
338.11	11.632
338.47	10.858
338.84	11.738
339.20	11.609
339.56	11.009
339.93	11.280
340.29	11.101
340.65	11.828
341.02	10.550
341.38	10.619
341.74	9.982
342.11	9.879
342.47	9.964
342.83	12.370
343.20	10.017
343.56	10.087
343.92	10.275
344.28	11.614
344.65	10.363
345.01	9.767
345.37	11.018
345.73	10.377
346.10	10.699
346.46	10.177
346.82	10.229
347.19	9.310
347.55	10.443
347.91	9.871
348.27	10.267
348.63	11.244
349.00	10.418
349.36	9.726
349.72	10.365
350.08	9.836
350.45	10.774
350.81	9.801
351.17	9.202
351.53	10.041
351.89	10.239
352.26	9.520
352.62	10.806
352.98	9.880
353.34	9.581
353.70	10.113
354.07	10.403
354.43	11.049
354.79	9.661
355.15	10.556
355.51	10.285
355.87	9.142
356.24	8.646
356.60	9.216
356.96	9.762
357.32	10.942
357.68	9.226
358.04	10.339
358.40	9.807
358.77	10.048
359.13	9.287
359.49	9.168
359.85	9.750
360.21	9.809
360.57	8.875
360.93	9.682
361.29	9.215
361.66	9.875
362.02	10.606
362.38	10.282
362.74	9.614
363.10	9.857
363.46	8.970
363.82	10.143
364.18	9.963
364.54	9.044
364.90	9.104
365.26	9.534
365.62	11.095
365.98	9.531
366.35	10.779
366.71	9.313
367.07	9.507
367.43	9.633
367.79	10.177
368.15	9.404
368.51	9.687
368.87	8.471
369.23	9.314
369.59	10.058
369.95	9.311
370.31	9.321
370.67	9.478
371.03	8.514
371.39	8.680
371.75	9.451
372.11	9.344
372.47	8.802
372.83	10.007
373.19	10.200
373.55	8.809
373.91	8.567
374.27	9.142
374.63	9.835
374.99	7.943
375.35	9.471
375.71	9.720
376.07	8.497
376.42	8.707
376.78	9.262
377.14	9.479
377.50	9.097
377.86	8.902
378.22	9.190
378.58	9.231
378.94	8.507
379.30	8.734
379.66	9.404
380.02	9.258
380.38	7.547
380.74	8.438
381.09	9.816
381.45	8.440
381.81	8.575
382.17	8.376
382.53	8.994
382.89	8.035
383.25	8.899
383.61	8.659
383.97	7.937
384.32	8.380
384.68	7.554
385.04	8.027
385.40	7.530
385.76	8.679
386.12	8.603
386.48	7.791
386.83	8.434
387.19	7.753
387.55	8.532
387.91	8.435
388.27	8.181
388.62	7.930
388.98	9.024
389.34	7.245
389.70	8.452
390.06	7.489
390.42	7.966
390.77	7.783
391.13	8.197
391.49	7.568
391.85	7.862
392.20	7.784
392.56	7.756
392.92	7.751
393.28	7.724
393.64	6.486
393.99	7.712
394.35	7.084
394.71	7.088
395.07	6.285
395.42	6.922
395.78	7.492
396.14	7.440
396.50	7.292
396.85	6.375
397.21	7.393
397.57	6.082
397.92	6.651
398.28	7.241
398.64	5.723
399.00	7.167
399.35	6.264
399.71	6.605
400.07	6.469
400.42	6.671
400.78	6.859
401.14	6.413
401.49	6.194
401.85	6.094
402.21	6.687
402.57	7.188
402.92	7.026
403.28	6.328
403.63	6.053
403.99	6.122
404.35	6.246
404.70	6.071
405.06	5.229
405.42	5.718
405.77	4.939
406.13	5.122
406.49	5.151
406.84	6.112
407.20	5.479
407.55	4.958
407.91	5.281
408.27	4.908
408.62	5.477
408.98	5.545
409.34	5.452
409.69	5.426
410.05	5.234
410.40	4.568
410.76	5.730
411.11	5.688
411.47	5.523
411.83	4.959
412.18	4.118
412.54	5.368
412.89	4.372
413.25	5.174
413.60	4.783
413.96	5.583
414.31	5.854
414.67	4.554
415.03	5.060
415.38	5.157
415.74	5.537
416.09	5.879
416.45	4.862
416.80	4.957
417.16	5.939
417.51	5.796
417.87	5.476
418.22	5.894
418.58	4.816
418.93	5.455
419.29	5.122
419.64	4.925
420.00	5.919
420.35	5.433
420.71	5.954
421.06	5.034
421.42	6.010
421.77	5.145
422.12	5.959
422.48	5.847
422.83	5.742
423.19	5.869
423.54	5.526
423.90	5.065
424.25	5.511
424.61	5.324
424.96	5.865
425.31	6.124
425.67	6.162
426.02	5.889
426.38	5.949
426.73	6.416
427.09	6.266
427.44	6.529
427.79	6.777
428.15	7.282
428.50	6.057
428.85	5.958
429.21	6.735
429.56	6.577
429.92	6.574
430.27	6.867
430.62	5.802
430.98	6.529
431.33	8.044
431.68	6.750
432.04	6.819
432.39	6.788
432.74	6.795
433.10	8.391
433.45	6.631
433.80	6.849
434.16	6.759
434.51	6.828
434.86	7.433
435.22	7.179
435.57	7.112
435.92	7.485
436.28	6.738
436.63	7.359
436.98	7.648
437.34	7.078
437.69	7.275
438.04	7.464
438.39	7.330
438.75	7.407
439.10	7.583
439.45	8.460
439.81	7.645
440.16	8.195
440.51	8.000
440.86	8.036
441.22	8.258
441.57	7.781
441.92	8.290
442.27	8.315
442.63	8.940
442.98	8.386
443.33	9.015
443.68	7.851
444.03	8.594
444.39	8.706
444.74	8.807
445.09	8.241
445.44	8.376
445.79	9.077
446.15	8.866
446.50	8.763
446.85	8.714
447.20	8.655
447.55	10.100
447.91	9.193
448.26	9.448
448.61	9.154
448.96	9.581
449.31	8.902
449.66	8.769
450.02	9.469
450.37	9.188
450.72	9.565
451.07	9.304
451.42	9.613
451.77	10.066
452.12	10.825
452.47	9.208
452.83	9.423
453.18	9.804
453.53	9.292
453.88	10.443
454.23	10.141
454.58	10.768
454.93	10.309
455.28	9.524
455.63	10.167
455.98	9.741
456.34	9.770
456.69	10.419
457.04	10.334
457.39	10.207
457.74	9.553
458.09	8.770
458.44	9.421
458.79	9.860
459.14	9.668
459.49	10.687
459.84	10.209
460.19	10.255
460.54	10.391
460.89	10.057
461.24	10.248
461.59	10.511
461.94	9.811
462.29	10.495
462.64	11.096
462.99	10.088
463.34	11.266
463.69	9.910
464.04	10.533
464.39	9.763
464.74	10.245
465.09	10.543
465.44	11.079
465.79	9.921
466.14	11.288
466.49	10.236
466.84	11.124
467.19	10.889
467.54	10.409
467.89	10.423
468.24	9.489
468.59	10.984
468.94	10.032
469.29	10.295
469.64	11.278
469.99	11.142
470.34	10.034
470.68	10.365
471.03	10.616
471.38	10.485
471.73	10.784
472.08	11.398
472.43	9.597
472.78	10.075
473.13	11.429
473.48	11.010
473.83	9.963
474.17	11.205
474.52	11.104
474.87	10.545
475.22	10.189
475.57	10.559
475.92	11.081
476.27	10.768
476.61	10.243
476.96	10.095
477.31	11.303
477.66	10.843
478.01	10.387
478.36	10.294
478.70	11.256
479.05	12.143
479.40	10.440
479.75	10.845
480.10	11.060
480.45	11.300
480.79	11.934
481.14	11.322
481.49	9.852
481.84	11.004
482.19	10.477
482.53	10.935
482.88	10.167
483.23	10.365
483.58	10.943
483.92	10.310
484.27	10.529
484.62	10.802
484.97	10.448
485.31	10.188
485.66	10.478
486.01	10.194
486.36	10.182
486.70	10.541
487.05	10.342
487.40	10.290
487.75	10.423
488.09	10.909
488.44	10.351
488.79	10.945
489.13	10.777
489.48	10.817
489.83	10.090
490.17	9.708
490.52	10.531
490.87	9.949
491.22	10.745
491.56	10.816
491.91	10.612
492.26	10.890
492.60	10.940
492.95	11.608
493.30	10.161
493.64	10.855
493.99	10.338
494.34	10.534
494.68	10.381
495.03	10.219
495.37	10.648
495.72	10.954
496.07	11.268
496.41	10.896
496.76	10.456
497.11	10.293
497.45	11.169
497.80	10.747
498.14	10.681
498.49	10.767
498.84	10.878
499.18	10.894
499.53	10.466
499.87	10.749
500.22	10.336
500.56	10.691
500.91	10.492
501.26	9.985
501.60	10.576
501.95	11.014
502.29	10.024
502.64	11.052
502.98	10.755
503.33	10.183
503.67	10.217
504.02	11.388
504.36	10.638
504.71	10.859
505.06	10.065
505.40	11.269
505.75	10.928
506.09	10.593
506.44	10.729
506.78	10.510
507.13	10.910
507.47	9.922
507.82	9.989
508.16	10.618
508.51	11.018
508.85	10.518
509.19	9.526
509.54	10.509
509.88	10.410
510.23	10.866
510.57	10.957
510.92	9.595
511.26	10.584
511.61	11.331
511.95	10.027
512.30	10.809
512.64	11.241
512.98	10.051
513.33	10.297
513.67	10.290
514.02	11.156
514.36	12.000
514.70	11.597
515.05	10.811
515.39	10.567
515.74	11.138
516.08	10.580
516.42	11.131
516.77	10.884
517.11	10.979
517.46	10.533
517.80	11.263
518.14	10.839
518.49	10.216
518.83	10.875
519.17	10.188
519.52	10.243
519.86	10.684
520.20	11.057
520.55	10.006
520.89	10.602
521.23	10.640
521.58	11.104
521.92	11.603
522.26	10.670
522.61	10.844
522.95	11.060
523.29	11.309
523.64	11.055
523.98	10.953
524.32	10.052
524.66	9.603
525.01	10.455
525.35	11.147
525.69	9.428
526.04	9.987
526.38	11.414
526.72	10.334
527.06	11.673
527.41	10.356
527.75	10.523
528.09	10.233
528.43	11.276
528.78	10.231
529.12	10.129
529.46	10.071
529.80	10.513
530.15	11.089
530.49	9.360
530.83	9.918
531.17	9.805
531.51	10.670
531.86	9.925
532.20	10.160
532.54	10.483
532.88	10.404
533.22	10.887
533.57	10.878
533.91	9.204
534.25	10.286
534.59	9.942
534.93	9.314
535.27	8.376
535.62	9.657
535.96	9.850
536.30	10.488
536.64	10.751
536.98	9.965
537.32	10.597
537.66	11.431
538.01	10.420
538.35	9.847
538.69	9.920
539.03	9.706
539.37	10.363
539.71	9.543
540.05	10.523
540.39	9.626
540.73	10.112
541.07	10.359
541.42	10.148
541.76	10.392
542.10	8.947
542.44	9.451
542.78	9.360
543.12	9.409
543.46	9.805
543.80	10.132
544.14	9.479
544.48	9.194
544.82	10.185
545.16	10.519
545.50	10.814
545.84	9.490
546.18	10.355
546.52	10.166
546.86	9.993
547.20	10.157
547.54	8.905
547.88	10.054
548.22	9.730
548.56	10.092
548.90	10.647
549.24	9.160
549.58	10.367
549.92	9.793
550.26	9.451
550.60	10.335
550.94	10.530
551.28	9.583
551.62	9.231
551.96	9.925
552.30	9.503
552.64	9.803
552.98	10.549
553.32	9.843
553.66	9.434
554.00	9.927
554.34	10.266
554.68	9.661
555.02	11.235
555.36	9.798
555.69	9.451
556.03	9.636
556.37	9.537
556.71	10.036
557.05	9.843
557.39	9.888
557.73	10.570
558.07	10.784
558.41	9.954
558.75	10.678
559.08	9.693
559.42	10.635
559.76	9.768
560.10	10.398
560.44	9.680
560.78	9.510
561.12	9.944
561.45	10.682
561.79	10.224
562.13	9.013
562.47	9.568
562.81	10.086
563.15	10.508
563.48	10.255
563.82	9.883
564.16	9.331
564.50	9.662
564.84	10.576
565.17	9.256
565.51	10.929
565.85	9.877
566.19	10.411
566.52	9.786
566.86	10.154
567.20	9.838
567.54	10.036
567.88	9.842
568.21	9.672
568.55	8.913
568.89	9.908
569.23	9.822
569.56	9.895
569.90	10.110
570.24	9.490
570.57	9.236
570.91	9.516
571.25	9.175
571.59	9.467
571.92	9.304
572.26	9.360
572.60	9.085
572.93	9.382
573.27	9.436
573.61	9.397
573.95	9.448
574.28	8.501
574.62	9.306
574.96	9.449
575.29	9.490
575.63	9.070
575.97	9.000
576.30	9.615
576.64	9.007
576.98	9.189
577.31	9.290
577.65	9.106
577.98	9.362
578.32	9.197
578.66	9.134
578.99	9.125
579.33	8.693
579.67	9.109
580.00	9.570
580.34	9.726
580.67	9.298
581.01	9.678
581.35	9.367
581.68	9.329
582.02	9.323
582.35	9.285
582.69	9.544
583.02	9.336
583.36	9.321
583.70	9.476
584.03	9.953
584.37	10.107
584.70	9.808
585.04	9.585
585.37	10.025
585.71	9.454
586.04	9.834
586.38	9.683
586.72	9.813
587.05	10.052
587.39	10.120
587.72	10.142
588.06	9.798
588.39	9.798
588.73	10.379
589.06	10.404
589.40	10.543
589.73	10.697
590.07	10.347
590.40	10.178
590.73	10.914
591.07	10.729
591.40	10.641
591.74	10.588
592.07	10.807
592.41	10.512
592.74	10.235
593.08	10.374
593.41	10.313
593.75	10.239
594.08	10.161
594.41	10.844
594.75	10.382
595.08	10.670
595.42	10.784
595.75	10.402
596.09	10.321
596.42	10.583
596.75	10.613
597.09	10.296
597.42	10.885
597.75	10.628
598.09	10.865
598.42	9.928
598.76	10.425
599.09	11.258
599.42	10.155
599.76	10.572
600.09	10.897
600.42	10.462
600.76	10.475
601.09	10.229
601.42	10.497
601.76	10.996
602.09	10.272
602.42	11.752
602.76	11.078
603.09	11.047
603.42	10.661
603.76	10.363
604.09	10.936
604.42	11.168
604.76	10.948
605.09	11.106
605.42	11.016
605.75	10.902
606.09	10.573
606.42	10.926
606.75	10.606
607.09	11.253
607.42	10.412
607.75	10.835
608.08	10.467
608.42	10.461
608.75	11.084
609.08	11.061
609.41	11.015
609.75	11.290
610.08	11.383
610.41	10.097
610.74	10.531
611.07	10.904
611.41	11.053
611.74	11.407
612.07	10.493
612.40	10.722
612.73	10.000
613.07	11.080
613.40	11.543
613.73	10.856
614.06	10.907
614.39	11.788
614.72	10.644
615.06	11.453
615.39	11.026
615.72	10.441
616.05	11.508
616.38	10.655
616.71	10.275
617.05	10.253
617.38	10.874
617.71	10.881
618.04	10.984
618.37	11.475
618.70	11.353
619.03	11.111
619.36	10.637
619.69	11.145
620.03	11.322
620.36	11.159
620.69	11.420
621.02	10.933
621.35	11.618
621.68	11.395
622.01	11.333
622.34	11.812
622.67	11.672
623.00	11.256
623.33	10.061
623.66	10.770
623.99	11.498
624.32	11.711
624.65	10.602
624.99	11.437
625.32	10.311
625.65	11.626
625.98	12.006
626.31	11.222
626.64	11.179
626.97	11.955
627.30	11.296
627.63	12.045
627.96	11.500
628.29	11.841
628.62	12.684
628.95	12.625
629.28	10.585
629.61	10.169
629.94	12.805
630.26	12.154
630.59	11.967
630.92	11.282
631.25	11.487
631.58	11.344
631.91	11.184
632.24	11.124
632.57	12.045
632.90	11.151
633.23	12.235
633.56	11.461
633.89	11.591
634.22	12.222
634.55	11.690
634.88	12.899
635.20	11.923
635.53	12.667
635.86	10.143
636.19	11.902
636.52	11.352
636.85	10.918
637.18	11.195
637.51	12.075
637.83	12.615
638.16	13.779
638.49	10.627
638.82	11.184
639.15	11.669
639.48	12.792
639.81	11.855
640.13	11.977
640.46	12.099
640.79	10.898
641.12	11.078
641.45	12.462
641.77	12.296
642.10	14.060
642.43	13.987
642.76	13.036
643.09	12.439
643.41	10.194
643.74	11.697
644.07	13.793
644.40	13.345
644.73	12.084
645.05	10.570
645.38	12.522
645.71	11.170
646.04	12.926
646.36	10.993
646.69	13.669
