SpectraSuite Data File
++++++++++++++++++++++++++++++++++++
Date: Fri May 15 17:17:38 PDT 2015
User: schluterlab
Dark Spectrum Present: Yes
Reference Spectrum Present: Yes
Number of Sampled Component Spectra: 1
Spectrometers: USB2E3373
Integration Time (usec): 3000 (USB2E3373)
Spectra Averaged: 3 (USB2E3373)
Boxcar Smoothing: 0 (USB2E3373)
Correct for Electrical Dark: No (USB2E3373)
Strobe/Lamp Enabled: No (USB2E3373)
Correct for Detector Non-linearity: No (USB2E3373)
Correct for Stray Light: No (USB2E3373)
Number of Pixels in Processed Spectrum: 2048
>>>>>Begin Processed Spectral Data<<<<<
178.53	0.000
178.91	0.000
179.29	200.000
179.67	-500.000
180.04	-128.571
180.42	0.000
180.80	0.000
181.18	-0.000
181.56	-200.000
181.94	250.000
182.31	100.000
182.69	40.000
183.07	-66.667
183.45	220.000
183.83	33.333
184.20	27.273
184.58	55.556
184.96	-225.000
185.34	-266.667
185.72	350.000
186.09	7.692
186.47	800.000
186.85	50.000
187.23	100.000
187.61	-800.000
187.98	100.000
188.36	0.000
188.74	-133.333
189.12	82.353
189.49	77.778
189.87	0.000
190.25	85.714
190.63	450.000
191.00	33.333
191.38	42.105
191.76	600.000
192.14	-75.000
192.51	150.000
192.89	77.778
193.27	-14.286
193.65	183.333
194.02	127.273
194.40	90.000
194.78	-25.000
195.15	25.000
195.53	62.500
195.91	75.000
196.29	50.000
196.66	38.462
197.04	-28.571
197.42	44.444
197.79	100.000
198.17	7.692
198.55	800.000
198.92	-433.333
199.30	800.000
199.68	-40.000
200.05	-66.667
200.43	0.000
200.81	300.000
201.18	100.000
201.56	400.000
201.94	350.000
202.31	-233.333
202.69	0.000
203.07	-275.000
203.44	1000.000
203.82	0.000
204.19	92.857
204.57	-133.333
204.95	62.500
205.32	110.000
205.70	114.286
206.08	100.000
206.45	144.444
206.83	121.429
207.20	-42.857
207.58	-100.000
207.96	66.667
208.33	-90.000
208.71	-25.000
209.08	-50.000
209.46	500.000
209.84	80.000
210.21	200.000
210.59	114.286
210.96	83.333
211.34	-100.000
211.71	53.333
212.09	14.286
212.46	-1500.000
212.84	0.000
213.22	90.000
213.59	-100.000
213.97	107.692
214.34	-27.273
214.72	133.333
215.09	175.000
215.47	0.000
215.84	109.091
216.22	166.667
216.59	162.500
216.97	450.000
217.34	-25.000
217.72	40.000
218.09	87.500
218.47	175.000
218.84	0.000
219.22	-11.111
219.59	120.000
219.97	200.000
220.34	-0.000
220.72	14.286
221.09	125.000
221.47	550.000
221.84	-250.000
222.22	-650.000
222.59	36.364
222.97	133.333
223.34	400.000
223.72	21.429
224.09	0.000
224.46	14.286
224.84	-33.333
225.21	50.000
225.59	100.000
225.96	200.000
226.34	-100.000
226.71	171.429
227.08	116.667
227.46	100.000
227.83	-100.000
228.21	-77.778
228.58	81.818
228.95	100.000
229.33	40.000
229.70	50.000
230.08	87.500
230.45	-142.857
230.82	100.000
231.20	53.333
231.57	92.857
231.95	-28.571
232.32	40.000
232.69	85.714
233.07	233.333
233.44	100.000
233.81	-90.000
234.19	133.333
234.56	23.529
234.93	200.000
235.31	250.000
235.68	-180.000
236.05	-7.692
236.43	-10.000
236.80	23.529
237.17	37.500
237.55	50.000
237.92	3.704
238.29	25.000
238.67	50.000
239.04	52.941
239.41	-12.195
239.79	-33.333
240.16	4.878
240.53	5.263
240.91	4.348
241.28	7.937
241.65	14.286
242.02	13.699
242.40	-3.333
242.77	13.559
243.14	3.030
243.51	8.750
243.89	19.540
244.26	8.046
244.63	19.048
245.00	12.371
245.38	7.216
245.75	-8.989
246.12	10.345
246.49	5.785
246.87	15.385
247.24	0.840
247.61	0.877
247.98	3.252
248.36	4.375
248.73	9.868
249.10	2.597
249.47	8.228
249.84	5.229
250.22	-1.176
250.59	9.150
250.96	14.085
251.33	0.581
251.70	7.059
252.08	7.107
252.45	5.941
252.82	5.528
253.19	6.452
253.56	1.402
253.94	7.658
254.31	10.000
254.68	8.333
255.05	6.693
255.42	9.607
255.79	7.722
256.16	6.226
256.54	7.463
256.91	3.802
257.28	5.948
257.65	3.745
258.02	1.418
258.39	7.071
258.76	6.593
259.14	7.309
259.51	4.854
259.88	3.093
260.25	4.902
260.62	3.472
260.99	2.034
261.36	1.370
261.73	5.696
262.10	4.255
262.47	3.681
262.85	2.194
263.22	3.692
263.59	3.427
263.96	9.006
264.33	5.152
264.70	3.869
265.07	3.274
265.44	5.949
265.81	6.497
266.18	4.918
266.55	5.141
266.92	3.368
267.29	7.050
267.66	5.882
268.03	4.450
268.40	4.178
268.77	6.150
269.14	7.674
269.51	6.941
269.88	3.242
270.25	2.296
270.62	3.659
270.99	4.092
271.36	4.156
271.73	5.634
272.10	4.866
272.47	4.728
272.84	3.713
273.21	7.657
273.58	5.542
273.95	6.865
274.32	3.695
274.69	2.036
275.06	6.027
275.43	2.948
275.80	5.519
276.17	2.069
276.54	5.567
276.91	5.921
277.28	3.493
277.65	4.132
278.02	7.021
278.39	1.532
278.76	5.241
279.13	2.490
279.50	4.832
279.87	5.832
280.23	2.796
280.60	4.873
280.97	5.051
281.34	2.500
281.71	5.955
282.08	0.409
282.45	4.892
282.82	4.440
283.19	2.708
283.56	3.661
283.92	3.416
284.29	2.885
284.66	4.264
285.03	3.340
285.40	4.348
285.77	2.812
286.14	4.513
286.51	5.166
286.87	2.559
287.24	3.683
287.61	2.998
287.98	5.439
288.35	2.600
288.72	4.553
289.08	3.993
289.45	5.448
289.82	5.594
290.19	2.901
290.56	3.602
290.93	3.535
291.29	2.928
291.66	2.205
292.03	5.263
292.40	2.258
292.77	4.306
293.13	0.649
293.50	3.187
293.87	5.344
294.24	5.255
294.60	3.577
294.97	5.208
295.34	3.528
295.71	2.981
296.08	2.840
296.44	2.418
296.81	4.028
297.18	2.899
297.55	6.233
297.91	3.836
298.28	4.485
298.65	3.528
299.02	4.043
299.38	1.642
299.75	2.483
300.12	3.796
300.48	1.845
300.85	4.816
301.22	4.545
301.59	2.368
301.95	4.304
302.32	3.761
302.69	3.980
303.05	3.094
303.42	3.362
303.79	3.972
304.15	3.584
304.52	0.832
304.89	2.339
305.25	3.027
305.62	2.100
305.99	3.041
306.35	2.775
306.72	2.137
307.09	3.079
307.45	3.559
307.82	2.083
308.19	4.181
308.55	3.708
308.92	3.595
309.29	1.229
309.65	1.938
310.02	3.410
310.38	2.964
310.75	3.060
311.12	3.875
311.48	3.075
311.85	2.723
312.22	3.270
312.58	2.866
312.95	2.775
313.31	2.899
313.68	1.675
314.05	3.265
314.41	2.680
314.78	4.536
315.14	4.317
315.51	4.141
315.87	3.689
316.24	4.348
316.61	4.528
316.97	4.762
317.34	4.590
317.70	4.589
318.07	4.615
318.43	5.588
318.80	5.019
319.16	5.078
319.53	6.648
319.89	5.906
320.26	6.680
320.62	8.024
320.99	6.472
321.35	7.194
321.72	9.138
322.08	9.265
322.45	9.848
322.81	10.413
323.18	10.304
323.54	10.714
323.91	11.685
324.27	13.477
324.64	13.951
325.00	16.880
325.37	18.733
325.73	16.863
326.10	20.254
326.46	20.628
326.83	21.872
327.19	23.191
327.56	25.022
327.92	26.144
328.29	26.875
328.65	29.057
329.01	28.585
329.38	31.797
329.74	30.406
330.11	34.106
330.47	32.375
330.84	34.231
331.20	38.688
331.56	36.111
331.93	38.904
332.29	39.322
332.66	38.733
333.02	40.149
333.38	41.247
333.75	42.949
334.11	40.376
334.48	45.150
334.84	43.773
335.20	46.203
335.57	43.699
335.93	44.444
336.29	46.501
336.66	45.777
337.02	46.468
337.38	46.019
337.75	46.909
338.11	46.438
338.47	49.088
338.84	48.614
339.20	49.269
339.56	47.890
339.93	47.717
340.29	49.358
340.65	50.538
341.02	48.582
341.38	48.319
341.74	48.410
342.11	49.653
342.47	50.534
342.83	50.519
343.20	50.087
343.56	51.478
343.92	50.487
344.28	51.153
344.65	50.086
345.01	52.290
345.37	49.033
345.73	50.377
346.10	51.510
346.46	52.313
346.82	51.882
347.19	49.626
347.55	52.464
347.91	51.699
348.27	51.576
348.63	51.789
349.00	49.877
349.36	52.785
349.72	52.985
350.08	52.131
350.45	52.115
350.81	52.575
351.17	51.303
351.53	53.143
351.89	52.023
352.26	53.040
352.62	52.661
352.98	50.843
353.34	52.254
353.70	52.508
354.07	51.371
354.43	52.122
354.79	53.179
355.15	53.571
355.51	53.323
355.87	53.398
356.24	53.507
356.60	54.810
356.96	55.079
357.32	54.393
357.68	53.948
358.04	54.120
358.40	54.180
358.77	54.785
359.13	53.563
359.49	54.083
359.85	55.148
360.21	54.785
360.57	53.558
360.93	54.841
361.29	53.776
361.66	56.034
362.02	54.242
362.38	56.283
362.74	56.397
363.10	55.756
363.46	55.745
363.82	54.921
364.18	55.424
364.54	56.544
364.90	56.416
365.26	56.259
365.62	57.007
365.98	56.452
366.35	57.101
366.71	57.280
367.07	56.604
367.43	56.794
367.79	55.830
368.15	58.220
368.51	58.339
368.87	57.143
369.23	56.318
369.59	59.694
369.95	59.384
370.31	58.598
370.67	57.761
371.03	58.402
371.39	59.154
371.75	59.927
372.11	57.275
372.47	59.320
372.83	59.688
373.19	58.987
373.55	58.700
373.91	59.539
374.27	61.162
374.63	61.019
374.99	59.220
375.35	60.446
375.71	62.308
376.07	61.587
376.42	61.973
376.78	60.805
377.14	60.799
377.50	63.147
377.86	62.718
378.22	60.179
378.58	62.756
378.94	61.626
379.30	62.445
379.66	63.009
380.02	62.784
380.38	62.629
380.74	63.136
381.09	64.356
381.45	62.875
381.81	63.664
382.17	63.071
382.53	64.959
382.89	66.353
383.25	65.713
383.61	65.000
383.97	65.524
384.32	64.103
384.68	65.635
385.04	64.461
385.40	64.966
385.76	66.981
386.12	67.400
386.48	66.220
386.83	66.075
387.19	65.324
387.55	66.625
387.91	65.159
388.27	66.728
388.62	66.960
388.98	65.316
389.34	66.209
389.70	65.382
390.06	64.254
390.42	65.868
390.77	65.402
391.13	66.393
391.49	66.688
391.85	68.096
392.20	65.223
392.56	68.214
392.92	66.588
393.28	67.099
393.64	66.486
393.99	68.150
394.35	66.856
394.71	66.092
395.07	66.122
395.42	65.574
395.78	67.752
396.14	66.267
396.50	67.153
396.85	68.319
397.21	65.727
397.57	67.022
397.92	66.087
398.28	67.816
398.64	66.084
399.00	68.679
399.35	66.084
399.71	65.882
400.07	67.896
400.42	65.239
400.78	68.524
401.14	66.243
401.49	67.064
401.85	67.093
402.21	66.566
402.57	67.813
402.92	64.241
403.28	67.043
403.63	66.520
403.99	65.689
404.35	66.708
404.70	63.810
405.06	65.629
405.42	65.009
405.77	65.485
406.13	65.658
406.49	64.180
406.84	65.037
407.20	64.901
407.55	64.778
407.91	66.043
408.27	65.137
408.62	64.123
408.98	64.079
409.34	64.622
409.69	64.276
410.05	63.670
410.40	64.568
410.76	65.018
411.11	65.938
411.47	64.563
411.83	63.214
412.18	66.409
412.54	64.482
412.89	63.300
413.25	64.501
413.60	63.665
413.96	63.620
414.31	63.963
414.67	64.015
415.03	64.248
415.38	64.426
415.74	64.821
416.09	65.513
416.45	63.673
416.80	63.781
417.16	66.644
417.51	65.223
417.87	63.950
418.22	64.832
418.58	65.819
418.93	66.332
419.29	64.149
419.64	65.846
420.00	66.499
420.35	63.881
420.71	66.707
421.06	65.255
421.42	66.166
421.77	66.879
422.12	66.061
422.48	66.378
422.83	67.575
423.19	66.084
423.54	66.843
423.90	66.726
424.25	67.049
424.61	67.748
424.96	67.073
425.31	68.226
425.67	68.369
426.02	68.198
426.38	68.065
426.73	69.431
427.09	68.924
427.44	67.882
427.79	68.827
428.15	68.204
428.50	69.110
428.85	67.445
429.21	69.553
429.56	71.105
429.92	69.029
430.27	68.872
430.62	69.577
430.98	69.798
431.33	69.190
431.68	68.603
432.04	69.871
432.39	68.853
432.74	67.589
433.10	69.770
433.45	70.072
433.80	70.459
434.16	71.579
434.51	70.968
434.86	71.080
435.22	71.957
435.57	71.616
435.92	72.275
436.28	70.066
436.63	70.622
436.98	71.205
437.34	70.538
437.69	72.212
438.04	70.997
438.39	71.106
438.75	72.556
439.10	71.986
439.45	73.463
439.81	71.070
440.16	72.625
440.51	72.299
440.86	72.749
441.22	72.229
441.57	73.344
441.92	74.029
442.27	74.279
442.63	74.036
442.98	73.176
443.33	71.397
443.68	72.573
444.03	72.976
444.39	72.996
444.74	74.415
445.09	74.165
445.44	74.131
445.79	75.297
446.15	73.568
446.50	72.823
446.85	73.698
447.20	73.670
447.55	72.879
447.91	72.814
448.26	73.648
448.61	72.021
448.96	74.584
449.31	74.335
449.66	74.100
450.02	73.303
450.37	75.104
450.72	73.253
451.07	74.051
451.42	72.222
451.77	72.092
452.12	71.711
452.47	72.376
452.83	74.441
453.18	73.561
453.53	74.905
453.88	73.953
454.23	73.141
454.58	74.874
454.93	74.356
455.28	73.460
455.63	73.838
455.98	73.903
456.34	74.010
456.69	73.761
457.04	74.039
457.39	75.091
457.74	73.881
458.09	73.102
458.44	74.137
458.79	74.118
459.14	73.913
459.49	74.328
459.84	74.281
460.19	73.665
460.54	73.533
460.89	73.977
461.24	74.658
461.59	74.525
461.94	71.698
462.29	73.884
462.64	74.950
462.99	73.257
463.34	72.601
463.69	72.329
464.04	74.153
464.39	73.257
464.74	73.926
465.09	73.862
465.44	73.630
465.79	72.676
466.14	73.090
466.49	73.260
466.84	73.171
467.19	72.340
467.54	72.095
467.89	73.468
468.24	71.229
468.59	72.444
468.94	72.254
469.29	73.770
469.64	73.069
469.99	74.702
470.34	73.174
470.68	73.154
471.03	73.107
471.38	73.894
471.73	72.759
472.08	72.727
472.43	73.960
472.78	72.927
473.13	72.721
473.48	71.987
473.83	71.295
474.17	73.187
474.52	73.197
474.87	73.152
475.22	73.826
475.57	73.631
475.92	74.383
476.27	73.865
476.61	74.537
476.96	70.664
477.31	72.363
477.66	70.899
478.01	73.273
478.36	72.440
478.70	74.769
479.05	73.187
479.40	74.192
479.75	71.950
480.10	73.169
480.45	72.750
480.79	73.212
481.14	73.463
481.49	71.478
481.84	72.587
482.19	72.077
482.53	73.189
482.88	72.124
483.23	72.265
483.58	72.217
483.92	72.604
484.27	71.650
484.62	72.120
484.97	72.181
485.31	72.471
485.66	73.052
486.01	72.834
486.36	72.943
486.70	70.937
487.05	71.476
487.40	71.820
487.75	71.887
488.09	70.426
488.44	70.186
488.79	70.303
489.13	72.516
489.48	71.911
489.83	71.390
490.17	71.730
490.52	71.501
490.87	70.939
491.22	71.968
491.56	71.632
491.91	70.650
492.26	72.241
492.60	71.209
492.95	72.602
493.30	71.470
493.64	72.446
493.99	72.754
494.34	71.650
494.68	71.952
495.03	71.387
495.37	71.050
495.72	72.034
496.07	73.707
496.41	71.462
496.76	72.317
497.11	70.610
497.45	70.692
497.80	73.512
498.14	70.939
498.49	71.915
498.84	70.858
499.18	71.436
499.53	71.081
499.87	72.374
500.22	70.129
500.56	70.903
500.91	70.833
501.26	70.242
501.60	71.913
501.95	71.761
502.29	71.138
502.64	72.828
502.98	72.077
503.33	71.806
503.67	70.410
504.02	71.114
504.36	71.598
504.71	70.556
505.06	71.263
505.40	70.254
505.75	71.701
506.09	70.857
506.44	72.639
506.78	71.480
507.13	71.251
507.47	69.295
507.82	71.421
508.16	70.998
508.51	70.881
508.85	72.318
509.19	71.048
509.54	71.957
509.88	71.305
510.23	72.243
510.57	71.138
510.92	70.149
511.26	71.249
511.61	72.882
511.95	71.123
512.30	70.344
512.64	70.006
512.98	71.589
513.33	71.572
513.67	71.575
514.02	71.682
514.36	71.600
514.70	72.145
515.05	71.328
515.39	71.724
515.74	72.575
516.08	71.668
516.42	71.555
516.77	71.094
517.11	72.166
517.46	71.634
517.80	71.931
518.14	70.912
518.49	70.433
518.83	71.810
519.17	70.467
519.52	71.285
519.86	71.068
520.20	72.053
520.55	71.357
520.89	71.769
521.23	70.361
521.58	71.483
521.92	72.436
522.26	70.202
522.61	71.429
522.95	72.715
523.29	70.330
523.64	70.076
523.98	72.845
524.32	71.456
524.66	72.855
525.01	71.039
525.35	70.966
525.69	72.525
526.04	70.833
526.38	73.411
526.72	68.345
527.06	70.298
527.41	70.646
527.75	70.710
528.09	70.764
528.43	70.831
528.78	70.891
529.12	70.194
529.46	71.735
529.80	70.298
530.15	73.201
530.49	71.313
530.83	70.451
531.17	68.771
531.51	71.272
531.86	69.341
532.20	70.842
532.54	69.299
532.88	70.294
533.22	69.960
533.57	69.856
533.91	71.214
534.25	72.852
534.59	70.815
534.93	69.604
535.27	69.987
535.62	71.095
535.96	69.667
536.30	68.997
536.64	71.468
536.98	70.174
537.32	71.266
537.66	71.178
538.01	71.818
538.35	70.388
538.69	70.573
539.03	69.310
539.37	70.727
539.71	71.029
540.05	69.450
540.39	69.114
540.73	70.084
541.07	70.235
541.42	70.027
541.76	70.750
542.10	70.475
542.44	72.481
542.78	68.135
543.12	69.918
543.46	71.419
543.80	71.062
544.14	68.358
544.48	69.087
544.82	72.317
545.16	70.970
545.50	70.761
545.84	70.255
546.18	71.418
546.52	70.440
546.86	70.165
547.20	70.100
547.54	70.035
547.88	71.332
548.22	69.428
548.56	70.185
548.90	68.868
549.24	68.939
549.58	69.111
549.92	69.693
550.26	69.744
550.60	70.335
550.94	71.695
551.28	70.170
551.62	72.308
551.96	71.203
552.30	69.298
552.64	69.817
552.98	69.972
553.32	70.399
553.66	71.263
554.00	70.438
554.34	71.566
554.68	69.617
555.02	70.089
555.36	71.429
555.69	70.183
556.03	69.879
556.37	69.964
556.71	70.903
557.05	71.961
557.39	68.773
557.73	72.039
558.07	69.910
558.41	71.363
558.75	71.005
559.08	70.922
559.42	70.794
559.76	71.817
560.10	69.725
560.44	71.035
560.78	69.720
561.12	71.086
561.45	71.398
561.79	70.378
562.13	71.043
562.47	70.288
562.81	71.470
563.15	70.592
563.48	70.792
563.82	71.997
564.16	71.031
564.50	70.338
564.84	70.348
565.17	69.752
565.51	71.926
565.85	73.457
566.19	70.822
566.52	71.783
566.86	69.023
567.20	71.731
567.54	72.567
567.88	71.705
568.21	72.624
568.55	71.848
568.89	70.893
569.23	70.871
569.56	70.534
569.90	71.904
570.24	68.255
570.57	71.018
570.91	70.617
571.25	71.062
571.59	69.698
571.92	68.533
572.26	69.233
572.60	69.395
572.93	68.654
573.27	68.934
573.61	68.735
573.95	69.252
574.28	68.909
574.62	68.294
574.96	67.689
575.29	68.021
575.63	66.105
575.97	67.254
576.30	69.272
576.64	67.656
576.98	69.781
577.31	69.599
577.65	68.670
577.98	69.083
578.32	68.008
578.66	67.655
578.99	67.618
579.33	67.649
579.67	66.692
580.00	67.797
580.34	68.085
580.67	67.705
581.01	69.236
581.35	68.885
581.68	68.746
582.02	68.233
582.35	68.969
582.69	68.153
583.02	67.806
583.36	68.630
583.70	69.678
584.03	69.224
584.37	69.452
584.70	69.643
585.04	67.720
585.37	68.182
585.71	69.316
586.04	67.801
586.38	68.418
586.72	68.608
587.05	70.277
587.39	69.891
587.72	70.558
588.06	68.835
588.39	69.069
588.73	69.963
589.06	70.385
589.40	69.443
589.73	68.821
590.07	69.411
590.40	70.201
590.73	71.376
591.07	69.466
591.40	69.635
591.74	70.452
592.07	71.243
592.41	69.832
592.74	70.729
593.08	69.717
593.41	69.786
593.75	70.003
594.08	68.932
594.41	69.687
594.75	69.618
595.08	70.526
595.42	70.004
595.75	70.822
596.09	69.625
596.42	69.574
596.75	69.671
597.09	70.797
597.42	69.919
597.75	70.728
598.09	68.764
598.42	69.088
598.76	69.670
599.09	69.631
599.42	68.283
599.76	69.977
600.09	69.268
600.42	68.878
600.76	68.611
601.09	68.588
601.42	69.134
601.76	69.472
602.09	69.802
602.42	70.767
602.76	69.949
603.09	70.598
603.42	71.196
603.76	69.153
604.09	70.109
604.42	70.474
604.76	70.227
605.09	70.567
605.42	69.481
605.75	70.096
606.09	69.809
606.42	69.308
606.75	69.351
607.09	69.275
607.42	69.428
607.75	69.183
608.08	68.014
608.42	68.205
608.75	70.554
609.08	71.101
609.41	70.102
609.75	69.758
610.08	71.043
610.41	70.242
610.74	68.601
611.07	71.111
611.41	71.303
611.74	70.629
612.07	69.647
612.40	72.101
612.73	72.147
613.07	70.866
613.40	71.827
613.73	71.125
614.06	70.785
614.39	70.502
614.72	70.028
615.06	71.229
615.39	68.668
615.72	69.860
616.05	69.609
616.38	69.744
616.71	71.988
617.05	71.402
617.38	71.150
617.71	71.258
618.04	71.619
618.37	72.762
618.70	71.287
619.03	72.917
619.36	71.418
619.69	72.934
620.03	73.776
620.36	71.531
620.69	70.735
621.02	71.254
621.35	73.444
621.68	73.299
622.01	71.583
622.34	73.424
622.67	72.082
623.00	71.975
623.33	72.256
623.66	71.279
623.99	70.424
624.32	73.004
624.65	71.955
624.99	71.708
625.32	71.873
625.65	73.998
625.98	73.811
626.31	72.402
626.64	72.184
626.97	73.386
627.30	72.680
627.63	72.877
627.96	73.226
628.29	74.098
628.62	73.451
628.95	73.447
629.28	76.008
629.61	72.881
629.94	74.291
630.26	70.949
630.59	75.234
630.92	75.795
631.25	70.974
631.58	75.000
631.91	73.684
632.24	75.344
632.57	75.227
632.90	74.140
633.23	72.353
633.56	76.952
633.89	74.723
634.22	75.556
634.55	73.571
634.88	74.457
635.20	73.590
635.53	79.467
635.86	76.203
636.19	77.232
636.52	76.403
636.85	72.953
637.18	74.843
637.51	72.327
637.83	73.062
638.16	78.581
638.49	74.659
638.82	75.658
