SpectraSuite Data File
++++++++++++++++++++++++++++++++++++
Date: Fri May 15 17:33:35 PDT 2015
User: schluterlab
Dark Spectrum Present: Yes
Reference Spectrum Present: Yes
Number of Sampled Component Spectra: 1
Spectrometers: USB2E3373
Integration Time (usec): 3000 (USB2E3373)
Spectra Averaged: 3 (USB2E3373)
Boxcar Smoothing: 0 (USB2E3373)
Correct for Electrical Dark: No (USB2E3373)
Strobe/Lamp Enabled: No (USB2E3373)
Correct for Detector Non-linearity: No (USB2E3373)
Correct for Stray Light: No (USB2E3373)
Number of Pixels in Processed Spectrum: 2048
>>>>>Begin Processed Spectral Data<<<<<
178.53	0.000
178.91	0.000
179.29	150.000
179.67	150.000
180.04	-100.000
180.42	350.000
180.80	400.000
181.18	-200.000
181.56	-300.000
181.94	50.000
182.31	100.000
182.69	300.000
183.07	0.000
183.45	-20.000
183.83	16.667
184.20	-63.636
184.58	-0.000
184.96	-175.000
185.34	-366.667
185.72	-350.000
186.09	100.000
186.47	200.000
186.85	-0.000
187.23	122.222
187.61	400.000
187.98	0.000
188.36	66.667
188.74	66.667
189.12	41.176
189.49	66.667
189.87	0.000
190.25	57.143
190.63	500.000
191.00	0.000
191.38	21.053
191.76	1000.000
192.14	-25.000
192.51	350.000
192.89	55.556
193.27	-100.000
193.65	33.333
194.02	90.909
194.40	80.000
194.78	-137.500
195.15	25.000
195.53	-125.000
195.91	-50.000
196.29	-75.000
196.66	76.923
197.04	42.857
197.42	122.222
197.79	-133.333
198.17	-53.846
198.55	600.000
198.92	66.667
199.30	400.000
199.68	40.000
200.05	33.333
200.43	0.000
200.81	33.333
201.18	-133.333
201.56	500.000
201.94	350.000
202.31	-200.000
202.69	-120.000
203.07	-0.000
203.44	200.000
203.82	0.000
204.19	64.286
204.57	-133.333
204.95	87.500
205.32	20.000
205.70	57.143
206.08	100.000
206.45	133.333
206.83	64.286
207.20	-28.571
207.58	800.000
207.96	0.000
208.33	-70.000
208.71	100.000
209.08	-66.667
209.46	700.000
209.84	40.000
210.21	-400.000
210.59	42.857
210.96	133.333
211.34	275.000
211.71	100.000
212.09	-142.857
212.46	-1300.000
212.84	0.000
213.22	50.000
213.59	400.000
213.97	69.231
214.34	54.545
214.72	-33.333
215.09	575.000
215.47	23.077
215.84	-72.727
216.22	-100.000
216.59	-50.000
216.97	-150.000
217.34	125.000
217.72	-40.000
218.09	125.000
218.47	162.500
218.84	-500.000
219.22	22.222
219.59	-40.000
219.97	33.333
220.34	75.000
220.72	42.857
221.09	-150.000
221.47	250.000
221.84	-300.000
222.22	-150.000
222.59	9.091
222.97	33.333
223.34	100.000
223.72	50.000
224.09	52.381
224.46	46.429
224.84	166.667
225.21	10.000
225.59	46.667
225.96	-400.000
226.34	375.000
226.71	-85.714
227.08	-166.667
227.46	50.000
227.83	-250.000
228.21	44.444
228.58	-9.091
228.95	-25.000
229.33	80.000
229.70	-18.750
230.08	25.000
230.45	57.143
230.82	128.571
231.20	20.000
231.57	42.857
231.95	85.714
232.32	-40.000
232.69	92.857
233.07	366.667
233.44	240.000
233.81	20.000
234.19	111.111
234.56	29.412
234.93	350.000
235.31	-25.000
235.68	-60.000
236.05	76.923
236.43	-5.000
236.80	35.294
237.17	53.125
237.55	25.000
237.92	-25.926
238.29	11.111
238.67	16.667
239.04	11.765
239.41	-14.634
239.79	3.333
240.16	29.268
240.53	-5.263
240.91	-4.348
241.28	33.333
241.65	16.071
242.02	27.397
242.40	18.333
242.77	8.475
243.14	12.121
243.51	8.750
243.89	29.885
244.26	14.943
244.63	17.857
245.00	15.464
245.38	14.433
245.75	16.854
246.12	16.379
246.49	19.835
246.87	23.077
247.24	22.689
247.61	18.421
247.98	20.325
248.36	17.500
248.73	19.737
249.10	20.130
249.47	16.456
249.84	18.301
250.22	22.353
250.59	22.222
250.96	23.474
251.33	19.186
251.70	19.412
252.08	13.706
252.45	21.287
252.82	18.090
253.19	22.581
253.56	15.421
253.94	18.468
254.31	18.696
254.68	21.491
255.05	18.898
255.42	18.341
255.79	23.552
256.16	21.790
256.54	17.164
256.91	18.631
257.28	15.613
257.65	20.599
258.02	16.667
258.39	21.886
258.76	24.542
259.14	22.591
259.51	22.006
259.88	18.900
260.25	18.627
260.62	21.181
260.99	22.034
261.36	20.890
261.73	18.987
262.10	20.973
262.47	15.644
262.85	16.301
263.22	24.000
263.59	20.872
263.96	16.770
264.33	18.788
264.70	18.155
265.07	19.643
265.44	22.946
265.81	17.514
266.18	19.672
266.55	19.023
266.92	20.466
267.29	21.671
267.66	18.926
268.03	19.634
268.40	19.060
268.77	18.984
269.14	18.945
269.51	21.594
269.88	16.958
270.25	16.582
270.62	17.317
270.99	18.414
271.36	15.648
271.73	22.770
272.10	18.248
272.47	17.730
272.84	20.050
273.21	21.346
273.58	18.795
273.95	20.137
274.32	17.090
274.69	16.968
275.06	20.313
275.43	18.141
275.80	18.102
276.17	15.632
276.54	19.272
276.91	18.860
277.28	18.777
277.65	19.835
278.02	18.511
278.39	17.287
278.76	19.078
279.13	17.635
279.50	21.008
279.87	17.927
280.23	18.280
280.60	18.324
280.97	20.606
281.34	17.308
281.71	20.123
282.08	18.814
282.45	19.765
282.82	16.602
283.19	19.923
283.56	17.726
283.92	17.078
284.29	18.846
284.66	18.411
285.03	18.075
285.40	17.391
285.77	15.290
286.14	18.051
286.51	18.635
286.87	17.367
287.24	16.390
287.61	18.166
287.98	19.474
288.35	15.251
288.72	16.462
289.08	17.535
289.45	17.750
289.82	19.231
290.19	16.212
290.56	15.609
290.93	15.488
291.29	14.484
291.66	18.268
292.03	14.992
292.40	15.645
292.77	15.630
293.13	14.123
293.50	15.478
293.87	16.183
294.24	14.065
294.60	15.052
294.97	16.220
295.34	13.804
295.71	14.903
296.08	13.453
296.44	11.949
296.81	13.889
297.18	13.188
297.55	14.363
297.91	14.384
298.28	14.644
298.65	13.569
299.02	14.420
299.38	12.859
299.75	13.655
300.12	13.089
300.48	13.570
300.85	13.815
301.22	14.026
301.59	12.368
301.95	15.190
302.32	15.305
302.69	14.801
303.05	12.871
303.42	12.080
303.79	13.435
304.15	12.186
304.52	12.128
304.89	13.099
305.25	12.954
305.62	10.502
305.99	12.865
306.35	13.410
306.72	11.586
307.09	11.859
307.45	12.514
307.82	12.037
308.19	13.357
308.55	12.759
308.92	13.834
309.29	11.061
309.65	10.980
310.02	12.871
310.38	12.843
310.75	13.005
311.12	11.733
311.48	12.619
311.85	11.832
312.22	11.392
312.58	11.783
312.95	12.060
313.31	12.008
313.68	12.461
314.05	11.531
314.41	12.784
314.78	11.134
315.14	12.539
315.51	11.905
315.87	12.910
316.24	13.246
316.61	12.205
316.97	12.996
317.34	12.891
317.70	13.002
318.07	11.635
318.43	11.275
318.80	12.689
319.16	13.184
319.53	14.815
319.89	13.583
320.26	14.676
320.62	14.644
320.99	13.779
321.35	14.594
321.72	15.265
322.08	16.918
322.45	15.431
322.81	14.047
323.18	15.211
323.54	14.672
323.91	16.456
324.27	16.895
324.64	17.884
325.00	16.423
325.37	20.202
325.73	17.044
326.10	17.893
326.46	19.462
326.83	19.335
327.19	20.488
327.56	20.678
327.92	21.127
328.29	20.179
328.65	22.075
329.01	22.518
329.38	21.382
329.74	20.680
330.11	22.057
330.47	23.006
330.84	22.692
331.20	24.905
331.56	22.315
331.93	25.114
332.29	24.565
332.66	24.253
333.02	25.000
333.38	24.840
333.75	25.733
334.11	25.694
334.48	25.839
334.84	27.564
335.20	26.532
335.57	25.204
335.93	26.197
336.29	26.151
336.66	27.248
337.02	26.115
337.38	26.111
337.75	27.364
338.11	27.232
338.47	27.828
338.84	28.466
339.20	26.874
339.56	28.073
339.93	28.559
340.29	28.257
340.65	28.584
341.02	27.482
341.38	27.257
341.74	27.032
342.11	27.123
342.47	27.936
342.83	28.374
343.20	27.091
343.56	28.348
343.92	27.458
344.28	28.864
344.65	27.720
345.01	28.349
345.37	28.511
345.73	28.285
346.10	28.300
346.46	28.511
346.82	27.414
347.19	27.681
347.55	28.488
347.91	28.722
348.27	29.103
348.63	28.790
349.00	27.400
349.36	28.346
349.72	29.270
350.08	29.426
350.45	27.853
350.81	28.405
351.17	28.990
351.53	28.490
351.89	29.562
352.26	29.520
352.62	28.952
352.98	28.835
353.34	28.905
353.70	29.126
354.07	29.758
354.43	29.544
354.79	28.819
355.15	28.651
355.51	27.848
355.87	28.964
356.24	28.140
356.60	28.618
356.96	29.921
357.32	29.233
357.68	28.851
358.04	29.887
358.40	28.537
358.77	29.346
359.13	30.504
359.49	28.737
359.85	29.095
360.21	28.947
360.57	29.686
360.93	29.955
361.29	28.399
361.66	31.583
362.02	30.909
362.38	30.465
362.74	30.204
363.10	30.324
363.46	30.096
363.82	31.104
364.18	29.742
364.54	30.221
364.90	30.538
365.26	31.223
365.62	31.533
365.98	31.525
366.35	31.755
366.71	30.599
367.07	31.350
367.43	31.201
367.79	32.014
368.15	31.658
368.51	30.808
368.87	30.797
369.23	30.469
369.59	31.997
369.95	31.012
370.31	32.009
370.67	30.821
371.03	30.172
371.39	31.583
371.75	31.722
372.11	32.097
372.47	31.509
372.83	32.150
373.19	32.097
373.55	32.202
373.91	32.253
374.27	32.672
374.63	32.735
374.99	32.908
375.35	32.382
375.71	33.986
376.07	32.935
376.42	32.109
376.78	32.685
377.14	32.566
377.50	33.732
377.86	33.802
378.22	33.886
378.58	32.949
378.94	33.774
379.30	34.373
379.66	34.295
380.02	35.009
380.38	33.841
380.74	34.411
381.09	35.460
381.45	33.639
381.81	34.238
382.17	35.152
382.53	33.666
382.89	35.844
383.25	35.159
383.61	35.427
383.97	34.603
384.32	36.210
384.68	36.037
385.04	34.314
385.40	34.350
385.76	36.604
386.12	36.481
386.48	36.718
386.83	36.842
387.19	35.714
387.55	36.198
387.91	36.308
388.27	35.836
388.62	37.130
388.98	36.832
389.34	36.102
389.70	36.917
390.06	35.620
390.42	36.334
390.77	36.691
391.13	36.444
391.49	36.999
391.85	37.167
392.20	35.782
392.56	36.364
392.92	36.054
393.28	36.969
393.64	37.598
393.99	37.994
394.35	38.520
394.71	38.506
395.07	37.209
395.42	37.705
395.78	37.394
396.14	37.390
396.50	37.984
396.85	36.961
397.21	37.343
397.57	37.429
397.92	37.268
398.28	37.356
398.64	38.012
399.00	37.980
399.35	36.907
399.71	37.967
400.07	39.178
400.42	37.576
400.78	37.538
401.14	37.508
401.49	37.641
401.85	37.538
402.21	37.470
402.57	37.750
402.92	37.202
403.28	37.907
403.63	37.390
403.99	38.010
404.35	38.601
404.70	37.321
405.06	37.485
405.42	36.731
405.77	36.955
406.13	37.253
406.49	36.649
406.84	37.592
407.20	37.508
407.55	37.411
407.91	36.832
408.27	36.775
408.62	37.600
408.98	37.215
409.34	38.042
409.69	36.757
410.05	36.453
410.40	37.593
410.76	37.455
411.11	37.438
411.47	37.738
411.83	37.853
412.18	37.645
412.54	37.703
412.89	35.714
413.25	36.943
413.60	37.081
413.96	36.687
414.31	37.927
414.67	36.562
415.03	37.350
415.38	36.292
415.74	37.264
416.09	37.361
416.45	37.947
416.80	37.409
417.16	37.431
417.51	37.442
417.87	36.571
418.22	38.925
418.58	38.060
418.93	39.749
419.29	36.940
419.64	38.302
420.00	39.421
420.35	37.552
420.71	37.849
421.06	37.508
421.42	38.462
421.77	38.671
422.12	38.649
422.48	38.062
422.83	38.573
423.19	38.826
423.54	37.801
423.90	38.869
424.25	38.462
424.61	39.474
424.96	39.547
425.31	40.324
425.67	39.319
426.02	40.106
426.38	40.639
426.73	39.952
427.09	40.823
427.44	39.647
427.79	40.778
428.15	39.684
428.50	39.067
428.85	39.496
429.21	39.898
429.56	41.024
429.92	39.702
430.27	40.000
430.62	39.937
430.98	40.393
431.33	40.852
431.68	40.188
432.04	41.532
432.39	39.646
432.74	40.168
433.10	40.690
433.45	40.980
433.80	40.511
434.16	40.886
434.51	41.183
434.86	42.160
435.22	41.110
435.57	43.231
435.92	40.719
436.28	40.727
436.63	40.844
436.98	40.556
437.34	41.379
437.69	42.159
438.04	41.311
438.39	40.195
438.75	42.137
439.10	41.370
439.45	41.753
439.81	41.346
440.16	43.052
440.51	42.448
440.86	43.082
441.22	42.590
441.57	42.494
441.92	43.809
442.27	42.960
442.63	43.630
442.98	43.596
443.33	43.072
443.68	42.759
444.03	42.772
444.39	42.204
444.74	44.091
445.09	42.650
445.44	41.937
445.79	43.682
446.15	42.456
446.50	42.152
446.85	43.358
447.20	43.222
447.55	43.080
447.91	41.906
448.26	43.540
448.61	44.560
448.96	44.234
449.31	43.353
449.66	42.334
450.02	43.069
450.37	43.568
450.72	42.955
451.07	43.608
451.42	42.509
451.77	43.159
452.12	43.301
452.47	42.241
452.83	42.756
453.18	43.707
453.53	43.047
453.88	43.716
454.23	43.700
454.58	43.073
454.93	43.363
455.28	42.730
455.63	43.273
455.98	43.295
456.34	42.401
456.69	44.536
457.04	43.730
457.39	43.803
457.74	43.108
458.09	43.084
458.44	43.944
458.79	42.577
459.14	44.108
459.49	43.881
459.84	43.768
460.19	44.903
460.54	44.682
460.89	44.205
461.24	43.540
461.59	44.893
461.94	42.893
462.29	43.727
462.64	44.252
462.99	44.008
463.34	42.559
463.69	43.436
464.04	43.039
464.39	44.209
464.74	42.699
465.09	44.230
465.44	44.489
465.79	44.161
466.14	43.444
466.49	44.393
466.84	44.140
467.19	43.242
467.54	42.848
467.89	42.451
468.24	42.640
468.59	44.127
468.94	43.238
469.29	42.164
469.64	44.224
469.99	43.518
470.34	43.276
470.68	43.400
471.03	43.878
471.38	43.438
471.73	42.297
472.08	43.148
472.43	43.020
472.78	41.947
473.13	42.789
473.48	42.997
473.83	42.715
474.17	44.624
474.52	42.821
474.87	42.970
475.22	44.356
475.57	43.478
475.92	43.774
476.27	43.655
476.61	43.576
476.96	41.272
477.31	43.267
477.66	42.416
478.01	44.020
478.36	43.519
478.70	44.046
479.05	44.396
479.40	43.773
479.75	43.379
480.10	43.728
480.45	43.750
480.79	44.209
481.14	43.955
481.49	43.399
481.84	43.533
482.19	43.920
482.53	42.542
482.88	42.530
483.23	42.706
483.58	42.736
483.92	42.788
484.27	42.115
484.62	43.389
484.97	42.662
485.31	44.184
485.66	45.943
486.01	48.281
486.36	47.688
486.70	46.973
487.05	45.633
487.40	44.674
487.75	45.099
488.09	43.541
488.44	42.607
488.79	42.473
489.13	42.989
489.48	42.711
489.83	42.422
490.17	43.011
490.52	42.494
490.87	42.434
491.22	42.264
491.56	42.315
491.91	42.208
492.26	43.364
492.60	42.514
492.95	42.892
493.30	41.720
493.64	42.976
493.99	42.464
494.34	42.136
494.68	42.286
495.03	42.384
495.37	42.198
495.72	43.009
496.07	42.732
496.41	42.830
496.76	42.054
497.11	42.478
497.45	42.387
497.80	42.180
498.14	41.431
498.49	41.544
498.84	42.565
499.18	42.369
499.53	42.560
499.87	42.510
500.22	41.939
500.56	42.663
500.91	42.620
501.26	42.116
501.60	42.696
501.95	42.746
502.29	42.954
502.64	42.085
502.98	42.970
503.33	42.027
503.67	41.831
504.02	42.669
504.36	42.553
504.71	42.020
505.06	41.922
505.40	42.843
505.75	41.237
506.09	42.828
506.44	42.454
506.78	43.010
507.13	42.141
507.47	40.470
507.82	41.293
508.16	40.571
508.51	42.340
508.85	42.282
509.19	41.245
509.54	40.429
509.88	40.291
510.23	42.873
510.57	41.368
510.92	40.512
511.26	41.135
511.61	41.749
511.95	41.315
512.30	41.630
512.64	40.790
512.98	41.662
513.33	41.298
513.67	40.648
514.02	42.563
514.36	41.029
514.70	42.075
515.05	41.657
515.39	39.315
515.74	42.275
516.08	40.885
516.42	41.166
516.77	41.194
517.11	41.721
517.46	41.472
517.80	41.001
518.14	40.294
518.49	40.084
518.83	39.672
519.17	39.600
519.52	39.905
519.86	38.655
520.20	40.462
520.55	39.462
520.89	39.962
521.23	40.342
521.58	40.315
521.92	41.218
522.26	38.907
522.61	39.091
522.95	40.795
523.29	40.407
523.64	40.851
523.98	41.024
524.32	38.789
524.66	39.181
525.01	40.195
525.35	40.635
525.69	39.057
526.04	39.749
526.38	40.272
526.72	38.784
527.06	39.883
527.41	39.644
527.75	38.338
528.09	39.867
528.43	40.378
528.78	39.472
529.12	40.516
529.46	40.481
529.80	39.899
530.15	40.330
530.49	40.067
530.83	40.561
531.17	39.893
531.51	40.287
531.86	39.497
532.20	39.318
532.54	39.210
532.88	40.589
533.22	40.121
533.57	39.908
533.91	39.295
534.25	41.276
534.59	40.218
534.93	39.648
535.27	39.340
535.62	40.506
535.96	40.378
536.30	40.567
536.64	40.593
536.98	39.652
537.32	40.114
537.66	40.323
538.01	40.629
538.35	40.014
538.69	39.281
539.03	39.166
539.37	40.579
539.71	40.082
540.05	39.647
540.39	40.097
540.73	40.934
541.07	40.401
541.42	39.987
541.76	41.087
542.10	41.225
542.44	39.889
542.78	39.298
543.12	41.346
543.46	41.168
543.80	41.499
544.14	39.386
544.48	39.907
544.82	40.875
545.16	41.462
545.50	40.521
545.84	40.156
546.18	40.567
546.52	40.591
546.86	39.324
547.20	39.914
547.54	39.647
547.88	40.421
548.22	39.250
548.56	40.106
548.90	40.768
549.24	39.394
549.58	39.351
549.92	40.243
550.26	39.341
550.60	40.297
550.94	39.731
551.28	38.872
551.62	40.692
551.96	40.602
552.30	40.789
552.64	40.056
552.98	39.662
553.32	39.800
553.66	39.550
554.00	40.584
554.34	40.620
554.68	39.233
555.02	40.625
555.36	40.015
555.69	40.659
556.03	39.900
556.37	39.929
556.71	40.072
557.05	40.343
557.39	38.885
557.73	39.880
558.07	39.668
558.41	39.740
558.75	39.673
559.08	40.032
559.42	39.921
559.76	39.632
560.10	40.214
560.44	39.315
560.78	40.769
561.12	41.678
561.45	41.883
561.79	40.896
562.13	41.235
562.47	40.935
562.81	40.202
563.15	40.409
563.48	42.150
563.82	41.112
564.16	40.669
564.50	41.149
564.84	41.365
565.17	41.918
565.51	42.828
565.85	41.221
566.19	40.981
566.52	42.158
566.86	42.288
567.20	40.909
567.54	43.674
567.88	44.288
568.21	44.231
568.55	43.750
568.89	44.097
569.23	45.306
569.56	45.053
569.90	46.650
570.24	46.111
570.57	47.055
570.91	47.543
571.25	46.892
571.59	46.403
571.92	46.637
572.26	46.347
572.60	46.450
572.93	45.999
573.27	46.176
573.61	47.196
573.95	47.269
574.28	46.901
574.62	47.292
574.96	46.921
575.29	46.593
575.63	45.763
575.97	46.164
576.30	46.556
576.64	46.278
576.98	46.615
577.31	47.530
577.65	47.982
577.98	48.225
578.32	48.071
578.66	47.195
578.99	46.514
579.33	46.065
579.67	46.581
580.00	46.608
580.34	47.438
580.67	46.909
581.01	47.406
581.35	48.363
581.68	49.006
582.02	49.349
582.35	48.784
582.69	48.461
583.02	47.447
583.36	47.197
583.70	47.144
584.03	47.345
584.37	47.544
584.70	46.786
585.04	47.073
585.37	47.543
585.71	48.951
586.04	47.226
586.38	47.346
586.72	46.829
587.05	48.296
587.39	48.337
587.72	49.098
588.06	47.938
588.39	47.081
588.73	47.985
589.06	47.945
589.40	47.183
589.73	46.112
590.07	47.130
590.40	47.020
590.73	47.364
591.07	46.480
591.40	45.459
591.74	46.697
592.07	46.985
592.41	47.968
592.74	47.471
593.08	46.839
593.41	48.237
593.75	47.825
594.08	46.996
594.41	47.307
594.75	47.557
595.08	46.538
595.42	47.810
595.75	47.878
596.09	46.677
596.42	46.879
596.75	46.181
597.09	46.424
597.42	46.116
597.75	47.000
598.09	45.224
598.42	45.532
598.76	46.289
599.09	46.675
599.42	47.291
599.76	47.178
600.09	46.833
600.42	46.475
600.76	46.842
601.09	47.557
601.42	46.416
601.76	47.400
602.09	46.122
602.42	47.051
602.76	47.114
603.09	47.467
603.42	48.370
603.76	48.145
604.09	47.064
604.42	46.574
604.76	47.040
605.09	46.389
605.42	46.140
605.75	46.804
606.09	46.667
606.42	46.497
606.75	46.277
607.09	47.560
607.42	46.522
607.75	46.758
608.08	45.732
608.42	45.180
608.75	46.940
609.08	46.587
609.41	45.279
609.75	45.413
610.08	46.830
610.41	47.391
610.74	46.319
611.07	47.235
611.41	46.186
611.74	47.281
612.07	45.557
612.40	44.803
612.73	45.141
613.07	44.769
613.40	46.499
613.73	45.439
614.06	46.188
614.39	45.403
614.72	45.210
615.06	45.531
615.39	46.070
615.72	46.125
616.05	46.760
616.38	43.989
616.71	44.893
617.05	45.337
617.38	45.443
617.71	45.346
618.04	46.667
618.37	46.847
618.70	44.422
619.03	45.208
619.36	43.271
619.69	44.428
620.03	44.412
620.36	44.421
620.69	43.826
621.02	43.196
621.35	43.402
621.68	43.112
622.01	44.000
622.34	45.012
622.67	44.322
623.00	42.573
623.33	44.284
623.66	43.306
623.99	43.646
624.32	44.106
624.65	43.459
624.99	43.868
625.32	43.973
625.65	45.797
625.98	42.869
626.31	42.643
626.64	43.934
626.97	42.845
627.30	42.820
627.63	42.461
627.96	43.576
628.29	41.351
628.62	41.101
628.95	40.681
629.28	42.540
629.61	40.379
629.94	41.838
630.26	41.107
630.59	43.288
630.92	42.359
631.25	38.564
631.58	40.969
631.91	41.667
632.24	41.055
632.57	39.545
632.90	39.858
633.23	38.941
633.56	38.665
633.89	39.827
634.22	40.000
