SpectraSuite Data File
++++++++++++++++++++++++++++++++++++
Date: Fri May 15 20:11:47 PDT 2015
User: schluterlab
Dark Spectrum Present: Yes
Reference Spectrum Present: Yes
Number of Sampled Component Spectra: 1
Spectrometers: USB2E3373
Integration Time (usec): 3000 (USB2E3373)
Spectra Averaged: 3 (USB2E3373)
Boxcar Smoothing: 0 (USB2E3373)
Correct for Electrical Dark: No (USB2E3373)
Strobe/Lamp Enabled: No (USB2E3373)
Correct for Detector Non-linearity: No (USB2E3373)
Correct for Stray Light: No (USB2E3373)
Number of Pixels in Processed Spectrum: 2048
>>>>>Begin Processed Spectral Data<<<<<
178.53	0.000
178.91	0.000
179.29	112.500
179.67	-300.000
180.04	-57.143
180.42	175.000
180.80	-200.000
181.18	66.667
181.56	50.000
181.94	250.000
182.31	800.000
182.69	-40.000
183.07	-200.000
183.45	-60.000
183.83	-0.000
184.20	0.000
184.58	77.778
184.96	-125.000
185.34	-33.333
185.72	-300.000
186.09	76.923
186.47	-600.000
186.85	66.667
187.23	122.222
187.61	-400.000
187.98	-66.667
188.36	88.889
188.74	-100.000
189.12	23.529
189.49	16.667
189.87	0.000
190.25	85.714
190.63	300.000
191.00	200.000
191.38	-10.526
191.76	500.000
192.14	125.000
192.51	200.000
192.89	33.333
193.27	14.286
193.65	116.667
194.02	90.909
194.40	50.000
194.78	-12.500
195.15	0.000
195.53	0.000
195.91	275.000
196.29	-75.000
196.66	7.692
197.04	114.286
197.42	55.556
197.79	-200.000
198.17	-130.769
198.55	700.000
198.92	0.000
199.30	800.000
199.68	20.000
200.05	-466.667
200.43	0.000
200.81	-166.667
201.18	33.333
201.56	1300.000
201.94	-300.000
202.31	-33.333
202.69	0.000
203.07	175.000
203.44	0.000
203.82	0.000
204.19	50.000
204.57	-500.000
204.95	62.500
205.32	70.000
205.70	85.714
206.08	100.000
206.45	244.444
206.83	107.143
207.20	-157.143
207.58	400.000
207.96	33.333
208.33	-80.000
208.71	-75.000
209.08	-16.667
209.46	-1000.000
209.84	-100.000
210.21	-400.000
210.59	114.286
210.96	-50.000
211.34	100.000
211.71	73.333
212.09	157.143
212.46	-700.000
212.84	0.000
213.22	50.000
213.59	400.000
213.97	61.538
214.34	72.727
214.72	33.333
215.09	350.000
215.47	15.385
215.84	54.545
216.22	-266.667
216.59	112.500
216.97	200.000
217.34	-175.000
217.72	-360.000
218.09	100.000
218.47	25.000
218.84	100.000
219.22	44.444
219.59	80.000
219.97	266.667
220.34	225.000
220.72	-42.857
221.09	-50.000
221.47	0.000
221.84	-450.000
222.22	-650.000
222.59	0.000
222.97	58.333
223.34	66.667
223.72	7.143
224.09	23.810
224.46	21.429
224.84	400.000
225.21	-20.000
225.59	6.667
225.96	550.000
226.34	425.000
226.71	-42.857
227.08	-83.333
227.46	-112.500
227.83	200.000
228.21	55.556
228.58	0.000
228.95	37.500
229.33	40.000
229.70	6.250
230.08	-12.500
230.45	-57.143
230.82	200.000
231.20	6.667
231.57	28.571
231.95	14.286
232.32	-120.000
232.69	42.857
233.07	166.667
233.44	-80.000
233.81	-60.000
234.19	-55.556
234.56	0.000
234.93	150.000
235.31	-125.000
235.68	-180.000
236.05	-15.385
236.43	-30.000
236.80	0.000
237.17	46.875
237.55	-5.000
237.92	-22.222
238.29	25.000
238.67	40.000
239.04	5.882
239.41	17.073
239.79	-3.333
240.16	14.634
240.53	7.895
240.91	10.870
241.28	4.762
241.65	0.000
242.02	19.178
242.40	10.000
242.77	1.695
243.14	12.121
243.51	2.500
243.89	18.391
244.26	3.448
244.63	4.762
245.00	5.155
245.38	8.247
245.75	0.000
246.12	6.034
246.49	5.785
246.87	4.808
247.24	5.882
247.61	7.018
247.98	2.439
248.36	10.625
248.73	9.211
249.10	8.442
249.47	9.494
249.84	7.190
250.22	5.294
250.59	9.150
250.96	17.840
251.33	8.140
251.70	11.765
252.08	7.107
252.45	10.396
252.82	14.573
253.19	8.295
253.56	6.542
253.94	9.009
254.31	6.957
254.68	6.579
255.05	4.724
255.42	6.987
255.79	12.355
256.16	7.782
256.54	10.448
256.91	9.506
257.28	7.063
257.65	10.487
258.02	6.383
258.39	14.141
258.76	11.355
259.14	9.635
259.51	10.680
259.88	6.186
260.25	11.438
260.62	9.375
260.99	8.475
261.36	5.822
261.73	10.127
262.10	10.942
262.47	4.601
262.85	10.345
263.22	8.308
263.59	7.477
263.96	11.491
264.33	12.121
264.70	7.738
265.07	6.548
265.44	7.649
265.81	7.910
266.18	8.743
266.55	9.254
266.92	7.254
267.29	8.355
267.66	9.207
268.03	6.545
268.40	7.311
268.77	11.765
269.14	9.353
269.51	7.198
269.88	7.481
270.25	6.378
270.62	6.341
270.99	5.627
271.36	7.824
271.73	7.512
272.10	6.569
272.47	5.674
272.84	7.426
273.21	8.817
273.58	7.229
273.95	6.865
274.32	7.159
274.69	5.204
275.06	9.375
275.43	7.256
275.80	10.155
276.17	7.816
276.54	7.923
276.91	6.798
277.28	7.205
277.65	8.884
278.02	7.660
278.39	8.534
278.76	9.644
279.13	4.357
279.50	10.084
279.87	8.639
280.23	7.097
280.60	9.747
280.97	8.687
281.34	6.538
281.71	9.446
282.08	6.748
282.45	6.849
282.82	5.405
283.19	8.897
283.56	7.514
283.92	6.641
284.29	6.154
284.66	5.814
285.03	7.269
285.40	5.860
285.77	7.909
286.14	7.040
286.51	10.148
286.87	9.324
287.24	8.103
287.61	6.349
287.98	8.070
288.35	8.319
288.72	8.406
289.08	6.771
289.45	7.909
289.82	8.392
290.19	6.997
290.56	4.974
290.93	6.061
291.29	6.934
291.66	8.504
292.03	6.061
292.40	7.097
292.77	7.337
293.13	4.221
293.50	4.856
293.87	5.954
294.24	6.337
294.60	8.048
294.97	6.548
295.34	4.908
295.71	6.408
296.08	5.531
296.44	4.410
296.81	5.833
297.18	5.507
297.55	7.453
297.91	7.671
298.28	7.652
298.65	5.156
299.02	6.469
299.38	4.104
299.75	5.655
300.12	4.974
300.48	4.611
300.85	6.591
301.22	6.753
301.59	5.263
301.95	5.443
302.32	6.744
302.69	5.597
303.05	6.436
303.42	5.230
303.79	5.491
304.15	6.571
304.52	5.351
304.89	5.263
305.25	6.416
305.62	4.667
305.99	4.912
306.35	4.624
306.72	5.287
307.09	5.815
307.45	5.970
307.82	4.977
308.19	5.691
308.55	5.562
308.92	6.536
309.29	4.469
309.65	5.059
310.02	5.061
310.38	4.720
310.75	4.918
311.12	6.028
311.48	5.408
311.85	6.073
312.22	3.903
312.58	4.777
312.95	5.016
313.31	4.762
313.68	4.817
314.05	4.694
314.41	4.845
314.78	5.258
315.14	5.858
315.51	5.797
315.87	4.201
316.24	6.168
316.61	6.004
316.97	6.151
317.34	5.762
317.70	6.119
318.07	5.288
318.43	6.078
318.80	6.439
319.16	5.957
319.53	6.363
319.89	5.413
320.26	6.579
320.62	7.723
320.99	5.010
321.35	5.447
321.72	7.373
322.08	6.848
322.45	7.310
322.81	7.269
323.18	7.360
323.54	7.819
323.91	6.913
324.27	8.789
324.64	8.333
325.00	8.303
325.37	9.826
325.73	8.160
326.10	9.446
326.46	9.507
326.83	10.149
327.19	8.980
327.56	10.947
327.92	10.827
328.29	10.446
328.65	10.755
329.01	11.581
329.38	11.336
329.74	10.670
330.11	11.121
330.47	11.317
330.84	10.962
331.20	12.548
331.56	11.852
331.93	12.329
332.29	13.016
332.66	12.036
333.02	13.662
333.38	12.191
333.75	12.912
334.11	11.907
334.48	13.871
334.84	13.736
335.20	13.632
335.57	13.327
335.93	14.092
336.29	13.812
336.66	13.715
337.02	13.197
337.38	13.426
337.75	14.000
338.11	15.329
338.47	14.507
338.84	14.787
339.20	13.620
339.56	14.771
339.93	14.324
340.29	15.229
340.65	13.799
341.02	13.830
341.38	14.336
341.74	13.428
342.11	13.085
342.47	13.167
342.83	14.792
343.20	13.850
343.56	13.652
343.92	13.552
344.28	15.371
344.65	14.508
345.01	13.742
345.37	13.373
345.73	14.142
346.10	14.754
346.46	14.130
346.82	13.748
347.19	12.968
347.55	14.620
347.91	14.563
348.27	14.228
348.63	14.651
349.00	13.536
349.36	15.544
349.72	14.842
350.08	14.180
350.45	14.445
350.81	14.369
351.17	14.007
351.53	15.020
351.89	13.625
352.26	13.840
352.62	14.274
352.98	14.297
353.34	14.251
353.70	15.210
354.07	14.677
354.43	14.412
354.79	14.121
355.15	15.159
355.51	14.399
355.87	13.997
356.24	13.703
356.60	15.198
356.96	15.238
357.32	15.256
357.68	14.386
358.04	14.136
358.40	14.630
358.77	14.514
359.13	14.892
359.49	14.407
359.85	15.133
360.21	14.514
360.57	15.532
360.93	14.826
361.29	13.595
361.66	15.674
362.02	15.379
362.38	15.004
362.74	15.064
363.10	15.500
363.46	15.122
363.82	15.477
364.18	15.867
364.54	15.221
364.90	14.767
365.26	14.629
365.62	16.204
365.98	15.982
366.35	16.315
366.71	15.299
367.07	16.255
367.43	16.247
367.79	15.830
368.15	16.009
368.51	15.878
368.87	15.937
369.23	15.812
369.59	17.055
369.95	16.276
370.31	16.691
370.67	15.970
371.03	16.878
371.39	15.317
371.75	16.337
372.11	16.690
372.47	15.680
372.83	16.466
373.19	16.262
373.55	18.051
373.91	16.487
374.27	16.230
374.63	17.373
374.99	16.667
375.35	17.270
375.71	18.252
376.07	16.292
376.42	17.075
376.78	17.584
377.14	17.739
377.50	17.264
377.86	17.336
378.22	18.443
378.58	18.205
378.94	18.084
379.30	18.528
379.66	18.683
380.02	17.719
380.38	17.164
380.74	17.834
381.09	18.650
381.45	17.615
381.81	18.754
382.17	19.480
382.53	19.176
382.89	18.393
383.25	18.606
383.61	19.268
383.97	19.238
384.32	18.637
384.68	19.257
385.04	18.505
385.40	19.166
385.76	20.126
386.12	20.310
386.48	20.051
386.83	20.101
387.19	19.231
387.55	20.452
387.91	20.293
388.27	19.841
388.62	20.768
388.98	20.626
389.34	20.300
389.70	21.131
390.06	20.327
390.42	21.179
390.77	20.471
391.13	20.303
391.49	20.763
391.85	20.923
392.20	20.841
392.56	20.979
392.92	20.552
393.28	21.698
393.64	21.502
393.99	21.881
394.35	20.430
394.71	21.648
395.07	21.056
395.42	20.522
395.78	22.410
396.14	21.122
396.50	21.623
396.85	21.185
397.21	21.805
397.57	21.944
397.92	20.971
398.28	21.609
398.64	20.301
399.00	21.896
399.35	20.880
399.71	21.424
400.07	22.249
400.42	22.277
400.78	22.413
401.14	22.202
401.49	22.394
401.85	21.511
402.21	21.988
402.57	21.812
402.92	21.393
403.28	21.742
403.63	22.005
403.99	21.939
404.35	21.861
404.70	21.310
405.06	22.209
405.42	21.753
405.77	21.267
406.13	21.944
406.49	22.025
406.84	21.577
407.20	22.155
407.55	21.700
407.91	20.922
408.27	21.670
408.62	22.831
408.98	22.304
409.34	22.986
409.69	21.253
410.05	21.798
410.40	22.160
410.76	21.834
411.11	21.500
411.47	22.485
411.83	21.720
412.18	21.815
412.54	21.536
412.89	21.367
413.25	22.443
413.60	22.609
413.96	21.411
414.31	22.500
414.67	22.001
415.03	21.638
415.38	21.736
415.74	22.345
416.09	22.208
416.45	22.147
416.80	21.811
417.16	22.859
417.51	22.985
417.87	21.904
418.22	22.668
418.58	22.809
418.93	22.821
419.29	21.831
419.64	22.553
420.00	22.859
420.35	21.910
420.71	22.783
421.06	21.915
421.42	23.257
421.77	22.890
422.12	22.815
422.48	22.902
422.83	22.796
423.19	22.856
423.54	23.398
423.90	22.733
424.25	23.249
424.61	24.419
424.96	23.345
425.31	23.339
425.67	22.594
426.02	24.264
426.38	23.982
426.73	23.729
427.09	23.291
427.44	23.294
427.79	23.807
428.15	23.847
428.50	23.864
428.85	23.280
429.21	23.995
429.56	25.121
429.92	22.804
430.27	23.258
430.62	23.105
430.98	23.779
431.33	24.658
431.68	23.653
432.04	24.595
432.39	23.446
432.74	24.354
433.10	24.828
433.45	24.074
433.80	24.202
434.16	23.601
434.51	24.892
434.86	24.739
435.22	23.836
435.57	25.203
435.92	24.970
436.28	24.031
436.63	24.187
436.98	25.029
437.34	24.682
437.69	25.164
438.04	24.900
438.39	24.557
438.75	25.076
439.10	24.788
439.45	25.198
439.81	24.648
440.16	26.069
440.51	24.836
440.86	25.801
441.22	25.509
441.57	25.276
441.92	26.128
442.27	25.166
442.63	26.124
442.98	25.847
443.33	25.320
443.68	26.101
444.03	25.782
444.39	25.529
444.74	26.700
445.09	25.111
445.44	26.496
445.79	26.147
446.15	25.661
446.50	24.404
446.85	25.399
447.20	25.860
447.55	26.004
447.91	26.622
448.26	26.466
448.61	26.540
448.96	25.932
449.31	26.705
449.66	27.003
450.02	26.127
450.37	25.963
450.72	26.346
451.07	26.709
451.42	25.780
451.77	25.859
452.12	25.718
452.47	26.529
452.83	27.150
453.18	25.490
453.53	25.790
453.88	25.987
454.23	26.429
454.58	26.134
454.93	26.353
455.28	24.698
455.63	27.402
455.98	27.060
456.34	27.522
456.69	27.573
457.04	26.654
457.39	26.853
457.74	26.904
458.09	26.192
458.44	26.448
458.79	26.218
459.14	27.174
459.49	25.493
459.84	26.904
460.19	26.820
460.54	27.689
460.89	26.591
461.24	26.460
461.59	26.544
461.94	26.164
462.29	27.201
462.64	26.777
462.99	27.150
463.34	25.452
463.69	26.448
464.04	26.998
464.39	27.047
464.74	27.178
465.09	26.513
465.44	26.082
465.79	26.304
466.14	27.594
466.49	27.372
466.84	27.127
467.19	27.347
467.54	28.097
467.89	27.353
468.24	27.007
468.59	27.492
468.94	27.111
469.29	26.951
469.64	27.820
469.99	28.101
470.34	26.212
470.68	27.517
471.03	26.893
471.38	27.746
471.73	28.221
472.08	27.205
472.43	26.980
472.78	25.840
473.13	27.551
473.48	27.752
473.83	27.895
474.17	28.497
474.52	27.250
474.87	26.364
475.22	27.395
475.57	26.652
475.92	27.921
476.27	27.765
476.61	27.315
476.96	27.217
477.31	27.853
477.66	27.303
478.01	26.839
478.36	27.179
478.70	27.243
479.05	27.692
479.40	27.239
479.75	26.173
480.10	27.291
480.45	26.950
480.79	28.147
481.14	27.357
481.49	26.502
481.84	27.461
482.19	27.268
482.53	27.962
482.88	27.637
483.23	27.255
483.58	27.689
483.92	26.573
484.27	27.119
484.62	27.028
484.97	27.114
485.31	27.276
485.66	26.330
486.01	26.753
486.36	26.456
486.70	26.919
487.05	27.072
487.40	26.861
487.75	26.930
488.09	27.379
488.44	27.442
488.79	28.465
489.13	27.324
489.48	27.405
489.83	28.206
490.17	26.921
490.52	26.882
490.87	26.839
491.22	28.223
491.56	27.562
491.91	27.294
492.26	28.245
492.60	27.303
492.95	28.628
493.30	27.308
493.64	27.849
493.99	27.488
494.34	27.136
494.68	27.333
495.03	27.153
495.37	27.282
495.72	27.865
496.07	28.537
496.41	27.170
496.76	27.959
497.11	27.387
497.45	27.399
497.80	28.052
498.14	27.670
498.49	27.933
498.84	27.745
499.18	27.861
499.53	28.075
499.87	27.237
500.22	27.745
500.56	28.240
500.91	27.460
501.26	27.731
501.60	27.791
501.95	28.530
502.29	28.523
502.64	28.571
502.98	28.022
503.33	27.329
503.67	27.566
504.02	28.592
504.36	28.204
504.71	27.626
505.06	28.384
505.40	28.274
505.75	28.041
506.09	28.535
506.44	28.953
506.78	28.469
507.13	28.697
507.47	28.251
507.82	28.045
508.16	28.737
508.51	28.646
508.85	29.670
509.19	27.621
509.54	28.150
509.88	28.533
510.23	28.994
510.57	29.503
510.92	28.038
511.26	28.205
511.61	29.098
511.95	28.822
512.30	28.271
512.64	29.048
512.98	28.636
513.33	29.379
513.67	28.539
514.02	29.634
514.36	29.143
514.70	30.420
515.05	30.494
515.39	28.453
515.74	31.497
516.08	29.767
516.42	30.448
516.77	29.608
517.11	29.911
517.46	30.281
517.80	30.393
518.14	29.639
518.49	29.267
518.83	29.465
519.17	29.412
519.52	29.189
519.86	29.172
520.20	29.830
520.55	29.956
520.89	30.301
521.23	29.702
521.58	30.221
521.92	29.615
522.26	30.124
522.61	30.325
522.95	31.192
523.29	30.877
523.64	30.241
523.98	30.266
524.32	28.866
524.66	30.154
525.01	31.104
525.35	30.266
525.69	29.966
526.04	29.299
526.38	31.323
526.72	29.039
527.06	30.545
527.41	29.617
527.75	29.960
528.09	30.100
528.43	31.668
528.78	29.241
529.12	30.323
529.46	29.630
529.80	30.399
530.15	31.551
530.49	31.044
530.83	31.464
531.17	30.222
531.51	31.053
531.86	30.048
532.20	30.063
532.54	31.110
532.88	31.006
533.22	31.452
533.57	30.079
533.91	30.548
534.25	31.445
534.59	30.404
534.93	29.641
535.27	29.124
535.62	30.136
535.96	30.137
536.30	30.475
536.64	31.771
536.98	31.289
537.32	31.152
537.66	31.417
538.01	31.399
538.35	30.444
538.69	31.491
539.03	30.144
539.37	30.013
539.71	31.152
540.05	30.754
540.39	32.202
540.73	31.869
541.07	31.768
541.42	30.981
541.76	31.590
542.10	31.315
542.44	31.411
542.78	29.938
543.12	30.014
543.46	31.572
543.80	31.367
544.14	31.108
544.48	31.113
544.82	32.126
545.16	31.011
545.50	32.109
545.84	31.586
546.18	32.128
546.52	31.074
546.86	30.554
547.20	31.259
547.54	29.965
547.88	30.095
548.22	29.389
548.56	29.485
548.90	32.075
549.24	30.854
549.58	31.664
549.92	31.094
550.26	32.015
550.60	31.673
550.94	31.217
551.28	32.767
551.62	31.769
551.96	30.752
552.30	30.556
552.64	31.312
552.98	31.575
553.32	31.384
553.66	31.495
554.00	31.606
554.34	31.832
554.68	31.563
555.02	32.068
555.36	31.713
555.69	31.136
556.03	31.406
556.37	30.534
556.71	31.841
557.05	32.886
557.39	29.814
557.73	32.309
558.07	33.333
558.41	30.934
558.75	31.021
559.08	32.151
559.42	30.556
559.76	32.826
560.10	32.034
560.44	31.050
560.78	31.818
561.12	32.299
561.45	32.396
561.79	32.353
562.13	31.725
562.47	31.655
562.81	31.772
563.15	32.299
563.48	31.895
563.82	31.709
564.16	32.173
564.50	32.027
564.84	32.865
565.17	31.120
565.51	31.694
565.85	32.305
566.19	31.432
566.52	31.702
566.86	32.905
567.20	31.009
567.54	32.178
567.88	32.572
568.21	31.900
568.55	31.522
568.89	31.520
569.23	31.343
569.56	31.217
569.90	31.263
570.24	31.001
570.57	31.200
570.91	30.986
571.25	30.286
571.59	30.209
571.92	29.719
572.26	29.982
572.60	30.233
572.93	30.656
573.27	30.219
573.61	30.459
573.95	30.120
574.28	30.350
574.62	30.003
574.96	29.943
575.29	29.430
575.63	28.919
575.97	29.818
576.30	29.688
576.64	30.040
576.98	30.399
577.31	30.769
577.65	30.092
577.98	30.325
578.32	29.718
578.66	29.723
578.99	29.621
579.33	30.052
579.67	29.624
580.00	30.000
580.34	29.925
580.67	29.773
581.01	30.379
581.35	30.362
581.68	29.935
582.02	29.877
582.35	29.712
582.69	30.308
583.02	30.100
583.36	30.565
583.70	30.815
584.03	30.942
584.37	31.084
584.70	30.577
585.04	30.415
585.37	30.786
585.71	29.943
586.04	30.736
586.38	30.595
586.72	30.473
587.05	30.589
587.39	31.004
587.72	30.782
588.06	30.667
588.39	30.504
588.73	31.013
589.06	31.833
589.40	31.766
589.73	31.325
590.07	31.986
590.40	31.269
590.73	32.084
591.07	31.340
591.40	31.790
591.74	31.403
592.07	31.586
592.41	32.553
592.74	31.820
593.08	31.191
593.41	31.137
593.75	30.422
594.08	30.724
594.41	30.313
594.75	31.069
595.08	31.442
595.42	31.579
595.75	31.281
596.09	31.353
596.42	31.707
596.75	32.060
597.09	32.118
597.42	31.120
597.75	32.524
598.09	31.462
598.42	31.859
598.76	30.974
599.09	31.210
599.42	30.731
599.76	32.017
600.09	31.259
600.42	30.857
600.76	30.163
601.09	31.183
601.42	31.375
601.76	31.441
602.09	31.848
602.42	31.887
602.76	31.579
603.09	32.309
603.42	33.110
603.76	31.855
604.09	31.227
604.42	31.895
604.76	32.221
605.09	32.267
605.42	31.828
605.75	32.093
606.09	31.338
606.42	32.110
606.75	31.645
607.09	31.780
607.42	31.546
607.75	31.261
608.08	31.581
608.42	31.704
608.75	32.482
609.08	32.985
609.41	32.081
609.75	32.560
610.08	32.801
610.41	31.787
610.74	32.277
611.07	32.248
611.41	31.967
611.74	33.582
612.07	32.762
612.40	31.510
612.73	32.373
613.07	32.340
613.40	32.987
613.73	31.617
614.06	32.276
614.39	33.841
614.72	31.877
615.06	32.123
615.39	32.697
615.72	31.755
616.05	33.575
616.38	31.567
616.71	32.477
617.05	32.551
617.38	33.061
617.71	32.390
618.04	33.206
618.37	33.228
618.70	33.531
619.03	34.514
619.36	32.779
619.69	34.799
620.03	34.770
620.36	34.192
620.69	33.762
621.02	34.174
621.35	35.519
621.68	34.694
622.01	33.833
622.34	34.717
622.67	34.858
623.00	33.461
623.33	34.223
623.66	33.508
623.99	33.737
624.32	33.840
624.65	34.060
624.99	34.236
625.32	32.980
625.65	34.878
625.98	34.569
626.31	32.918
626.64	34.142
626.97	33.159
627.30	34.413
627.63	34.055
627.96	34.412
628.29	34.690
628.62	34.612
628.95	35.471
629.28	34.879
629.61	34.895
629.94	36.168
630.26	34.585
630.59	35.588
630.92	36.821
631.25	36.308
631.58	35.793
631.91	33.333
632.24	36.583
632.57	36.250
632.90	37.129
633.23	36.588
633.56	36.524
633.89	35.388
634.22	34.938
634.55	37.484
634.88	35.760
635.20	36.410
635.53	36.267
635.86	34.980
636.19	39.198
636.52	36.097
636.85	35.980
637.18	34.088
637.51	36.226
637.83	35.611
638.16	36.698
638.49	36.104
638.82	37.237
