SpectraSuite Data File
++++++++++++++++++++++++++++++++++++
Date: Fri May 15 20:07:38 PDT 2015
User: schluterlab
Dark Spectrum Present: Yes
Reference Spectrum Present: Yes
Number of Sampled Component Spectra: 1
Spectrometers: USB2E3373
Integration Time (usec): 3000 (USB2E3373)
Spectra Averaged: 3 (USB2E3373)
Boxcar Smoothing: 0 (USB2E3373)
Correct for Electrical Dark: No (USB2E3373)
Strobe/Lamp Enabled: No (USB2E3373)
Correct for Detector Non-linearity: No (USB2E3373)
Correct for Stray Light: No (USB2E3373)
Number of Pixels in Processed Spectrum: 2048
>>>>>Begin Processed Spectral Data<<<<<
178.53	0.000
178.91	0.000
179.29	75.000
179.67	-450.000
180.04	-14.286
180.42	-175.000
180.80	400.000
181.18	-333.333
181.56	-100.000
181.94	100.000
182.31	100.000
182.69	20.000
183.07	-266.667
183.45	0.000
183.83	116.667
184.20	-63.636
184.58	22.222
184.96	-25.000
185.34	-266.667
185.72	350.000
186.09	-7.692
186.47	100.000
186.85	100.000
187.23	22.222
187.61	200.000
187.98	66.667
188.36	100.000
188.74	-200.000
189.12	17.647
189.49	44.444
189.87	0.000
190.25	78.571
190.63	450.000
191.00	-500.000
191.38	-5.263
191.76	400.000
192.14	100.000
192.51	350.000
192.89	22.222
193.27	0.000
193.65	50.000
194.02	118.182
194.40	90.000
194.78	-137.500
195.15	33.333
195.53	-125.000
195.91	225.000
196.29	125.000
196.66	107.692
197.04	171.429
197.42	11.111
197.79	-333.333
198.17	-84.615
198.55	1600.000
198.92	-266.667
199.30	-200.000
199.68	-120.000
200.05	0.000
200.43	0.000
200.81	0.000
201.18	-400.000
201.56	1400.000
201.94	-100.000
202.31	66.667
202.69	-320.000
203.07	100.000
203.44	600.000
203.82	0.000
204.19	-28.571
204.57	-233.333
204.95	137.500
205.32	30.000
205.70	157.143
206.08	25.000
206.45	211.111
206.83	71.429
207.20	-14.286
207.58	900.000
207.96	100.000
208.33	-60.000
208.71	-175.000
209.08	-216.667
209.46	-100.000
209.84	-20.000
210.21	-1100.000
210.59	0.000
210.96	-116.667
211.34	50.000
211.71	33.333
212.09	-157.143
212.46	-2000.000
212.84	0.000
213.22	90.000
213.59	-0.000
213.97	38.462
214.34	-36.364
214.72	-133.333
215.09	275.000
215.47	7.692
215.84	-9.091
216.22	-133.333
216.59	37.500
216.97	100.000
217.34	-225.000
217.72	-220.000
218.09	50.000
218.47	62.500
218.84	-1000.000
219.22	-66.667
219.59	-20.000
219.97	100.000
220.34	225.000
220.72	114.286
221.09	-225.000
221.47	-100.000
221.84	-450.000
222.22	-450.000
222.59	27.273
222.97	66.667
223.34	-66.667
223.72	14.286
224.09	42.857
224.46	-10.714
224.84	500.000
225.21	-10.000
225.59	26.667
225.96	-200.000
226.34	350.000
226.71	-28.571
227.08	0.000
227.46	125.000
227.83	-550.000
228.21	55.556
228.58	-90.909
228.95	50.000
229.33	30.000
229.70	18.750
230.08	12.500
230.45	28.571
230.82	42.857
231.20	-40.000
231.57	7.143
231.95	-114.286
232.32	0.000
232.69	28.571
233.07	-66.667
233.44	-220.000
233.81	-70.000
234.19	11.111
234.56	64.706
234.93	800.000
235.31	150.000
235.68	-360.000
236.05	-53.846
236.43	-20.000
236.80	-70.588
237.17	34.375
237.55	-35.000
237.92	-25.926
238.29	5.556
238.67	-13.333
239.04	2.941
239.41	-4.878
239.79	-6.667
240.16	9.756
240.53	-7.895
240.91	-2.174
241.28	4.762
241.65	7.143
242.02	10.959
242.40	1.667
242.77	6.780
243.14	-3.030
243.51	1.250
243.89	19.540
244.26	4.598
244.63	14.286
245.00	13.402
245.38	7.216
245.75	-8.989
246.12	-0.862
246.49	4.959
246.87	5.769
247.24	-3.361
247.61	-0.877
247.98	-1.626
248.36	3.750
248.73	-3.289
249.10	5.195
249.47	3.165
249.84	4.575
250.22	-4.118
250.59	-4.575
250.96	8.451
251.33	-1.744
251.70	2.353
252.08	-1.015
252.45	7.426
252.82	-2.010
253.19	4.608
253.56	-2.336
253.94	6.757
254.31	3.913
254.68	-2.632
255.05	2.756
255.42	5.240
255.79	5.792
256.16	5.837
256.54	5.597
256.91	1.521
257.28	3.346
257.65	0.749
258.02	3.546
258.39	3.030
258.76	5.495
259.14	5.980
259.51	5.502
259.88	2.405
260.25	3.268
260.62	1.736
260.99	-1.695
261.36	-0.342
261.73	2.848
262.10	3.951
262.47	4.294
262.85	4.075
263.22	6.154
263.59	6.854
263.96	5.280
264.33	3.333
264.70	3.571
265.07	0.298
265.44	5.382
265.81	2.542
266.18	3.552
266.55	6.684
266.92	4.145
267.29	5.483
267.66	1.790
268.03	2.356
268.40	3.916
268.77	6.417
269.14	4.796
269.51	4.884
269.88	3.242
270.25	2.041
270.62	-0.244
270.99	2.302
271.36	3.667
271.73	4.225
272.10	1.946
272.47	4.728
272.84	2.475
273.21	2.784
273.58	4.578
273.95	4.348
274.32	4.619
274.69	2.036
275.06	3.348
275.43	2.494
275.80	1.325
276.17	1.609
276.54	4.069
276.91	6.579
277.28	1.528
277.65	4.339
278.02	2.979
278.39	0.875
278.76	2.725
279.13	1.452
279.50	3.151
279.87	4.320
280.23	2.151
280.60	4.288
280.97	3.030
281.34	1.923
281.71	4.312
282.08	1.022
282.45	2.153
282.82	3.089
283.19	4.062
283.56	4.239
283.92	0.949
284.29	1.731
284.66	3.295
285.03	2.554
285.40	3.781
285.77	1.406
286.14	2.888
286.51	7.196
286.87	2.742
287.24	2.394
287.61	1.587
287.98	6.491
288.35	2.253
288.72	3.503
289.08	1.389
289.45	3.866
289.82	2.448
290.19	1.706
290.56	1.201
290.93	2.020
291.29	3.082
291.66	3.307
292.03	1.754
292.40	2.258
292.77	1.116
293.13	0.162
293.50	3.642
293.87	2.901
294.24	1.236
294.60	2.534
294.97	3.125
295.34	1.687
295.71	0.894
296.08	2.691
296.44	1.422
296.81	1.806
297.18	2.464
297.55	3.117
297.91	2.329
298.28	4.749
298.65	3.528
299.02	3.235
299.38	0.547
299.75	1.931
300.12	3.010
300.48	1.318
300.85	3.295
301.22	1.558
301.59	1.053
301.95	4.051
302.32	2.205
302.69	1.244
303.05	2.599
303.42	2.740
303.79	3.037
304.15	3.465
304.52	1.546
304.89	2.105
305.25	1.332
305.62	2.217
305.99	2.690
306.35	1.734
306.72	1.687
307.09	2.851
307.45	3.789
307.82	1.273
308.19	3.368
308.55	2.944
308.92	2.070
309.29	1.564
309.65	1.722
310.02	1.430
310.38	2.744
310.75	1.858
311.12	2.153
311.48	2.015
311.85	2.408
312.22	1.160
312.58	2.229
312.95	1.387
313.31	1.760
313.68	1.466
314.05	2.449
314.41	3.711
314.78	2.784
315.14	2.569
315.51	2.692
315.87	1.742
316.24	4.449
316.61	3.248
316.97	3.671
317.34	2.832
317.70	2.486
318.07	3.077
318.43	2.255
318.80	3.314
319.16	3.418
319.53	5.128
319.89	4.035
320.26	4.555
320.62	4.012
320.99	3.340
321.35	4.419
321.72	4.465
322.08	5.035
322.45	5.279
322.81	5.599
323.18	4.809
323.54	4.923
323.91	5.258
324.27	6.641
324.64	6.929
325.00	7.299
325.37	8.632
325.73	6.709
326.10	7.629
326.46	9.238
326.83	8.311
327.19	8.457
327.56	8.167
327.92	9.067
328.29	8.214
328.65	9.623
329.01	9.467
329.38	10.968
329.74	9.065
330.11	10.565
330.47	11.132
330.84	9.904
331.20	11.882
331.56	11.111
331.93	11.416
332.29	12.832
332.66	11.403
333.02	10.502
333.38	11.182
333.75	12.088
334.11	10.922
334.48	11.786
334.84	11.996
335.20	11.253
335.57	10.607
335.93	11.653
336.29	11.694
336.66	10.627
337.02	11.338
337.38	11.019
337.75	11.182
338.11	11.812
338.47	12.135
338.84	12.015
339.20	11.609
339.56	11.651
339.93	12.802
340.29	13.486
340.65	12.903
341.02	11.613
341.38	12.920
341.74	11.484
342.11	11.612
342.47	11.032
342.83	12.716
343.20	10.976
343.56	12.870
343.92	11.780
344.28	14.347
344.65	11.485
345.01	11.236
345.37	11.354
345.73	12.803
346.10	12.166
346.46	11.690
346.82	12.439
347.19	12.552
347.55	11.779
347.91	11.812
348.27	12.126
348.63	11.925
349.00	11.157
349.36	12.635
349.72	12.272
350.08	12.377
350.45	12.769
350.81	11.296
351.17	12.052
351.53	12.653
351.89	11.148
352.26	11.840
352.62	12.258
352.98	12.369
353.34	11.514
353.70	13.269
354.07	12.258
354.43	12.010
354.79	11.974
355.15	12.778
355.51	12.658
355.87	11.731
356.24	10.767
356.60	11.722
356.96	12.857
357.32	12.220
357.68	11.572
358.04	11.712
358.40	12.781
358.77	12.759
359.13	12.410
359.49	12.327
359.85	12.793
360.21	11.802
360.57	12.318
360.93	11.800
361.29	11.329
361.66	13.401
362.02	12.879
362.38	13.404
362.74	11.506
363.10	12.641
363.46	12.380
363.82	13.674
364.18	12.251
364.54	12.500
364.90	13.118
365.26	11.718
365.62	12.993
365.98	12.390
366.35	13.401
366.71	12.860
367.07	12.192
367.43	12.797
367.79	12.297
368.15	13.065
368.51	12.964
368.87	12.706
369.23	13.502
369.59	12.172
369.95	12.903
370.31	12.717
370.67	12.761
371.03	12.771
371.39	12.691
371.75	12.967
372.11	13.338
372.47	12.944
372.83	13.627
373.19	14.337
373.55	12.635
373.91	13.751
374.27	14.458
374.63	14.142
374.99	14.043
375.35	14.485
375.71	14.056
376.07	13.413
376.42	14.694
376.78	14.094
377.14	14.421
377.50	14.143
377.86	14.592
378.22	14.167
378.58	14.744
378.94	13.800
379.30	14.223
379.66	14.734
380.02	14.531
380.38	14.181
380.74	14.243
381.09	15.031
381.45	14.251
381.81	14.867
382.17	14.784
382.53	15.116
382.89	16.008
383.25	14.499
383.61	15.244
383.97	14.349
384.32	14.321
384.68	15.232
385.04	15.196
385.40	15.370
385.76	16.289
386.12	15.912
386.48	16.922
386.83	14.965
387.19	15.568
387.55	16.248
387.91	15.709
388.27	15.751
388.62	15.293
388.98	16.329
389.34	15.928
389.70	15.848
390.06	16.048
390.42	15.933
390.77	15.566
391.13	15.574
391.49	15.977
391.85	15.984
392.20	16.886
392.56	16.147
392.92	15.972
393.28	16.568
393.64	17.117
393.99	16.865
394.35	15.180
394.71	16.731
395.07	16.153
395.42	16.758
395.78	16.547
396.14	17.024
396.50	16.867
396.85	16.291
397.21	16.228
397.57	15.674
397.92	17.555
398.28	17.011
398.64	15.361
399.00	16.366
399.35	16.084
399.71	17.174
400.07	16.808
400.42	16.401
400.78	17.208
401.14	16.334
401.49	17.451
401.85	16.392
402.21	17.530
402.57	16.437
402.92	16.060
403.28	16.980
403.63	16.393
403.99	15.625
404.35	15.928
404.70	15.833
405.06	15.981
405.42	16.221
405.77	15.805
406.13	16.182
406.49	15.571
406.84	16.687
407.20	16.255
407.55	15.454
407.91	15.775
408.27	15.551
408.62	16.308
408.98	16.328
409.34	16.357
409.69	15.568
410.05	16.256
410.40	16.358
410.76	15.983
411.11	16.187
411.47	16.239
411.83	15.191
412.18	15.637
412.54	15.356
412.89	15.764
413.25	15.042
413.60	16.149
413.96	15.767
414.31	15.915
414.67	15.908
415.03	15.779
415.38	15.209
415.74	15.505
416.09	16.264
416.45	15.665
416.80	15.730
417.16	16.091
417.51	15.989
417.87	16.232
418.22	15.933
418.58	15.786
418.93	16.991
419.29	15.813
419.64	15.230
420.00	16.499
420.35	15.403
420.71	16.646
421.06	16.145
421.42	16.286
421.77	16.069
422.12	15.834
422.48	15.864
422.83	15.255
423.19	16.479
423.54	15.461
423.90	16.019
424.25	16.303
424.61	17.136
424.96	16.434
425.31	15.887
425.67	16.725
426.02	16.784
426.38	16.218
426.73	16.707
427.09	17.532
427.44	16.882
427.79	16.500
428.15	17.112
428.50	16.657
428.85	15.541
429.21	16.638
429.56	16.819
429.92	16.384
430.27	16.591
430.62	16.048
430.98	16.136
431.33	16.562
431.68	16.745
432.04	16.825
432.39	17.114
432.74	16.416
433.10	16.954
433.45	16.547
433.80	17.005
434.16	16.510
434.51	16.505
434.86	16.899
435.22	16.713
435.57	16.906
435.92	17.246
436.28	16.577
436.63	16.315
436.98	16.802
437.34	16.999
437.69	16.696
438.04	16.467
438.39	16.371
438.75	17.183
439.10	16.921
439.45	17.468
439.81	16.820
440.16	16.983
440.51	17.552
440.86	18.066
441.22	17.647
441.57	16.722
441.92	16.999
442.27	16.962
442.63	17.880
442.98	17.691
443.33	16.138
443.68	17.029
444.03	17.884
444.39	17.118
444.74	17.503
445.09	17.261
445.44	17.493
445.79	17.690
446.15	17.896
446.50	16.916
446.85	17.056
447.20	17.153
447.55	18.415
447.91	17.710
448.26	17.814
448.61	17.559
448.96	17.785
449.31	16.532
449.66	17.770
450.02	16.999
450.37	17.309
450.72	17.010
451.07	17.785
451.42	16.792
451.77	17.420
452.12	17.344
452.47	16.999
452.83	17.079
453.18	18.343
453.53	17.509
453.88	17.851
454.23	17.640
454.58	18.010
454.93	18.428
455.28	17.333
455.63	18.103
455.98	17.498
456.34	18.199
456.69	18.234
457.04	18.084
457.39	17.679
457.74	17.836
458.09	16.363
458.44	16.676
458.79	17.255
459.14	18.078
459.49	18.030
459.84	18.331
460.19	18.083
460.54	18.215
460.89	18.011
461.24	18.944
461.59	17.696
461.94	17.170
462.29	18.396
462.64	18.405
462.99	18.280
463.34	17.455
463.69	17.503
464.04	17.373
464.39	17.526
464.74	17.853
465.09	18.590
465.44	18.292
465.79	16.893
466.14	17.788
466.49	17.711
466.84	17.430
467.19	17.710
467.54	17.369
467.89	17.119
468.24	17.153
468.59	18.349
468.94	18.222
469.29	17.967
469.64	18.455
469.99	17.940
470.34	16.860
470.68	17.823
471.03	18.754
471.38	18.188
471.73	17.507
472.08	17.368
472.43	18.121
472.78	16.107
473.13	18.367
473.48	17.720
473.83	17.372
474.17	18.135
474.52	18.379
474.87	18.121
475.22	17.755
475.57	17.787
475.92	17.444
476.27	18.626
476.61	18.113
476.96	17.457
477.31	18.064
477.66	17.697
478.01	17.967
478.36	17.320
478.70	18.271
479.05	17.582
479.40	17.435
479.75	17.414
480.10	18.024
480.45	17.750
480.79	18.228
481.14	18.443
481.49	17.241
481.84	17.423
482.19	17.540
482.53	17.746
482.88	17.613
483.23	17.562
483.58	17.500
483.92	17.473
484.27	17.548
484.62	17.795
484.97	17.206
485.31	17.269
485.66	17.088
486.01	17.344
486.36	17.159
486.70	17.477
487.05	17.757
487.40	17.968
487.75	17.915
488.09	17.553
488.44	17.297
488.79	17.594
489.13	17.869
489.48	17.743
489.83	17.175
490.17	17.079
490.52	18.291
490.87	17.770
491.22	17.670
491.56	17.979
491.91	17.113
492.26	17.793
492.60	18.474
492.95	18.052
493.30	17.440
493.64	17.583
493.99	17.246
494.34	17.039
494.68	18.238
495.03	16.886
495.37	18.008
495.72	17.264
496.07	17.951
496.41	17.972
496.76	17.688
497.11	17.187
497.45	17.757
497.80	17.457
498.14	17.486
498.49	17.826
498.84	17.615
499.18	17.219
499.53	17.609
499.87	17.023
500.22	17.755
500.56	17.095
500.91	17.620
501.26	17.350
501.60	17.216
501.95	17.370
502.29	17.530
502.64	17.761
502.98	17.464
503.33	17.195
503.67	16.964
504.02	17.644
504.36	17.615
504.71	17.576
505.06	17.464
505.40	17.919
505.75	18.093
506.09	17.081
506.44	18.275
506.78	17.857
507.13	17.839
507.47	16.710
507.82	17.041
508.16	17.063
508.51	17.524
508.85	17.373
509.19	16.817
509.54	17.909
509.88	17.530
510.23	17.106
510.57	18.119
510.92	17.591
511.26	17.949
511.61	17.712
511.95	17.808
512.30	17.461
512.64	17.474
512.98	16.901
513.33	17.515
513.67	17.169
514.02	18.707
514.36	18.057
514.70	18.182
515.05	18.273
515.39	16.765
515.74	17.605
516.08	17.872
516.42	17.138
516.77	18.607
517.11	16.855
517.46	18.133
517.80	18.594
518.14	18.371
518.49	17.548
518.83	17.679
519.17	16.859
519.52	17.348
519.86	16.747
520.20	17.618
520.55	16.886
520.89	17.880
521.23	17.859
521.58	17.603
521.92	18.333
522.26	18.282
522.61	17.597
522.95	18.477
523.29	17.726
523.64	17.471
523.98	17.563
524.32	16.946
524.66	17.670
525.01	18.312
525.35	17.952
525.69	17.374
526.04	17.196
526.38	19.066
526.72	17.005
527.06	17.056
527.41	17.612
527.75	16.756
528.09	16.944
528.43	18.366
528.78	17.162
529.12	17.935
529.46	17.284
529.80	17.416
530.15	18.350
530.49	17.710
530.83	18.057
531.17	17.260
531.51	18.331
531.86	17.471
532.20	16.910
532.54	18.039
532.88	17.522
533.22	18.145
533.57	17.366
533.91	17.820
534.25	18.099
534.59	17.062
534.93	16.992
535.27	17.069
535.62	17.434
535.96	17.482
536.30	17.282
536.64	17.988
536.98	17.491
537.32	17.781
537.66	18.583
538.01	18.252
538.35	17.614
538.69	16.911
539.03	16.610
539.37	17.295
539.71	18.064
540.05	17.108
540.39	17.798
540.73	17.643
541.07	16.851
541.42	18.414
541.76	17.825
542.10	17.756
542.44	16.609
542.78	16.311
543.12	16.827
543.46	17.594
543.80	16.863
544.14	16.021
544.48	16.522
544.82	17.703
545.16	17.896
545.50	18.224
545.84	17.422
546.18	16.667
546.52	17.159
546.86	17.182
547.20	17.239
547.54	16.396
547.88	17.663
548.22	17.817
548.56	17.348
548.90	17.992
549.24	16.322
549.58	17.278
549.92	16.369
550.26	16.777
550.60	16.952
550.94	18.895
551.28	17.311
551.62	18.077
551.96	16.316
552.30	17.471
552.64	17.137
552.98	17.722
553.32	17.261
553.66	16.763
554.00	17.153
554.34	17.430
554.68	16.814
555.02	17.411
555.36	17.053
555.69	16.923
556.03	15.275
556.37	16.370
556.71	17.690
557.05	17.524
557.39	15.762
557.73	16.942
558.07	17.798
558.41	17.228
558.75	17.381
559.08	17.100
559.42	16.270
559.76	17.294
560.10	16.743
560.44	16.530
560.78	17.343
561.12	16.573
561.45	17.358
561.79	17.297
562.13	17.033
562.47	16.187
562.81	17.291
563.15	17.348
563.48	17.044
563.82	17.502
564.16	16.922
564.50	17.838
564.84	17.604
565.17	16.231
565.51	18.374
565.85	16.941
566.19	17.971
566.52	16.823
566.86	17.995
567.20	16.687
567.54	17.457
567.88	17.458
568.21	17.364
568.55	16.848
568.89	16.581
569.23	16.996
569.56	16.375
569.90	16.809
570.24	17.119
570.57	16.509
570.91	16.905
571.25	16.245
571.59	16.412
571.92	15.793
572.26	16.606
572.60	16.558
572.93	16.693
573.27	15.862
573.61	16.289
573.95	16.248
574.28	16.711
574.62	16.095
574.96	16.330
575.29	16.406
575.63	15.626
575.97	16.156
576.30	16.053
576.64	15.762
576.98	16.268
577.31	16.540
577.65	16.124
577.98	16.040
578.32	16.038
578.66	15.603
578.99	16.144
579.33	16.313
579.67	16.326
580.00	16.025
580.34	15.896
580.67	16.320
581.01	16.162
581.35	16.150
581.68	16.099
582.02	15.985
582.35	15.933
582.69	16.284
583.02	15.873
583.36	16.087
583.70	16.537
584.03	16.041
584.37	16.488
584.70	15.962
585.04	15.777
585.37	16.069
585.71	16.292
586.04	16.036
586.38	15.764
586.72	16.557
587.05	16.320
587.39	16.299
587.72	16.484
588.06	16.413
588.39	16.235
588.73	16.331
589.06	16.504
589.40	16.557
589.73	16.612
590.07	16.163
590.40	16.912
590.73	16.722
591.07	16.243
591.40	16.429
591.74	16.833
592.07	16.698
592.41	16.740
592.74	16.049
593.08	15.788
593.41	16.112
593.75	15.734
594.08	15.963
594.41	16.412
594.75	16.374
595.08	15.929
595.42	16.378
595.75	15.734
596.09	16.771
596.42	16.205
596.75	16.785
597.09	15.854
597.42	16.034
597.75	17.224
598.09	15.844
598.42	16.155
598.76	16.431
599.09	15.745
599.42	15.650
599.76	16.215
600.09	15.913
600.42	16.490
600.76	15.676
601.09	15.496
601.42	16.138
601.76	15.959
602.09	15.635
602.42	16.849
602.76	16.171
603.09	15.988
603.42	16.597
603.76	16.089
604.09	15.877
604.42	16.286
604.76	16.733
605.09	15.905
605.42	15.847
605.75	15.806
606.09	16.093
606.42	15.638
606.75	16.667
607.09	16.703
607.42	15.995
607.75	16.075
608.08	15.948
608.42	16.217
608.75	16.627
609.08	15.795
609.41	16.497
609.75	16.230
610.08	16.375
610.41	15.894
610.74	15.651
611.07	16.124
611.41	16.191
611.74	16.684
612.07	15.418
612.40	16.958
612.73	16.045
613.07	15.354
613.40	16.849
613.73	15.669
614.06	15.526
614.39	15.962
614.72	16.134
615.06	15.419
615.39	15.775
615.72	15.554
616.05	16.313
616.38	15.157
616.71	16.269
617.05	16.183
617.38	15.965
617.71	15.660
618.04	16.698
618.37	17.402
618.70	16.700
619.03	17.014
619.36	16.787
619.69	17.210
620.03	16.801
620.36	16.166
620.69	16.417
621.02	15.979
621.35	17.095
621.68	16.667
622.01	15.750
622.34	16.520
622.67	16.640
623.00	15.850
623.33	16.463
623.66	15.707
623.99	15.734
624.32	16.274
624.65	15.564
624.99	16.178
625.32	15.921
625.65	17.518
625.98	16.438
626.31	15.960
626.64	15.251
626.97	16.754
627.30	16.813
627.63	17.244
627.96	15.274
628.29	16.096
628.62	17.207
628.95	16.232
629.28	14.718
629.61	15.653
629.94	17.498
630.26	16.403
630.59	16.025
630.92	15.692
631.25	16.410
631.58	15.969
631.91	15.570
632.24	15.711
632.57	17.614
632.90	16.963
633.23	16.941
633.56	16.625
633.89	15.043
634.22	19.136
634.55	16.137
634.88	16.092
635.20	16.282
635.53	17.200
635.86	16.385
636.19	17.076
636.52	16.964
636.85	16.129
637.18	15.723
637.51	15.346
637.83	15.375
638.16	18.145
638.49	14.850
