SpectraSuite Data File
++++++++++++++++++++++++++++++++++++
Date: Fri May 15 20:06:51 PDT 2015
User: schluterlab
Dark Spectrum Present: Yes
Reference Spectrum Present: Yes
Number of Sampled Component Spectra: 1
Spectrometers: USB2E3373
Integration Time (usec): 3000 (USB2E3373)
Spectra Averaged: 3 (USB2E3373)
Boxcar Smoothing: 0 (USB2E3373)
Correct for Electrical Dark: No (USB2E3373)
Strobe/Lamp Enabled: No (USB2E3373)
Correct for Detector Non-linearity: No (USB2E3373)
Correct for Stray Light: No (USB2E3373)
Number of Pixels in Processed Spectrum: 2048
>>>>>Begin Processed Spectral Data<<<<<
178.53	0.000
178.91	0.000
179.29	125.000
179.67	0.000
180.04	-28.571
180.42	-150.000
180.80	-500.000
181.18	100.000
181.56	-150.000
181.94	150.000
182.31	800.000
182.69	20.000
183.07	-33.333
183.45	-220.000
183.83	66.667
184.20	-45.455
184.58	133.333
184.96	-50.000
185.34	-333.333
185.72	-50.000
186.09	46.154
186.47	-700.000
186.85	216.667
187.23	100.000
187.61	-600.000
187.98	-100.000
188.36	55.556
188.74	-200.000
189.12	11.765
189.49	-22.222
189.87	0.000
190.25	28.571
190.63	100.000
191.00	-166.667
191.38	5.263
191.76	-50.000
192.14	-25.000
192.51	400.000
192.89	0.000
193.27	0.000
193.65	-0.000
194.02	145.455
194.40	-10.000
194.78	-200.000
195.15	-75.000
195.53	-100.000
195.91	500.000
196.29	-225.000
196.66	76.923
197.04	100.000
197.42	33.333
197.79	-666.667
198.17	-76.923
198.55	1200.000
198.92	-333.333
199.30	-200.000
199.68	-180.000
200.05	-166.667
200.43	0.000
200.81	166.667
201.18	266.667
201.56	700.000
201.94	-850.000
202.31	100.000
202.69	60.000
203.07	225.000
203.44	-700.000
203.82	0.000
204.19	78.571
204.57	-166.667
204.95	75.000
205.32	0.000
205.70	42.857
206.08	-25.000
206.45	133.333
206.83	-7.143
207.20	-157.143
207.58	-800.000
207.96	-100.000
208.33	30.000
208.71	-175.000
209.08	-166.667
209.46	-800.000
209.84	-140.000
210.21	-1100.000
210.59	0.000
210.96	-133.333
211.34	-25.000
211.71	6.667
212.09	-142.857
212.46	-800.000
212.84	0.000
213.22	110.000
213.59	250.000
213.97	46.154
214.34	-9.091
214.72	-100.000
215.09	425.000
215.47	-53.846
215.84	0.000
216.22	-166.667
216.59	-50.000
216.97	-450.000
217.34	-75.000
217.72	-200.000
218.09	112.500
218.47	137.500
218.84	0.000
219.22	0.000
219.59	100.000
219.97	266.667
220.34	275.000
220.72	-57.143
221.09	-200.000
221.47	-150.000
221.84	-650.000
222.22	-850.000
222.59	81.818
222.97	33.333
223.34	-200.000
223.72	-42.857
224.09	-19.048
224.46	10.714
224.84	300.000
225.21	10.000
225.59	0.000
225.96	200.000
226.34	125.000
226.71	-71.429
227.08	-100.000
227.46	12.500
227.83	-450.000
228.21	77.778
228.58	27.273
228.95	-150.000
229.33	140.000
229.70	43.750
230.08	-87.500
230.45	-100.000
230.82	-14.286
231.20	53.333
231.57	-7.143
231.95	-57.143
232.32	-140.000
232.69	35.714
233.07	0.000
233.44	220.000
233.81	20.000
234.19	-55.556
234.56	0.000
234.93	450.000
235.31	75.000
235.68	-480.000
236.05	-53.846
236.43	-45.000
236.80	-5.882
237.17	12.500
237.55	0.000
237.92	-33.333
238.29	8.333
238.67	-20.000
239.04	14.706
239.41	-24.390
239.79	-6.667
240.16	2.439
240.53	-15.789
240.91	-17.391
241.28	-6.349
241.65	0.000
242.02	6.849
242.40	-3.333
242.77	-13.559
243.14	-12.121
243.51	-2.500
243.89	5.747
244.26	1.149
244.63	-3.571
245.00	-2.062
245.38	-6.186
245.75	-16.854
246.12	-2.586
246.49	-1.653
246.87	0.000
247.24	-5.882
247.61	-14.912
247.98	-5.691
248.36	-1.250
248.73	-1.316
249.10	-6.494
249.47	3.165
249.84	-4.575
250.22	1.765
250.59	-1.961
250.96	0.000
251.33	-12.209
251.70	-2.941
252.08	-0.508
252.45	-1.980
252.82	2.513
253.19	-0.922
253.56	-9.346
253.94	-0.450
254.31	-0.435
254.68	2.193
255.05	-0.787
255.42	4.367
255.79	-0.386
256.16	-0.389
256.54	1.119
256.91	-1.141
257.28	0.000
257.65	2.996
258.02	-2.128
258.39	2.357
258.76	-2.564
259.14	0.997
259.51	0.324
259.88	1.031
260.25	3.595
260.62	3.472
260.99	-3.390
261.36	0.000
261.73	-2.848
262.10	1.520
262.47	-0.920
262.85	-4.075
263.22	2.154
263.59	0.312
263.96	0.000
264.33	-2.121
264.70	-1.190
265.07	0.893
265.44	0.283
265.81	-0.282
266.18	-0.820
266.55	1.285
266.92	0.777
267.29	-0.783
267.66	-0.256
268.03	0.785
268.40	-1.828
268.77	0.802
269.14	2.878
269.51	2.828
269.88	0.000
270.25	-1.276
270.62	-1.707
270.99	-1.023
271.36	-0.489
271.73	1.174
272.10	-2.190
272.47	1.891
272.84	0.000
273.21	2.784
273.58	0.964
273.95	1.373
274.32	-1.155
274.69	-0.452
275.06	0.000
275.43	-0.454
275.80	0.662
276.17	-2.989
276.54	0.000
276.91	1.316
277.28	-2.183
277.65	0.207
278.02	-0.426
278.39	-0.875
278.76	0.629
279.13	-3.527
279.50	1.471
279.87	0.648
280.23	-3.011
280.60	2.534
280.97	0.606
281.34	-0.192
281.71	1.027
282.08	-1.636
282.45	-0.587
282.82	0.386
283.19	0.387
283.56	1.927
283.92	-1.708
284.29	0.000
284.66	-0.194
285.03	-1.965
285.40	1.134
285.77	-2.285
286.14	1.083
286.51	0.185
286.87	-2.742
287.24	-0.737
287.61	-1.411
287.98	1.930
288.35	0.347
288.72	1.401
289.08	0.521
289.45	0.000
289.82	0.874
290.19	-0.683
290.56	-1.201
290.93	1.010
291.29	0.770
291.66	0.630
292.03	-0.159
292.40	0.161
292.77	-1.435
293.13	-3.247
293.50	-1.214
293.87	0.305
294.24	0.773
294.60	0.149
294.97	-0.298
295.34	-0.767
295.71	-2.086
296.08	-1.196
296.44	-1.565
296.81	1.111
297.18	0.435
297.55	1.626
297.91	1.644
298.28	1.583
298.65	0.678
299.02	0.135
299.38	-1.505
299.75	0.552
300.12	1.047
300.48	-2.240
300.85	0.380
301.22	-0.909
301.59	-0.395
301.95	0.506
302.32	2.075
302.69	0.622
303.05	-0.990
303.42	-0.249
303.79	1.168
304.15	0.597
304.52	-0.832
304.89	0.351
305.25	0.000
305.62	-0.583
305.99	0.702
306.35	-0.694
306.72	-1.125
307.09	0.114
307.45	1.033
307.82	0.231
308.19	0.348
308.55	-0.436
308.92	1.525
309.29	0.000
309.65	0.215
310.02	-0.660
310.38	-0.220
310.75	-0.437
311.12	0.323
311.48	-0.212
311.85	0.000
312.22	0.105
312.58	0.743
312.95	-0.427
313.31	-1.139
313.68	-1.361
314.05	-0.714
314.41	0.309
314.78	-0.103
315.14	0.617
315.51	0.414
315.87	-0.307
316.24	1.618
316.61	1.280
316.97	0.794
317.34	-0.098
317.70	0.000
318.07	-0.192
318.43	0.294
318.80	-0.284
319.16	0.781
319.53	1.614
319.89	0.197
320.26	-0.101
320.62	0.401
320.99	-1.253
321.35	0.719
321.72	-0.104
322.08	0.302
322.45	0.305
322.81	1.081
323.18	-0.098
323.54	0.386
323.91	0.389
324.27	0.000
324.64	0.843
325.00	0.912
325.37	1.469
325.73	0.000
326.10	0.182
326.46	0.807
326.83	1.137
327.19	1.395
327.56	1.390
327.92	0.880
328.29	0.625
328.65	0.943
329.01	0.919
329.38	0.829
329.74	0.189
330.11	1.576
330.47	0.093
330.84	-0.288
331.20	1.616
331.56	-0.185
331.93	1.187
332.29	1.283
332.66	1.176
333.02	0.651
333.38	0.000
333.75	1.465
334.11	0.179
334.48	1.088
334.84	0.549
335.20	1.464
335.57	0.363
335.93	0.090
336.29	0.552
336.66	-0.091
337.02	0.000
337.38	1.019
337.75	-0.273
338.11	1.713
338.47	0.912
338.84	0.647
339.20	0.914
339.56	1.101
339.93	1.880
340.29	1.101
340.65	1.613
341.02	0.887
341.38	0.885
341.74	0.353
342.11	0.260
342.47	-0.089
342.83	1.644
343.20	0.958
343.56	0.000
343.92	0.886
344.28	1.452
344.65	0.604
345.01	0.173
345.37	2.271
345.73	2.176
346.10	0.949
346.46	1.177
346.82	1.309
347.19	0.333
347.55	1.086
347.91	1.133
348.27	0.808
348.63	0.681
349.00	0.820
349.36	0.000
349.72	1.327
350.08	1.475
350.45	2.075
350.81	0.581
351.17	1.221
351.53	1.551
351.89	1.569
352.26	0.800
352.62	0.887
352.98	1.124
353.34	1.288
353.70	2.023
354.07	0.323
354.43	1.521
354.79	0.908
355.15	1.905
355.51	1.028
355.87	1.942
356.24	1.060
356.60	0.808
356.96	1.270
357.32	0.799
357.68	1.095
358.04	0.404
358.40	0.884
358.77	1.276
359.13	0.641
359.49	0.770
359.85	1.248
360.21	0.877
360.57	1.071
360.93	0.983
361.29	0.453
361.66	1.176
362.02	1.894
362.38	1.676
362.74	0.454
363.10	0.752
363.46	0.890
363.82	2.329
364.18	1.328
364.54	0.956
364.90	0.932
365.26	1.310
365.62	1.825
365.98	0.660
366.35	1.602
366.71	0.665
367.07	0.581
367.43	0.431
367.79	0.495
368.15	1.292
368.51	1.092
368.87	0.790
369.23	1.300
369.59	0.948
369.95	1.100
370.31	1.301
370.67	0.970
371.03	0.597
371.39	0.729
371.75	1.026
372.11	2.354
372.47	1.183
372.83	1.278
373.19	1.783
373.55	1.011
373.91	1.944
374.27	0.709
374.63	1.220
374.99	1.631
375.35	1.393
375.71	1.608
376.07	1.966
376.42	1.293
376.78	1.812
377.14	1.219
377.50	0.996
377.86	2.142
378.22	1.340
378.58	0.833
378.94	1.134
379.30	1.622
379.66	1.755
380.02	1.410
380.38	1.461
380.74	1.376
381.09	2.025
381.45	0.979
381.81	1.604
382.17	2.792
382.53	1.624
382.89	1.004
383.25	2.178
383.61	2.317
383.97	1.079
384.32	1.001
384.68	1.858
385.04	1.348
385.40	1.369
385.76	2.201
386.12	2.264
386.48	2.043
386.83	2.093
387.19	2.320
387.55	1.882
387.91	1.222
388.27	2.381
388.62	1.510
388.98	1.842
389.34	1.811
389.70	1.740
390.06	1.888
390.42	1.813
390.77	1.700
391.13	2.144
391.49	1.940
391.85	1.949
392.20	2.009
392.56	1.653
392.92	2.231
393.28	2.241
393.64	1.982
393.99	3.260
394.35	1.834
394.71	2.427
395.07	1.823
395.42	2.489
395.78	2.085
396.14	3.216
396.50	2.600
396.85	1.996
397.21	2.820
397.57	2.194
397.92	2.576
398.28	2.299
398.64	2.169
399.00	3.047
399.35	1.524
399.71	2.814
400.07	2.842
400.42	2.693
400.78	3.001
401.14	2.359
401.49	2.978
401.85	2.681
402.21	2.590
402.57	2.938
402.92	2.133
403.28	3.133
403.63	2.585
403.99	2.041
404.35	2.623
404.70	2.679
405.06	2.879
405.42	3.170
405.77	1.801
406.13	2.212
406.49	2.664
406.84	2.506
407.20	2.709
407.55	2.704
407.91	2.473
408.27	2.549
408.62	3.200
408.98	3.019
409.34	2.850
409.69	2.196
410.05	2.833
410.40	2.284
410.76	3.317
411.11	3.250
411.47	3.156
411.83	2.072
412.18	2.381
412.54	2.809
412.89	2.956
413.25	3.189
413.60	2.671
413.96	2.945
414.31	3.537
414.67	2.758
415.03	2.197
415.38	2.285
415.74	2.932
416.09	3.070
416.45	3.444
416.80	3.437
417.16	2.901
417.51	2.998
417.87	2.803
418.22	3.497
418.58	3.211
418.93	3.323
419.29	3.265
419.64	2.139
420.00	3.841
420.35	3.642
420.71	4.435
421.06	3.867
421.42	3.606
421.77	3.353
422.12	3.065
422.48	3.736
422.83	3.538
423.19	3.837
423.54	2.587
423.90	3.416
424.25	3.674
424.61	3.427
424.96	3.775
425.31	3.986
425.67	3.462
426.02	4.005
426.38	2.880
426.73	3.571
427.09	3.861
427.44	4.059
427.79	3.005
428.15	3.459
428.50	3.937
428.85	3.071
429.21	4.188
429.56	3.827
429.92	4.468
430.27	3.910
430.62	3.555
430.98	3.344
431.33	4.101
431.68	3.768
432.04	3.689
432.39	3.594
432.74	3.367
433.10	4.195
433.45	3.226
433.80	4.005
434.16	2.604
434.51	3.280
434.86	4.181
435.22	3.870
435.57	3.868
435.92	3.533
436.28	3.518
436.63	3.879
436.98	3.244
437.34	3.448
437.69	3.876
438.04	4.387
438.39	3.421
438.75	3.279
439.10	3.848
439.45	3.895
439.81	3.731
440.16	4.038
440.51	4.358
440.86	4.350
441.22	4.412
441.57	3.974
441.92	4.302
442.27	3.825
442.63	4.657
442.98	4.767
443.33	4.229
443.68	4.297
444.03	4.372
444.39	4.820
444.74	4.404
445.09	3.786
445.44	4.957
445.79	4.951
446.15	4.515
446.50	4.160
446.85	4.623
447.20	5.266
447.55	5.525
447.91	4.174
448.26	5.350
448.61	4.951
448.96	4.819
449.31	4.566
449.66	4.472
450.02	4.849
450.37	4.564
450.72	4.238
451.07	5.190
451.42	4.994
451.77	5.124
452.12	4.187
452.47	4.057
452.83	5.241
453.18	4.681
453.53	5.373
453.88	5.525
454.23	5.224
454.58	5.101
454.93	5.541
455.28	4.063
455.63	5.208
455.98	4.991
456.34	4.470
456.69	4.956
457.04	5.671
457.39	4.557
457.74	4.958
458.09	5.180
458.44	4.623
458.79	4.986
459.14	5.320
459.49	5.731
459.84	5.415
460.19	4.794
460.54	5.685
460.89	5.739
461.24	5.652
461.59	5.523
461.94	5.031
462.29	5.790
462.64	5.847
462.99	5.687
463.34	4.798
463.69	5.470
464.04	5.145
464.39	4.791
464.74	5.337
465.09	5.802
465.44	5.482
465.79	5.385
466.14	5.530
466.49	5.118
466.84	5.116
467.19	5.820
467.54	6.066
467.89	5.370
468.24	4.866
468.59	5.905
468.94	5.460
469.29	5.967
469.64	5.878
469.99	6.587
470.34	4.369
470.68	5.518
471.03	6.157
471.38	5.777
471.73	5.392
472.08	5.360
472.43	4.497
472.78	5.346
473.13	5.442
473.48	5.668
473.83	5.417
474.17	6.218
474.52	6.126
474.87	5.697
475.22	5.003
475.57	5.025
475.92	5.924
476.27	6.345
476.61	4.803
476.96	5.521
477.31	6.220
477.66	5.899
478.01	4.997
478.36	5.229
478.70	5.818
479.05	6.099
479.40	5.405
479.75	5.266
480.10	5.479
480.45	5.650
480.79	5.639
481.14	5.789
481.49	4.926
481.84	5.550
482.19	4.537
482.53	5.276
482.88	5.489
483.23	5.038
483.58	5.000
483.92	4.840
484.27	5.287
484.62	5.065
484.97	4.851
485.31	5.383
485.66	4.836
486.01	5.323
486.36	5.258
486.70	5.333
487.05	5.204
487.40	5.222
487.75	5.296
488.09	5.099
488.44	5.055
488.79	5.192
489.13	5.569
489.48	5.430
489.83	4.978
490.17	4.989
490.52	4.988
490.87	5.646
491.22	5.396
491.56	5.645
491.91	5.115
492.26	5.591
492.60	5.134
492.95	6.444
493.30	5.423
493.64	4.961
493.99	6.522
494.34	5.194
494.68	5.619
495.03	4.720
495.37	5.348
495.72	6.058
496.07	6.000
496.41	5.660
496.76	5.389
497.11	5.030
497.45	5.680
497.80	5.802
498.14	5.017
498.49	5.637
498.84	5.938
499.18	5.572
499.53	5.556
499.87	5.447
500.22	5.193
500.56	6.152
500.91	4.970
501.26	4.894
501.60	5.165
501.95	5.822
502.29	5.666
502.64	6.033
502.98	5.377
503.33	4.995
503.67	5.349
504.02	5.327
504.36	6.284
504.71	5.505
505.06	5.939
505.40	5.533
505.75	5.155
506.09	5.778
506.44	5.801
506.78	5.612
507.13	5.429
507.47	5.587
507.82	5.128
508.16	5.441
508.51	5.037
508.85	5.338
509.19	4.737
509.54	5.040
509.88	4.962
510.23	5.110
510.57	5.826
510.92	5.384
511.26	5.183
511.61	5.336
511.95	6.301
512.30	5.820
512.64	5.620
512.98	5.727
513.33	6.379
513.67	5.230
514.02	5.664
514.36	6.000
514.70	6.876
515.05	6.228
515.39	5.136
515.74	6.467
516.08	5.619
516.42	6.125
516.77	5.851
517.11	5.045
517.46	6.104
517.80	6.079
518.14	5.144
518.49	5.829
518.83	5.772
519.17	5.397
519.52	5.625
519.86	5.282
520.20	5.832
520.55	5.629
520.89	6.775
521.23	5.890
521.58	6.309
521.92	5.641
522.26	5.791
522.61	6.039
522.95	5.629
523.29	5.972
523.64	6.417
523.98	6.675
524.32	5.412
524.66	5.570
525.01	6.688
525.35	6.675
525.69	5.253
526.04	4.960
526.38	6.809
526.72	5.690
527.06	6.226
527.41	6.332
527.75	5.697
528.09	4.917
528.43	6.685
528.78	5.347
529.12	5.935
529.46	5.848
529.80	6.206
530.15	6.205
530.49	5.993
530.83	5.609
531.17	5.843
531.51	6.293
531.86	5.370
532.20	5.428
532.54	5.718
532.88	6.502
533.22	6.048
533.57	5.767
533.91	5.222
534.25	6.641
534.59	5.131
534.93	5.853
535.27	6.091
535.62	6.481
535.96	6.915
536.30	6.926
536.64	5.582
536.98	4.948
537.32	6.259
537.66	6.241
538.01	5.734
538.35	6.033
538.69	5.726
539.03	4.990
539.37	6.124
539.71	4.772
540.05	6.517
540.39	7.064
540.73	5.997
541.07	6.285
541.42	6.048
541.76	6.813
542.10	5.024
542.44	5.698
542.78	4.336
543.12	4.945
543.46	5.702
543.80	6.593
544.14	5.007
544.48	5.530
544.82	5.947
545.16	5.943
545.50	6.742
545.84	6.091
546.18	5.248
546.52	6.273
546.86	5.895
547.20	5.866
547.54	5.088
547.88	5.027
548.22	5.786
548.56	5.277
548.90	5.391
549.24	5.716
549.58	6.559
549.92	5.504
550.26	4.689
550.60	6.617
550.94	5.302
551.28	5.641
551.62	6.769
551.96	5.263
552.30	5.775
552.64	4.725
552.98	5.696
553.32	4.922
553.66	4.717
554.00	6.423
554.34	5.687
554.68	6.563
555.02	5.655
555.36	6.283
555.69	5.641
556.03	5.211
556.37	5.480
556.71	5.993
557.05	6.711
557.39	5.279
557.73	5.547
558.07	5.732
558.41	4.977
558.75	5.534
559.08	6.304
559.42	5.794
559.76	5.444
560.10	5.428
560.44	6.255
560.78	6.224
561.12	5.148
561.45	6.325
561.79	5.322
562.13	6.033
562.47	5.612
562.81	5.836
563.15	6.347
563.48	5.941
563.82	6.177
564.16	5.710
564.50	5.338
564.84	6.493
565.17	4.829
565.51	5.123
565.85	6.173
566.19	5.836
566.52	5.965
566.86	6.427
567.20	5.915
567.54	5.535
567.88	5.272
568.21	5.826
568.55	4.674
568.89	5.185
569.23	5.441
569.56	5.035
569.90	5.319
570.24	5.396
570.57	5.236
570.91	5.298
571.25	5.097
571.59	5.419
571.92	5.215
572.26	4.861
572.60	5.271
572.93	5.271
573.27	4.984
573.61	5.012
573.95	5.216
574.28	4.899
574.62	5.009
574.96	5.036
575.29	4.821
575.63	5.027
575.97	4.852
576.30	4.836
576.64	5.139
576.98	5.097
577.31	4.964
577.65	5.138
577.98	5.114
578.32	5.005
578.66	4.728
578.99	4.726
579.33	4.846
579.67	5.097
580.00	5.089
580.34	4.900
580.67	4.995
581.01	4.755
581.35	4.996
581.68	4.940
582.02	4.827
582.35	4.754
582.69	4.831
583.02	4.785
583.36	5.063
583.70	5.426
584.03	4.810
584.37	5.477
584.70	5.027
585.04	4.922
585.37	5.356
585.71	5.283
586.04	4.841
586.38	4.561
586.72	5.337
587.05	5.142
587.39	5.172
587.72	5.139
588.06	5.093
588.39	5.127
588.73	5.311
589.06	5.675
589.40	5.531
589.73	5.221
590.07	4.758
590.40	5.805
590.73	4.901
591.07	5.047
591.40	5.031
591.74	5.068
592.07	5.844
592.41	5.830
592.74	5.337
593.08	4.960
593.41	5.173
593.75	4.939
594.08	5.012
594.41	5.204
594.75	5.191
595.08	5.184
595.42	5.300
595.75	5.483
596.09	5.004
596.42	4.878
596.75	6.039
597.09	5.285
597.42	5.646
597.75	5.268
598.09	5.206
598.42	4.964
598.76	4.805
599.09	5.569
599.42	4.737
599.76	5.229
600.09	4.864
600.42	4.928
600.76	4.866
601.09	5.000
601.42	5.014
601.76	5.597
602.09	5.198
602.42	5.687
602.76	5.433
603.09	5.191
603.42	5.602
603.76	5.121
604.09	4.982
604.42	5.330
604.76	5.696
605.09	5.850
605.42	5.102
605.75	5.035
606.09	5.563
606.42	5.171
606.75	5.455
607.09	5.714
607.42	5.095
607.75	4.885
608.08	4.492
608.42	5.802
608.75	5.108
609.08	4.833
609.41	4.772
609.75	5.091
610.08	5.042
610.41	4.879
610.74	5.266
611.07	5.220
611.41	4.722
611.74	5.597
612.07	5.086
612.40	5.142
612.73	5.537
613.07	5.118
613.40	5.197
613.73	5.316
614.06	5.565
614.39	5.471
614.72	5.154
615.06	5.028
615.39	5.568
615.72	4.682
616.05	5.140
616.38	4.387
616.71	4.404
617.05	4.756
617.38	5.908
617.71	4.780
618.04	5.397
618.37	6.242
618.70	4.884
619.03	6.042
619.36	5.065
619.69	5.383
620.03	5.332
620.36	5.222
620.69	5.139
621.02	5.046
621.35	5.394
621.68	6.293
622.01	5.167
622.34	5.906
622.67	6.309
623.00	5.896
623.33	5.869
623.66	5.385
623.99	5.825
624.32	5.551
624.65	4.511
624.99	5.117
625.32	5.838
625.65	5.499
625.98	5.560
626.31	4.239
626.64	5.286
626.97	6.719
627.30	5.779
627.63	6.153
627.96	4.313
628.29	5.828
628.62	6.293
628.95	6.012
629.28	5.242
629.61	4.387
629.94	6.061
630.26	6.423
630.59	6.660
630.92	5.231
631.25	5.744
631.58	4.736
631.91	3.509
632.24	5.849
632.57	5.455
632.90	4.508
633.23	5.647
633.56	6.549
633.89	4.809
634.22	6.173
634.55	5.210
634.88	6.130
635.20	3.718
635.53	5.467
635.86	4.291
636.19	6.468
636.52	5.230
636.85	4.094
637.18	5.409
637.51	6.415
637.83	6.176
638.16	6.003
638.49	5.450
638.82	6.974
639.15	5.834
639.48	5.915
639.81	5.858
640.13	5.772
640.46	4.956
640.79	5.449
641.12	5.908
641.45	5.405
641.77	4.889
642.10	6.793
642.43	5.305
642.76	6.106
643.09	5.654
643.41	6.472
643.74	6.260
644.07	5.747
644.40	6.926
644.73	7.005
645.05	7.047
645.38	4.233
645.71	5.319
646.04	4.668
646.36	7.092
646.69	8.094
647.02	7.372
647.35	7.463
647.67	5.119
648.00	8.209
648.33	6.655
648.66	5.424
648.98	4.355
649.31	3.471
649.64	6.279
649.96	3.566
650.29	6.985
650.62	5.983
650.94	5.556
651.27	4.469
651.60	4.865
651.92	5.420
652.25	5.151
652.58	4.833
652.90	7.547
653.23	4.706
653.56	5.415
653.88	4.811
654.21	3.853
654.54	5.263
654.86	6.452
655.19	5.409
655.52	5.650
655.84	4.326
656.17	4.743
656.49	6.395
656.82	6.806
