SpectraSuite Data File
++++++++++++++++++++++++++++++++++++
Date: Fri May 15 17:28:22 PDT 2015
User: schluterlab
Dark Spectrum Present: Yes
Reference Spectrum Present: Yes
Number of Sampled Component Spectra: 1
Spectrometers: USB2E3373
Integration Time (usec): 3000 (USB2E3373)
Spectra Averaged: 3 (USB2E3373)
Boxcar Smoothing: 0 (USB2E3373)
Correct for Electrical Dark: No (USB2E3373)
Strobe/Lamp Enabled: No (USB2E3373)
Correct for Detector Non-linearity: No (USB2E3373)
Correct for Stray Light: No (USB2E3373)
Number of Pixels in Processed Spectrum: 2048
>>>>>Begin Processed Spectral Data<<<<<
178.53	0.000
178.91	0.000
179.29	187.500
179.67	-450.000
180.04	-28.571
180.42	25.000
180.80	-100.000
181.18	-166.667
181.56	-50.000
181.94	700.000
182.31	200.000
182.69	20.000
183.07	-200.000
183.45	-60.000
183.83	200.000
184.20	18.182
184.58	88.889
184.96	-50.000
185.34	-166.667
185.72	200.000
186.09	46.154
186.47	-1700.000
186.85	-16.667
187.23	177.778
187.61	-300.000
187.98	-366.667
188.36	22.222
188.74	-100.000
189.12	5.882
189.49	88.889
189.87	0.000
190.25	107.143
190.63	500.000
191.00	-100.000
191.38	21.053
191.76	550.000
192.14	-175.000
192.51	200.000
192.89	-22.222
193.27	-157.143
193.65	100.000
194.02	163.636
194.40	-20.000
194.78	-50.000
195.15	58.333
195.53	-112.500
195.91	250.000
196.29	175.000
196.66	53.846
197.04	-42.857
197.42	22.222
197.79	-366.667
198.17	-38.462
198.55	1200.000
198.92	-166.667
199.30	-700.000
199.68	-60.000
200.05	-400.000
200.43	0.000
200.81	133.333
201.18	-300.000
201.56	1400.000
201.94	-200.000
202.31	33.333
202.69	-180.000
203.07	150.000
203.44	300.000
203.82	0.000
204.19	14.286
204.57	0.000
204.95	50.000
205.32	-10.000
205.70	-28.571
206.08	-50.000
206.45	222.222
206.83	107.143
207.20	-100.000
207.58	-600.000
207.96	-200.000
208.33	-100.000
208.71	50.000
209.08	-200.000
209.46	-200.000
209.84	60.000
210.21	-1300.000
210.59	114.286
210.96	150.000
211.34	100.000
211.71	93.333
212.09	-200.000
212.46	-1600.000
212.84	0.000
213.22	140.000
213.59	300.000
213.97	53.846
214.34	0.000
214.72	-66.667
215.09	525.000
215.47	23.077
215.84	-18.182
216.22	-233.333
216.59	-87.500
216.97	-200.000
217.34	150.000
217.72	-140.000
218.09	62.500
218.47	75.000
218.84	-500.000
219.22	-77.778
219.59	-40.000
219.97	366.667
220.34	-25.000
220.72	185.714
221.09	-150.000
221.47	-150.000
221.84	-50.000
222.22	-600.000
222.59	72.727
222.97	41.667
223.34	-233.333
223.72	64.286
224.09	9.524
224.46	3.571
224.84	-0.000
225.21	-10.000
225.59	53.333
225.96	-200.000
226.34	250.000
226.71	-128.571
227.08	-50.000
227.46	125.000
227.83	-350.000
228.21	166.667
228.58	9.091
228.95	-75.000
229.33	80.000
229.70	56.250
230.08	12.500
230.45	-28.571
230.82	157.143
231.20	-6.667
231.57	21.429
231.95	42.857
232.32	0.000
232.69	71.429
233.07	66.667
233.44	0.000
233.81	-60.000
234.19	-33.333
234.56	52.941
234.93	100.000
235.31	425.000
235.68	-80.000
236.05	-15.385
236.43	30.000
236.80	76.471
237.17	50.000
237.55	75.000
237.92	0.000
238.29	19.444
238.67	53.333
239.04	8.824
239.41	0.000
239.79	33.333
240.16	58.537
240.53	42.105
240.91	30.435
241.28	46.032
241.65	50.000
242.02	53.425
242.40	41.667
242.77	33.898
243.14	43.939
243.51	46.250
243.89	49.425
244.26	43.678
244.63	40.476
245.00	40.206
245.38	45.361
245.75	32.584
246.12	38.793
246.49	42.149
246.87	56.731
247.24	43.697
247.61	28.947
247.98	43.089
248.36	35.625
248.73	44.737
249.10	39.610
249.47	36.076
249.84	41.830
250.22	42.941
250.59	52.941
250.96	43.662
251.33	39.535
251.70	49.412
252.08	38.579
252.45	35.644
252.82	44.724
253.19	42.857
253.56	41.589
253.94	37.838
254.31	46.957
254.68	42.105
255.05	42.520
255.42	41.048
255.79	39.382
256.16	40.078
256.54	44.403
256.91	43.726
257.28	41.264
257.65	41.948
258.02	42.199
258.39	42.088
258.76	38.462
259.14	41.528
259.51	39.806
259.88	43.299
260.25	38.562
260.62	44.444
260.99	37.288
261.36	39.041
261.73	40.190
262.10	44.985
262.47	39.264
262.85	41.066
263.22	40.615
263.59	42.679
263.96	41.304
264.33	43.636
264.70	40.476
265.07	41.964
265.44	42.776
265.81	42.090
266.18	37.432
266.55	39.332
266.92	38.860
267.29	41.253
267.66	41.176
268.03	39.267
268.40	39.948
268.77	43.316
269.14	41.966
269.51	40.617
269.88	36.908
270.25	38.776
270.62	38.780
270.99	39.386
271.36	35.452
271.73	37.324
272.10	38.443
272.47	40.426
272.84	37.129
273.21	40.139
273.58	39.518
273.95	37.757
274.32	41.339
274.69	39.140
275.06	37.723
275.43	39.229
275.80	38.190
276.17	35.632
276.54	38.972
276.91	38.596
277.28	38.646
277.65	37.190
278.02	35.957
278.39	39.168
278.76	36.897
279.13	36.722
279.50	37.815
279.87	38.013
280.23	38.280
280.60	36.062
280.97	37.576
281.34	37.500
281.71	39.220
282.08	33.947
282.45	33.659
282.82	36.873
283.19	35.397
283.56	37.187
283.92	34.156
284.29	35.385
284.66	33.527
285.03	35.756
285.40	34.405
285.77	31.986
286.14	33.213
286.51	33.026
286.87	34.735
287.24	35.727
287.61	30.688
287.98	34.386
288.35	31.716
288.72	34.151
289.08	33.681
289.45	35.501
289.82	31.469
290.19	31.741
290.56	32.933
290.93	32.323
291.29	28.505
291.66	32.913
292.03	30.144
292.40	32.581
292.77	31.579
293.13	28.247
293.50	28.680
293.87	27.939
294.24	28.439
294.60	28.912
294.97	28.423
295.34	28.834
295.71	29.359
296.08	29.297
296.44	26.031
296.81	25.694
297.18	27.536
297.55	28.320
297.91	25.753
298.28	28.100
298.65	25.237
299.02	25.741
299.38	22.435
299.75	25.241
300.12	25.262
300.48	24.111
300.85	25.222
301.22	24.675
301.59	24.868
301.95	25.696
302.32	25.292
302.69	23.507
303.05	24.134
303.42	24.533
303.79	24.533
304.15	24.492
304.52	23.781
304.89	22.924
305.25	23.123
305.62	21.704
305.99	23.041
306.35	23.121
306.72	22.272
307.09	24.059
307.45	22.962
307.82	22.222
308.19	24.623
308.55	22.465
308.92	22.658
309.29	22.346
309.65	23.466
310.02	22.992
310.38	22.832
310.75	22.295
311.12	22.282
311.48	21.527
311.85	22.932
312.22	22.363
312.58	23.992
312.95	21.238
313.31	22.050
313.68	22.513
314.05	22.245
314.41	23.196
314.78	21.959
315.14	24.152
315.51	22.878
315.87	22.951
316.24	24.065
316.61	23.130
316.97	22.917
317.34	22.852
317.70	22.945
318.07	22.788
318.43	23.922
318.80	22.159
319.16	24.902
319.53	23.267
319.89	23.720
320.26	24.899
320.62	24.072
320.99	24.739
321.35	24.460
321.72	25.337
322.08	24.471
322.45	24.569
322.81	25.049
323.18	23.454
323.54	24.903
323.91	25.511
324.27	26.074
324.64	26.311
325.00	27.099
325.37	28.007
325.73	27.380
326.10	27.248
326.46	27.713
326.83	28.434
327.19	27.899
327.56	27.368
327.92	28.169
328.29	27.500
328.65	28.962
329.01	29.136
329.38	29.032
329.74	27.290
330.11	29.379
330.47	28.015
330.84	29.808
331.20	32.795
331.56	30.278
331.93	30.868
332.29	31.622
332.66	29.864
333.02	29.833
333.38	30.156
333.75	31.410
334.11	30.170
334.48	31.550
334.84	31.502
335.20	32.022
335.57	30.644
335.93	31.617
336.29	31.400
336.66	30.972
337.02	31.320
337.38	31.481
337.75	32.273
338.11	32.552
338.47	32.299
338.84	31.885
339.20	30.804
339.56	31.009
339.93	32.140
340.29	30.734
340.65	32.437
341.02	30.762
341.38	31.770
341.74	32.420
342.11	30.416
342.47	32.295
342.83	33.131
343.20	31.359
343.56	31.304
343.92	31.798
344.28	31.939
344.65	32.038
345.01	31.720
345.37	31.623
345.73	32.552
346.10	31.493
346.46	30.278
346.82	30.933
347.19	29.593
347.55	31.662
347.91	30.744
348.27	31.528
348.63	31.005
349.00	31.091
349.36	31.837
349.72	31.841
350.08	30.902
350.45	31.285
350.81	30.399
351.17	30.212
351.53	32.163
351.89	31.379
352.26	31.520
352.62	30.484
352.98	29.719
353.34	31.965
353.70	31.958
354.07	30.887
354.43	30.584
354.79	30.388
355.15	31.667
355.51	31.883
355.87	31.068
356.24	30.669
356.60	30.396
356.96	31.190
357.32	30.351
357.68	30.023
358.04	30.937
358.40	29.662
358.77	32.217
359.13	30.504
359.49	29.045
359.85	30.811
360.21	30.941
360.57	30.222
360.93	31.089
361.29	29.909
361.66	31.583
362.02	31.288
362.38	31.607
362.74	30.583
363.10	31.678
363.46	30.986
363.82	31.255
364.18	31.218
364.54	30.588
364.90	30.466
365.26	31.004
365.62	31.971
365.98	31.891
366.35	32.484
366.71	32.077
367.07	31.277
367.43	30.769
367.79	30.954
368.15	31.228
368.51	30.954
368.87	30.725
369.23	30.758
369.59	31.633
369.95	30.499
370.31	31.720
370.67	31.343
371.03	31.292
371.39	30.562
371.75	31.648
372.11	31.384
372.47	31.805
372.83	31.157
373.19	31.669
373.55	31.408
373.91	32.325
374.27	31.184
374.63	32.376
374.99	31.986
375.35	30.780
375.71	32.727
376.07	32.093
376.42	31.701
376.78	32.282
377.14	31.347
377.50	32.736
377.86	32.262
378.22	31.653
378.58	32.051
378.94	31.947
379.30	32.813
379.66	32.915
380.02	32.250
380.38	32.562
380.74	31.897
381.09	32.883
381.45	32.049
381.81	32.572
382.17	32.551
382.53	33.604
382.89	33.584
383.25	32.856
383.61	33.049
383.97	32.762
384.32	32.708
384.68	33.746
385.04	32.169
385.40	31.861
385.76	34.025
386.12	33.829
386.48	34.355
386.83	34.179
387.19	32.723
387.55	34.316
387.91	33.802
388.27	32.357
388.62	33.606
388.98	33.272
389.34	32.917
389.70	34.307
390.06	32.851
390.42	32.642
390.77	33.159
391.13	33.985
391.49	33.312
391.85	33.138
392.20	32.831
392.56	32.041
392.92	33.823
393.28	33.373
393.64	32.132
393.99	34.107
394.35	33.270
394.71	33.078
395.07	32.621
395.42	32.362
395.78	33.029
396.14	31.967
396.50	33.481
396.85	33.162
397.21	33.145
397.57	33.417
397.92	33.313
398.28	33.103
398.64	32.651
399.00	33.070
399.35	32.393
399.71	32.453
400.07	34.583
400.42	32.681
400.78	32.578
401.14	32.789
401.49	33.413
401.85	32.907
402.21	34.036
402.57	32.500
402.92	33.187
403.28	33.333
403.63	33.228
403.99	32.270
404.35	32.667
404.70	32.202
405.06	32.080
405.42	32.256
405.77	32.074
406.13	32.538
406.49	31.912
406.84	33.802
407.20	32.992
407.55	32.131
407.91	32.152
408.27	31.294
408.62	32.308
408.98	32.039
409.34	32.776
409.69	32.752
410.05	30.603
410.40	32.531
410.76	32.087
411.11	32.062
411.47	32.018
411.83	31.638
412.18	32.239
412.54	31.648
412.89	31.096
413.25	32.010
413.60	32.484
413.96	31.595
414.31	32.622
414.67	30.789
415.03	31.425
415.38	31.527
415.74	32.313
416.09	31.679
416.45	32.343
416.80	31.659
417.16	32.390
417.51	32.778
417.87	30.965
418.22	32.383
418.58	31.973
418.93	32.226
419.29	32.138
419.64	31.627
420.00	32.494
420.35	30.985
420.71	31.956
421.06	31.492
421.42	32.151
421.77	32.948
422.12	32.463
422.48	32.431
422.83	32.425
423.19	32.562
423.54	30.982
423.90	32.097
424.25	31.975
424.61	32.925
424.96	32.114
425.31	33.160
425.67	32.218
426.02	32.332
426.38	33.375
426.73	33.717
427.09	33.165
427.44	33.647
427.79	34.060
428.15	32.039
428.50	33.010
428.85	32.924
429.21	33.390
429.56	34.016
429.92	32.922
430.27	34.135
430.62	33.560
430.98	33.227
431.33	33.754
431.68	32.705
432.04	32.979
432.39	31.489
432.74	32.471
433.10	33.678
433.45	33.572
433.80	32.850
434.16	33.518
434.51	34.247
434.86	33.101
435.22	33.034
435.57	33.936
435.92	32.275
436.28	32.618
436.63	33.371
436.98	33.314
437.34	32.789
437.69	33.572
438.04	32.764
438.39	33.537
438.75	33.880
439.10	33.729
439.45	33.719
439.81	33.578
440.16	34.382
440.51	34.328
440.86	34.260
441.22	33.597
441.57	34.106
441.92	34.470
442.27	34.590
442.63	34.582
442.98	33.199
443.33	33.500
443.68	34.377
444.03	34.675
444.39	33.743
444.74	34.058
445.09	34.911
445.44	34.188
445.79	35.224
446.15	33.700
446.50	33.167
446.85	34.378
447.20	33.994
447.55	34.096
447.91	34.292
448.26	35.231
448.61	34.370
448.96	34.022
449.31	33.988
449.66	34.146
450.02	34.227
450.37	34.143
450.72	33.047
451.07	34.873
451.42	33.895
451.77	34.659
452.12	33.313
452.47	33.419
452.83	33.687
453.18	34.345
453.53	34.387
453.88	34.183
454.23	34.112
454.58	34.824
454.93	34.278
455.28	34.286
455.63	35.090
455.98	33.734
456.34	33.972
456.69	34.498
457.04	34.405
457.39	34.022
457.74	33.011
458.09	33.608
458.44	34.406
458.79	33.782
459.14	34.554
459.49	34.746
459.84	34.518
460.19	33.374
460.54	35.024
460.89	34.545
461.24	34.534
461.59	35.511
461.94	33.082
462.29	34.801
462.64	33.821
462.99	33.582
463.34	33.866
463.69	34.234
464.04	35.048
464.39	35.537
464.74	34.785
465.09	35.309
465.44	35.372
465.79	34.070
466.14	36.032
466.49	34.273
466.84	33.908
467.19	36.233
467.54	34.100
467.89	33.165
468.24	35.036
468.59	35.048
468.94	33.905
469.29	35.082
469.64	33.424
469.99	34.828
470.34	31.945
470.68	33.259
471.03	33.121
471.38	33.096
471.73	34.104
472.08	34.328
472.43	33.758
472.78	33.722
473.13	33.946
473.48	34.332
473.83	33.499
474.17	34.974
474.52	32.738
474.87	34.667
475.22	34.045
475.57	34.444
475.92	34.120
476.27	35.215
476.61	35.069
476.96	32.962
477.31	33.910
477.66	34.101
478.01	34.643
478.36	34.641
478.70	34.965
479.05	35.385
479.40	33.704
479.75	34.984
480.10	34.921
480.45	34.950
480.79	35.549
481.14	35.246
481.49	34.483
481.84	35.087
482.19	34.238
482.53	34.484
482.88	34.272
483.23	35.173
483.58	34.104
483.92	34.366
484.27	33.911
484.62	34.962
484.97	34.370
485.31	35.621
485.66	37.399
486.01	39.423
486.36	38.842
486.70	38.108
487.05	37.346
487.40	36.531
487.75	35.268
488.09	33.560
488.44	33.116
488.79	32.723
489.13	34.295
489.48	33.348
489.83	33.498
490.17	32.989
490.52	34.088
490.87	33.873
491.22	33.381
491.56	33.918
491.91	33.078
492.26	33.836
492.60	33.397
492.95	34.284
493.30	33.708
493.64	34.430
493.99	33.961
494.34	33.107
494.68	34.000
495.03	34.355
495.37	33.121
495.72	33.821
496.07	33.561
496.41	34.245
496.76	34.546
497.11	33.256
497.45	33.747
497.80	33.905
498.14	32.141
498.49	33.672
498.84	33.134
499.18	34.086
499.53	34.425
499.87	33.268
500.22	33.234
500.56	33.888
500.91	34.337
501.26	33.613
501.60	34.137
501.95	34.692
502.29	34.625
502.64	34.170
502.98	34.731
503.33	32.949
503.67	33.590
504.02	33.969
504.36	33.548
504.71	32.424
505.06	33.065
505.40	34.264
505.75	33.144
506.09	33.097
506.44	34.548
506.78	34.235
507.13	33.195
507.47	32.585
507.82	33.013
508.16	32.699
508.51	33.631
508.85	33.019
509.19	31.985
509.54	33.137
509.88	31.661
510.23	32.975
510.57	33.725
510.92	31.450
511.26	31.697
511.61	33.058
511.95	32.329
512.30	31.984
512.64	32.165
512.98	31.499
513.33	32.680
513.67	30.586
514.02	33.524
514.36	33.314
514.70	32.401
515.05	32.667
515.39	31.818
515.74	32.455
516.08	31.680
516.42	33.157
516.77	32.592
517.11	31.691
517.46	32.196
517.80	32.598
518.14	31.904
518.49	30.469
518.83	32.139
519.17	31.292
519.52	30.432
519.86	31.753
520.20	31.531
520.55	31.207
520.89	30.991
521.23	30.906
521.58	31.735
521.92	30.769
522.26	30.319
522.61	30.714
522.95	32.185
523.29	31.321
523.64	31.512
523.98	31.367
524.32	30.799
524.66	30.794
525.01	31.234
525.35	30.136
525.69	30.976
526.04	30.026
526.38	32.555
526.72	30.804
527.06	30.026
527.41	31.794
527.75	30.630
528.09	30.565
528.43	32.411
528.78	30.759
529.12	31.161
529.46	31.644
529.80	31.729
530.15	31.683
530.49	31.044
530.83	31.464
531.17	29.953
531.51	31.669
531.86	30.523
532.20	30.132
532.54	30.837
532.88	31.280
533.22	31.855
533.57	32.634
533.91	31.005
534.25	33.659
534.59	31.559
534.93	31.466
535.27	30.711
535.62	32.016
535.96	32.420
536.30	31.926
536.64	32.460
536.98	31.359
537.32	32.148
537.66	31.557
538.01	31.958
538.35	30.999
538.69	31.691
539.03	31.100
539.37	32.032
539.71	32.515
540.05	31.908
540.39	31.371
540.73	31.172
541.07	31.906
541.42	31.653
541.76	32.003
542.10	31.934
542.44	31.897
542.78	30.833
543.12	31.319
543.46	31.919
543.80	32.824
544.14	31.308
544.48	32.512
544.82	31.647
545.16	33.333
545.50	32.243
545.84	32.932
546.18	32.128
546.52	32.156
546.86	32.135
547.20	31.330
547.54	31.095
547.88	33.152
548.22	32.544
548.56	32.256
548.90	32.749
549.24	31.267
549.58	31.664
549.92	29.664
550.26	30.916
550.60	30.706
550.94	31.964
551.28	30.603
551.62	31.154
551.96	31.955
552.30	32.529
552.64	31.805
552.98	31.646
553.32	31.883
553.66	32.293
554.00	32.190
554.34	32.422
554.68	30.015
555.02	31.622
555.36	31.414
555.69	30.769
556.03	31.478
556.37	31.459
556.71	31.625
557.05	32.364
557.39	30.632
557.73	30.810
558.07	31.976
558.41	30.781
558.75	29.774
559.08	30.969
559.42	30.317
559.76	31.465
560.10	31.422
560.44	32.316
560.78	31.748
561.12	32.581
561.45	33.099
561.79	32.213
562.13	31.796
562.47	31.583
562.81	31.268
563.15	31.664
563.48	31.471
563.82	32.876
564.16	33.217
564.50	32.838
564.84	32.262
565.17	32.126
565.51	34.904
565.85	34.088
566.19	32.891
566.52	33.512
566.86	34.062
567.20	33.624
567.54	33.881
567.88	35.677
568.21	34.898
568.55	34.565
568.89	37.064
569.23	37.025
569.56	37.347
569.90	38.977
570.24	38.370
570.57	38.509
570.91	38.376
571.25	38.178
571.59	38.493
571.92	37.867
572.26	37.832
572.60	37.426
572.93	36.398
573.27	36.897
573.61	37.619
573.95	37.985
574.28	38.189
574.62	38.241
574.96	38.020
575.29	37.860
575.63	36.927
575.97	37.625
576.30	37.757
576.64	37.510
576.98	38.198
577.31	38.363
577.65	39.725
577.98	40.046
578.32	39.562
578.66	38.448
578.99	37.693
579.33	37.247
579.67	37.144
580.00	37.848
580.34	37.338
580.67	37.364
581.01	37.944
581.35	38.867
581.68	39.697
582.02	40.191
582.35	39.666
582.69	39.346
583.02	38.667
583.36	38.396
583.70	37.487
584.03	37.726
584.37	37.013
584.70	37.445
585.04	37.332
585.37	38.329
585.71	38.484
586.04	38.452
586.38	38.063
586.72	37.303
587.05	38.330
587.39	38.748
587.72	38.819
588.06	37.725
588.39	37.824
588.73	37.302
589.06	37.280
589.40	36.675
589.73	36.473
590.07	36.480
590.40	37.190
590.73	37.232
591.07	35.157
591.40	35.619
591.74	36.606
592.07	36.735
592.41	37.279
592.74	37.356
593.08	38.037
593.41	38.748
593.75	38.077
594.08	37.315
594.41	36.681
594.75	37.405
595.08	36.966
595.42	37.247
595.75	37.664
596.09	37.334
596.42	36.751
596.75	36.279
597.09	35.216
597.42	35.998
597.75	36.693
598.09	35.672
598.42	35.379
598.76	37.066
599.09	37.700
599.42	37.022
599.76	37.472
600.09	36.689
600.42	37.339
600.76	36.404
601.09	36.565
601.42	36.389
601.76	35.768
602.09	36.056
602.42	36.352
602.76	36.290
603.09	36.462
603.42	38.211
603.76	36.774
604.09	35.966
604.42	36.337
604.76	36.716
605.09	36.060
605.42	35.982
605.75	36.559
606.09	36.773
606.42	36.405
606.75	36.147
607.09	35.824
607.42	35.401
607.75	35.924
608.08	35.804
608.42	36.455
608.75	35.759
609.08	35.426
609.41	35.584
609.75	36.038
610.08	36.345
610.41	34.686
610.74	35.592
611.07	34.677
611.41	35.911
611.74	35.874
612.07	34.154
612.40	34.792
612.73	34.746
613.07	34.308
613.40	35.175
613.73	34.359
614.06	35.671
614.39	34.349
614.72	35.126
615.06	34.078
615.39	34.716
615.72	34.553
616.05	34.860
616.38	33.504
616.71	33.823
617.05	34.589
617.38	33.564
617.71	32.704
618.04	33.651
618.37	34.048
618.70	33.597
619.03	33.889
619.36	32.272
619.69	33.359
620.03	34.259
620.36	32.976
620.69	33.119
621.02	32.492
621.35	32.614
621.68	31.973
622.01	33.667
622.34	32.003
622.67	31.782
623.00	32.695
623.33	33.079
623.66	33.433
623.99	32.451
624.32	33.308
624.65	32.180
624.99	33.484
625.32	31.842
625.65	32.286
625.98	33.280
626.31	32.170
626.64	32.322
626.97	30.628
627.30	30.911
627.63	30.589
627.96	31.896
628.29	30.342
628.62	30.973
628.95	30.160
629.28	30.645
629.61	30.907
629.94	32.160
630.26	29.545
630.59	32.466
630.92	30.359
631.25	29.949
631.58	30.176
631.91	29.605
632.24	29.587
632.57	30.568
632.90	27.165
633.23	28.706
633.56	28.338
